# File created by shivutils (I.Shivvers)
# 
# wl(A)   flm    er(optional)
3436.00   0.52443910   0.08370605
3438.00   0.54247767   0.08048817
3440.00   0.47369072   0.07934138
3442.00   0.51515973   0.07883362
3444.00   0.39145643   0.07837888
3446.00   0.48791444   0.08079898
3448.00   0.56954950   0.08352496
3450.00   0.50433362   0.08491869
3452.00   0.65381050   0.08771395
3454.00   0.45319527   0.08363225
3456.00   0.58401173   0.08492251
3458.00   0.36665800   0.08174406
3460.00   0.54165179   0.08324279
3462.00   0.67120308   0.08476578
3464.00   0.55519861   0.08175929
3466.00   0.65759754   0.08225982
3468.00   0.69770020   0.08423774
3470.00   0.74643230   0.08316007
3472.00   0.77904522   0.08512854
3474.00   0.75569779   0.08359457
3476.00   0.65002936   0.08448015
3478.00   0.77599692   0.09027255
3480.00   0.72771490   0.09133369
3482.00   0.69468427   0.08927830
3484.00   0.70491397   0.08867197
3486.00   0.66751182   0.08617938
3488.00   0.73495370   0.08638760
3490.00   0.62655562   0.08309343
3492.00   0.61335188   0.08070627
3494.00   0.70678997   0.08273025
3496.00   0.72578824   0.08134723
3498.00   0.68271947   0.08054861
3500.00   0.79758292   0.08150642
3502.00   0.58810478   0.07584234
3504.00   0.53341079   0.07611775
3506.00   0.64838445   0.07822446
3508.00   0.68934113   0.07953300
3510.00   0.80567646   0.08154185
3512.00   0.66474622   0.07681178
3514.00   0.59876859   0.07572462
3516.00   0.71642852   0.07664093
3518.00   0.39883506   0.07089274
3520.00   0.60029340   0.07442161
3522.00   0.66404784   0.07361633
3524.00   0.52052033   0.07125925
3526.00   0.57542288   0.07116412
3528.00   0.76533937   0.07511508
3530.00   0.59156799   0.07210492
3532.00   0.73987353   0.07430518
3534.00   0.61358309   0.07309464
3536.00   0.66336620   0.07347863
3538.00   0.74234706   0.07561429
3540.00   0.59539908   0.07664514
3542.00   0.57826602   0.07849718
3544.00   0.66288877   0.08023113
3546.00   0.72407234   0.07924011
3548.00   0.69985163   0.07743188
3550.00   0.63753790   0.07595073
3552.00   0.56498218   0.07490114
3554.00   0.74352711   0.07780465
3556.00   0.70240182   0.07691517
3558.00   0.70281076   0.07538638
3560.00   0.73182762   0.07333487
3562.00   0.67779750   0.07041601
3564.00   0.66670507   0.06991155
3566.00   0.58803964   0.06911359
3568.00   0.62218845   0.06922380
3570.00   0.55258554   0.06789702
3572.00   0.64113635   0.07053512
3574.00   0.64372927   0.06878924
3576.00   0.66527081   0.06918784
3578.00   0.76862049   0.06849417
3580.00   0.81953967   0.06828184
3582.00   0.70686543   0.06538860
3584.00   0.63037997   0.06184901
3586.00   0.65489596   0.06153315
3588.00   0.70011288   0.06407139
3590.00   0.68934131   0.06413312
3592.00   0.61031771   0.06130771
3594.00   0.61913252   0.05984357
3596.00   0.63980585   0.06023757
3598.00   0.65128189   0.05913388
3600.00   0.69954956   0.05944682
3602.00   0.60677904   0.05713760
3604.00   0.71713483   0.05879254
3606.00   0.58534408   0.05534521
3608.00   0.68413752   0.05787146
3610.00   0.68617284   0.05861743
3612.00   0.79061455   0.06429383
3614.00   0.65426081   0.06338758
3616.00   0.66648084   0.06116469
3618.00   0.62869525   0.05889590
3620.00   0.71604586   0.05920048
3622.00   0.63766694   0.05738484
3624.00   0.84595639   0.06046135
3626.00   0.76015490   0.05756638
3628.00   0.69361120   0.05994954
3630.00   0.68927449   0.06241410
3632.00   0.76185846   0.06189548
3634.00   0.68555135   0.05952080
3636.00   0.70552415   0.05934962
3638.00   0.68105745   0.05841114
3640.00   0.61668730   0.06045396
3642.00   0.68595070   0.06393237
3644.00   0.74822873   0.06498128
3646.00   0.63815069   0.07178804
3648.00   0.80819166   0.09742932
3650.00   0.70161664   0.10211614
3652.00   0.72877842   0.09014260
3654.00   0.72495943   0.08336817
3656.00   0.86304170   0.07289498
3658.00   0.72155058   0.06238730
3660.00   0.74792916   0.06809778
3662.00   0.78739524   0.07586954
3664.00   0.87441361   0.06985275
3666.00   0.72979981   0.05703292
3668.00   0.79132730   0.05414698
3670.00   0.72174776   0.05269680
3672.00   0.76319176   0.05168925
3674.00   0.74741626   0.05060457
3676.00   0.69473666   0.04990207
3678.00   0.69046903   0.04882009
3680.00   0.65683514   0.04867163
3682.00   0.73310006   0.04828759
3684.00   0.75199705   0.04818763
3686.00   0.69378245   0.04734325
3688.00   0.68010873   0.04748546
3690.00   0.78861451   0.04923011
3692.00   0.81043923   0.05028415
3694.00   0.69497186   0.04790221
3696.00   0.74694133   0.04821097
3698.00   0.71364731   0.04917066
3700.00   0.77913934   0.04973101
3702.00   0.72386104   0.04871904
3704.00   0.77238345   0.04910704
3706.00   0.66399664   0.04715473
3708.00   0.62616467   0.04593245
3710.00   0.83087444   0.04782912
3712.00   0.73150504   0.04639479
3714.00   0.66701669   0.04577588
3716.00   0.64412951   0.04511045
3718.00   0.75463766   0.04650474
3720.00   0.77552074   0.04631848
3722.00   0.74327028   0.04578784
3724.00   0.73136157   0.04494734
3726.00   0.78720808   0.04636485
3728.00   0.84060490   0.04690019
3730.00   0.72548258   0.04558746
3732.00   0.73592341   0.04626838
3734.00   0.75139636   0.04600695
3736.00   0.71965146   0.04629166
3738.00   0.72458434   0.04677949
3740.00   0.83668524   0.04845944
3742.00   0.81898451   0.04692480
3744.00   0.74665082   0.04484244
3746.00   0.60458785   0.04272998
3748.00   0.70704335   0.04341340
3750.00   0.74175441   0.04347739
3752.00   0.69411415   0.04318676
3754.00   0.63569623   0.04202174
3756.00   0.68240094   0.04246574
3758.00   0.70058233   0.04215863
3760.00   0.64503568   0.04088771
3762.00   0.72754985   0.04173570
3764.00   0.63943225   0.04028387
3766.00   0.63138705   0.03952758
3768.00   0.69585067   0.04034331
3770.00   0.66599941   0.04080613
3772.00   0.56152046   0.03943100
3774.00   0.63432306   0.03983910
3776.00   0.67551595   0.04003495
3778.00   0.62607044   0.03902153
3780.00   0.69857442   0.03997932
3782.00   0.66101456   0.03920797
3784.00   0.73006988   0.04003412
3786.00   0.64811331   0.03871352
3788.00   0.62955922   0.03890484
3790.00   0.64224046   0.04003683
3792.00   0.64096069   0.03939057
3794.00   0.63448864   0.03868650
3796.00   0.65660465   0.03771116
3798.00   0.68675113   0.03825943
3800.00   0.58988857   0.03768621
3802.00   0.62811691   0.03883335
3804.00   0.63291770   0.03820542
3806.00   0.69203281   0.03795440
3808.00   0.58171993   0.03655457
3810.00   0.68453115   0.03793635
3812.00   0.69007653   0.03824686
3814.00   0.66295087   0.03795237
3816.00   0.66654414   0.03790514
3818.00   0.65535134   0.03762854
3820.00   0.65697300   0.03771706
3822.00   0.63687962   0.03731019
3824.00   0.62002891   0.03654844
3826.00   0.61000049   0.03749840
3828.00   0.58311677   0.03887616
3830.00   0.62683499   0.03945356
3832.00   0.65464592   0.03917915
3834.00   0.57464403   0.03732164
3836.00   0.65011179   0.03790699
3838.00   0.60518676   0.03705113
3840.00   0.59801978   0.03707991
3842.00   0.53853399   0.03604630
3844.00   0.49317414   0.03473742
3846.00   0.46179038   0.03396726
3848.00   0.51746756   0.03391505
3850.00   0.55352676   0.03408996
3852.00   0.57924807   0.03438022
3854.00   0.53678769   0.03349617
3856.00   0.44116807   0.03181824
3858.00   0.47272241   0.03200058
3860.00   0.48985210   0.03234687
3862.00   0.45016563   0.03207230
3864.00   0.48569965   0.03260591
3866.00   0.44848418   0.03123568
3868.00   0.47756153   0.03124133
3870.00   0.50414050   0.03177465
3872.00   0.46704510   0.03304212
3874.00   0.51072848   0.03460627
3876.00   0.50034446   0.03276262
3878.00   0.41724956   0.03070230
3880.00   0.50277495   0.03107745
3882.00   0.49807316   0.03213808
3884.00   0.54429632   0.03193035
3886.00   0.67155421   0.03334529
3888.00   0.66355127   0.03279420
3890.00   0.53632993   0.03132755
3892.00   0.48872375   0.03113794
3894.00   0.49179047   0.03149933
3896.00   0.49481535   0.03180571
3898.00   0.58114254   0.03266779
3900.00   0.53668201   0.03255932
3902.00   0.58288527   0.03365587
3904.00   0.52016097   0.03596680
3906.00   0.57568127   0.04141519
3908.00   0.60577530   0.04338407
3910.00   0.58248675   0.04394640
3912.00   0.52167469   0.04279110
3914.00   0.64504242   0.04022126
3916.00   0.55369794   0.03625179
3918.00   0.62800843   0.03543918
3920.00   0.48875493   0.03252059
3922.00   0.52895302   0.03209043
3924.00   0.55145520   0.03244301
3926.00   0.55125767   0.03191547
3928.00   0.51165485   0.03116610
3930.00   0.46121794   0.03157869
3932.00   0.49506027   0.03438039
3934.00   0.48122692   0.03337676
3936.00   0.54222196   0.03145894
3938.00   0.58150065   0.03191378
3940.00   0.55025536   0.03252018
3942.00   0.57727790   0.03514720
3944.00   0.54304057   0.03569287
3946.00   0.59944099   0.03381157
3948.00   0.57859117   0.03230532
3950.00   0.53582513   0.03134366
3952.00   0.50935060   0.03054567
3954.00   0.43604678   0.02959898
3956.00   0.46223509   0.02974458
3958.00   0.49293259   0.03070258
3960.00   0.46665394   0.03377832
3962.00   0.48999479   0.03330541
3964.00   0.51191789   0.03017912
3966.00   0.51865512   0.02995554
3968.00   0.55436391   0.02989649
3970.00   0.54307771   0.02979488
3972.00   0.54133439   0.03062887
3974.00   0.57225901   0.03069522
3976.00   0.55555958   0.02975312
3978.00   0.54124588   0.02965502
3980.00   0.49163839   0.02941761
3982.00   0.54774749   0.02977472
3984.00   0.54271805   0.02928042
3986.00   0.57382572   0.02985239
3988.00   0.58855671   0.03049671
3990.00   0.58399814   0.03050265
3992.00   0.54686683   0.02956907
3994.00   0.48808959   0.03136277
3996.00   0.49941355   0.03349984
3998.00   0.57199842   0.03249848
4000.00   0.51258051   0.03004583
4002.00   0.61671019   0.03077370
4004.00   0.62891662   0.03062645
4006.00   0.65088904   0.03149605
4008.00   0.66724730   0.03265793
4010.00   0.70099217   0.03315297
4012.00   0.68317688   0.03288060
4014.00   0.64129722   0.03206724
4016.00   0.72947484   0.03333039
4018.00   0.77109528   0.03871012
4020.00   0.74729413   0.04280803
4022.00   0.78978753   0.04386672
4024.00   0.76037455   0.04193413
4026.00   0.79799896   0.03823708
4028.00   0.82351577   0.03640869
4030.00   0.79153466   0.03669906
4032.00   0.85167068   0.03624789
4034.00   0.89012879   0.03566373
4036.00   0.82135248   0.03485724
4038.00   0.84264290   0.03417124
4040.00   0.84991693   0.03434213
4042.00   0.84070438   0.03756046
4044.00   0.88765788   0.06449708
4046.00   0.87897289   0.08106059
4048.00   0.81760156   0.06297518
4050.00   0.85014009   0.04069130
4052.00   0.80765015   0.03768422
4054.00   0.82937062   0.03871102
4056.00   0.81064862   0.03662005
4058.00   0.84551352   0.03461574
4060.00   0.88483691   0.03398100
4062.00   0.85964793   0.03356362
4064.00   0.92175710   0.03440773
4066.00   0.92862022   0.03414644
4068.00   0.88882875   0.03351635
4070.00   0.87322485   0.03279432
4072.00   0.87673950   0.03240086
4074.00   0.87340325   0.03434141
4076.00   0.92693216   0.04099638
4078.00   0.88613850   0.04177821
4080.00   0.90424395   0.03832367
4082.00   0.90962583   0.03753466
4084.00   0.84391683   0.03601437
4086.00   0.93596721   0.03608310
4088.00   0.94958776   0.03434236
4090.00   0.96194786   0.03203288
4092.00   0.91971529   0.03155236
4094.00   0.93684179   0.03192545
4096.00   0.94840312   0.03181709
4098.00   0.87751257   0.03144954
4100.00   0.87427789   0.03123159
4102.00   0.78527421   0.02945255
4104.00   0.69579118   0.02826829
4106.00   0.93052739   0.03087789
4108.00   0.84850925   0.03039392
4110.00   0.92275614   0.03088347
4112.00   0.92786545   0.03078712
4114.00   0.94049108   0.03090838
4116.00   0.93813360   0.03094832
4118.00   0.92407882   0.03019561
4120.00   0.91672122   0.02961945
4122.00   0.93855411   0.03009149
4124.00   0.85351890   0.02968146
4126.00   0.87089556   0.03000602
4128.00   0.82345778   0.02968098
4130.00   0.87556744   0.03106977
4132.00   0.81622499   0.03229260
4134.00   0.79809350   0.03147108
4136.00   0.72368795   0.02930420
4138.00   0.66817528   0.02990266
4140.00   0.65905970   0.03086799
4142.00   0.70353484   0.02934314
4144.00   0.73602086   0.02825233
4146.00   0.85028028   0.02937341
4148.00   0.74091703   0.02861330
4150.00   0.86854219   0.03142459
4152.00   0.81254423   0.03281929
4154.00   0.81030297   0.03112590
4156.00   0.81478637   0.02977127
4158.00   0.79401147   0.02935773
4160.00   0.83582217   0.03022573
4162.00   0.81274748   0.03168988
4164.00   0.81859404   0.03411991
4166.00   0.81696665   0.03336524
4168.00   0.78094631   0.03033995
4170.00   0.83078557   0.03022704
4172.00   0.83227479   0.02951984
4174.00   0.77920663   0.02846229
4176.00   0.82345492   0.02948563
4178.00   0.85750186   0.03008994
4180.00   0.86707044   0.02960991
4182.00   0.88457394   0.02900667
4184.00   0.86203939   0.02885268
4186.00   0.86895937   0.02923060
4188.00   0.89205444   0.02923521
4190.00   0.93236786   0.02954314
4192.00   0.91239488   0.02938358
4194.00   0.94680512   0.02968795
4196.00   0.97574240   0.02938521
4198.00   0.92802989   0.02874059
4200.00   0.93188977   0.02891936
4202.00   0.88890529   0.02860886
4204.00   0.91860467   0.02930707
4206.00   0.92553091   0.02941010
4208.00   0.93997991   0.03000737
4210.00   0.92958874   0.03044802
4212.00   1.00959063   0.03069308
4214.00   0.98766416   0.03022162
4216.00   0.92341739   0.02972319
4218.00   0.95590770   0.02971107
4220.00   1.00540888   0.02985749
4222.00   1.00312221   0.02969849
4224.00   0.90170795   0.02913590
4226.00   0.95932132   0.02949798
4228.00   1.00822604   0.02989963
4230.00   0.98878139   0.03025473
4232.00   0.99199146   0.03084621
4234.00   0.97429341   0.03044950
4236.00   1.03522229   0.03145526
4238.00   0.96222067   0.03122153
4240.00   1.01563239   0.03032910
4242.00   1.03124952   0.02955361
4244.00   0.96874344   0.03269739
4246.00   0.97037113   0.03698035
4248.00   1.04129493   0.03499028
4250.00   1.03548932   0.03049000
4252.00   1.00945055   0.02969229
4254.00   1.02335072   0.02998665
4256.00   1.01907349   0.03034766
4258.00   0.98369634   0.02965363
4260.00   1.03427517   0.02983198
4262.00   0.96401417   0.02884827
4264.00   0.99437708   0.02893217
4266.00   0.98697096   0.02886068
4268.00   1.01415098   0.02900640
4270.00   0.99326342   0.02919181
4272.00   0.99443436   0.02926742
4274.00   0.96262795   0.02913743
4276.00   0.95979422   0.02920317
4278.00   0.92896354   0.02912677
4280.00   0.96239626   0.02946759
4282.00   0.94449562   0.02976109
4284.00   0.93501770   0.02926086
4286.00   0.96848249   0.02909594
4288.00   0.91256601   0.02880709
4290.00   0.99219632   0.02918938
4292.00   0.91188145   0.02893341
4294.00   1.00384235   0.02981052
4296.00   0.94107205   0.02920360
4298.00   0.92118800   0.02892118
4300.00   0.97310138   0.02923447
4302.00   0.93773252   0.02869305
4304.00   0.95659196   0.02940050
4306.00   0.94827545   0.02966027
4308.00   0.95134884   0.02952457
4310.00   0.93888265   0.02980074
4312.00   0.98573446   0.03341934
4314.00   0.98705584   0.03441436
4316.00   0.99519402   0.03156733
4318.00   0.98440146   0.03161486
4320.00   0.97263485   0.03324204
4322.00   0.93512285   0.03223980
4324.00   0.90684259   0.03176646
4326.00   0.95130765   0.03119586
4328.00   0.90458995   0.02938718
4330.00   0.95617765   0.02934829
4332.00   0.91701794   0.02915271
4334.00   0.93694508   0.02946892
4336.00   0.90371209   0.02998799
4338.00   0.94205177   0.03099085
4340.00   1.00245559   0.03138248
4342.00   0.97873777   0.03103209
4344.00   0.97091103   0.03195944
4346.00   0.95023787   0.03380695
4348.00   0.91318500   0.03383600
4350.00   0.89673752   0.03196117
4352.00   0.91735089   0.03166570
4354.00   0.91621381   0.03637312
4356.00   1.05669475   0.06998731
4358.00   0.83843404   0.08720613
4360.00   0.84295881   0.06542101
4362.00   0.85984814   0.03919939
4364.00   0.95073438   0.03455462
4366.00   0.92707556   0.03316426
4368.00   0.92131424   0.03243309
4370.00   0.86237180   0.03187334
4372.00   0.84849364   0.03294241
4374.00   0.80725777   0.03384389
4376.00   0.89304155   0.03284957
4378.00   0.84035122   0.03062267
4380.00   0.82831359   0.03036274
4382.00   0.83976072   0.03032948
4384.00   0.83805066   0.02966757
4386.00   0.83740288   0.02960345
4388.00   0.84450358   0.02964473
4390.00   0.82631361   0.02972532
4392.00   0.80307031   0.02964098
4394.00   0.78467488   0.02907254
4396.00   0.83958572   0.02934585
4398.00   0.84134746   0.03046336
4400.00   0.80814689   0.03160368
4402.00   0.83322197   0.03073396
4404.00   0.82663655   0.02969274
4406.00   0.73969811   0.02906237
4408.00   0.80084562   0.02960035
4410.00   0.76143640   0.02930238
4412.00   0.81544226   0.02991871
4414.00   0.79923338   0.03100531
4416.00   0.81726068   0.03109193
4418.00   0.80621898   0.02953980
4420.00   0.82670265   0.02956123
4422.00   0.76980835   0.02927458
4424.00   0.76313770   0.02910731
4426.00   0.82614648   0.02948632
4428.00   0.85416192   0.02944452
4430.00   0.80831093   0.02930612
4432.00   0.78307670   0.02916422
4434.00   0.73003948   0.02864320
4436.00   0.76148808   0.02863314
4438.00   0.76835078   0.02883136
4440.00   0.79132348   0.02891029
4442.00   0.75549841   0.02852045
4444.00   0.71762681   0.02831384
4446.00   0.76741862   0.02859325
4448.00   0.75670183   0.02831091
4450.00   0.75598103   0.02831533
4452.00   0.72325170   0.02800508
4454.00   0.67408764   0.02756257
4456.00   0.71157312   0.02801215
4458.00   0.70795566   0.02792507
4460.00   0.68625838   0.02780486
4462.00   0.73085940   0.02801229
4464.00   0.67229193   0.02748381
4466.00   0.67548972   0.02743499
4468.00   0.65110397   0.02711225
4470.00   0.73444873   0.02744243
4472.00   0.70600277   0.02722616
4474.00   0.64289069   0.02691152
4476.00   0.64171320   0.02705316
4478.00   0.62039757   0.02690840
4480.00   0.65206116   0.02714706
4482.00   0.61529297   0.02700033
4484.00   0.60003442   0.02687797
4486.00   0.62590069   0.02698213
4488.00   0.60927707   0.02684188
4490.00   0.67484450   0.02727769
4492.00   0.55711460   0.02712231
4494.00   0.60051841   0.02740117
4496.00   0.66137493   0.02756348
4498.00   0.70285612   0.02808241
4500.00   0.69160515   0.02774428
4502.00   0.70756727   0.02734631
4504.00   0.66960472   0.02722322
4506.00   0.67539638   0.02708313
4508.00   0.70935541   0.02721281
4510.00   0.67104828   0.02664919
4512.00   0.72257823   0.02702885
4514.00   0.68648720   0.02681112
4516.00   0.71715796   0.02668398
4518.00   0.72215188   0.02655590
4520.00   0.70356983   0.02650966
4522.00   0.68208116   0.02621815
4524.00   0.68159902   0.02610563
4526.00   0.74759400   0.02629695
4528.00   0.70580477   0.02629640
4530.00   0.71307206   0.02621420
4532.00   0.74116087   0.02639913
4534.00   0.72664613   0.02615132
4536.00   0.72484535   0.02601597
4538.00   0.68274403   0.02556460
4540.00   0.74345064   0.02605308
4542.00   0.76182258   0.02672234
4544.00   0.73524463   0.02686509
4546.00   0.76407480   0.02654056
4548.00   0.76977402   0.02612028
4550.00   0.74899775   0.02575849
4552.00   0.83273989   0.02612334
4554.00   0.80229646   0.02607346
4556.00   0.77350014   0.02610710
4558.00   0.76964349   0.02602891
4560.00   0.75532687   0.02557710
4562.00   0.75927317   0.02536831
4564.00   0.77376622   0.02516581
4566.00   0.78168452   0.02505167
4568.00   0.84067029   0.02552941
4570.00   0.76347136   0.02509314
4572.00   0.75305432   0.02532747
4574.00   0.70594323   0.02502331
4576.00   0.73888892   0.02488389
4578.00   0.77773184   0.02482363
4580.00   0.80778444   0.02500143
4582.00   0.78233361   0.02435587
4584.00   0.70617068   0.02374708
4586.00   0.77284753   0.02426675
4588.00   0.76479232   0.02425716
4590.00   0.76448023   0.02421736
4592.00   0.69776511   0.02393905
4594.00   0.66931540   0.02389367
4596.00   0.77277684   0.02444856
4598.00   0.71253842   0.02376102
4600.00   0.78222501   0.02401499
4602.00   0.72936451   0.02370406
4604.00   0.73434973   0.02371429
4606.00   0.70857400   0.02336026
4608.00   0.71064258   0.02376455
4610.00   0.74594384   0.02411115
4612.00   0.71782333   0.02352515
4614.00   0.69507915   0.02312921
4616.00   0.71280003   0.02295630
4618.00   0.77209842   0.02334272
4620.00   0.75264263   0.02327228
4622.00   0.77809632   0.02344145
4624.00   0.77146512   0.02340980
4626.00   0.75555700   0.02340301
4628.00   0.77133977   0.02350471
4630.00   0.76128405   0.02337229
4632.00   0.71379155   0.02301985
4634.00   0.76133138   0.02320939
4636.00   0.76542294   0.02325721
4638.00   0.79402494   0.02351714
4640.00   0.78552693   0.02347033
4642.00   0.73105705   0.02297609
4644.00   0.80029899   0.02332366
4646.00   0.77477151   0.02324549
4648.00   0.75655645   0.02331125
4650.00   0.82010144   0.02384192
4652.00   0.76065248   0.02397964
4654.00   0.81197727   0.02389840
4656.00   0.83664566   0.02422316
4658.00   0.79081315   0.02440249
4660.00   0.82163441   0.02483286
4662.00   0.81397659   0.02528454
4664.00   0.81667471   0.02570256
4666.00   0.83541089   0.02638286
4668.00   0.83571017   0.02706300
4670.00   0.86958724   0.02747815
4672.00   0.83300292   0.02674293
4674.00   0.85260350   0.02635297
4676.00   0.88370740   0.02584722
4678.00   0.85182232   0.02522162
4680.00   0.87345940   0.02516477
4682.00   0.86456478   0.02477152
4684.00   0.88477373   0.02444837
4686.00   0.86442995   0.02411891
4688.00   0.81691277   0.02371523
4690.00   0.84766138   0.02391163
4692.00   0.86458045   0.02383334
4694.00   0.87186867   0.02377772
4696.00   0.89605188   0.02381555
4698.00   0.87929690   0.02343418
4700.00   0.85167217   0.02322749
4702.00   0.93822229   0.02392275
4704.00   0.88794637   0.02393600
4706.00   0.82425624   0.02380402
4708.00   0.85253519   0.02434553
4710.00   0.84845847   0.02422978
4712.00   0.84094191   0.02380899
4714.00   0.84835893   0.02374773
4716.00   0.88544595   0.02373455
4718.00   0.86021709   0.02327027
4720.00   0.82966340   0.02317114
4722.00   0.81536323   0.02320208
4724.00   0.85200381   0.02321551
4726.00   0.82276738   0.02367041
4728.00   0.85052770   0.02624592
4730.00   0.88541424   0.02652633
4732.00   0.86920613   0.02580702
4734.00   0.82652676   0.02643878
4736.00   0.85086095   0.02712267
4738.00   0.84356111   0.02754158
4740.00   0.85757363   0.02822196
4742.00   0.80120677   0.02941879
4744.00   0.81016576   0.02847809
4746.00   0.83424008   0.02557955
4748.00   0.82371485   0.02359961
4750.00   0.84527338   0.02402682
4752.00   0.88405341   0.02529437
4754.00   0.89732981   0.02509015
4756.00   0.81973630   0.02309927
4758.00   0.84714890   0.02248103
4760.00   0.87966484   0.02282314
4762.00   0.85402107   0.02198260
4764.00   0.88437444   0.02216486
4766.00   0.88705796   0.02211754
4768.00   0.89594352   0.02187274
4770.00   0.89032382   0.02178062
4772.00   0.84057081   0.02144007
4774.00   0.86071384   0.02150940
4776.00   0.89928353   0.02226062
4778.00   0.80507612   0.02297503
4780.00   0.85051972   0.02332469
4782.00   0.83351350   0.02198145
4784.00   0.88628066   0.02182457
4786.00   0.86273021   0.02148030
4788.00   0.87687474   0.02170436
4790.00   0.83495843   0.02173575
4792.00   0.88646078   0.02217880
4794.00   0.83548933   0.02139557
4796.00   0.85451180   0.02121287
4798.00   0.88090646   0.02136085
4800.00   0.83947194   0.02111345
4802.00   0.86920035   0.02122598
4804.00   0.84949309   0.02110988
4806.00   0.91495919   0.02177123
4808.00   0.86277968   0.02157326
4810.00   0.87144506   0.02154875
4812.00   0.88490248   0.02162153
4814.00   0.87655979   0.02149143
4816.00   0.83897263   0.02136152
4818.00   0.82750171   0.02134133
4820.00   0.84152389   0.02164286
4822.00   0.89500850   0.02218064
4824.00   0.82720077   0.02184269
4826.00   0.82860082   0.02215889
4828.00   0.80558616   0.02194610
4830.00   0.77211678   0.02171125
4832.00   0.80922914   0.02219845
4834.00   0.81469303   0.02225010
4836.00   0.80281061   0.02175724
4838.00   0.81907845   0.02266867
4840.00   0.82999265   0.02338200
4842.00   0.76430219   0.02206330
4844.00   0.76201433   0.02150797
4846.00   0.73041236   0.02160094
4848.00   0.75491756   0.02192151
4850.00   0.74303102   0.02175645
4852.00   0.72909421   0.02181464
4854.00   0.70565522   0.02131051
4856.00   0.70648426   0.02096202
4858.00   0.77168077   0.02129086
4860.00   0.80753857   0.02183336
4862.00   0.73960316   0.02176423
4864.00   0.72910321   0.02175169
4866.00   0.73131889   0.02162859
4868.00   0.76281196   0.02163903
4870.00   0.74014080   0.02130033
4872.00   0.77385914   0.02158411
4874.00   0.78736603   0.02172320
4876.00   0.77497751   0.02182488
4878.00   0.74706984   0.02196221
4880.00   0.76006550   0.02203596
4882.00   0.74434066   0.02167679
4884.00   0.75644702   0.02147779
4886.00   0.78399569   0.02135093
4888.00   0.75938588   0.02117817
4890.00   0.75692415   0.02125010
4892.00   0.76035756   0.02137247
4894.00   0.78421360   0.02136865
4896.00   0.80973321   0.02140232
4898.00   0.76165229   0.02086469
4900.00   0.75959390   0.02069476
4902.00   0.76053649   0.02077351
4904.00   0.82065994   0.02113863
4906.00   0.80830383   0.02125856
4908.00   0.74875188   0.02109821
4910.00   0.75127888   0.02137572
4912.00   0.73729771   0.02091212
4914.00   0.78553367   0.02129498
4916.00   0.77913153   0.02141081
4918.00   0.73001146   0.02101516
4920.00   0.71520019   0.02087432
4922.00   0.72002411   0.02079915
4924.00   0.70464563   0.02053434
4926.00   0.73532200   0.02028608
4928.00   0.71090227   0.01994611
4930.00   0.73317307   0.02005834
4932.00   0.72696257   0.02002519
4934.00   0.70159531   0.02007495
4936.00   0.70415550   0.02026405
4938.00   0.68410665   0.02011008
4940.00   0.73015791   0.02054285
4942.00   0.75109005   0.02069995
4944.00   0.70378202   0.02006815
4946.00   0.69676340   0.01980259
4948.00   0.68672550   0.01973335
4950.00   0.68433088   0.01984008
4952.00   0.66367167   0.02040822
4954.00   0.70568120   0.02102884
4956.00   0.71011144   0.02084152
4958.00   0.70510739   0.02025682
4960.00   0.67688566   0.02016359
4962.00   0.71163088   0.02048133
4964.00   0.68898320   0.02063441
4966.00   0.68432671   0.02072271
4968.00   0.66333336   0.02096727
4970.00   0.67208195   0.02145698
4972.00   0.72528487   0.02279159
4974.00   0.72727120   0.02399876
4976.00   0.74294025   0.02484518
4978.00   0.75733137   0.02653735
4980.00   0.72923410   0.02819985
4982.00   0.69349051   0.02898550
4984.00   0.76268399   0.02923128
4986.00   0.71791399   0.02780988
4988.00   0.76163179   0.02647028
4990.00   0.74814206   0.02546026
4992.00   0.73136169   0.02453653
4994.00   0.68358690   0.02315620
4996.00   0.72589695   0.02233543
4998.00   0.71614349   0.02160531
5000.00   0.69710463   0.02094643
5002.00   0.68295467   0.02067950
5004.00   0.73260802   0.02078213
5006.00   0.73722678   0.02059976
5008.00   0.71049941   0.02017593
5010.00   0.69898379   0.01985487
5012.00   0.70699561   0.01990464
5014.00   0.70100540   0.01978486
5016.00   0.71996319   0.02010146
5018.00   0.69028801   0.02040138
5020.00   0.69395047   0.02061792
5022.00   0.66822946   0.02018878
5024.00   0.65851104   0.01958939
5026.00   0.70611584   0.01957413
5028.00   0.63318771   0.01944168
5030.00   0.67953986   0.02033738
5032.00   0.65883815   0.02019748
5034.00   0.65617406   0.01953430
5036.00   0.60463256   0.01878429
5038.00   0.64087892   0.01891932
5040.00   0.64072996   0.01898651
5042.00   0.60739940   0.01874170
5044.00   0.61026591   0.01891035
5046.00   0.58394289   0.01889333
5048.00   0.59061003   0.01865679
5050.00   0.61563605   0.01890591
5052.00   0.57524085   0.01868156
5054.00   0.59938347   0.01880164
5056.00   0.58904213   0.01865560
5058.00   0.54468966   0.01833067
5060.00   0.56145710   0.01854646
5062.00   0.53011513   0.01911945
5064.00   0.55563962   0.02018210
5066.00   0.58594424   0.02066553
5068.00   0.58088642   0.02145037
5070.00   0.62404603   0.02264068
5072.00   0.64768600   0.02161543
5074.00   0.58884490   0.02037584
5076.00   0.53881770   0.02009165
5078.00   0.57829285   0.02026574
5080.00   0.62461013   0.02326731
5082.00   0.56027281   0.02666018
5084.00   0.59573209   0.02874381
5086.00   0.55839348   0.02871179
5088.00   0.64493585   0.02694186
5090.00   0.64304972   0.02376561
5092.00   0.62139976   0.02137218
5094.00   0.56092119   0.02022897
5096.00   0.61113232   0.02125760
5098.00   0.58787459   0.02266415
5100.00   0.64854926   0.02354303
5102.00   0.63771284   0.02228511
5104.00   0.66287494   0.02075622
5106.00   0.65788865   0.02017724
5108.00   0.60481596   0.01985064
5110.00   0.65033424   0.02026276
5112.00   0.69733405   0.02069107
5114.00   0.62872571   0.02067631
5116.00   0.68876857   0.02141110
5118.00   0.66549402   0.02091618
5120.00   0.63580894   0.01992152
5122.00   0.62623525   0.01944226
5124.00   0.68139529   0.01983237
5126.00   0.65753245   0.01976463
5128.00   0.63332164   0.01965186
5130.00   0.63759798   0.01977703
5132.00   0.65563077   0.01987046
5134.00   0.65643650   0.01989952
5136.00   0.63956958   0.01994666
5138.00   0.64406812   0.01993896
5140.00   0.64637589   0.01996601
5142.00   0.73319262   0.02061453
5144.00   0.63094932   0.02009202
5146.00   0.66429114   0.02076852
5148.00   0.66932011   0.02167774
5150.00   0.70020479   0.02290801
5152.00   0.66700554   0.02363930
5154.00   0.68089879   0.02454535
5156.00   0.71024883   0.02386225
5158.00   0.70706934   0.02273148
5160.00   0.70613855   0.02186571
5162.00   0.67133564   0.02112607
5164.00   0.65591270   0.02064950
5166.00   0.66489112   0.02054113
5168.00   0.68883550   0.02052896
5170.00   0.66776901   0.02030574
5172.00   0.67086846   0.02043792
5174.00   0.70730859   0.02075257
5176.00   0.66385531   0.02075145
5178.00   0.64045721   0.02064287
5180.00   0.65834308   0.02065993
5182.00   0.69630075   0.02079996
5184.00   0.68931305   0.02070654
5186.00   0.66124487   0.02073808
5188.00   0.70805597   0.02121854
5190.00   0.66618472   0.02081138
5192.00   0.67506093   0.02107016
5194.00   0.67868978   0.02114348
5196.00   0.68276417   0.02154192
5198.00   0.68411529   0.02230049
5200.00   0.67271614   0.02217439
5202.00   0.67831844   0.02191499
5204.00   0.69236070   0.02172758
5206.00   0.69311225   0.02156652
5208.00   0.65199506   0.02161159
5210.00   0.67248905   0.02286858
5212.00   0.66658193   0.02284402
5214.00   0.65222490   0.02189972
5216.00   0.69549161   0.02205365
5218.00   0.69379699   0.02274594
5220.00   0.69379562   0.02316739
5222.00   0.73299432   0.02296217
5224.00   0.70466739   0.02230031
5226.00   0.68226051   0.02189737
5228.00   0.65367967   0.02170232
5230.00   0.71735132   0.02242721
5232.00   0.67459041   0.02225571
5234.00   0.68642449   0.02227905
5236.00   0.67383814   0.02213986
5238.00   0.68042487   0.02254388
5240.00   0.65070784   0.02248020
5242.00   0.68671399   0.02244367
5244.00   0.66362780   0.02231745
5246.00   0.68313354   0.02228360
5248.00   0.73717737   0.02252953
5250.00   0.72447133   0.02258573
5252.00   0.69610882   0.02246631
5254.00   0.71928394   0.02264906
5256.00   0.68402880   0.02317926
5258.00   0.73756212   0.02439279
5260.00   0.71738613   0.02403228
5262.00   0.74421304   0.02361257
5264.00   0.72352058   0.02317479
5266.00   0.69595814   0.02297818
5268.00   0.70029342   0.02283165
5270.00   0.70411956   0.02310536
5272.00   0.73104030   0.02327086
5274.00   0.74691868   0.02360491
5276.00   0.73260480   0.02360720
5278.00   0.76559514   0.02395586
5280.00   0.73187643   0.02371364
5282.00   0.74662745   0.02393328
5284.00   0.71392876   0.02419054
5286.00   0.70555449   0.02465805
5288.00   0.75728524   0.02479301
5290.00   0.73750764   0.02430668
5292.00   0.72540879   0.02414750
5294.00   0.76891673   0.02451431
5296.00   0.76362175   0.02473562
5298.00   0.76065266   0.02466312
5300.00   0.72694987   0.02466625
5302.00   0.75462502   0.02520147
5304.00   0.74034917   0.02497922
5306.00   0.74779415   0.02496869
5308.00   0.80111402   0.02549090
5310.00   0.81999660   0.02575973
5312.00   0.77181524   0.02579225
5314.00   0.75491703   0.02574975
5316.00   0.74517190   0.02578197
5318.00   0.75661230   0.02563646
5320.00   0.75712585   0.02566369
5322.00   0.77705157   0.02596378
5324.00   0.82228756   0.02653147
5326.00   0.80087698   0.02659774
5328.00   0.78583437   0.02656761
5330.00   0.79716986   0.02700615
5332.00   0.86145782   0.02762796
5334.00   0.78617775   0.02723075
5336.00   0.82659352   0.02741049
5338.00   0.77321279   0.02751506
5340.00   0.86295033   0.02926681
5342.00   0.77723223   0.02942129
5344.00   0.77799457   0.02915313
5346.00   0.79014254   0.02884846
5348.00   0.72060579   0.02989233
5350.00   0.76835132   0.03130195
5352.00   0.81771863   0.03077434
5354.00   0.75648940   0.03086471
5356.00   0.73153710   0.03199334
5358.00   0.79139435   0.03151799
5360.00   0.76723504   0.02980293
5362.00   0.77126050   0.02897847
5364.00   0.74233186   0.02844847
5366.00   0.74148977   0.02837340
5368.00   0.84348041   0.02910187
5370.00   0.82918960   0.02924045
5372.00   0.80742443   0.02963630
5374.00   0.75159723   0.03036343
5376.00   0.75445235   0.03131958
5378.00   0.74025267   0.03063613
5380.00   0.71548146   0.02987980
5382.00   0.83397573   0.03058552
5384.00   0.79623717   0.03010442
5386.00   0.73477221   0.02988829
5388.00   0.76878846   0.03031329
5390.00   0.74830151   0.03161285
5392.00   0.78329164   0.03305418
5394.00   0.73293668   0.03246912
5396.00   0.65821809   0.03113231
5398.00   0.74025124   0.03152360
5400.00   0.68031090   0.03101347
5402.00   0.84406948   0.03249528
5404.00   0.70118886   0.03171250
5406.00   0.65503931   0.03153151
5408.00   0.76566792   0.03269930
5410.00   0.73201793   0.01342079
5412.00   0.74894500   0.01356059
5414.00   0.76240170   0.01368067
5416.00   0.76081115   0.01378078
5418.00   0.74914217   0.01383766
5420.00   0.73326159   0.01417423
5422.00   0.69736338   0.01499193
5424.00   0.68579793   0.01524195
5426.00   0.69792324   0.01502785
5428.00   0.71292800   0.01466974
5430.00   0.72298825   0.01423473
5432.00   0.73208886   0.01369386
5434.00   0.73086733   0.01351099
5436.00   0.72333437   0.01364463
5438.00   0.70724195   0.01372339
5440.00   0.67192006   0.01391221
5442.00   0.64829457   0.01404385
5444.00   0.64410508   0.01390800
5446.00   0.65185624   0.01381486
5448.00   0.66766185   0.01446280
5450.00   0.69940460   0.01539414
5452.00   0.71928906   0.01705380
5454.00   0.74135894   0.01998450
5456.00   0.74947023   0.02153420
5458.00   0.73644072   0.02177219
5460.00   0.71800667   0.02138587
5462.00   0.71515781   0.02081962
5464.00   0.72430819   0.01980617
5466.00   0.70544833   0.01857873
5468.00   0.65286845   0.01648351
5470.00   0.62456656   0.01496398
5472.00   0.61643940   0.01411822
5474.00   0.61802536   0.01362810
5476.00   0.62867796   0.01335931
5478.00   0.64946264   0.01342370
5480.00   0.64640909   0.01332083
5482.00   0.61795092   0.01328666
5484.00   0.60741466   0.01311161
5486.00   0.61643183   0.01264007
5488.00   0.61376715   0.01238982
5490.00   0.57937157   0.01276121
5492.00   0.53179032   0.01336086
5494.00   0.51935464   0.01319936
5496.00   0.53183895   0.01211895
5498.00   0.54162771   0.01195782
5500.00   0.56278098   0.01262267
5502.00   0.57889360   0.01287803
5504.00   0.58608031   0.01238943
5506.00   0.59017837   0.01167976
5508.00   0.59765631   0.01153223
5510.00   0.60643739   0.01170372
5512.00   0.61374378   0.01192728
5514.00   0.62473130   0.01255544
5516.00   0.62650877   0.01274408
5518.00   0.61641085   0.01238838
5520.00   0.60267133   0.01189465
5522.00   0.59181309   0.01164188
5524.00   0.58026272   0.01147675
5526.00   0.57464331   0.01128487
5528.00   0.56936544   0.01105647
5530.00   0.57521886   0.01094649
5532.00   0.59954941   0.01097870
5534.00   0.61917752   0.01103065
5536.00   0.61845380   0.01105263
5538.00   0.60680753   0.01106940
5540.00   0.60707843   0.01099914
5542.00   0.61927533   0.01078047
5544.00   0.61637998   0.01070951
5546.00   0.59860307   0.01065331
5548.00   0.58529574   0.01075836
5550.00   0.58275455   0.01117652
5552.00   0.58484620   0.01167641
5554.00   0.58432001   0.01176096
5556.00   0.58033377   0.01160262
5558.00   0.58786047   0.01132124
5560.00   0.61002749   0.01043937
5562.00   0.62448281   0.01017224
5564.00   0.62754726   0.01041284
5566.00   0.62726855   0.01137046
5568.00   0.63093799   0.01344475
5570.00   0.63479674   0.01618277
5572.00   0.64331859   0.01837830
5574.00   0.65567070   0.02139580
5576.00   0.66999054   0.02245444
5578.00   0.69446087   0.02174163
5580.00   0.71072477   0.02023531
5582.00   0.70174044   0.01835025
5584.00   0.67492616   0.01552757
5586.00   0.65384561   0.01363750
5588.00   0.61982244   0.01247270
5590.00   0.60749269   0.01144777
5592.00   0.61932558   0.01096561
5594.00   0.62872469   0.01067744
5596.00   0.62328249   0.01044905
5598.00   0.61188281   0.01036243
5600.00   0.60674536   0.01023230
5602.00   0.60247433   0.01011371
5604.00   0.60235876   0.01005553
5606.00   0.60556966   0.01007842
5608.00   0.61169714   0.01008766
5610.00   0.62439030   0.01007079
5612.00   0.63729876   0.01003984
5614.00   0.63628465   0.00998474
5616.00   0.62310547   0.00989240
5618.00   0.61665004   0.00984410
5620.00   0.61035818   0.00982801
5622.00   0.60624087   0.00980517
5624.00   0.60496026   0.00977071
5626.00   0.60480458   0.00974072
5628.00   0.60451829   0.00972931
5630.00   0.60518402   0.00973091
5632.00   0.60187221   0.00973936
5634.00   0.59422225   0.00977219
5636.00   0.58849102   0.00978033
5638.00   0.58279252   0.00976275
5640.00   0.57904410   0.00974299
5642.00   0.57859892   0.00970119
5644.00   0.58073115   0.00965131
5646.00   0.58526301   0.00982448
5648.00   0.59772497   0.01002155
5650.00   0.59996176   0.01059602
5652.00   0.59520084   0.01194914
5654.00   0.58751434   0.01257313
5656.00   0.57358724   0.01181761
5658.00   0.55887026   0.01036211
5660.00   0.56453580   0.01015441
5662.00   0.59694731   0.01077534
5664.00   0.59930611   0.01124320
5666.00   0.57790464   0.01207518
5668.00   0.56414396   0.01256012
5670.00   0.56165487   0.01248325
5672.00   0.56350225   0.01234229
5674.00   0.56562686   0.01274392
5676.00   0.57054979   0.01333047
5678.00   0.57321870   0.01451466
5680.00   0.57317817   0.01627303
5682.00   0.57674831   0.01781304
5684.00   0.58494622   0.01962822
5686.00   0.59377009   0.02087927
5688.00   0.60100275   0.02092946
5690.00   0.60811156   0.02013527
5692.00   0.60788941   0.01890155
5694.00   0.59936893   0.01597086
5696.00   0.59352148   0.01421941
5698.00   0.58535606   0.01369657
5700.00   0.58157724   0.01352673
5702.00   0.58903867   0.01342318
5704.00   0.60204226   0.01352346
5706.00   0.59872383   0.01321714
5708.00   0.57794917   0.01258840
5710.00   0.57029891   0.01202316
5712.00   0.56664276   0.01113706
5714.00   0.56738108   0.01063828
5716.00   0.57529795   0.01097089
5718.00   0.58582634   0.01156571
5720.00   0.58828509   0.01149773
5722.00   0.58492798   0.01103260
5724.00   0.58467281   0.01061580
5726.00   0.58436322   0.00979466
5728.00   0.58517462   0.00944173
5730.00   0.58663893   0.00988058
5732.00   0.58960098   0.01041066
5734.00   0.59532493   0.01034231
5736.00   0.60341257   0.00989510
5738.00   0.61257184   0.00980202
5740.00   0.62862378   0.00996298
5742.00   0.63465297   0.00995879
5744.00   0.62738931   0.00971764
5746.00   0.62121993   0.00956975
5748.00   0.62676376   0.00976370
5750.00   0.63856715   0.01016173
5752.00   0.64197481   0.01046481
5754.00   0.64267260   0.01079686
5756.00   0.63866878   0.01108776
5758.00   0.62076426   0.01116934
5760.00   0.61458850   0.01154151
5762.00   0.63965607   0.01256431
5764.00   0.67512321   0.01371933
5766.00   0.66410893   0.01395089
5768.00   0.60147142   0.01351750
5770.00   0.58710337   0.01315508
5772.00   0.60001433   0.01247631
5774.00   0.61438888   0.01188823
5776.00   0.63376886   0.01136812
5778.00   0.65065223   0.01101408
5780.00   0.64265686   0.01115314
5782.00   0.60779142   0.01177794
5784.00   0.60867465   0.01213448
5786.00   0.64357096   0.01258896
5788.00   0.65763485   0.01276553
5790.00   0.64476877   0.01265193
5792.00   0.63107121   0.01238259
5794.00   0.63930136   0.01202299
5796.00   0.66101921   0.01150567
5798.00   0.66641784   0.01112632
5800.00   0.66135192   0.01075359
5802.00   0.65901345   0.01051396
5804.00   0.65748566   0.01044889
5806.00   0.65489244   0.01041764
5808.00   0.64920837   0.01032380
5810.00   0.64205772   0.01023172
5812.00   0.64200872   0.01031985
5814.00   0.64746732   0.01053131
5816.00   0.65349883   0.01082824
5818.00   0.66303360   0.01146834
5820.00   0.67188144   0.01174025
5822.00   0.68102533   0.01134100
5824.00   0.68825912   0.01065055
5826.00   0.68502373   0.01045590
5828.00   0.66721809   0.01047827
5830.00   0.66719246   0.01069614
5832.00   0.68155128   0.01122679
5834.00   0.69111139   0.01168982
5836.00   0.69537967   0.01223658
5838.00   0.69675499   0.01260072
5840.00   0.69454944   0.01232252
5842.00   0.68723041   0.01139197
5844.00   0.68826067   0.01114526
5846.00   0.69555110   0.01108514
5848.00   0.70204735   0.01149392
5850.00   0.71567398   0.01259410
5852.00   0.72022051   0.01357882
5854.00   0.69697255   0.01408292
5856.00   0.65414792   0.01436226
5858.00   0.64813435   0.01403083
5860.00   0.67063510   0.01251104
5862.00   0.68538302   0.01193627
5864.00   0.71323216   0.01181746
5866.00   0.72236097   0.01231604
5868.00   0.69053793   0.01380783
5870.00   0.63854313   0.01557612
5872.00   0.62153846   0.01593556
5874.00   0.62930930   0.01540102
5876.00   0.62498420   0.01478668
5878.00   0.61488742   0.01214351
5880.00   0.61226088   0.01204249
5882.00   0.61103117   0.01534995
5884.00   0.62301600   0.01959350
5886.00   0.68108600   0.02390131
5888.00   0.80071557   0.02937173
5890.00   0.83178031   0.03095146
5892.00   0.78779292   0.02960424
5894.00   0.76995367   0.02904627
5896.00   0.78448510   0.02996152
5898.00   0.79868543   0.03021843
5900.00   0.78729898   0.02758393
5902.00   0.76022756   0.02182381
5904.00   0.73572266   0.01796664
5906.00   0.69750684   0.01458160
5908.00   0.67809612   0.01212828
5910.00   0.67649204   0.01208985
5912.00   0.67996478   0.01264522
5914.00   0.68360388   0.01276968
5916.00   0.68986213   0.01300949
5918.00   0.69115216   0.01295437
5920.00   0.68149364   0.01247292
5922.00   0.68985111   0.01248123
5924.00   0.72321427   0.01298248
5926.00   0.74128604   0.01328171
5928.00   0.72475469   0.01300228
5930.00   0.69574231   0.01261061
5932.00   0.69636554   0.01320662
5934.00   0.72216713   0.01497020
5936.00   0.72484130   0.01505491
5938.00   0.71925801   0.01380498
5940.00   0.70502400   0.01277862
5942.00   0.67230129   0.01208571
5944.00   0.64055067   0.01160545
5946.00   0.64067465   0.01152709
5948.00   0.66702449   0.01192704
5950.00   0.67014503   0.01189676
5952.00   0.66155690   0.01161601
5954.00   0.65472561   0.01142483
5956.00   0.64438564   0.01129238
5958.00   0.63857138   0.01119226
5960.00   0.64652991   0.01112911
5962.00   0.66451043   0.01110382
5964.00   0.67246383   0.01106235
5966.00   0.68091458   0.01094943
5968.00   0.67783958   0.01100468
5970.00   0.65568858   0.01123467
5972.00   0.64095724   0.01147296
5974.00   0.64896405   0.01174046
5976.00   0.66759527   0.01198199
5978.00   0.66962260   0.01176312
5980.00   0.66112500   0.01086293
5982.00   0.65560859   0.01052112
5984.00   0.64467436   0.01047127
5986.00   0.64059693   0.01050941
5988.00   0.64906687   0.01069272
5990.00   0.66145408   0.01089604
5992.00   0.66392261   0.01078489
5994.00   0.66202164   0.01037997
5996.00   0.65553093   0.01020320
5998.00   0.64112103   0.01013433
6000.00   0.62893391   0.01006298
6002.00   0.61811334   0.00999755
6004.00   0.60896361   0.00993721
6006.00   0.60271865   0.00986745
6008.00   0.59856731   0.00979340
6010.00   0.59896982   0.00972707
6012.00   0.60718852   0.00962546
6014.00   0.61036766   0.00961227
6016.00   0.60664469   0.00970602
6018.00   0.60605645   0.00980839
6020.00   0.61749923   0.00986711
6022.00   0.63583744   0.00991070
6024.00   0.63711703   0.00993629
6026.00   0.62528694   0.00984455
6028.00   0.61508584   0.00996919
6030.00   0.59499955   0.01049241
6032.00   0.58550268   0.01066918
6034.00   0.59665346   0.01011337
6036.00   0.61808342   0.00918734
6038.00   0.63043016   0.00889808
6040.00   0.64375800   0.00905223
6042.00   0.64715946   0.00909606
6044.00   0.63551205   0.00912571
6046.00   0.63307637   0.00934435
6048.00   0.64513028   0.00992467
6050.00   0.66154164   0.01047975
6052.00   0.67202181   0.01052524
6054.00   0.68242979   0.01023636
6056.00   0.68317610   0.00988320
6058.00   0.67540503   0.00907459
6060.00   0.66496927   0.00865273
6062.00   0.64527303   0.00872685
6064.00   0.62972873   0.00893378
6066.00   0.63238752   0.00902264
6068.00   0.64776546   0.00911191
6070.00   0.65389186   0.00923396
6072.00   0.65980345   0.00942297
6074.00   0.66026568   0.00952906
6076.00   0.65153599   0.00963372
6078.00   0.64599371   0.00961764
6080.00   0.65190691   0.00936657
6082.00   0.66307926   0.00895871
6084.00   0.66256285   0.00874135
6086.00   0.64701271   0.00853149
6088.00   0.64850110   0.00855418
6090.00   0.66516632   0.00888117
6092.00   0.67606676   0.00912183
6094.00   0.67708808   0.00918070
6096.00   0.67239422   0.00918635
6098.00   0.66238546   0.00927525
6100.00   0.64116472   0.00935995
6102.00   0.63521457   0.00958969
6104.00   0.64039099   0.00995476
6106.00   0.64470792   0.01031483
6108.00   0.64791381   0.01072885
6110.00   0.65187109   0.01108697
6112.00   0.65748602   0.01127130
6114.00   0.66469306   0.01136639
6116.00   0.67073828   0.01119165
6118.00   0.67644477   0.01061914
6120.00   0.68204987   0.01018004
6122.00   0.68861288   0.00975483
6124.00   0.69350362   0.00944331
6126.00   0.69572848   0.00935351
6128.00   0.69581747   0.00944271
6130.00   0.68842447   0.00964261
6132.00   0.67635143   0.01016064
6134.00   0.65647298   0.01035109
6136.00   0.61887646   0.01040619
6138.00   0.59183848   0.01027918
6140.00   0.58965820   0.00979250
6142.00   0.59894931   0.00912336
6144.00   0.59316689   0.00907986
6146.00   0.57410538   0.00965953
6148.00   0.57253343   0.00978458
6150.00   0.57895863   0.00969316
6152.00   0.59405482   0.00965219
6154.00   0.62323958   0.00970313
6156.00   0.65645623   0.00977881
6158.00   0.67699087   0.00984820
6160.00   0.69302815   0.00998537
6162.00   0.69706458   0.00984388
6164.00   0.68515676   0.00939390
6166.00   0.67648089   0.00901863
6168.00   0.66726768   0.00865551
6170.00   0.66151774   0.00836933
6172.00   0.66624963   0.00830199
6174.00   0.67955208   0.00842599
6176.00   0.68266571   0.00835026
6178.00   0.67771506   0.00811222
6180.00   0.67800891   0.00800151
6182.00   0.68440282   0.00800385
6184.00   0.68799573   0.00801738
6186.00   0.68387550   0.00797925
6188.00   0.67514741   0.00793167
6190.00   0.66702634   0.00799226
6192.00   0.64960921   0.00823244
6194.00   0.64996606   0.00826319
6196.00   0.66577446   0.00799764
6198.00   0.68236953   0.00797853
6200.00   0.70017922   0.00849122
6202.00   0.71630132   0.00911697
6204.00   0.71618789   0.00920035
6206.00   0.70291120   0.00884068
6208.00   0.68766093   0.00881032
6210.00   0.65508378   0.00905720
6212.00   0.64012742   0.00904175
6214.00   0.65043366   0.00855765
6216.00   0.66789347   0.00802482
6218.00   0.67401874   0.00807566
6220.00   0.67663974   0.00857051
6222.00   0.67676234   0.00859642
6224.00   0.67629945   0.00820195
6226.00   0.66829032   0.00816376
6228.00   0.64305365   0.00853053
6230.00   0.62583184   0.00890615
6232.00   0.64001083   0.00910889
6234.00   0.67480356   0.00924648
6236.00   0.68260086   0.00907258
6238.00   0.67360085   0.00837682
6240.00   0.66798568   0.00805346
6242.00   0.65903467   0.00785820
6244.00   0.65169120   0.00794108
6246.00   0.64828342   0.00852259
6248.00   0.64704639   0.00928589
6250.00   0.64592910   0.00941266
6252.00   0.64610445   0.00908601
6254.00   0.64605635   0.00885156
6256.00   0.64726788   0.00839133
6258.00   0.64682996   0.00811314
6260.00   0.64361018   0.00822577
6262.00   0.63944823   0.00841796
6264.00   0.63714880   0.00820780
6266.00   0.63627994   0.00763515
6268.00   0.63317651   0.00740417
6270.00   0.62616074   0.00737485
6272.00   0.62374878   0.00735734
6274.00   0.62627280   0.00733712
6276.00   0.63138938   0.00738304
6278.00   0.63930011   0.00754227
6280.00   0.65165931   0.00778489
6282.00   0.64886874   0.00812142
6284.00   0.62591255   0.00878413
6286.00   0.61943668   0.00897175
6288.00   0.62810671   0.00841329
6290.00   0.63805711   0.00819995
6292.00   0.64334303   0.00918007
6294.00   0.64711553   0.01062377
6296.00   0.64539099   0.01110811
6298.00   0.63501406   0.01124463
6300.00   0.63124770   0.01102876
6302.00   0.63528872   0.01015291
6304.00   0.63261485   0.00932721
6306.00   0.61683786   0.00882405
6308.00   0.59509653   0.00846978
6310.00   0.57942247   0.00815332
6312.00   0.56156838   0.00800440
6314.00   0.55668789   0.00772380
6316.00   0.56770754   0.00730507
6318.00   0.57268351   0.00700940
6320.00   0.56950647   0.00690165
6322.00   0.56315672   0.00688413
6324.00   0.55615819   0.00686024
6326.00   0.54573399   0.00688344
6328.00   0.54327893   0.00687371
6330.00   0.55154544   0.00682170
6332.00   0.55074656   0.00683543
6334.00   0.54062361   0.00689105
6336.00   0.52789700   0.00700848
6338.00   0.51622909   0.00725845
6340.00   0.50366890   0.00761048
6342.00   0.49423015   0.00762668
6344.00   0.48616296   0.00735761
6346.00   0.48071283   0.00713369
6348.00   0.47930554   0.00678129
6350.00   0.47753510   0.00653905
6352.00   0.47224236   0.00656341
6354.00   0.46614221   0.00674694
6356.00   0.46718517   0.00688533
6358.00   0.47879314   0.00709749
6360.00   0.47878534   0.00721883
6362.00   0.47377318   0.00724809
6364.00   0.46367541   0.00733462
6366.00   0.44399050   0.00752089
6368.00   0.42250943   0.00773908
6370.00   0.41582087   0.00793367
6372.00   0.41954985   0.00825220
6374.00   0.42277867   0.00808125
6376.00   0.43283132   0.00724947
6378.00   0.43800405   0.00672350
6380.00   0.43605590   0.00660799
6382.00   0.43353912   0.00668920
6384.00   0.43640634   0.00686371
6386.00   0.44204339   0.00720986
6388.00   0.44996583   0.00730857
6390.00   0.46946716   0.00724291
6392.00   0.47170335   0.00720961
6394.00   0.45292819   0.00717840
6396.00   0.43464038   0.00713864
6398.00   0.42884099   0.00708645
6400.00   0.42908290   0.00702399
6402.00   0.43391132   0.00697665
6404.00   0.45052439   0.00702677
6406.00   0.45670733   0.00687166
6408.00   0.45600265   0.00640569
6410.00   0.45451802   0.00607594
6412.00   0.45356354   0.00613110
6414.00   0.45237854   0.00635057
6416.00   0.45242485   0.00635019
6418.00   0.45392320   0.00618049
6420.00   0.45380849   0.00621992
6422.00   0.45335481   0.00641152
6424.00   0.45156732   0.00657999
6426.00   0.44494006   0.00674002
6428.00   0.44021076   0.00686798
6430.00   0.44909903   0.00688738
6432.00   0.47074714   0.00680772
6434.00   0.48060915   0.00677792
6436.00   0.48434308   0.00684822
6438.00   0.48858482   0.00671960
6440.00   0.49312317   0.00622675
6442.00   0.49664780   0.00576592
6444.00   0.49847931   0.00580785
6446.00   0.49893975   0.00617867
6448.00   0.49808210   0.00625528
6450.00   0.49386066   0.00622769
6452.00   0.49282262   0.00617879
6454.00   0.49554923   0.00604774
6456.00   0.49697712   0.00593938
6458.00   0.49255976   0.00587816
6460.00   0.48607281   0.00586338
6462.00   0.49168694   0.00604992
6464.00   0.51015991   0.00656326
6466.00   0.52157867   0.00672682
6468.00   0.53603518   0.00675738
6470.00   0.54182422   0.00665231
6472.00   0.53276688   0.00629880
6474.00   0.51765335   0.00584484
6476.00   0.51212227   0.00574607
6478.00   0.51047212   0.00594871
6480.00   0.51068461   0.00596638
6482.00   0.51485842   0.00593619
6484.00   0.51863092   0.00589933
6486.00   0.52189511   0.00582696
6488.00   0.52536553   0.00577377
6490.00   0.52990556   0.00582137
6492.00   0.53602517   0.00594667
6494.00   0.53632855   0.00603202
6496.00   0.52807164   0.00610780
6498.00   0.52742100   0.00619946
6500.00   0.53373754   0.00632262
6502.00   0.54225475   0.00642783
6504.00   0.55250728   0.00649929
6506.00   0.56477153   0.00654693
6508.00   0.56372535   0.00647290
6510.00   0.54823399   0.00623436
6512.00   0.53957331   0.00606851
6514.00   0.52941287   0.00587397
6516.00   0.52565938   0.00576501
6518.00   0.53382498   0.00582089
6520.00   0.54821265   0.00596463
6522.00   0.55466068   0.00602243
6524.00   0.55629283   0.00604798
6526.00   0.56132066   0.00608795
6528.00   0.56912798   0.00615415
6530.00   0.57442486   0.00617284
6532.00   0.57714766   0.00597625
6534.00   0.57723612   0.00587148
6536.00   0.57255244   0.00646619
6538.00   0.56134892   0.00767258
6540.00   0.55840653   0.00787759
6542.00   0.56068528   0.00744657
6544.00   0.56321430   0.00702430
6546.00   0.56711453   0.00640771
6548.00   0.57103217   0.00584627
6550.00   0.57305419   0.00578987
6552.00   0.57386643   0.00611389
6554.00   0.57634377   0.00618484
6556.00   0.57877839   0.00619842
6558.00   0.58356017   0.00621448
6560.00   0.59133393   0.00617132
6562.00   0.59926629   0.00619372
6564.00   0.60732794   0.00639580
6566.00   0.61508960   0.00668162
6568.00   0.61442834   0.00672798
6570.00   0.60191309   0.00660031
6572.00   0.59887171   0.00648502
6574.00   0.60134256   0.00627236
6576.00   0.60358858   0.00610691
6578.00   0.60458308   0.00604401
6580.00   0.60509992   0.00602928
6582.00   0.60440552   0.00598576
6584.00   0.60215539   0.00592356
6586.00   0.60109967   0.00592894
6588.00   0.60102451   0.00602073
6590.00   0.60007811   0.00606525
6592.00   0.59617281   0.00602035
6594.00   0.59369236   0.00598348
6596.00   0.59878886   0.00608117
6598.00   0.61018813   0.00628883
6600.00   0.61768997   0.00635330
6602.00   0.62926698   0.00635773
6604.00   0.63039738   0.00630795
6606.00   0.61608863   0.00616433
6608.00   0.60319287   0.00601161
6610.00   0.60482758   0.00591626
6612.00   0.61469066   0.00584730
6614.00   0.61756372   0.00579505
6616.00   0.62020862   0.00577185
6618.00   0.61761111   0.00575117
6620.00   0.60789502   0.00566522
6622.00   0.59909832   0.00570821
6624.00   0.59397697   0.00604693
6626.00   0.59074467   0.00647913
6628.00   0.58972222   0.00650786
6630.00   0.59280819   0.00618255
6632.00   0.59264678   0.00602820
6634.00   0.58751905   0.00579887
6636.00   0.58848995   0.00575053
6638.00   0.60043019   0.00604511
6640.00   0.61531216   0.00639282
6642.00   0.62094295   0.00637478
6644.00   0.62125146   0.00607610
6646.00   0.62145615   0.00596351
6648.00   0.62138492   0.00584583
6650.00   0.61662054   0.00586808
6652.00   0.60190731   0.00610687
6654.00   0.58956456   0.00635293
6656.00   0.59378719   0.00641728
6658.00   0.61027455   0.00637807
6660.00   0.61433500   0.00641170
6662.00   0.61250162   0.00651230
6664.00   0.61006194   0.00651115
6666.00   0.60433990   0.00641258
6668.00   0.59947211   0.00628290
6670.00   0.59778714   0.00614039
6672.00   0.59799844   0.00597605
6674.00   0.60021120   0.00588661
6676.00   0.61053497   0.00588282
6678.00   0.60841089   0.00582487
6680.00   0.59379202   0.00573086
6682.00   0.58202350   0.00565316
6684.00   0.57664239   0.00558068
6686.00   0.57493609   0.00554098
6688.00   0.57792413   0.00565319
6690.00   0.58883971   0.00598197
6692.00   0.59260988   0.00603692
6694.00   0.59271836   0.00586657
6696.00   0.59240848   0.00577943
6698.00   0.59201717   0.00581574
6700.00   0.59075487   0.00589090
6702.00   0.58774275   0.00593689
6704.00   0.58259130   0.00597239
6706.00   0.58039534   0.00606519
6708.00   0.57973868   0.00628469
6710.00   0.57993937   0.00634173
6712.00   0.58137769   0.00619533
6714.00   0.58338439   0.00603426
6716.00   0.58594853   0.00602363
6718.00   0.58925647   0.00609332
6720.00   0.58855629   0.00602491
6722.00   0.58504987   0.00582665
6724.00   0.58009291   0.00570211
6726.00   0.57019895   0.00560327
6728.00   0.56356370   0.00554111
6730.00   0.56460702   0.00553449
6732.00   0.56995475   0.00556686
6734.00   0.57318467   0.00557654
6736.00   0.57535070   0.00558502
6738.00   0.58098280   0.00559589
6740.00   0.59404582   0.00561698
6742.00   0.59969211   0.00562341
6744.00   0.59269118   0.00560166
6746.00   0.58066243   0.00557268
6748.00   0.57418752   0.00556783
6750.00   0.56774729   0.00555228
6752.00   0.56775814   0.00563579
6754.00   0.57746118   0.00590390
6756.00   0.58120489   0.00598546
6758.00   0.57800853   0.00582761
6760.00   0.57234752   0.00560625
6762.00   0.56713033   0.00548860
6764.00   0.56068426   0.00540159
6766.00   0.55654913   0.00536496
6768.00   0.55496603   0.00541757
6770.00   0.55149341   0.00542084
6772.00   0.54401690   0.00537192
6774.00   0.53959793   0.00533717
6776.00   0.54377151   0.00535439
6778.00   0.55339223   0.00540302
6780.00   0.55768114   0.00546753
6782.00   0.56008893   0.00561835
6784.00   0.56169629   0.00563589
6786.00   0.56246424   0.00553023
6788.00   0.56173784   0.00542990
6790.00   0.55842829   0.00534537
6792.00   0.55397016   0.00528846
6794.00   0.55263323   0.00539245
6796.00   0.55424744   0.00571607
6798.00   0.55308312   0.00579537
6800.00   0.54864788   0.00574085
6802.00   0.54736114   0.00565787
6804.00   0.55036205   0.00552023
6806.00   0.55544871   0.00537307
6808.00   0.56115925   0.00532332
6810.00   0.56996000   0.00534567
6812.00   0.57049668   0.00534120
6814.00   0.56197894   0.00532731
6816.00   0.55791169   0.00534738
6818.00   0.55673486   0.00538720
6820.00   0.55833924   0.00546595
6822.00   0.56373668   0.00560986
6824.00   0.57256180   0.00580580
6826.00   0.58266360   0.00596891
6828.00   0.60192317   0.00619330
6830.00   0.60723549   0.00626963
6832.00   0.58466923   0.00604757
6834.00   0.58235437   0.00603554
6836.00   0.62681246   0.00636610
6838.00   0.69962829   0.00695295
6840.00   0.76714236   0.00812857
6842.00   0.88289231   0.01029452
6844.00   0.90656048   0.01090398
6846.00   0.86161357   0.01087089
6848.00   0.79752034   0.01034252
6850.00   0.70590651   0.00888902
6852.00   0.60695869   0.00671802
6854.00   0.56734741   0.00563664
6856.00   0.56721413   0.00559840
6858.00   0.57731706   0.00555998
6860.00   0.62633985   0.00607561
6862.00   0.65616667   0.00649325
6864.00   0.66746938   0.00686961
6866.00   0.66544938   0.00719096
6868.00   0.64647293   0.00739745
6870.00   0.60829788   0.00755493
6872.00   0.58295971   0.00743931
6874.00   0.55667853   0.00696223
6876.00   0.53986186   0.00657753
6878.00   0.53385228   0.00618074
6880.00   0.53136498   0.00585358
6882.00   0.52824795   0.00570909
6884.00   0.52665925   0.00570967
6886.00   0.52540094   0.00568502
6888.00   0.52491677   0.00572411
6890.00   0.52511412   0.00573070
6892.00   0.52564114   0.00570586
6894.00   0.52749008   0.00571085
6896.00   0.53247947   0.00579361
6898.00   0.53836960   0.00589978
6900.00   0.53775066   0.00588563
6902.00   0.53160572   0.00572901
6904.00   0.52671534   0.00571734
6906.00   0.51968819   0.00578348
6908.00   0.51437837   0.00587326
6910.00   0.51024437   0.00599441
6912.00   0.50842232   0.00612746
6914.00   0.51245075   0.00624167
6916.00   0.52319360   0.00638846
6918.00   0.52758390   0.00635271
6920.00   0.53003001   0.00611339
6922.00   0.52970356   0.00593039
6924.00   0.52518135   0.00578773
6926.00   0.51982892   0.00566962
6928.00   0.51668137   0.00558576
6930.00   0.51432574   0.00553601
6932.00   0.51267439   0.00549135
6934.00   0.51260042   0.00543695
6936.00   0.51139867   0.00545341
6938.00   0.50792277   0.00547392
6940.00   0.50642872   0.00562284
6942.00   0.51051992   0.00606220
6944.00   0.51757282   0.00661155
6946.00   0.51766980   0.00663296
6948.00   0.51091433   0.00614600
6950.00   0.50889641   0.00589103
6952.00   0.50816250   0.00560570
6954.00   0.50914735   0.00544305
6956.00   0.51321286   0.00552431
6958.00   0.51826507   0.00569590
6960.00   0.51913959   0.00564859
6962.00   0.51732171   0.00543175
6964.00   0.51507109   0.00534410
6966.00   0.51174581   0.00530966
6968.00   0.50719172   0.00529046
6970.00   0.49756885   0.00517608
6972.00   0.49070275   0.00519489
6974.00   0.49938443   0.00572028
6976.00   0.52316082   0.00665835
6978.00   0.52444291   0.00678516
6980.00   0.50564593   0.00630441
6982.00   0.49713299   0.00595149
6984.00   0.49790627   0.00558979
6986.00   0.49966064   0.00529231
6988.00   0.49669239   0.00518157
6990.00   0.49168193   0.00521665
6992.00   0.49450350   0.00528917
6994.00   0.50434625   0.00555258
6996.00   0.51274478   0.00561177
6998.00   0.52170014   0.00538644
7000.00   0.53128815   0.00534327
7002.00   0.54465848   0.00578344
7004.00   0.55785328   0.00637030
7006.00   0.55411565   0.00646953
7008.00   0.53127587   0.00625785
7010.00   0.51983678   0.00604190
7012.00   0.50829524   0.00555472
7014.00   0.50339401   0.00523392
7016.00   0.50857127   0.00524306
7018.00   0.51807773   0.00538698
7020.00   0.52360612   0.00543290
7022.00   0.53092062   0.00549431
7024.00   0.52737731   0.00547058
7026.00   0.51227766   0.00530437
7028.00   0.49968889   0.00525991
7030.00   0.48805079   0.00537399
7032.00   0.47806996   0.00551708
7034.00   0.47203022   0.00560609
7036.00   0.46917218   0.00569459
7038.00   0.46626249   0.00562340
7040.00   0.46549779   0.00532197
7042.00   0.46330306   0.00516120
7044.00   0.45868877   0.00510310
7046.00   0.45578495   0.00508926
7048.00   0.45659557   0.00508510
7050.00   0.46003684   0.00511279
7052.00   0.46687397   0.00524686
7054.00   0.48340780   0.00560925
7056.00   0.48765454   0.00567493
7058.00   0.48183888   0.00549477
7060.00   0.47622967   0.00533752
7062.00   0.47315815   0.00528441
7064.00   0.47084039   0.00526923
7066.00   0.46973392   0.00525093
7068.00   0.46941093   0.00523904
7070.00   0.47092429   0.00526006
7072.00   0.47625983   0.00534595
7074.00   0.47870848   0.00537878
7076.00   0.47637698   0.00530732
7078.00   0.47327542   0.00523828
7080.00   0.47478551   0.00531456
7082.00   0.48063147   0.00548939
7084.00   0.47737062   0.00564461
7086.00   0.46364316   0.00594703
7088.00   0.45698205   0.00599191
7090.00   0.45748615   0.00572194
7092.00   0.45946625   0.00538951
7094.00   0.45917028   0.00519476
7096.00   0.45833635   0.00504857
7098.00   0.45974541   0.00497106
7100.00   0.46239772   0.00500379
7102.00   0.46646309   0.00500500
7104.00   0.47502452   0.00498570
7106.00   0.48002815   0.00500107
7108.00   0.47699580   0.00503601
7110.00   0.46941698   0.00511713
7112.00   0.46440595   0.00542764
7114.00   0.45622277   0.00616608
7116.00   0.45591220   0.00627397
7118.00   0.46471465   0.00591085
7120.00   0.46998894   0.00557400
7122.00   0.46934912   0.00530456
7124.00   0.46571106   0.00510839
7126.00   0.46033186   0.00522505
7128.00   0.44979277   0.00571510
7130.00   0.44844803   0.00575261
7132.00   0.45646641   0.00547061
7134.00   0.45997438   0.00525743
7136.00   0.45743239   0.00509065
7138.00   0.45425493   0.00497414
7140.00   0.45525873   0.00496123
7142.00   0.45878300   0.00503319
7144.00   0.46004426   0.00516490
7146.00   0.46005076   0.00549577
7148.00   0.46059254   0.00558735
7150.00   0.46179122   0.00544485
7152.00   0.46257871   0.00526252
7154.00   0.46220371   0.00511646
7156.00   0.46109086   0.00497012
7158.00   0.46050745   0.00506513
7160.00   0.46023902   0.00550097
7162.00   0.45952266   0.00562802
7164.00   0.45753586   0.00556051
7166.00   0.45701763   0.00548388
7168.00   0.45874935   0.00543889
7170.00   0.46213248   0.00540229
7172.00   0.46731696   0.00541981
7174.00   0.47779939   0.00549696
7176.00   0.47945535   0.00554163
7178.00   0.47504225   0.00560460
7180.00   0.46894902   0.00562045
7182.00   0.45845833   0.00556993
7184.00   0.44878808   0.00548997
7186.00   0.44898802   0.00537135
7188.00   0.45539278   0.00504973
7190.00   0.46734619   0.00551981
7192.00   0.49556395   0.00694096
7194.00   0.50787389   0.00741281
7196.00   0.50354207   0.00705096
7198.00   0.49298373   0.00643021
7200.00   0.48136592   0.00594159
7202.00   0.46543559   0.00535954
7204.00   0.45937747   0.00510117
7206.00   0.46237287   0.00525338
7208.00   0.46159270   0.00522886
7210.00   0.45884946   0.00511213
7212.00   0.45657808   0.00500871
7214.00   0.45535919   0.00493542
7216.00   0.45497316   0.00489460
7218.00   0.45712867   0.00502654
7220.00   0.46384442   0.00543817
7222.00   0.46618077   0.00555127
7224.00   0.46629152   0.00548505
7226.00   0.46551171   0.00541393
7228.00   0.46335289   0.00529127
7230.00   0.46079680   0.00521648
7232.00   0.46050385   0.00549077
7234.00   0.46076754   0.00596656
7236.00   0.46465340   0.00658396
7238.00   0.47378761   0.00762177
7240.00   0.48054472   0.00813144
7242.00   0.48831192   0.00805532
7244.00   0.49089134   0.00782837
7246.00   0.47729528   0.00791043
7248.00   0.44823569   0.00817441
7250.00   0.43818745   0.00797045
7252.00   0.43841061   0.00728280
7254.00   0.44100851   0.00670990
7256.00   0.45093691   0.00608292
7258.00   0.45939955   0.00557960
7260.00   0.45858383   0.00545926
7262.00   0.45253056   0.00563746
7264.00   0.45539775   0.00566938
7266.00   0.46484420   0.00555466
7268.00   0.47238031   0.00580183
7270.00   0.48428562   0.00638900
7272.00   0.48959586   0.00691568
7274.00   0.48244664   0.00736247
7276.00   0.46846786   0.00772713
7278.00   0.45895523   0.00773656
7280.00   0.44558194   0.00736313
7282.00   0.44398224   0.00712661
7284.00   0.45525786   0.00684756
7286.00   0.46283481   0.00658090
7288.00   0.46433413   0.00632577
7290.00   0.46366218   0.00609043
7292.00   0.46362096   0.00590087
7294.00   0.46349099   0.00573573
7296.00   0.46083939   0.00568902
7298.00   0.45655516   0.00575914
7300.00   0.45027730   0.00587085
7302.00   0.43819559   0.00608741
7304.00   0.42889616   0.00627374
7306.00   0.43222967   0.00628379
7308.00   0.44504759   0.00616787
7310.00   0.44694555   0.00623691
7312.00   0.44189417   0.00646022
7314.00   0.43906930   0.00658960
7316.00   0.43463892   0.00673358
7318.00   0.43354055   0.00675483
7320.00   0.43973947   0.00650432
7322.00   0.45046398   0.00607196
7324.00   0.45700020   0.00596964
7326.00   0.46264315   0.00614731
7328.00   0.46678731   0.00620313
7330.00   0.47228870   0.00620798
7332.00   0.47179660   0.00628201
7334.00   0.46061110   0.00647639
7336.00   0.44511202   0.00671569
7338.00   0.43805015   0.00689243
7340.00   0.43423307   0.00711640
7342.00   0.43475750   0.00710150
7344.00   0.44290322   0.00687608
7346.00   0.44805464   0.00660829
7348.00   0.45035967   0.00622948
7350.00   0.45033160   0.00584069
7352.00   0.44638053   0.00564523
7354.00   0.43789023   0.00558642
7356.00   0.43455535   0.00558960
7358.00   0.43124872   0.00573542
7360.00   0.43415004   0.00584773
7362.00   0.44651306   0.00593284
7364.00   0.45848498   0.00603917
7366.00   0.46330032   0.00623074
7368.00   0.46435690   0.00647465
7370.00   0.46256152   0.00646096
7372.00   0.45566925   0.00622582
7374.00   0.45001408   0.00599719
7376.00   0.44357842   0.00564195
7378.00   0.43766075   0.00533604
7380.00   0.43261459   0.00517411
7382.00   0.42829901   0.00510686
7384.00   0.42559215   0.00508352
7386.00   0.42628267   0.00514624
7388.00   0.42264935   0.00521536
7390.00   0.41238013   0.00531592
7392.00   0.40853262   0.00543902
7394.00   0.41495684   0.00559284
7396.00   0.42556110   0.00575761
7398.00   0.43306676   0.00591176
7400.00   0.44227788   0.00611596
7402.00   0.44339833   0.00609962
7404.00   0.43683213   0.00583418
7406.00   0.43063486   0.00565501
7408.00   0.42328891   0.00556653
7410.00   0.41655630   0.00551059
7412.00   0.41216412   0.00546850
7414.00   0.40858477   0.00545899
7416.00   0.41420537   0.00537536
7418.00   0.43399921   0.00509868
7420.00   0.44327053   0.00511079
7422.00   0.44556674   0.00546470
7424.00   0.44374985   0.00577776
7426.00   0.43768141   0.00586484
7428.00   0.42769778   0.00585306
7430.00   0.42087629   0.00594406
7432.00   0.41247725   0.00611525
7434.00   0.40997806   0.00619606
7436.00   0.41306156   0.00631282
7438.00   0.41703770   0.00625682
7440.00   0.42195290   0.00586171
7442.00   0.42693728   0.00528588
7444.00   0.42677638   0.00504635
7446.00   0.42127392   0.00506553
7448.00   0.41957146   0.00499433
7450.00   0.42058596   0.00489780
7452.00   0.41935110   0.00490092
7454.00   0.41359705   0.00504628
7456.00   0.40802035   0.00523690
7458.00   0.40886170   0.00538256
7460.00   0.41451350   0.00555159
7462.00   0.41799596   0.00555066
7464.00   0.42370814   0.00530668
7466.00   0.42499632   0.00523690
7468.00   0.41940382   0.00537246
7470.00   0.41470581   0.00551808
7472.00   0.41753182   0.00553635
7474.00   0.42495254   0.00549098
7476.00   0.42812410   0.00555539
7478.00   0.43174264   0.00573710
7480.00   0.43033519   0.00581084
7482.00   0.42331338   0.00585280
7484.00   0.41542029   0.00580656
7486.00   0.40709946   0.00559623
7488.00   0.39878199   0.00527865
7490.00   0.39796293   0.00513035
7492.00   0.40506491   0.00509919
7494.00   0.40897176   0.00505061
7496.00   0.41433272   0.00504638
7498.00   0.41737410   0.00502875
7500.00   0.41658700   0.00495602
7502.00   0.41423029   0.00489385
7504.00   0.41380712   0.00496974
7506.00   0.41440326   0.00516647
7508.00   0.41364706   0.00529643
7510.00   0.40938473   0.00548127
7512.00   0.41025996   0.00553503
7514.00   0.41703060   0.00530451
7516.00   0.42674395   0.00514560
7518.00   0.43868592   0.00551109
7520.00   0.45512256   0.00620640
7522.00   0.45728654   0.00656405
7524.00   0.44772479   0.00698570
7526.00   0.43791670   0.00699120
7528.00   0.42093235   0.00644591
7530.00   0.40870768   0.00583598
7532.00   0.41118234   0.00553681
7534.00   0.42269540   0.00538826
7536.00   0.42476150   0.00525803
7538.00   0.42141482   0.00522779
7540.00   0.42077935   0.00520687
7542.00   0.42042229   0.00527077
7544.00   0.42113549   0.00528291
7546.00   0.42368704   0.00514791
7548.00   0.42714733   0.00497080
7550.00   0.42924869   0.00503074
7552.00   0.43210787   0.00529473
7554.00   0.43071246   0.00545584
7556.00   0.42458501   0.00570560
7558.00   0.41948020   0.00576336
7560.00   0.41346797   0.00547270
7562.00   0.41024503   0.00512251
7564.00   0.41826135   0.00520391
7566.00   0.43835929   0.00557388
7568.00   0.44372758   0.00583359
7570.00   0.43890485   0.00625022
7572.00   0.43618703   0.00638461
7574.00   0.43494275   0.00618374
7576.00   0.43325424   0.00591474
7578.00   0.42991626   0.00578600
7580.00   0.42530861   0.00569910
7582.00   0.42306826   0.00574024
7584.00   0.42094585   0.00598770
7586.00   0.42223883   0.00608499
7588.00   0.43057096   0.00586635
7590.00   0.43489772   0.00596235
7592.00   0.42442861   0.00659453
7594.00   0.40830773   0.00751471
7596.00   0.42164037   0.00868961
7598.00   0.47438189   0.01001936
7600.00   0.48968184   0.01142796
7602.00   0.48586449   0.01362859
7604.00   0.47495019   0.01455864
7606.00   0.45627743   0.01378387
7608.00   0.43245077   0.01205240
7610.00   0.41336641   0.01067067
7612.00   0.39061728   0.00875667
7614.00   0.38517365   0.00752397
7616.00   0.39788243   0.00708377
7618.00   0.40700281   0.00683218
7620.00   0.41357994   0.00683185
7622.00   0.41794330   0.00708655
7624.00   0.41671741   0.00754337
7626.00   0.40979704   0.00826177
7628.00   0.41053537   0.00853957
7630.00   0.41902426   0.00865561
7632.00   0.42129767   0.00856075
7634.00   0.41529563   0.00811137
7636.00   0.41144571   0.00762705
7638.00   0.41818959   0.00736635
7640.00   0.43115205   0.00721598
7642.00   0.43317807   0.00707442
7644.00   0.42185497   0.00703457
7646.00   0.42480022   0.00692065
7648.00   0.44126809   0.00673807
7650.00   0.45481917   0.00658297
7652.00   0.46041170   0.00648399
7654.00   0.46161187   0.00642786
7656.00   0.45857054   0.00643741
7658.00   0.44851932   0.00650714
7660.00   0.44179094   0.00662473
7662.00   0.43711331   0.00691927
7664.00   0.42923826   0.00702004
7666.00   0.41564575   0.00683946
7668.00   0.40087679   0.00653307
7670.00   0.39099702   0.00630467
7672.00   0.38214982   0.00607862
7674.00   0.38207892   0.00580634
7676.00   0.39288160   0.00539712
7678.00   0.40073732   0.00514918
7680.00   0.40797195   0.00511385
7682.00   0.41261807   0.00516105
7684.00   0.41058147   0.00517131
7686.00   0.40288553   0.00518678
7688.00   0.40208480   0.00539426
7690.00   0.40394694   0.00581798
7692.00   0.40856072   0.00611219
7694.00   0.41925508   0.00642527
7696.00   0.42762229   0.00658836
7698.00   0.42748535   0.00646126
7700.00   0.42315003   0.00614343
7702.00   0.42779639   0.00604799
7704.00   0.44288239   0.00594711
7706.00   0.44761619   0.00613127
7708.00   0.44746616   0.00656046
7710.00   0.44367519   0.00704080
7712.00   0.43436706   0.00765666
7714.00   0.42270911   0.00822130
7716.00   0.41758746   0.00827956
7718.00   0.41825098   0.00786261
7720.00   0.41286340   0.00771451
7722.00   0.40257797   0.00776638
7724.00   0.39469278   0.00755981
7726.00   0.38934365   0.00686741
7728.00   0.38568690   0.00605931
7730.00   0.38356557   0.00580026
7732.00   0.38277447   0.00598024
7734.00   0.38535094   0.00584163
7736.00   0.39587787   0.00546720
7738.00   0.39803883   0.00533549
7740.00   0.38947818   0.00528225
7742.00   0.38151744   0.00555854
7744.00   0.38192272   0.00644397
7746.00   0.38685501   0.00761749
7748.00   0.39187655   0.00804372
7750.00   0.40049377   0.00811448
7752.00   0.40621775   0.00806732
7754.00   0.41125169   0.00766518
7756.00   0.41391370   0.00735857
7758.00   0.41278204   0.00743811
7760.00   0.40925708   0.00766328
7762.00   0.40730375   0.00753136
7764.00   0.40449145   0.00713067
7766.00   0.40435427   0.00676718
7768.00   0.40771282   0.00619726
7770.00   0.40926021   0.00580060
7772.00   0.40894610   0.00569919
7774.00   0.40652013   0.00578693
7776.00   0.39941651   0.00597208
7778.00   0.38613573   0.00636119
7780.00   0.38004699   0.00650939
7782.00   0.37310150   0.00621033
7784.00   0.37689152   0.00653990
7786.00   0.39990106   0.00775630
7788.00   0.42132524   0.00876027
7790.00   0.41859275   0.00887089
7792.00   0.39927706   0.00844232
7794.00   0.39498734   0.00816797
7796.00   0.39891553   0.00776601
7798.00   0.39931554   0.00735674
7800.00   0.39677757   0.00683974
7802.00   0.39538968   0.00637960
7804.00   0.39853242   0.00608598
7806.00   0.40396073   0.00593244
7808.00   0.40180835   0.00602015
7810.00   0.38830206   0.00649106
7812.00   0.38775727   0.00671314
7814.00   0.39904705   0.00682206
7816.00   0.40715629   0.00694886
7818.00   0.40875137   0.00717975
7820.00   0.40634251   0.00739757
7822.00   0.39809853   0.00735266
7824.00   0.37637278   0.00704643
7826.00   0.37602380   0.00686395
7828.00   0.39597499   0.00666122
7830.00   0.40839604   0.00651707
7832.00   0.40947333   0.00647177
7834.00   0.40790176   0.00645244
7836.00   0.41154206   0.00634338
7838.00   0.41795045   0.00613630
7840.00   0.42112550   0.00619780
7842.00   0.42474070   0.00650248
7844.00   0.42341155   0.00674388
7846.00   0.41426742   0.00695169
7848.00   0.40565524   0.00715984
7850.00   0.40430567   0.00740962
7852.00   0.40710708   0.00768729
7854.00   0.40865636   0.00772777
7856.00   0.41278964   0.00753990
7858.00   0.41301686   0.00740368
7860.00   0.40941158   0.00722629
7862.00   0.40561405   0.00707861
7864.00   0.40285417   0.00700166
7866.00   0.40042338   0.00696981
7868.00   0.39901507   0.00694874
7870.00   0.39926568   0.00695633
7872.00   0.39804223   0.00697504
7874.00   0.39531580   0.00706058
7876.00   0.39377117   0.00707092
7878.00   0.39354780   0.00694461
7880.00   0.39465931   0.00677124
7882.00   0.39863586   0.00670111
7884.00   0.40799609   0.00667925
7886.00   0.40730128   0.00669415
7888.00   0.39560112   0.00680119
7890.00   0.39012623   0.00684430
7892.00   0.39109960   0.00677977
7894.00   0.39537159   0.00672701
7896.00   0.40242741   0.00683749
7898.00   0.41381118   0.00708167
7900.00   0.41680852   0.00704118
7902.00   0.41173697   0.00662384
7904.00   0.41082731   0.00654365
7906.00   0.41573185   0.00665459
7908.00   0.41712290   0.00701571
7910.00   0.40803906   0.00775180
7912.00   0.39246073   0.00868129
7914.00   0.38367563   0.00914505
7916.00   0.37187129   0.00955438
7918.00   0.37417808   0.00950635
7920.00   0.39121765   0.00891622
7922.00   0.40923816   0.00824623
7924.00   0.42706019   0.00757025
7926.00   0.44380948   0.00686414
7928.00   0.44778603   0.00653133
7930.00   0.44173357   0.00668293
7932.00   0.43234897   0.00650700
7934.00   0.40841767   0.00607744
7936.00   0.39641368   0.00585661
7938.00   0.40047204   0.00593455
7940.00   0.41250342   0.00617694
7942.00   0.42716759   0.00652131
7944.00   0.45176625   0.00709230
7946.00   0.45507589   0.00713305
7948.00   0.44174016   0.00671125
7950.00   0.42805374   0.00638476
7952.00   0.40794361   0.00600595
7954.00   0.39077845   0.00576954
7956.00   0.38665131   0.00594031
7958.00   0.39133543   0.00639551
7960.00   0.39345625   0.00679990
7962.00   0.39998528   0.00748904
7964.00   0.40081510   0.00769532
7966.00   0.39467099   0.00746376
7968.00   0.39037490   0.00718060
7970.00   0.39209810   0.00698583
7972.00   0.39711857   0.00681187
7974.00   0.40263963   0.00684348
7976.00   0.41324309   0.00726275
7978.00   0.41679633   0.00721822
7980.00   0.41438216   0.00672988
7982.00   0.41291437   0.00640818
7984.00   0.41386423   0.00640953
7986.00   0.41563228   0.00660742
7988.00   0.41778466   0.00698623
7990.00   0.42372942   0.00770291
7992.00   0.41841963   0.00788531
7994.00   0.40058133   0.00777041
7996.00   0.38779414   0.00754396
7998.00   0.37875915   0.00708770
8000.00   0.37414226   0.00657430
8002.00   0.37842429   0.00631792
8004.00   0.39192018   0.00624198
8006.00   0.39536121   0.00606582
8008.00   0.39274603   0.00580750
8010.00   0.39127815   0.00569437
8012.00   0.39028639   0.00570503
8014.00   0.38854650   0.00581951
8016.00   0.38434565   0.00601993
8018.00   0.37857178   0.00630404
8020.00   0.38023961   0.00671602
8022.00   0.38918361   0.00747867
8024.00   0.39561728   0.00771343
8026.00   0.40260756   0.00754517
8028.00   0.40856850   0.00733096
8030.00   0.41262969   0.00719281
8032.00   0.41560826   0.00703920
8034.00   0.41893515   0.00679716
8036.00   0.41995615   0.00612785
8038.00   0.42675519   0.00638638
8040.00   0.44110656   0.00746378
8042.00   0.45099413   0.00825282
8044.00   0.45545894   0.00889124
8046.00   0.45592886   0.00928023
8048.00   0.45095730   0.00899072
8050.00   0.43770298   0.00795484
8052.00   0.43566760   0.00725943
8054.00   0.44689488   0.00639013
8056.00   0.44640785   0.00585385
8058.00   0.43139729   0.00587909
8060.00   0.41399240   0.00605704
8062.00   0.40332103   0.00605493
8064.00   0.39508069   0.00603589
8066.00   0.38964328   0.00590294
8068.00   0.38719597   0.00554937
8070.00   0.38673884   0.00539134
8072.00   0.38742432   0.00536891
8074.00   0.39189485   0.00545092
8076.00   0.40384954   0.00569510
8078.00   0.42028967   0.00602535
8080.00   0.42604634   0.00603676
8082.00   0.42271939   0.00570795
8084.00   0.42320156   0.00561264
8086.00   0.42269471   0.00561812
8088.00   0.42427522   0.00565399
8090.00   0.42989632   0.00571586
8092.00   0.43690649   0.00579899
8094.00   0.44013000   0.00586241
8096.00   0.44218147   0.00591945
8098.00   0.44039050   0.00598238
8100.00   0.43469030   0.00602135
8102.00   0.42768836   0.00611263
8104.00   0.41683283   0.00629734
8106.00   0.40712172   0.00647691
8108.00   0.40597367   0.00655653
8110.00   0.41127399   0.00660076
8112.00   0.41486713   0.00646316
8114.00   0.42257735   0.00601636
8116.00   0.42450392   0.00575647
8118.00   0.41906875   0.00562457
8120.00   0.41350451   0.00563256
8122.00   0.41272458   0.00588438
8124.00   0.41428816   0.00631332
8126.00   0.41586494   0.00632356
8128.00   0.42043304   0.00592217
8130.00   0.42085868   0.00577120
8132.00   0.41610977   0.00575442
8134.00   0.41337702   0.00578445
8136.00   0.41763768   0.00585538
8138.00   0.42410147   0.00595751
8140.00   0.41958284   0.00598661
8142.00   0.40146089   0.00588380
8144.00   0.39717165   0.00600873
8146.00   0.40298089   0.00636975
8148.00   0.40624827   0.00660519
8150.00   0.40406719   0.00668787
8152.00   0.40088582   0.00667610
8154.00   0.40150452   0.00655434
8156.00   0.40417185   0.00623295
8158.00   0.40788335   0.00617893
8160.00   0.41303697   0.00630610
8162.00   0.41938484   0.00644571
8164.00   0.42854422   0.00662329
8166.00   0.43702453   0.00680965
8168.00   0.43970776   0.00691898
8170.00   0.43739331   0.00694999
8172.00   0.44784236   0.00739517
8174.00   0.46848762   0.00803236
8176.00   0.48871705   0.00885211
8178.00   0.52263165   0.00992995
8180.00   0.54032671   0.01091134
8182.00   0.51297182   0.01164000
8184.00   0.45976791   0.01226755
8186.00   0.46482295   0.01305427
8188.00   0.53684807   0.01437818
8190.00   0.54700029   0.01461177
8192.00   0.51723444   0.01396733
8194.00   0.48390830   0.01318538
8196.00   0.45173123   0.01242662
8198.00   0.41959858   0.01155636
8200.00   0.40398461   0.01066772
8202.00   0.40292931   0.00956335
8204.00   0.39824927   0.00882930
8206.00   0.39488754   0.00853411
8208.00   0.39461768   0.00820218
8210.00   0.40136853   0.00774170
8212.00   0.40726677   0.00733925
8214.00   0.39935410   0.00723427
8216.00   0.37815905   0.00741909
8218.00   0.37725380   0.00739328
8220.00   0.39234036   0.00729568
8222.00   0.40334743   0.00719184
8224.00   0.41622359   0.00706494
8226.00   0.42347533   0.00693065
8228.00   0.41388491   0.00680083
8230.00   0.39157942   0.00666806
8232.00   0.39496413   0.00657508
8234.00   0.42187271   0.00648457
8236.00   0.43673548   0.00647652
8238.00   0.45038787   0.00655181
8240.00   0.45587450   0.00666070
8242.00   0.44657093   0.00683417
8244.00   0.42849514   0.00702228
8246.00   0.42079785   0.00696022
8248.00   0.41600180   0.00657345
8250.00   0.41579697   0.00644758
8252.00   0.42491090   0.00650480
8254.00   0.42870402   0.00649738
8256.00   0.42346922   0.00637891
8258.00   0.41427526   0.00620169
8260.00   0.40662479   0.00598316
8262.00   0.39786017   0.00563793
8264.00   0.39027411   0.00551535
8266.00   0.37952492   0.00553882
8268.00   0.37644997   0.00564650
8270.00   0.38265991   0.00576506
8272.00   0.39301470   0.00604560
8274.00   0.40474340   0.00664770
8276.00   0.42110315   0.00746210
8278.00   0.42252395   0.00808464
8280.00   0.41024625   0.00885115
8282.00   0.40072745   0.00918436
8284.00   0.38781232   0.00908087
8286.00   0.37937540   0.00891049
8288.00   0.38173461   0.00885795
8290.00   0.39133015   0.00882748
8292.00   0.39938486   0.00894109
8294.00   0.41690168   0.00936126
8296.00   0.41753563   0.00938733
8298.00   0.39934671   0.00914526
8300.00   0.38614738   0.00879222
8302.00   0.38444337   0.00829238
8304.00   0.38932312   0.00768738
8306.00   0.40124413   0.00732929
8308.00   0.43000832   0.00720230
8310.00   0.43582562   0.00695759
8312.00   0.42492649   0.00660321
8314.00   0.41413558   0.00641525
8316.00   0.40219748   0.00649370
8318.00   0.39144287   0.00667060
8320.00   0.38917720   0.00677670
8322.00   0.39319929   0.00695256
8324.00   0.39827886   0.00676724
8326.00   0.40823680   0.00599201
8328.00   0.41648018   0.00563965
8330.00   0.42433554   0.00565015
8332.00   0.43059266   0.00601976
8334.00   0.43432349   0.00671689
8336.00   0.43622458   0.00762624
8338.00   0.43160382   0.00891901
8340.00   0.41455129   0.01092004
8342.00   0.40929076   0.01185283
8344.00   0.41289124   0.01233578
8346.00   0.41943914   0.01232615
8348.00   0.42993057   0.01157120
8350.00   0.44233292   0.01017448
8352.00   0.43799236   0.00926931
8354.00   0.41163227   0.00852294
8356.00   0.40412867   0.00784612
8358.00   0.40823713   0.00732880
8360.00   0.41061676   0.00692636
8362.00   0.40879601   0.00670087
8364.00   0.40526143   0.00659047
8366.00   0.40028501   0.00637695
8368.00   0.39244708   0.00610426
8370.00   0.38785791   0.00595326
8372.00   0.37906793   0.00576721
8374.00   0.38254145   0.00586862
8376.00   0.40811846   0.00628150
8378.00   0.43328097   0.00684670
8380.00   0.43112010   0.00750425
8382.00   0.40988463   0.00832010
8384.00   0.39997876   0.00864436
8386.00   0.38625884   0.00868118
8388.00   0.38506392   0.00862008
8390.00   0.40442851   0.00801096
8392.00   0.41860500   0.00783862
8394.00   0.40694824   0.00909032
8396.00   0.38021439   0.01091494
8398.00   0.37462738   0.01124646
8400.00   0.37940079   0.01069781
8402.00   0.38860631   0.01008756
8404.00   0.40972418   0.00870856
8406.00   0.42690685   0.00758280
8408.00   0.43496138   0.00755118
8410.00   0.43768322   0.00804870
8412.00   0.43609509   0.00792247
8414.00   0.42789268   0.00742507
8416.00   0.42041454   0.00719132
8418.00   0.40640634   0.00682940
8420.00   0.40027502   0.00694472
8422.00   0.40884188   0.00764433
8424.00   0.41977462   0.00859353
8426.00   0.41453722   0.00963128
8428.00   0.39704776   0.01108963
8430.00   0.38833395   0.01113968
8432.00   0.38081184   0.00989617
8434.00   0.37728873   0.00882223
8436.00   0.37913641   0.00772171
8438.00   0.38262823   0.00669073
8440.00   0.38417527   0.00611207
8442.00   0.38516924   0.00597148
8444.00   0.38974231   0.00608905
8446.00   0.39830846   0.00673251
8448.00   0.40509734   0.00716072
8450.00   0.41414711   0.00759374
8452.00   0.41827011   0.00789272
8454.00   0.40786284   0.00789716
8456.00   0.39062303   0.00774939
8458.00   0.40396765   0.00806848
8460.00   0.46437284   0.00891854
8462.00   0.47118747   0.00920724
8464.00   0.43297508   0.00930687
8466.00   0.40499687   0.00914729
8468.00   0.40198618   0.00858159
8470.00   0.40856037   0.00774470
8472.00   0.41156811   0.00711330
8474.00   0.42014843   0.00646063
8476.00   0.41652226   0.00603611
8478.00   0.39836830   0.00586918
8480.00   0.38856533   0.00580800
8482.00   0.39012513   0.00589765
8484.00   0.39508107   0.00606273
8486.00   0.39628968   0.00617944
8488.00   0.39641228   0.00628779
8490.00   0.39864203   0.00648603
8492.00   0.40204555   0.00677836
8494.00   0.40630597   0.00702766
8496.00   0.41375202   0.00722291
8498.00   0.41899434   0.00744678
8500.00   0.41740817   0.00782770
8502.00   0.41120952   0.00829383
8504.00   0.40724042   0.00821504
8506.00   0.40041617   0.00756403
8508.00   0.39968723   0.00709519
8510.00   0.40432629   0.00655672
8512.00   0.41059259   0.00612424
8514.00   0.41894308   0.00593709
8516.00   0.42806885   0.00592067
8518.00   0.42925638   0.00588986
8520.00   0.42438984   0.00598051
8522.00   0.41836688   0.00595044
8524.00   0.40712598   0.00582007
8526.00   0.39801148   0.00573252
8528.00   0.39139989   0.00568301
8530.00   0.38707051   0.00569413
8532.00   0.38711768   0.00586669
8534.00   0.39259443   0.00623091
8536.00   0.39344984   0.00634450
8538.00   0.39248550   0.00619905
8540.00   0.39078155   0.00626797
8542.00   0.38649902   0.00665810
8544.00   0.38345230   0.00700774
8546.00   0.38754326   0.00702854
8548.00   0.39797518   0.00684251
8550.00   0.39270690   0.00671424
8552.00   0.36890864   0.00654147
8554.00   0.35891742   0.00636044
8556.00   0.35828343   0.00611615
8558.00   0.36269030   0.00592111
8560.00   0.37396541   0.00584029
8562.00   0.39024988   0.00584666
8564.00   0.38947991   0.00597438
8566.00   0.36531085   0.00631620
8568.00   0.36514404   0.00648813
8570.00   0.38469803   0.00665071
8572.00   0.40026569   0.00667481
8574.00   0.40676928   0.00646663
8576.00   0.40794685   0.00613258
8578.00   0.40106696   0.00594900
8580.00   0.38112485   0.00580782
8582.00   0.37345275   0.00575082
8584.00   0.37112030   0.00568915
8586.00   0.37177995   0.00585410
8588.00   0.37683153   0.00636572
8590.00   0.38359365   0.00689607
8592.00   0.38845366   0.00713822
8594.00   0.39425161   0.00727574
8596.00   0.39214385   0.00715366
8598.00   0.37923592   0.00651462
8600.00   0.37325647   0.00624671
8602.00   0.37302750   0.00642480
8604.00   0.37569076   0.00667064
8606.00   0.38023406   0.00673965
8608.00   0.38722709   0.00674989
8610.00   0.39468172   0.00690086
8612.00   0.40762392   0.00701833
8614.00   0.41189927   0.00742311
8616.00   0.40806973   0.00817861
8618.00   0.40306520   0.00879775
8620.00   0.39802870   0.00912575
8622.00   0.39297956   0.00932499
8624.00   0.39568096   0.00957546
8626.00   0.41025671   0.00989119
8628.00   0.41214710   0.00999698
8630.00   0.40392062   0.00993480
8632.00   0.39881510   0.00983350
8634.00   0.39969656   0.00971263
8636.00   0.40281278   0.00954734
8638.00   0.40498823   0.00932663
8640.00   0.40837690   0.00903308
8642.00   0.40858492   0.00874636
8644.00   0.40603635   0.00822413
8646.00   0.40356261   0.00810683
8648.00   0.40353149   0.00857000
8650.00   0.40042588   0.00912999
8652.00   0.38688162   0.00940213
8654.00   0.36414754   0.00957015
8656.00   0.35230982   0.00971810
8658.00   0.34267214   0.00980360
8660.00   0.34180355   0.00988430
8662.00   0.35367677   0.01002854
8664.00   0.36573547   0.01004581
8666.00   0.37019339   0.00978330
8668.00   0.37133133   0.00931117
8670.00   0.37396169   0.00893494
8672.00   0.37559581   0.00849503
8674.00   0.37889570   0.00815866
8676.00   0.38606131   0.00792792
8678.00   0.38931191   0.00771180
8680.00   0.38484368   0.00747845
8682.00   0.37667158   0.00725572
8684.00   0.37239364   0.00707167
8686.00   0.36857623   0.00693426
8688.00   0.36744994   0.00678416
8690.00   0.37053713   0.00660623
8692.00   0.37149641   0.00649782
8694.00   0.36859578   0.00647782
8696.00   0.36521888   0.00651700
8698.00   0.36560473   0.00659197
8700.00   0.36883387   0.00672129
8702.00   0.36964878   0.00683799
8704.00   0.36619723   0.00710554
8706.00   0.36929891   0.00708632
8708.00   0.38285467   0.00664261
8710.00   0.39498627   0.00616842
8712.00   0.39468360   0.00606424
8714.00   0.38633952   0.00617734
8716.00   0.38679555   0.00626678
8718.00   0.39457113   0.00654718
8720.00   0.39605024   0.00657623
8722.00   0.39216295   0.00631508
8724.00   0.38807449   0.00610594
8726.00   0.38622564   0.00614233
8728.00   0.38496444   0.00629811
8730.00   0.38194665   0.00638470
8732.00   0.37463745   0.00646713
8734.00   0.37454969   0.00655659
8736.00   0.38161421   0.00664242
8738.00   0.38660765   0.00674436
8740.00   0.38660729   0.00692389
8742.00   0.38537431   0.00707674
8744.00   0.38837484   0.00696493
8746.00   0.39659992   0.00652370
8748.00   0.39540732   0.00644844
8750.00   0.38585678   0.00641424
8752.00   0.37825286   0.00676776
8754.00   0.37170991   0.00750882
8756.00   0.36686000   0.00840390
8758.00   0.36787403   0.00926694
8760.00   0.37617415   0.01012169
8762.00   0.36411139   0.01129600
8764.00   0.31158188   0.01316681
8766.00   0.31002256   0.01394766
8768.00   0.37485883   0.01391818
8770.00   0.43284211   0.01351087
8772.00   0.43458620   0.01278735
8774.00   0.40585980   0.01163386
8776.00   0.39209318   0.01108260
8778.00   0.36827943   0.01124468
8780.00   0.36487326   0.01077646
8782.00   0.38341764   0.00951560
8784.00   0.39943016   0.00856669
8786.00   0.40570697   0.00875985
8788.00   0.40717372   0.00942908
8790.00   0.40260303   0.00927668
8792.00   0.38854527   0.00854111
8794.00   0.37994072   0.00809033
8796.00   0.36900380   0.00761539
8798.00   0.36512047   0.00726895
8800.00   0.37024963   0.00714122
8802.00   0.38099280   0.00711627
8804.00   0.39496005   0.00700225
8806.00   0.41694885   0.00683153
8808.00   0.42521438   0.00686362
8810.00   0.42316577   0.00704951
8812.00   0.42138129   0.00727980
8814.00   0.41206282   0.00725404
8816.00   0.41014642   0.00766309
8818.00   0.43750033   0.00906460
8820.00   0.48914889   0.01091290
8822.00   0.48952952   0.01232189
8824.00   0.44616950   0.01419025
8826.00   0.41617760   0.01481070
8828.00   0.38223642   0.01438953
8830.00   0.35850671   0.01364560
8832.00   0.35544139   0.01283085
8834.00   0.36606273   0.01176440
8836.00   0.37428677   0.01085185
8838.00   0.38996723   0.00987700
8840.00   0.39929140   0.00909998
8842.00   0.40951926   0.00851721
8844.00   0.41156164   0.00809388
8846.00   0.39867163   0.00790005
8848.00   0.38029566   0.00787047
8850.00   0.37618440   0.00776678
8852.00   0.38026348   0.00769431
8854.00   0.38551265   0.00760026
8856.00   0.39654213   0.00720802
8858.00   0.40615302   0.00737701
8860.00   0.41572994   0.00825786
8862.00   0.42302608   0.00927674
8864.00   0.42328867   0.01012341
8866.00   0.41705257   0.01110969
8868.00   0.41576058   0.01104749
8870.00   0.41572595   0.00976016
8872.00   0.41687506   0.00893192
8874.00   0.40968481   0.00790924
8876.00   0.41669074   0.00783287
8878.00   0.46367973   0.00989725
8880.00   0.53903139   0.01274528
8882.00   0.56134820   0.01385255
8884.00   0.55692673   0.01465986
8886.00   0.53141308   0.01444733
8888.00   0.46265486   0.01271111
8890.00   0.40506417   0.01089124
8892.00   0.38118982   0.00978981
8894.00   0.37393475   0.00907578
8896.00   0.36528203   0.00872809
8898.00   0.36752409   0.00912475
8900.00   0.35999623   0.00918593
8902.00   0.34693363   0.00936012
8904.00   0.33384323   0.00929487
8906.00   0.31530803   0.00867437
8908.00   0.30147159   0.00798015
8910.00   0.31519598   0.00811369
8912.00   0.35761479   0.00830609
8914.00   0.37369016   0.01049588
8916.00   0.38148969   0.01478837
8918.00   0.37871924   0.01646272
8920.00   0.35505456   0.01628384
8922.00   0.33356461   0.01515938
8924.00   0.33951759   0.01320987
8926.00   0.36379510   0.00935556
8928.00   0.37770194   0.00734766
8930.00   0.39413241   0.00770074
8932.00   0.40238747   0.00773514
8934.00   0.40162569   0.00803113
8936.00   0.39902005   0.00848182
8938.00   0.39834377   0.00900091
8940.00   0.39743301   0.00960244
8942.00   0.39469808   0.01007592
8944.00   0.38590890   0.01028081
8946.00   0.38711441   0.01097315
8948.00   0.39489806   0.01201973
8950.00   0.40655339   0.01301628
8952.00   0.42678472   0.01401613
8954.00   0.44798088   0.01491030
8956.00   0.44657508   0.01530356
8958.00   0.42285979   0.01562697
8960.00   0.41346353   0.01490568
8962.00   0.40795410   0.01244888
8964.00   0.40412831   0.01037792
8966.00   0.40212762   0.00926842
8968.00   0.40176642   0.00870240
8970.00   0.40256247   0.00833777
8972.00   0.40507740   0.00848500
8974.00   0.40688935   0.00855281
8976.00   0.40801582   0.00879564
8978.00   0.41081026   0.00900313
8980.00   0.41812611   0.00914597
8982.00   0.42259008   0.00936071
8984.00   0.41773689   0.00981649
8986.00   0.40645349   0.01042681
8988.00   0.39719200   0.01049342
8990.00   0.38158271   0.00998975
8992.00   0.37748984   0.00981813
8994.00   0.38524100   0.00973246
8996.00   0.39339328   0.00985600
8998.00   0.39849460   0.01039442
9000.00   0.40230060   0.01108744
9002.00   0.40043813   0.01113473
9004.00   0.39348239   0.01068344
9006.00   0.38504854   0.01029662
9008.00   0.36486498   0.00970812
9010.00   0.35869294   0.00913237
9012.00   0.37651932   0.00851655
9014.00   0.40331948   0.00798247
9016.00   0.41737574   0.00796901
9018.00   0.43016979   0.00856223
9020.00   0.42773271   0.00855199
9022.00   0.40963131   0.00815001
9024.00   0.39019793   0.00784504
9026.00   0.36285427   0.00760419
9028.00   0.33943442   0.00744248
9030.00   0.33568320   0.00744104
9032.00   0.34629345   0.00757474
9034.00   0.35394955   0.00775975
9036.00   0.36649725   0.00804856
9038.00   0.37717310   0.00833552
9040.00   0.38712391   0.00864035
9042.00   0.39649916   0.00895404
9044.00   0.40590775   0.00931853
9046.00   0.41492224   0.00969950
9048.00   0.41847283   0.00976994
9050.00   0.41958943   0.00951429
9052.00   0.41411120   0.00939403
9054.00   0.39715821   0.00935962
9056.00   0.38476390   0.00921924
9058.00   0.38170427   0.00880852
9060.00   0.38410467   0.00829592
9062.00   0.39061144   0.00821435
9064.00   0.40875834   0.00856421
9066.00   0.41047144   0.00859959
9068.00   0.39928913   0.00855813
9070.00   0.38957015   0.00841158
9072.00   0.38103026   0.00805502
9074.00   0.37411454   0.00766412
9076.00   0.37224841   0.00756354
9078.00   0.37361130   0.00766765
9080.00   0.38061732   0.00775344
9082.00   0.39965582   0.00786984
9084.00   0.40877882   0.00807663
9086.00   0.40567198   0.00841424
9088.00   0.40169206   0.00874989
9090.00   0.40550536   0.00899556
9092.00   0.41324940   0.00920207
9094.00   0.41919437   0.00933815
9096.00   0.42538351   0.00924987
9098.00   0.43147442   0.00948238
9100.00   0.44215015   0.01025140
9102.00   0.44565681   0.01063725
9104.00   0.43428770   0.01015366
9106.00   0.41387725   0.00911581
9108.00   0.39963537   0.00853540
9110.00   0.38470319   0.00807037
9112.00   0.37370434   0.00776478
9114.00   0.36414132   0.00769690
9116.00   0.35915491   0.00769252
9118.00   0.36122659   0.00768127
9120.00   0.36658067   0.00775913
9122.00   0.36752453   0.00809473
9124.00   0.36474830   0.00876487
9126.00   0.36916089   0.00896543
9128.00   0.38310885   0.00886013
9130.00   0.38961497   0.00877211
9132.00   0.38625163   0.00868559
9134.00   0.38013235   0.00859513
9136.00   0.37744620   0.00852161
9138.00   0.37534904   0.00843422
9140.00   0.37483877   0.00851969
9142.00   0.37556186   0.00880344
9144.00   0.37760392   0.00899808
9146.00   0.38021818   0.00910278
9148.00   0.38516581   0.00924245
9150.00   0.39485902   0.00953225
9152.00   0.40802938   0.00990062
9154.00   0.41497347   0.00998142
9156.00   0.41666269   0.00982943
9158.00   0.42102528   0.00970808
9160.00   0.42740479   0.00944562
9162.00   0.43222392   0.00931377
9164.00   0.43307504   0.00948447
9166.00   0.43253103   0.00978123
9168.00   0.43740511   0.00983521
9170.00   0.45119828   0.00978919
9172.00   0.45076144   0.00963864
9174.00   0.44109926   0.00931029
9176.00   0.42783836   0.00899210
9178.00   0.40741152   0.00869407
9180.00   0.38665619   0.00840724
9182.00   0.37965682   0.00815197
9184.00   0.38482019   0.00787177
9186.00   0.37817577   0.00786466
9188.00   0.36154586   0.00819587
9190.00   0.35248452   0.00838146
9192.00   0.35188267   0.00851090
9194.00   0.35357925   0.00851631
9196.00   0.35345963   0.00822896
9198.00   0.35355982   0.00764993
9200.00   0.35236734   0.00751131
9202.00   0.34640685   0.00770949
9204.00   0.34846020   0.00784614
9206.00   0.35826743   0.00798771
9208.00   0.36989218   0.00816866
9210.00   0.38245654   0.00837820
9212.00   0.39584914   0.00862508
9214.00   0.39946234   0.00900826
9216.00   0.39517224   0.00974895
9218.00   0.38945624   0.00992130
9220.00   0.37229425   0.00965959
9222.00   0.36609060   0.00938335
9224.00   0.37922624   0.00913269
9226.00   0.40158173   0.00891083
9228.00   0.41844553   0.00895521
9230.00   0.43904930   0.00931973
9232.00   0.44784695   0.00935518
9234.00   0.44934142   0.00917476
9236.00   0.44435683   0.00903871
9238.00   0.43079299   0.00895101
9240.00   0.41287342   0.00888676
9242.00   0.39439717   0.00885986
9244.00   0.37047094   0.00887850
9246.00   0.36563683   0.00883972
9248.00   0.38320643   0.00874656
9250.00   0.38807628   0.00869191
9252.00   0.38245058   0.00872224
9254.00   0.37365475   0.00869601
9256.00   0.36380610   0.00846371
9258.00   0.35163191   0.00807983
9260.00   0.34877741   0.00798898
9262.00   0.35543185   0.00810994
9264.00   0.35782501   0.00823404
9266.00   0.36039764   0.00842263
9268.00   0.36023372   0.00863698
9270.00   0.35407534   0.00884751
9272.00   0.34536645   0.00908100
9274.00   0.34499380   0.00941159
9276.00   0.34814680   0.00995021
9278.00   0.35770792   0.01015128
9280.00   0.37855786   0.00996992
9282.00   0.39444473   0.01004045
9284.00   0.40366048   0.01047554
9286.00   0.40830818   0.01106841
9288.00   0.40705815   0.01170634
9290.00   0.39745378   0.01260770
9292.00   0.39539212   0.01276169
9294.00   0.40120903   0.01187190
9296.00   0.39881346   0.01186836
9298.00   0.38635203   0.01253946
9300.00   0.37107494   0.01387124
9302.00   0.35941383   0.01593254
9304.00   0.34906900   0.01841149
9306.00   0.33243445   0.02092106
9308.00   0.28963727   0.02383536
9310.00   0.29205295   0.02613746
9312.00   0.34945294   0.02805767
9314.00   0.40359548   0.02986345
9316.00   0.43124878   0.03213156
9318.00   0.44388956   0.03437164
9320.00   0.40370861   0.03373119
9322.00   0.26170975   0.02941100
9324.00   0.22684129   0.02690785
9326.00   0.27166075   0.02489731
9328.00   0.31454077   0.02325099
9330.00   0.33587575   0.02180994
9332.00   0.35199043   0.02096839
9334.00   0.36537066   0.02177473
9336.00   0.37292746   0.02484520
9338.00   0.38362598   0.02533596
9340.00   0.40176514   0.02447326
9342.00   0.40684983   0.02328582
9344.00   0.39269182   0.02114650
9346.00   0.37251177   0.01898250
9348.00   0.35831124   0.01911968
9350.00   0.33807141   0.02118020
9352.00   0.35887092   0.02154020
9354.00   0.43883970   0.02138826
9356.00   0.47513309   0.02079163
9358.00   0.46277541   0.01899513
9360.00   0.44598871   0.01750127
9362.00   0.44378966   0.01681930
9364.00   0.44403026   0.01653263
9366.00   0.52604520   0.02392119
9368.00   0.73350668   0.03298131
9370.00   0.83603996   0.04232717
9372.00   0.91361797   0.05641085
9374.00   0.89637673   0.06314851
9376.00   0.70160282   0.05898276
9378.00   0.40982693   0.04735323
9380.00   0.31071821   0.03948040
9382.00   0.35357043   0.02991932
9384.00   0.34315670   0.02190101
9386.00   0.33491406   0.01750234
9388.00   0.33606869   0.01420477
9390.00   0.35632658   0.01265831
9392.00   0.37940490   0.01325655
9394.00   0.37196183   0.01348040
9396.00   0.33472636   0.01461279
9398.00   0.33017597   0.01508539
9400.00   0.34606069   0.01544197
9402.00   0.36068064   0.01559360
9404.00   0.37511334   0.01543329
9406.00   0.39050058   0.01521583
9408.00   0.40605664   0.01515116
9410.00   0.42244634   0.01507161
9412.00   0.43660498   0.01570384
9414.00   0.45395279   0.01683526
9416.00   0.46054226   0.01812709
9418.00   0.46633559   0.02002735
9420.00   0.45309284   0.02141233
9422.00   0.39745232   0.02183331
9424.00   0.31375739   0.02164676
9426.00   0.28914487   0.02071229
9428.00   0.32293293   0.01689756
9430.00   0.31568497   0.01688315
9432.00   0.28053439   0.01941691
9434.00   0.25279769   0.02284358
9436.00   0.24241678   0.02783346
9438.00   0.24143271   0.03238793
9440.00   0.24687625   0.03229656
9442.00   0.26227653   0.02790507
9444.00   0.27800676   0.02502037
9446.00   0.29149044   0.02046758
9448.00   0.31858900   0.01768276
9450.00   0.37123084   0.01848723
9452.00   0.42622364   0.02093500
9454.00   0.45050165   0.02327574
9456.00   0.45601332   0.02669531
9458.00   0.45436937   0.02706700
9460.00   0.43090230   0.02494399
9462.00   0.41921434   0.02307085
9464.00   0.40928888   0.02047038
9466.00   0.41464350   0.01845164
9468.00   0.46309182   0.01871408
9470.00   0.54829931   0.02050917
9472.00   0.53546941   0.02423659
9474.00   0.42822492   0.03171503
9476.00   0.36225653   0.03368679
9478.00   0.29376706   0.03208045
9480.00   0.25912088   0.02914625
9482.00   0.29494140   0.02486231
9484.00   0.37049082   0.01842019
9486.00   0.37575549   0.01546543
9488.00   0.31753060   0.01688218
9490.00   0.30836996   0.01759122
9492.00   0.31908849   0.01933869
9494.00   0.33848789   0.02109760
9496.00   0.37435278   0.02326919
9498.00   0.41226372   0.02505389
9500.00   0.41344079   0.02463523
9502.00   0.38047537   0.02210142
9504.00   0.37261879   0.02016835
9506.00   0.37591591   0.01722062
9508.00   0.37729049   0.01509102
9510.00   0.37530196   0.01406366
9512.00   0.37454510   0.01426870
9514.00   0.37812519   0.01593531
9516.00   0.38365743   0.01872485
9518.00   0.39981875   0.02109770
9520.00   0.44463173   0.02501261
9522.00   0.45261759   0.02578915
9524.00   0.41683188   0.02328034
9526.00   0.38001934   0.01995775
9528.00   0.36568549   0.01767419
9530.00   0.36157271   0.01559935
9532.00   0.37710765   0.01478052
9534.00   0.43218285   0.01594673
9536.00   0.45026723   0.01627503
9538.00   0.43700317   0.01628278
9540.00   0.42883298   0.01652918
9542.00   0.44256693   0.01723997
9544.00   0.46242729   0.01815209
9546.00   0.45969108   0.01887182
9548.00   0.44770068   0.01970833
9550.00   0.41651410   0.02007793
9552.00   0.34707174   0.02009081
9554.00   0.30241108   0.02000709
9556.00   0.29478043   0.01963737
9558.00   0.30290547   0.01933563
9560.00   0.30570185   0.01983436
9562.00   0.31145701   0.02096869
9564.00   0.32237247   0.02172321
9566.00   0.33930892   0.02306135
9568.00   0.35752672   0.02305918
9570.00   0.38390180   0.02131609
9572.00   0.40417388   0.01895384
9574.00   0.40203458   0.01702317
9576.00   0.38302270   0.01493282
9578.00   0.37783590   0.01402163
9580.00   0.37422717   0.01436963
9582.00   0.37847158   0.01501080
9584.00   0.38514990   0.01641994
9586.00   0.40465820   0.01766220
9588.00   0.45789561   0.01852839
9590.00   0.52700359   0.01916395
9592.00   0.51446813   0.01886733
9594.00   0.40594682   0.01710714
9596.00   0.36754891   0.01635792
9598.00   0.36598086   0.01605579
9600.00   0.36216828   0.01598134
9602.00   0.34344757   0.01617897
9604.00   0.32448298   0.01654103
9606.00   0.32526872   0.01673950
9608.00   0.34352529   0.01707557
9610.00   0.35498729   0.01678998
9612.00   0.37522265   0.01546530
9614.00   0.38042432   0.01490134
9616.00   0.36287263   0.01546331
9618.00   0.34031445   0.01636977
9620.00   0.33171102   0.01704422
9622.00   0.32826188   0.01784439
9624.00   0.33447930   0.01795730
9626.00   0.36393109   0.01764002
9628.00   0.36979291   0.01695599
9630.00   0.34664157   0.01538290
9632.00   0.32407844   0.01387776
9634.00   0.32199469   0.01351819
9636.00   0.33049136   0.01391743
9638.00   0.33840582   0.01401264
9640.00   0.35118002   0.01423095
9642.00   0.36357298   0.01436504
9644.00   0.38096374   0.01448311
9646.00   0.39258543   0.01454143
9648.00   0.39230272   0.01445418
9650.00   0.38562071   0.01431965
9652.00   0.38428020   0.01448499
9654.00   0.37465039   0.01451106
9656.00   0.39088038   0.01549937
9658.00   0.45278683   0.01753048
9660.00   0.47535247   0.01896914
9662.00   0.42768949   0.01994793
9664.00   0.36068472   0.02044940
9666.00   0.34762210   0.01990142
9668.00   0.37011153   0.01804166
9670.00   0.36808035   0.01707872
9672.00   0.35120499   0.01615720
9674.00   0.34729877   0.01593711
9676.00   0.36647940   0.01655077
9678.00   0.38101992   0.01758615
9680.00   0.36067906   0.01897772
9682.00   0.31436995   0.02086958
9684.00   0.30037197   0.02072956
9686.00   0.30893746   0.01830486
9688.00   0.30938417   0.01696645
9690.00   0.30610922   0.01601509
9692.00   0.30285507   0.01594638
9694.00   0.29880533   0.01750510
9696.00   0.29495320   0.01987384
9698.00   0.30486307   0.02053321
9700.00   0.33425796   0.02046912
9702.00   0.34786469   0.01986232
9704.00   0.35480851   0.01768293
9706.00   0.35670781   0.01625765
9708.00   0.34876281   0.01650835
9710.00   0.33853582   0.01781545
9712.00   0.34965816   0.01990068
9714.00   0.39135432   0.02343018
9716.00   0.38678101   0.02471025
9718.00   0.33449379   0.02521840
9720.00   0.30709669   0.02474080
9722.00   0.30970570   0.02248721
9724.00   0.32884553   0.01958662
9726.00   0.36246106   0.01845920
9728.00   0.42153391   0.01855136
9730.00   0.43711051   0.01852278
9732.00   0.41589263   0.01909758
9734.00   0.40576386   0.01938057
9736.00   0.40425405   0.01943971
9738.00   0.40185213   0.01942347
9740.00   0.39528283   0.01947069
9742.00   0.38658795   0.01953452
9744.00   0.36342010   0.01897802
9746.00   0.30730557   0.01746068
9748.00   0.29214233   0.01659542
9750.00   0.31785893   0.01617027
9752.00   0.34066030   0.01594252
9754.00   0.34238383   0.01592093
9756.00   0.33560929   0.01605953
9758.00   0.33125448   0.01587578
9760.00   0.31964490   0.01524503
9762.00   0.32087934   0.01520613
9764.00   0.33247516   0.01573803
9766.00   0.34464866   0.01603767
9768.00   0.35937640   0.01596539
9770.00   0.37230742   0.01571799
9772.00   0.36942554   0.01540917
9774.00   0.34633386   0.01479806
9776.00   0.35274959   0.01481258
9778.00   0.38647634   0.01487827
9780.00   0.40764523   0.01583921
9782.00   0.41475189   0.01771989
9784.00   0.41740805   0.01983928
9786.00   0.42347035   0.02194913
9788.00   0.43142137   0.02431611
9790.00   0.42134833   0.02512277
9792.00   0.38553464   0.02469047
9794.00   0.36915943   0.02440423
9796.00   0.37189695   0.02412920
9798.00   0.37474543   0.02357853
9800.00   0.36862481   0.02248003
9802.00   0.35834914   0.02091367
9804.00   0.33989552   0.01976996
9806.00   0.30001411   0.01855431
9808.00   0.28747913   0.01799468
9810.00   0.29230127   0.01832858
9812.00   0.30663320   0.01856718
9814.00   0.33556283   0.01844092
9816.00   0.37037060   0.01816381
9818.00   0.37882277   0.01776673
9820.00   0.36744940   0.01685727
9822.00   0.35900903   0.01690874
9824.00   0.34810653   0.01792200
9826.00   0.33038110   0.01857193
9828.00   0.29701352   0.01890610
9830.00   0.26510778   0.01893265
9832.00   0.25984451   0.01829003
9834.00   0.27037999   0.01674787
9836.00   0.29868066   0.01623294
9838.00   0.37123078   0.01596457
9840.00   0.40488833   0.01663800
9842.00   0.39652064   0.01870193
9844.00   0.37647435   0.02051663
9846.00   0.36395615   0.02116416
9848.00   0.34939077   0.02123805
9850.00   0.33924407   0.02078185
9852.00   0.33419374   0.01916807
9854.00   0.32497436   0.01817479
9856.00   0.30773005   0.01716840
9858.00   0.29745808   0.01691895
9860.00   0.30043340   0.01778832
9862.00   0.31287736   0.01945344
9864.00   0.33504441   0.02178770
9866.00   0.38732967   0.02533941
9868.00   0.39981374   0.02741905
9870.00   0.38536847   0.02922428
9872.00   0.36554673   0.03025005
9874.00   0.33904991   0.03057938
9876.00   0.31065840   0.03015999
9878.00   0.29942206   0.02841665
9880.00   0.29870045   0.02432364
9882.00   0.30446455   0.02220735
9884.00   0.32748801   0.02116033
9886.00   0.33952445   0.02082503
9888.00   0.33761007   0.02157171
9890.00   0.33139202   0.02269724
9892.00   0.32781515   0.02348761
9894.00   0.32249281   0.02437048
9896.00   0.32676843   0.02444393
9898.00   0.33985949   0.02376490
9900.00   0.35257524   0.02310746
9902.00   0.36691874   0.02162735
9904.00   0.38173568   0.02099205
9906.00   0.39839652   0.02256168
9908.00   0.41614914   0.02536332
9910.00   0.41679671   0.02801815
9912.00   0.39374238   0.03191724
9914.00   0.38968197   0.03364933
9916.00   0.40886435   0.03457846
9918.00   0.41130495   0.03414741
9920.00   0.37574837   0.03142787
9922.00   0.32323334   0.02696430
9924.00   0.29722461   0.02412470
9926.00   0.26876605   0.02165341
9928.00   0.28651726   0.02060024
9930.00   0.36863667   0.02140203
9932.00   0.42128867   0.02260530
9934.00   0.43151882   0.02387901
9936.00   0.42120373   0.02566272
9938.00   0.40238860   0.02845104
9940.00   0.36104923   0.03222043
9942.00   0.34917653   0.03432640
9944.00   0.35551006   0.03597992
9946.00   0.36417097   0.03675112
9948.00   0.37999120   0.03625289
9950.00   0.39595228   0.03558735
9952.00   0.40802670   0.03585922
9954.00   0.42049894   0.03662329
9956.00   0.39850166   0.03673832
9958.00   0.33846796   0.03686657
9960.00   0.28939480   0.03612356
9962.00   0.21676554   0.03409177
9964.00   0.18211335   0.03204622
9966.00   0.23484994   0.03079113
9968.00   0.33926478   0.02992439
9970.00   0.37683427   0.02898444
9972.00   0.38337374   0.02831246
9974.00   0.38126367   0.02736459
9976.00   0.34616831   0.02605112
9978.00   0.32728133   0.02498280
9980.00   0.34517518   0.02438951
9982.00   0.37401333   0.02408739
9984.00   0.37014452   0.02385041
9986.00   0.33950707   0.02380673
9988.00   0.33091575   0.02381104
9990.00   0.32417947   0.02391271
9992.00   0.33448371   0.02409780
9994.00   0.37589300   0.02435586
9996.00   0.41836700   0.02470288
9998.00   0.42294267   0.02496919
10000.00   0.40138727   0.02488330
10002.00   0.39243302   0.02699785
10004.00   0.38551199   0.03022197
10006.00   0.37439635   0.03408613
10008.00   0.35605159   0.03955379
10010.00   0.33989659   0.04372460
10012.00   0.33523941   0.04516005
10014.00   0.33775589   0.04503589
10016.00   0.32289541   0.04506623
10018.00   0.28728721   0.04513057
10020.00   0.26973507   0.04368859
10022.00   0.26289308   0.03992961
10024.00   0.26138440   0.03630271
10026.00   0.26822719   0.03419741
10028.00   0.27866161   0.03287144
10030.00   0.26879415   0.03128943
10032.00   0.23075552   0.02945933
10034.00   0.22604723   0.02888727
10036.00   0.24013722   0.02998887
10038.00   0.26205286   0.03050314
10040.00   0.29643494   0.02997131
10042.00   0.33421153   0.02913059
10044.00   0.35500884   0.02880280
10046.00   0.36433703   0.02867848
10048.00   0.37682655   0.02869637
10050.00   0.38736010   0.02858588
10052.00   0.39748883   0.02921992
10054.00   0.41379869   0.03083593
10056.00   0.42152822   0.03255778
10058.00   0.40339562   0.03383311
10060.00   0.36467433   0.03503749
10062.00   0.33676621   0.03519728
10064.00   0.30511570   0.03395589
10066.00   0.28283459   0.03354205
10068.00   0.26062021   0.03371720
10070.00   0.25528529   0.03404919
10072.00   0.27753490   0.03405226
10074.00   0.32096812   0.03408155
10076.00   0.37512442   0.03613505
10078.00   0.47098532   0.04080649
10080.00   0.51718855   0.04275941
10082.00   0.54777807   0.04406179
10084.00   0.53876227   0.04377135
10086.00   0.46196231   0.04072527
10088.00   0.35632303   0.03600748
10090.00   0.31787223   0.03369780
10092.00   0.32104665   0.03276085
10094.00   0.31842226   0.03235458
10096.00   0.33762726   0.03328292
10098.00   0.34039760   0.03408577
10100.00   0.32075930   0.03495334
10102.00   0.29238454   0.03558913
10104.00   0.26478580   0.03528259
10106.00   0.22693974   0.03411550
10108.00   0.22656441   0.03351904
10110.00   0.27029189   0.03238208
10112.00   0.29012722   0.03274519
10114.00   0.28847063   0.03424308
10116.00   0.28146958   0.03685059
10118.00   0.27622527   0.04091420
10120.00   0.26877043   0.04590832
10122.00   0.27265123   0.04878599
10124.00   0.29581457   0.05217047
10126.00   0.29730695   0.05188758
10128.00   0.27548379   0.04688399
10130.00   0.25901312   0.04175974
10132.00   0.25855994   0.03916379
10134.00   0.26733741   0.03782636
10136.00   0.28532612   0.03684776
10138.00   0.32646647   0.03687041
10140.00   0.34141275   0.03710873
10142.00   0.33394742   0.03789135
10144.00   0.33458757   0.03891185
10146.00   0.35102570   0.04032260
10148.00   0.37257171   0.04177488
10150.00   0.39019296   0.04258857
10152.00   0.42132157   0.04315028
10154.00   0.39706627   0.04307133
10156.00   0.28265306   0.04178696
10158.00   0.24649408   0.04133351
10160.00   0.32862914   0.04127155
10162.00   0.41595265   0.04226103
10164.00   0.39599177   0.04534371
10166.00   0.30901355   0.04995228
10168.00   0.25762850   0.05329412
10170.00   0.16037367   0.05774948
10172.00   0.16792704   0.05901365
10174.00   0.31029409   0.05661037
10176.00   0.44793209   0.05395522
10178.00   0.51023173   0.05340305
10180.00   0.53451365   0.05373789
10182.00   0.48321766   0.05310180
10184.00   0.29147393   0.05134042
10186.00   0.21899238   0.05107655
10188.00   0.19796377   0.05242430
10190.00   0.22562890   0.05323943
10192.00   0.32708174   0.05276237
10194.00   0.46606058   0.05173777
10196.00   0.52984130   0.05118621
10198.00   0.55692691   0.05003180
10200.00   0.56418973   0.05105668
10202.00   0.53543931   0.05403733
10204.00   0.50263047   0.05681850
10206.00   0.46907157   0.05990537
10208.00   0.42803672   0.06239273
10210.00   0.37199116   0.06260577
10212.00   0.29422083   0.06101723
10214.00   0.25625238   0.05950729
10216.00   0.23765479   0.05626072
10218.00   0.24080797   0.05478788
10220.00   0.28407350   0.05479174
10222.00   0.32484415   0.05624206
10224.00   0.32532260   0.06016326
10226.00   0.30238247   0.06603018
10228.00   0.28178611   0.06590905
10230.00   0.22652008   0.05968871
10232.00   0.22811604   0.05642331
10234.00   0.27436426   0.05423634
10236.00   0.34540820   0.05350116
10238.00   0.46511152   0.05528552
10240.00   0.60480875   0.05847271
10242.00   0.58506608   0.05891781
10244.00   0.36725810   0.05659067
10246.00   0.30521441   0.05693309
10248.00   0.29910514   0.05833180
10250.00   0.33603093   0.06070639
10252.00   0.46896434   0.06469309
10254.00   0.60728914   0.06885615
10256.00   0.52632833   0.07077869
10258.00   0.21172263   0.07232735
10260.00   0.14581473   0.07008528
10262.00   0.25190336   0.06088119
10264.00   0.31386435   0.05561826
10266.00   0.35074183   0.05650527
10268.00   0.34905452   0.05976113
10270.00   0.23953252   0.06259579
10272.00   0.01249358   0.06627791
10274.00   0.01400155   0.06930822
10276.00   0.15025082   0.06802171
10278.00   0.36032894   0.07552750
10280.00   0.81972039   0.09352469
10282.00   1.13039112   0.10633438
10284.00   0.95657462   0.10803761
10286.00   0.47536111   0.10364413
10288.00   0.30360985   0.10130938
10290.00   0.29315132   0.09784585
10292.00   0.22473674   0.09410457
10294.00   0.13034077   0.08905564
10296.00   0.07282873   0.08455284
10298.00   0.06294762   0.08063643
10300.00   0.09788726   0.07792392
10302.00   0.21956481   0.08042437
10304.00   0.53416830   0.09156943
10306.00   0.57377011   0.09099064
10308.00   0.36940062   0.08006862
10310.00   0.23564242   0.07135143
10312.00   0.21642917   0.06796242
10314.00   0.23712815   0.06700762
10316.00   0.24605802   0.06649435
10318.00   0.26449046   0.06788330
10320.00   0.29243925   0.06782162
10322.00   0.35245612   0.06682869
10324.00   0.37591216   0.06655289
10326.00   0.34840345   0.06696244
10328.00   0.31870797   0.06774123
10330.00   0.34395751   0.06879310
10332.00   0.40975931   0.07018875
10334.00   0.33325830   0.07127018
10336.00   0.06765401   0.07096204
10338.00   -0.03978302   0.07344229
10340.00   -0.05368536   0.07990324
10342.00   0.00861385   0.08435975
10344.00   0.19206564   0.08396737
10346.00   0.45333916   0.08091158
10348.00   0.50498539   0.07993911
10350.00   0.36748961   0.07843933
10352.00   0.31913754   0.07956561
10354.00   0.26444450   0.08421453
10356.00   0.24650477   0.08709208
10358.00   0.28885689   0.08568350
10360.00   0.36006090   0.08361021
10362.00   0.40327346   0.08828111
10364.00   0.45178968   0.09933962
10366.00   0.45592502   0.10255245
10368.00   0.44745371   0.10094767
10370.00   0.37792319   0.10002542
10372.00   0.18408532   0.10074879
10374.00   -0.00049254   0.10071841
10376.00   0.00044171   0.09715065
10378.00   0.13424411   0.08998203
10380.00   0.22046375   0.08625160
10382.00   0.37145099   0.08458126
10384.00   0.41957706   0.08293635
10386.00   0.34744951   0.08059989
10388.00   0.25663370   0.08008543
10390.00   0.21682112   0.08437286
10392.00   0.19347931   0.09160765
10394.00   0.13243029   0.09187767
10396.00   0.00705423   0.08461272
10398.00   -0.03404585   0.08322133
10400.00   -0.01296927   0.08742854
10402.00   0.03376059   0.08975046
10404.00   0.11572052   0.08656527
10406.00   0.21386380   0.08096866
10408.00   0.21971197   0.08077647
10410.00   0.12732813   0.08326860
10412.00   0.10650721   0.08804933
10414.00   0.09897271   0.09861439
10416.00   0.12581539   0.10378512
10418.00   0.22669156   0.10210034
10420.00   0.33080816   0.09701772
10422.00   0.29873237   0.09188458
10424.00   0.12578496   0.08352775
10426.00   0.13859680   0.07973849
10428.00   0.35824826   0.07944312
10430.00   0.41094300   0.07994793
10432.00   0.24461663   0.08242951
10434.00   0.04876308   0.08474246
10436.00   -0.02591189   0.08455601
10438.00   -0.05092180   0.08280589
10440.00   -0.00000601   0.08144172
10442.00   0.18058541   0.07909970
10444.00   0.29164812   0.07799082
10446.00   0.36895031   0.07814581
10448.00   0.41921490   0.07853778
10450.00   0.43467405   0.07869519
10452.00   0.42144915   0.07887813
10454.00   0.42329508   0.07899673
10456.00   0.46933541   0.07886998
10458.00   0.40999624   0.07921178
10460.00   0.22285643   0.07889159
10462.00   0.08095455   0.08043165
10464.00   0.02011389   0.08607523
10466.00   0.01442664   0.09219646
10468.00   0.08655322   0.09166566
10470.00   0.26005816   0.08447006
10472.00   0.39903221   0.08236863
10474.00   0.62645268   0.08378522
10476.00   0.70502073   0.08334613
10478.00   0.54992056   0.07976630
10480.00   0.34145376   0.07558262
10482.00   0.29758534   0.07404784
10484.00   0.34101963   0.07421164
10486.00   0.36580348   0.07421124
10488.00   0.45560962   0.07566155
10490.00   0.45719764   0.07542499
10492.00   0.34303531   0.07247155
10494.00   0.22632788   0.07006747
10496.00   0.18204685   0.07141214
10498.00   0.17242418   0.07504589
10500.00   0.21901901   0.07573783
10502.00   0.40189913   0.07462821
10504.00   0.43618748   0.07400844
10506.00   0.31686342   0.07287051
10508.00   0.22702724   0.07244931
10510.00   0.27054641   0.07387263
10512.00   0.36189735   0.07604355
10514.00   0.30146813   0.07571255
10516.00   0.05361141   0.07248199
10518.00   0.00370222   0.07192492
10520.00   0.08235795   0.07305975
10522.00   0.16284309   0.07408004
10524.00   0.23369363   0.07439201
10526.00   0.30358410   0.07489943
10528.00   0.34797949   0.07709737
10530.00   0.36929354   0.08156887
10532.00   0.40441066   0.08183821
10534.00   0.47165635   0.07836989
10536.00   0.48171178   0.07591194
10538.00   0.41138539   0.07443703
10540.00   0.32498199   0.07342695
10542.00   0.28544268   0.07294446
10544.00   0.26844153   0.07311724
10546.00   0.23401600   0.07258339
10548.00   0.15181451   0.07055850
10550.00   0.15960030   0.07091731
10552.00   0.28690496   0.07342217
10554.00   0.40084851   0.07676449
10556.00   0.40858042   0.08116958
10558.00   0.36335596   0.08619011
10560.00   0.40843025   0.08641755
10562.00   0.57385570   0.08142861
10564.00   0.59220636   0.07920453
10566.00   0.48186490   0.07766239
10568.00   0.38398159   0.07692651
10570.00   0.34228906   0.07743023
10572.00   0.31908834   0.07860257
10574.00   0.28370890   0.07886453
10576.00   0.23969686   0.07896676
10578.00   0.21950239   0.07832194
10580.00   0.22339742   0.07639205
10582.00   0.22215380   0.07517230
10584.00   0.21020967   0.07518878
10586.00   0.19866258   0.07547902
10588.00   0.19811417   0.07483636
10590.00   0.20270081   0.07337360
10592.00   0.22134505   0.07345577
10594.00   0.26174599   0.07519286
10596.00   0.29153782   0.07591527
10598.00   0.30628222   0.07555974
10600.00   0.32521737   0.07506908
10602.00   0.37342528   0.07504427
10604.00   0.44411486   0.07518790
10606.00   0.43331671   0.07568264
10608.00   0.33395213   0.07684834
10610.00   0.28275692   0.07742194
10612.00   0.26447308   0.07814680
10614.00   0.24170201   0.07785470
10616.00   0.19354683   0.07533839
10618.00   0.13581985   0.07146253
10620.00   0.10788018   0.07025217
10622.00   0.08277933   0.07148664
10624.00   0.10392555   0.07132161
10626.00   0.18002392   0.07046665
10628.00   0.25133899   0.07009570
10630.00   0.33275735   0.07033121
10632.00   0.39210302   0.07111596
10634.00   0.32610467   0.07285469
10636.00   0.12161871   0.07591041
10638.00   0.03148259   0.07747679
10640.00   -0.04591696   0.07948728
10642.00   -0.04174469   0.07896164
10644.00   0.09340367   0.07395097
10646.00   0.24730474   0.06837064
10648.00   0.29003406   0.06816658
10650.00   0.26794475   0.07186919
10652.00   0.27598089   0.07143118
10654.00   0.28957072   0.06814285
10656.00   0.28832260   0.06607418
10658.00   0.27633512   0.06499887
10660.00   0.25191194   0.06400441
10662.00   0.19922999   0.06247837
10664.00   0.12687749   0.06071844
10666.00   0.13972118   0.05993847
10668.00   0.24922077   0.06019322
10670.00   0.29694712   0.06002906
10672.00   0.31276086   0.05984088
10674.00   0.32429868   0.05956130
10676.00   0.34303796   0.05917346
10678.00   0.35829067   0.05867772
10680.00   0.35032913   0.05799780
10682.00   0.30729356   0.05697757
10684.00   0.30316180   0.05629424
10686.00   0.33269191   0.05554508
10688.00   0.34708726   0.05532019
10690.00   0.33736926   0.05597105
10692.00   0.31923491   0.05684850
10694.00   0.30749533   0.05710914
10696.00   0.29579538   0.05731427
10698.00   0.28560796   0.05627051
10700.00   0.29217657   0.05359515
10702.00   0.26769039   0.05133871
10704.00   0.18740082   0.04892917
10706.00   0.11833470   0.04722727
10708.00   0.12686005   0.04771470
10710.00   0.18830593   0.04998158
10712.00   0.20600361   0.04991208
10714.00   0.19910663   0.04813894
10716.00   0.21026787   0.04705323
10718.00   0.22145939   0.04525116
10720.00   0.25593510   0.04506972
10722.00   0.35838804   0.04867619
10724.00   0.49064064   0.05390886
10726.00   0.45087284   0.05505838
10728.00   0.20896386   0.05425211
10730.00   0.11054935   0.05206788
10732.00   0.03641688   0.04585917
10734.00   0.04154941   0.04124136
10736.00   0.18442734   0.04131326
10738.00   0.37899962   0.04335276
10740.00   0.43576783   0.04328940
10742.00   0.41702387   0.04217437
10744.00   0.37332582   0.04238754
10746.00   0.23450701   0.04399861
10748.00   0.16114643   0.04460075
10750.00   0.17773990   0.04411268
10752.00   0.22038795   0.04296320
10754.00   0.22923476   0.04117949
10756.00   0.22740890   0.03829652
10758.00   0.23635620   0.03684868
10760.00   0.25364086   0.03634294
10762.00   0.26515812   0.03612734
10764.00   0.26871529   0.03664739
10766.00   0.27460179   0.03710202
10768.00   0.29300457   0.03683183
10770.00   0.31920058   0.03615538
10772.00   0.32358131   0.03586331
10774.00   0.30608475   0.03587613
10776.00   0.30040333   0.03557559
10778.00   0.29908395   0.03489543
10780.00   0.30021974   0.03438289
10782.00   0.30547196   0.03442778
10784.00   0.31248763   0.03466256
10786.00   0.31100866   0.03409799
10788.00   0.30959404   0.03256890
10790.00   0.29068387   0.03191474
10792.00   0.23860440   0.03159367
10794.00   0.21264750   0.03166847
10796.00   0.24123251   0.03258011
10798.00   0.27611259   0.03349422
10800.00   0.24124371   0.03286514
10802.00   0.15229936   0.03065727
10804.00   0.09036895   0.03011783
10806.00   -0.01013047   0.03066451
10808.00   -0.02828465   0.03112861
10810.00   0.07161172   0.03174112
10812.00   0.18668360   0.03222599
10814.00   0.21780196   0.03218033
10816.00   0.20243447   0.03174625
10818.00   0.23728701   0.03148414
10820.00   0.31290942   0.03096209
10822.00   0.35685110   0.03096117
10824.00   0.37072754   0.03177412
10826.00   0.38534173   0.03228512
10828.00   0.42056698   0.03175948
