# File created by shivutils (I.Shivvers)
# wl(A)   flm    er(optional)
3426.00   1.62362313   0.44741628
3428.00   0.21661587   0.44439322
3430.00   2.10994864   0.46039277
3432.00   0.90145075   0.45080516
3434.00   1.21298468   0.47153544
3436.00   2.01203275   0.48077369
3438.00   1.05461049   0.46522471
3440.00   1.37916005   0.46509627
3442.00   1.57760203   0.46783075
3444.00   1.31676137   0.46173900
3446.00   1.51681244   0.46792796
3448.00   0.66484833   0.48303342
3450.00   0.99584055   0.49280602
3452.00   0.51479471   0.49741215
3454.00   1.46234882   0.50329691
3456.00   0.53607309   0.49087662
3458.00   1.33859754   0.50242746
3460.00   1.21836531   0.50638902
3462.00   1.12876332   0.48321521
3464.00   1.90984976   0.49470836
3466.00   0.81921762   0.47622710
3468.00   1.21511495   0.49250612
3470.00   1.55551124   0.49698290
3472.00   1.14803934   0.47837111
3474.00   0.17062092   0.47039583
3476.00   0.60209197   0.48289269
3478.00   0.71409601   0.51798785
3480.00   0.20136133   0.55012137
3482.00   2.29280066   0.54802686
3484.00   1.54352605   0.53394669
3486.00   -0.05545975   0.51644021
3488.00   1.05480003   0.51966441
3490.00   0.83819449   0.50270480
3492.00   1.05804634   0.49049187
3494.00   1.47002482   0.49856630
3496.00   1.16459453   0.49139050
3498.00   1.48034561   0.49608713
3500.00   1.40731645   0.48517948
3502.00   0.66475040   0.48394993
3504.00   0.71018261   0.46775484
3506.00   1.34270346   0.47321555
3508.00   0.93498915   0.47822213
3510.00   1.28284740   0.48501515
3512.00   2.99848676   0.49170044
3514.00   0.67816103   0.47003174
3516.00   0.82472861   0.47152662
3518.00   0.90704942   0.46260798
3520.00   1.27464652   0.46345231
3522.00   1.53512490   0.45974475
3524.00   1.07833052   0.44923288
3526.00   2.00745249   0.46080670
3528.00   1.64545381   0.46119326
3530.00   1.53567576   0.45974311
3532.00   1.61241066   0.45971236
3534.00   0.24165504   0.46201107
3536.00   1.75439405   0.47870514
3538.00   1.60677230   0.47518086
3540.00   -0.22707400   0.48878619
3542.00   1.49465835   0.50558501
3544.00   1.76705229   0.51269245
3546.00   1.68448961   0.50422484
3548.00   1.72354770   0.49652517
3550.00   1.95357776   0.49530882
3552.00   0.12425371   0.48806244
3554.00   1.52138996   0.49102798
3556.00   0.95442307   0.48954958
3558.00   1.91332459   0.49422601
3560.00   1.83019674   0.48764396
3562.00   0.88000959   0.46746844
3564.00   0.71563423   0.46325880
3566.00   2.34866500   0.47959250
3568.00   0.81403595   0.45643458
3570.00   0.64868873   0.47057763
3572.00   0.59633279   0.49198112
3574.00   2.41974497   0.49703285
3576.00   1.63507628   0.47593844
3578.00   1.50918281   0.46599144
3580.00   2.24266911   0.47333568
3582.00   1.66726542   0.43824717
3584.00   1.54509497   0.41089606
3586.00   0.59585840   0.40262607
3588.00   0.14737357   0.44088897
3590.00   1.34979033   0.44240192
3592.00   0.94158655   0.41186640
3594.00   1.26144683   0.38988748
3596.00   1.28343642   0.37978566
3598.00   0.66008794   0.38372180
3600.00   1.69016600   0.38751265
3602.00   1.41732764   0.37398559
3604.00   2.13330817   0.37953565
3606.00   1.35873389   0.36755812
3608.00   1.26927459   0.36537898
3610.00   1.46251678   0.39452353
3612.00   0.25862086   0.42991090
3614.00   2.05568051   0.45365602
3616.00   1.14109242   0.41363037
3618.00   1.07018948   0.39381784
3620.00   1.51136363   0.38256836
3622.00   2.13839984   0.39085680
3624.00   1.36618888   0.37992579
3626.00   1.06791592   0.37364000
3628.00   2.02907181   0.41268384
3630.00   1.65047252   0.43479598
3632.00   1.82083869   0.42156914
3634.00   1.30649912   0.39974099
3636.00   0.90308172   0.39194191
3638.00   0.70909995   0.38130611
3640.00   1.04293931   0.42424834
3642.00   0.08720879   0.45902544
3644.00   0.73300433   0.47436073
3646.00   0.75414819   0.54691404
3648.00   1.96580696   0.76696652
3650.00   1.77494872   0.83974123
3652.00   1.65037000   0.75439137
3654.00   -0.15747115   0.66339743
3656.00   0.77372599   0.56288755
3658.00   1.28198373   0.45358399
3660.00   2.77949452   0.50710481
3662.00   1.18494141   0.56329381
3664.00   1.49666381   0.52015185
3666.00   1.45750701   0.40271786
3668.00   1.71968365   0.35500398
3670.00   1.50639498   0.33864099
3672.00   0.53180444   0.32569155
3674.00   1.50596929   0.32819900
3676.00   0.84899861   0.31624544
3678.00   0.37266529   0.30885389
3680.00   1.38412809   0.31407776
3682.00   1.35164893   0.30222753
3684.00   0.98448145   0.29362166
3686.00   0.98926032   0.28612080
3688.00   0.98642939   0.29151919
3690.00   0.97367239   0.30636615
3692.00   1.07250142   0.31035534
3694.00   1.35025847   0.30415025
3696.00   1.70065343   0.30269232
3698.00   1.34406543   0.30765885
3700.00   1.30070627   0.30185139
3702.00   1.48165953   0.30503967
3704.00   1.27658713   0.30375728
3706.00   0.97266036   0.29472995
3708.00   0.91003036   0.28381130
3710.00   1.16159117   0.28410599
3712.00   1.05006111   0.27756223
3714.00   1.59090412   0.28284413
3716.00   1.74888194   0.28615773
3718.00   1.73886275   0.29709163
3720.00   1.50069368   0.28872120
3722.00   1.50902021   0.28777015
3724.00   1.42861915   0.28205150
3726.00   0.67099792   0.28725952
3728.00   0.90508729   0.28907838
3730.00   0.92750382   0.27863559
3732.00   1.18249512   0.27640748
3734.00   0.90143651   0.27670541
3736.00   0.93246323   0.27511102
3738.00   0.94764155   0.28242812
3740.00   0.92295861   0.28716680
3742.00   0.93950188   0.28130487
3744.00   1.02100086   0.27241760
3746.00   1.25072920   0.26709008
3748.00   0.98649925   0.26276675
3750.00   1.44384491   0.26608616
3752.00   1.36530042   0.27025330
3754.00   1.25982583   0.26823142
3756.00   1.78553569   0.27366716
3758.00   1.55395806   0.26917878
3760.00   1.28817630   0.26379257
3762.00   1.05943561   0.25693393
3764.00   1.12833214   0.25681677
3766.00   0.86494428   0.24337034
3768.00   1.22137892   0.25048003
3770.00   1.62478352   0.25743094
3772.00   1.13299370   0.25454265
3774.00   0.62930059   0.24707894
3776.00   0.89273399   0.24424583
3778.00   1.13652241   0.24594755
3780.00   1.50454950   0.24871869
3782.00   1.27971232   0.24861652
3784.00   1.55689287   0.24895751
3786.00   1.10633922   0.24175142
3788.00   1.12247360   0.24863091
3790.00   0.78658235   0.25805110
3792.00   0.63108522   0.25186673
3794.00   1.29237270   0.24762072
3796.00   1.65532219   0.24583656
3798.00   1.25673366   0.23403168
3800.00   0.89702791   0.24131241
3802.00   1.51748455   0.25733685
3804.00   1.09900963   0.24958467
3806.00   1.15229356   0.23483276
3808.00   1.28085434   0.23208709
3810.00   2.04636502   0.24267228
3812.00   1.25239599   0.23887108
3814.00   1.33301246   0.24069546
3816.00   1.40051401   0.23646940
3818.00   1.50651407   0.23805684
3820.00   1.29655671   0.23595570
3822.00   1.35789180   0.24226691
3824.00   1.36296332   0.24341424
3826.00   1.94954216   0.25927150
3828.00   1.93131578   0.26639503
3830.00   1.89021623   0.26691729
3832.00   1.66108966   0.25512576
3834.00   1.19871509   0.24600248
3836.00   1.36643791   0.25239176
3838.00   1.27910650   0.25256005
3840.00   1.68783414   0.25173277
3842.00   1.45696282   0.24379502
3844.00   1.31598008   0.23057307
3846.00   1.08098006   0.22463234
3848.00   1.03742087   0.22193374
3850.00   1.40522444   0.22439040
3852.00   1.70932162   0.22632532
3854.00   1.11521828   0.21988282
3856.00   1.63675952   0.22436987
3858.00   1.13663471   0.21788563
3860.00   2.02981520   0.22643803
3862.00   1.59653056   0.22828878
3864.00   1.28671050   0.22090553
3866.00   1.16265953   0.21299861
3868.00   1.67608392   0.21684711
3870.00   1.39261806   0.22184387
3872.00   1.77065980   0.24890243
3874.00   1.30796909   0.25997496
3876.00   1.07768548   0.24489427
3878.00   1.09054625   0.23016596
3880.00   1.52085376   0.22979161
3882.00   1.62793088   0.22575831
3884.00   2.86362147   0.24126166
3886.00   3.12612796   0.25030875
3888.00   3.14405537   0.24729648
3890.00   2.59324312   0.23208356
3892.00   1.29811907   0.22229399
3894.00   0.51700491   0.22398576
3896.00   1.00664783   0.22795987
3898.00   1.56610334   0.22589131
3900.00   1.36443973   0.23063534
3902.00   1.65763843   0.24020125
3904.00   0.87830627   0.26987007
3906.00   0.83252227   0.32177451
3908.00   1.36702967   0.35338873
3910.00   0.34206748   0.35827667
3912.00   1.25685358   0.36138594
3914.00   1.55076444   0.32647416
3916.00   1.82581544   0.28072068
3918.00   1.94562554   0.25930575
3920.00   1.67302489   0.23887031
3922.00   1.50058818   0.23095213
3924.00   1.61528492   0.23050851
3926.00   1.11663795   0.22199398
3928.00   0.75828886   0.21366416
3930.00   1.31805241   0.23202097
3932.00   1.13297558   0.25526971
3934.00   0.94772422   0.25042343
3936.00   1.47104585   0.21946886
3938.00   1.95123863   0.21735027
3940.00   1.31326663   0.21803613
3942.00   0.89622861   0.24443606
3944.00   2.14200997   0.26440024
3946.00   1.54781079   0.24158318
3948.00   1.51436806   0.22477603
3950.00   1.73496497   0.21937037
3952.00   1.05564916   0.20814821
3954.00   1.18381715   0.20246384
3956.00   1.61473036   0.20538510
3958.00   1.02475989   0.21403670
3960.00   1.32658994   0.25071079
3962.00   1.02422535   0.24611154
3964.00   1.37199914   0.21290238
3966.00   1.56144607   0.20623846
3968.00   1.31075895   0.20246588
3970.00   1.30492175   0.20112519
3972.00   2.05247188   0.21110348
3974.00   1.43067956   0.20235141
3976.00   1.66257393   0.19460717
3978.00   1.32402945   0.19356364
3980.00   1.23706543   0.19352084
3982.00   1.70494390   0.19840246
3984.00   1.38711739   0.19104747
3986.00   1.33353102   0.19479372
3988.00   1.55636942   0.20133503
3990.00   1.31041753   0.19951369
3992.00   1.08774912   0.19954790
3994.00   1.00746572   0.22392535
3996.00   1.24446428   0.24863464
3998.00   0.74244571   0.23216346
4000.00   1.08047497   0.20901750
4002.00   1.21875870   0.19921780
4004.00   1.14232147   0.19683358
4006.00   1.20583534   0.20617965
4008.00   1.87450957   0.22271928
4010.00   1.76010430   0.22360332
4012.00   1.25488675   0.21926239
4014.00   1.59236014   0.21340069
4016.00   1.41893768   0.22485182
4018.00   1.96077144   0.28671104
4020.00   1.32432663   0.33301547
4022.00   1.75607705   0.34685192
4024.00   1.62300611   0.32844105
4026.00   2.13823700   0.29004389
4028.00   1.93052602   0.26174083
4030.00   1.62590313   0.26104796
4032.00   1.63438678   0.25293422
4034.00   1.37558234   0.24063078
4036.00   1.45685053   0.23408248
4038.00   1.25650787   0.22459738
4040.00   1.37842286   0.22905070
4042.00   1.72440767   0.26747981
4044.00   0.39257070   0.50709337
4046.00   2.37125587   0.63937682
4048.00   1.57300341   0.53258812
4050.00   0.74414611   0.30323359
4052.00   1.30529165   0.26960999
4054.00   0.95263189   0.27496490
4056.00   0.60395712   0.25551051
4058.00   1.96011496   0.23121995
4060.00   1.37046993   0.21440516
4062.00   1.76836872   0.21451011
4064.00   1.08142352   0.21042563
4066.00   1.38318765   0.21202298
4068.00   1.55447304   0.21120459
4070.00   2.00847101   0.20864441
4072.00   1.89579952   0.20431885
4074.00   1.90533245   0.22589639
4076.00   1.68771458   0.28518298
4078.00   1.92965114   0.29894146
4080.00   1.65560973   0.27464548
4082.00   1.12150812   0.26349995
4084.00   1.33045089   0.25905442
4086.00   1.82243752   0.25065169
4088.00   1.83996069   0.22997813
4090.00   1.28591096   0.19131200
4092.00   1.36418867   0.18830495
4094.00   1.22299719   0.19324568
4096.00   1.07419932   0.19247064
4098.00   1.06122899   0.19322295
4100.00   0.96495467   0.18939324
4102.00   0.86295187   0.17939529
4104.00   0.93464106   0.17638324
4106.00   1.31785321   0.18109140
4108.00   1.64993393   0.18553807
4110.00   1.57784617   0.18586573
4112.00   1.64498818   0.18411541
4114.00   1.47199631   0.18671337
4116.00   1.75781393   0.18653220
4118.00   1.82060778   0.17798935
4120.00   1.86514556   0.17122202
4122.00   2.12483692   0.17479096
4124.00   1.53809249   0.17555876
4126.00   1.74295461   0.18085517
4128.00   1.51312673   0.18223765
4130.00   1.08293247   0.19363709
4132.00   1.39910889   0.21433511
4134.00   1.38699460   0.20875551
4136.00   1.24976838   0.18715394
4138.00   1.06018138   0.20131926
4140.00   0.97503257   0.21138516
4142.00   1.61142194   0.19626147
4144.00   1.08919168   0.17286688
4146.00   2.29935026   0.18049119
4148.00   1.44396150   0.18098401
4150.00   2.07653236   0.20872279
4152.00   1.95182693   0.22348303
4154.00   1.37954223   0.20580578
4156.00   2.11518669   0.18834296
4158.00   2.11407900   0.18592389
4160.00   1.93232036   0.18827593
4162.00   1.71544170   0.20916459
4164.00   1.79883468   0.23684707
4166.00   2.07170630   0.23137800
4168.00   1.82926953   0.19666862
4170.00   1.96874034   0.18621643
4172.00   1.99729311   0.17984571
4174.00   1.74237847   0.17174941
4176.00   1.84781110   0.18099558
4178.00   2.14201880   0.18913291
4180.00   2.50028396   0.18547440
4182.00   2.73199511   0.17809594
4184.00   2.29870534   0.17673568
4186.00   1.89753282   0.17911944
4188.00   2.08633757   0.18016553
4190.00   2.47835803   0.18276049
4192.00   2.34521914   0.18535252
4194.00   2.41137409   0.18276353
4196.00   2.05459929   0.17543700
4198.00   2.25458121   0.17343250
4200.00   2.24693632   0.17208071
4202.00   2.03982139   0.17294872
4204.00   1.71059358   0.17599885
4206.00   2.02617788   0.18119361
4208.00   1.82518566   0.18718383
4210.00   2.25470638   0.19838151
4212.00   2.22120571   0.19498731
4214.00   2.60760498   0.19097161
4216.00   1.70977271   0.18251584
4218.00   1.63406682   0.18254815
4220.00   2.11065388   0.18096243
4222.00   2.04182744   0.17924792
4224.00   1.99734449   0.18158041
4226.00   2.00644040   0.18298498
4228.00   2.14595509   0.18342274
4230.00   1.51919270   0.18617694
4232.00   1.70068002   0.19426140
4234.00   1.84035218   0.19654937
4236.00   1.98784769   0.20365155
4238.00   2.16042042   0.20617226
4240.00   1.68938291   0.18704045
4242.00   2.07116675   0.17909192
4244.00   2.20245934   0.22529581
4246.00   2.11066532   0.26327398
4248.00   1.90917039   0.24356596
4250.00   1.94247663   0.19430389
4252.00   2.07371330   0.18308179
4254.00   1.86188257   0.18285115
4256.00   1.59262383   0.18658318
4258.00   1.88427734   0.18648554
4260.00   1.88676012   0.17956385
4262.00   1.96715260   0.17537035
4264.00   2.17639923   0.17274508
4266.00   1.84537423   0.17109358
4268.00   1.84926951   0.17208323
4270.00   1.63041067   0.17632084
4272.00   1.55364442   0.17948082
4274.00   1.93256962   0.18053637
4276.00   1.82228196   0.18373345
4278.00   1.64766192   0.18378295
4280.00   1.75914383   0.18497705
4282.00   2.06134677   0.18917811
4284.00   1.87558627   0.18368903
4286.00   1.83558476   0.17853118
4288.00   1.85372663   0.17813745
4290.00   1.79268551   0.17721741
4292.00   2.09778428   0.18176314
4294.00   1.83649099   0.18259242
4296.00   1.85193872   0.18050070
4298.00   2.06422520   0.17953680
4300.00   2.22752166   0.17900905
4302.00   1.92348802   0.17680046
4304.00   1.78684402   0.18112627
4306.00   2.02125144   0.18892589
4308.00   1.69060504   0.18500979
4310.00   1.81232047   0.19195013
4312.00   1.90105283   0.22570033
4314.00   2.45270538   0.23833805
4316.00   2.03744364   0.21151410
4318.00   1.89348447   0.20856667
4320.00   1.58253372   0.22182183
4322.00   1.58883262   0.21928751
4324.00   1.86481690   0.21362133
4326.00   1.99805474   0.20814699
4328.00   1.89223325   0.18905938
4330.00   1.96034682   0.18528700
4332.00   2.20459533   0.18454553
4334.00   2.01445842   0.18526176
4336.00   2.37083101   0.19551842
4338.00   2.29241967   0.20365120
4340.00   1.92802525   0.20423852
4342.00   2.09907699   0.20145613
4344.00   1.78460968   0.21123090
4346.00   2.78525352   0.23226944
4348.00   2.05614352   0.23225112
4350.00   2.12220311   0.21805549
4352.00   1.92769444   0.21188518
4354.00   2.19574571   0.27455160
4356.00   1.29878175   0.54813594
4358.00   2.69902873   0.66612303
4360.00   2.20915270   0.53688616
4362.00   1.87272584   0.30538693
4364.00   1.80669749   0.24207310
4366.00   2.05961061   0.23005588
4368.00   1.88167202   0.22087671
4370.00   1.99807370   0.21916212
4372.00   2.03063536   0.23130138
4374.00   1.97117352   0.24222296
4376.00   1.53318429   0.22685394
4378.00   2.34449720   0.21016385
4380.00   1.84746861   0.20435111
4382.00   1.73670113   0.20199436
4384.00   2.37150526   0.20060977
4386.00   2.29972816   0.19716570
4388.00   1.97881770   0.19680093
4390.00   2.10905099   0.20107509
4392.00   2.28158617   0.20133375
4394.00   2.50595927   0.19749330
4396.00   1.83993006   0.19389035
4398.00   1.92161739   0.20753625
4400.00   2.26990628   0.21887168
4402.00   1.85782456   0.20972036
4404.00   1.87864113   0.19536687
4406.00   1.48941588   0.19245093
4408.00   1.67011309   0.19360903
4410.00   2.07908201   0.19688158
4412.00   2.15577626   0.20270102
4414.00   2.23649073   0.21296030
4416.00   2.21949053   0.21236306
4418.00   1.98068964   0.19942100
4420.00   1.81894493   0.19546479
4422.00   2.03344202   0.19610000
4424.00   1.63116550   0.19302849
4426.00   2.46905613   0.19479626
4428.00   2.27221417   0.19397274
4430.00   1.73813045   0.19235510
4432.00   1.97944236   0.19392660
4434.00   1.61308002   0.19029577
4436.00   2.03316593   0.19178866
4438.00   2.16269445   0.19352792
4440.00   2.23423052   0.19338579
4442.00   2.28581452   0.19144045
4444.00   1.95206010   0.18947989
4446.00   2.25947833   0.19086619
4448.00   2.63463426   0.19231385
4450.00   1.91968155   0.18713674
4452.00   1.73411930   0.18670353
4454.00   1.88363159   0.18606688
4456.00   1.60509336   0.18688847
4458.00   2.04905725   0.19006525
4460.00   1.46971476   0.18636911
4462.00   1.95006144   0.18684529
4464.00   1.98299003   0.18393041
4466.00   2.24078131   0.18436822
4468.00   2.22528601   0.18392475
4470.00   1.81462407   0.18187916
4472.00   1.60177469   0.18091615
4474.00   2.12047935   0.18290284
4476.00   1.89028215   0.18207596
4478.00   1.87742364   0.18159397
4480.00   1.85560071   0.18329310
4482.00   1.59882283   0.18263145
4484.00   1.52896750   0.18142582
4486.00   1.48448217   0.18162671
4488.00   1.91448426   0.18293358
4490.00   1.75906277   0.18293202
4492.00   1.86250842   0.18844171
4494.00   1.69896793   0.18829055
4496.00   1.83914387   0.18714915
4498.00   1.90628433   0.18893839
4500.00   1.70237875   0.18577586
4502.00   2.32040930   0.18381755
4504.00   2.21004725   0.18248852
4506.00   2.19682121   0.18159579
4508.00   1.75757384   0.17793176
4510.00   2.22375441   0.17805652
4512.00   1.74459982   0.17792813
4514.00   1.72388852   0.17780337
4516.00   2.24034119   0.17633975
4518.00   2.24376750   0.17368326
4520.00   2.07608533   0.17378397
4522.00   1.88686311   0.17193140
4524.00   1.87302101   0.17039166
4526.00   2.08630776   0.16988550
4528.00   1.78943515   0.16837227
4530.00   1.67485285   0.16902609
4532.00   1.70407593   0.16948706
4534.00   1.80212259   0.16871741
4536.00   1.69906044   0.16516687
4538.00   1.92512035   0.16476694
4540.00   1.89206529   0.16681539
4542.00   1.95206845   0.17369255
4544.00   1.97333097   0.17522490
4546.00   1.97539437   0.17118894
4548.00   2.13517475   0.16577929
4550.00   2.12178469   0.16403319
4552.00   2.58255482   0.16490242
4554.00   2.30865216   0.16609168
4556.00   2.11794782   0.16781844
4558.00   1.91996753   0.16577253
4560.00   2.05989003   0.16256285
4562.00   1.99423170   0.16080526
4564.00   1.78253663   0.15738925
4566.00   2.49526763   0.16018464
4568.00   2.14437461   0.15791652
4570.00   1.86727107   0.15633681
4572.00   1.93278897   0.16075683
4574.00   2.10005617   0.16267394
4576.00   1.75447559   0.15710761
4578.00   1.96061218   0.15420932
4580.00   2.01542711   0.15223813
4582.00   2.25644469   0.15033650
4584.00   1.89578450   0.14642484
4586.00   2.25174141   0.14973439
4588.00   2.08934379   0.15031461
4590.00   2.05118656   0.15066878
4592.00   2.08993912   0.15240109
4594.00   1.63673580   0.15214799
4596.00   1.67005420   0.15175349
4598.00   1.82708716   0.14910227
4600.00   2.24752021   0.14692706
4602.00   2.14035726   0.14632604
4604.00   2.02209902   0.14661115
4606.00   2.03658342   0.14612673
4608.00   2.22070551   0.15023874
4610.00   2.12607646   0.15025453
4612.00   1.96209383   0.14592950
4614.00   2.04194713   0.14178918
4616.00   2.04514027   0.14026327
4618.00   2.10267472   0.14041130
4620.00   1.85578442   0.13944899
4622.00   1.86493170   0.13931872
4624.00   1.90132737   0.13870323
4626.00   2.07942367   0.14083754
4628.00   1.89609933   0.13982606
4630.00   2.09945726   0.14047116
4632.00   2.07121420   0.13960534
4634.00   2.29351211   0.14075622
4636.00   2.06585336   0.13916652
4638.00   2.40006804   0.14119418
4640.00   2.30918932   0.14078376
4642.00   2.01718879   0.13869482
4644.00   1.82626188   0.13657054
4646.00   1.79387140   0.13695049
4648.00   1.85203409   0.13829355
4650.00   2.21426535   0.14144187
4652.00   1.94829607   0.14159150
4654.00   1.97745883   0.14070092
4656.00   2.23152995   0.14396665
4658.00   2.28069639   0.14730649
4660.00   2.18226743   0.14943109
4662.00   1.83400738   0.15227309
4664.00   2.27248120   0.15975213
4666.00   2.35395217   0.16741811
4668.00   2.04482412   0.17217508
4670.00   1.82157469   0.17124231
4672.00   1.98752522   0.16893663
4674.00   1.83982706   0.16264369
4676.00   2.22590256   0.15722685
4678.00   2.09559321   0.15230514
4680.00   1.95608473   0.14893687
4682.00   2.06195545   0.14698763
4684.00   2.41348743   0.14529961
4686.00   2.38364315   0.14386094
4688.00   2.15799332   0.14193223
4690.00   2.03198147   0.13991852
4692.00   2.22979093   0.14153136
4694.00   2.37762070   0.14083394
4696.00   2.23959208   0.13852632
4698.00   2.14834356   0.13565773
4700.00   2.12082934   0.13474752
4702.00   2.31781435   0.13840169
4704.00   2.21166158   0.14210925
4706.00   2.20929599   0.14612935
4708.00   2.35103631   0.15021484
4710.00   2.23889136   0.14906017
4712.00   2.43636417   0.14756179
4714.00   2.42106557   0.14421107
4716.00   2.15087914   0.13973656
4718.00   2.18306851   0.13806602
4720.00   2.07463956   0.13890488
4722.00   2.14752722   0.14105979
4724.00   2.03459096   0.13858451
4726.00   1.93587422   0.14839377
4728.00   2.13933969   0.17180057
4730.00   1.99518192   0.17525527
4732.00   2.35093331   0.17165121
4734.00   2.40675306   0.17885837
4736.00   2.24721622   0.18600334
4738.00   2.09680462   0.19075894
4740.00   2.54116392   0.19999342
4742.00   2.00473642   0.21039249
4744.00   2.16718674   0.19937836
4746.00   2.42336988   0.17213057
4748.00   2.29398274   0.14804198
4750.00   2.28980470   0.14817610
4752.00   2.43958020   0.15744226
4754.00   2.38024616   0.15509273
4756.00   2.44444609   0.14147352
4758.00   2.34970307   0.13213235
4760.00   2.30835509   0.12921235
4762.00   2.41015720   0.12761858
4764.00   2.67423725   0.12825307
4766.00   2.51319742   0.12616454
4768.00   2.46409225   0.12311891
4770.00   2.53633332   0.12209095
4772.00   2.26536655   0.12090678
4774.00   2.16171217   0.12060044
4776.00   2.22326875   0.12901959
4778.00   2.43574882   0.14380203
4780.00   2.48741150   0.14425172
4782.00   2.51983643   0.13180612
4784.00   2.25776529   0.12281716
4786.00   2.48121190   0.12340375
4788.00   2.18076777   0.12298421
4790.00   2.11960149   0.12583582
4792.00   2.42820287   0.12731905
4794.00   2.56750178   0.12342153
4796.00   2.55751610   0.12069984
4798.00   2.44319320   0.11877293
4800.00   2.31999516   0.11847722
4802.00   2.21319747   0.11736543
4804.00   2.43116093   0.11873163
4806.00   2.81068087   0.12387625
4808.00   2.53651237   0.12446263
4810.00   2.54498100   0.12400102
4812.00   2.37939191   0.12261728
4814.00   2.49751949   0.12324461
4816.00   2.33245945   0.12245389
4818.00   2.41587067   0.12272876
4820.00   2.83151960   0.12828754
4822.00   2.67642093   0.12953472
4824.00   2.49432397   0.13170408
4826.00   2.30191731   0.13201065
4828.00   2.30772901   0.13207321
4830.00   2.58738303   0.13291645
4832.00   2.73757100   0.13688852
4834.00   2.46731615   0.13390118
4836.00   2.44934297   0.13190547
4838.00   2.54573321   0.14053930
4840.00   2.35100341   0.14467865
4842.00   2.65683150   0.14063250
4844.00   2.57174134   0.13142142
4846.00   2.33903193   0.13288750
4848.00   2.64562058   0.13720572
4850.00   2.11232615   0.13390873
4852.00   2.37253094   0.13466537
4854.00   2.32768607   0.13188031
4856.00   2.29435563   0.12706052
4858.00   2.57750750   0.12864996
4860.00   2.52025843   0.13090512
4862.00   2.22799778   0.13359110
4864.00   2.33160758   0.13513221
4866.00   2.52989888   0.13397163
4868.00   2.09191155   0.12966314
4870.00   2.39257646   0.12951174
4872.00   2.37543082   0.13071349
4874.00   2.15710831   0.13029286
4876.00   2.29284978   0.13250820
4878.00   2.37437844   0.13588180
4880.00   2.36530972   0.13507667
4882.00   2.15737009   0.13077077
4884.00   2.49993014   0.12975693
4886.00   2.56239915   0.12699354
4888.00   2.29444122   0.12578247
4890.00   2.33949184   0.12624805
4892.00   2.26799798   0.12819289
4894.00   2.69209075   0.13202320
4896.00   2.37371373   0.12790094
4898.00   2.22545552   0.12413306
4900.00   2.29837084   0.12356620
4902.00   2.11974239   0.12273464
4904.00   1.97987080   0.12335866
4906.00   2.06369066   0.12467207
4908.00   2.11357117   0.12968956
4910.00   2.10236430   0.13030151
4912.00   2.22303510   0.12876181
4914.00   2.28083444   0.12856096
4916.00   2.22245932   0.12900749
4918.00   2.49935079   0.13039514
4920.00   2.28312206   0.12932704
4922.00   2.37788773   0.13002682
4924.00   2.49887013   0.12906393
4926.00   2.49333930   0.12491013
4928.00   2.40305281   0.12195641
4930.00   2.20188689   0.11951998
4932.00   2.09501171   0.11940552
4934.00   2.39447856   0.12475558
4936.00   2.27204061   0.12561730
4938.00   2.16689873   0.12493974
4940.00   2.13434982   0.12656592
4942.00   2.66749310   0.12861137
4944.00   2.49225068   0.12460941
4946.00   2.27453470   0.12107750
4948.00   2.17953873   0.11929598
4950.00   2.39948559   0.12337435
4952.00   2.36492205   0.12938824
4954.00   2.39543152   0.13343014
4956.00   2.28826165   0.13067995
4958.00   1.97072339   0.12321858
4960.00   2.21716642   0.12335417
4962.00   2.18101430   0.13056369
4964.00   2.33683372   0.12768821
4966.00   2.33579874   0.12879273
4968.00   2.30103540   0.13163739
4970.00   1.92489505   0.13436271
4972.00   2.09079599   0.14517805
4974.00   1.86132431   0.15232313
4976.00   2.28470898   0.16163582
4978.00   2.18600917   0.17403071
4980.00   2.13693523   0.18743211
4982.00   2.43012094   0.19614196
4984.00   2.49504805   0.19611810
4986.00   2.15797901   0.18521924
4988.00   2.34156537   0.17427614
4990.00   2.12606835   0.16573696
4992.00   2.27730703   0.16035855
4994.00   2.07687950   0.15033485
4996.00   2.61096406   0.14218237
4998.00   2.34564972   0.13451865
5000.00   2.06419349   0.12956712
5002.00   2.39107227   0.12962814
5004.00   2.23557734   0.12646526
5006.00   2.30245304   0.12350377
5008.00   2.40330458   0.12087359
5010.00   2.39329505   0.11975236
5012.00   2.27560759   0.11833658
5014.00   2.08675981   0.11835342
5016.00   2.30958700   0.12274654
5018.00   2.24542665   0.12833647
5020.00   2.43497205   0.13132320
5022.00   2.34980249   0.12843017
5024.00   2.34010553   0.12119396
5026.00   2.24858093   0.11841998
5028.00   2.30831814   0.12253435
5030.00   2.42930865   0.12893820
5032.00   2.57813239   0.12951834
5034.00   2.20927930   0.12151893
5036.00   2.09227324   0.11608175
5038.00   2.23151875   0.11658311
5040.00   2.44511056   0.11820535
5042.00   2.61071396   0.11881980
5044.00   2.14219642   0.11803956
5046.00   2.20721126   0.11933319
5048.00   2.14097762   0.11790478
5050.00   2.21058750   0.11851732
5052.00   2.31267595   0.11889221
5054.00   2.22819090   0.11675657
5056.00   2.59160733   0.11841906
5058.00   2.22787571   0.11597072
5060.00   2.04861355   0.11655536
5062.00   2.20407748   0.12587966
5064.00   2.07612634   0.13436431
5066.00   1.95348704   0.13847020
5068.00   2.85807419   0.15194197
5070.00   2.40013957   0.15611389
5072.00   2.03105617   0.14476709
5074.00   2.15130639   0.13652155
5076.00   2.38464403   0.13449681
5078.00   2.40793371   0.13814138
5080.00   2.08726096   0.16350257
5082.00   1.94412673   0.19552960
5084.00   2.18007302   0.21562174
5086.00   2.61436415   0.21775495
5088.00   2.13682842   0.19804145
5090.00   2.13793921   0.16710855
5092.00   2.17815232   0.14438853
5094.00   2.13085604   0.13487576
5096.00   2.32453585   0.14270781
5098.00   2.29219961   0.15689233
5100.00   2.37357116   0.16168101
5102.00   1.87827277   0.14829624
5104.00   2.47542167   0.13370700
5106.00   2.35176015   0.12557673
5108.00   2.52229381   0.12737307
5110.00   2.22306824   0.12566578
5112.00   2.20268536   0.12704374
5114.00   2.22880912   0.13092762
5116.00   2.54175234   0.13625398
5118.00   2.34086609   0.13112029
5120.00   2.38687110   0.12402278
5122.00   2.34842682   0.11937554
5124.00   2.38881469   0.12022837
5126.00   2.20454931   0.11866994
5128.00   2.20088100   0.11798807
5130.00   2.22080946   0.11851100
5132.00   2.07727909   0.11827996
5134.00   2.23073149   0.11886921
5136.00   2.51890516   0.12036312
5138.00   2.44583321   0.11883655
5140.00   2.57004261   0.12027566
5142.00   2.58106995   0.12215227
5144.00   2.56658649   0.12402268
5146.00   2.54164529   0.12634163
5148.00   2.31551528   0.13188009
5150.00   2.08902645   0.13830861
5152.00   2.30370116   0.14650781
5154.00   2.39758039   0.15142754
5156.00   2.55571389   0.14766087
5158.00   2.53069520   0.13887914
5160.00   2.42943501   0.13342910
5162.00   2.59760261   0.12834743
5164.00   2.42960405   0.12516704
5166.00   2.52228022   0.12267820
5168.00   2.40936375   0.12019323
5170.00   2.53344154   0.12103845
5172.00   2.28881288   0.11899572
5174.00   2.56997681   0.12283646
5176.00   2.23758388   0.12259918
5178.00   2.30413842   0.12356485
5180.00   2.30920577   0.12182525
5182.00   2.29032111   0.12073284
5184.00   2.36930251   0.12122437
5186.00   2.52145839   0.12228315
5188.00   2.47327638   0.12354069
5190.00   2.32038593   0.12288699
5192.00   2.46891546   0.12408580
5194.00   2.18610573   0.12423404
5196.00   2.28747773   0.13215059
5198.00   2.00125289   0.13820355
5200.00   2.04044580   0.13970996
5202.00   2.19088411   0.13455860
5204.00   2.09344006   0.12823601
5206.00   2.18432212   0.12637146
5208.00   2.38384128   0.13222176
5210.00   2.40922356   0.14102356
5212.00   1.93124139   0.13827722
5214.00   2.26040936   0.13337167
5216.00   2.31268740   0.13171512
5218.00   2.10114479   0.13550590
5220.00   2.64002395   0.14180668
5222.00   2.33230209   0.13650264
5224.00   2.34000587   0.13191153
5226.00   2.30456257   0.12862335
5228.00   2.15460753   0.12656571
5230.00   1.76476216   0.12740904
5232.00   2.10032749   0.13130526
5234.00   2.10352874   0.13000055
5236.00   1.94233024   0.12787597
5238.00   2.09856224   0.13201578
5240.00   2.38285446   0.13471101
5242.00   2.20022893   0.13129497
5244.00   2.26052547   0.12841664
5246.00   2.22444463   0.12821913
5248.00   2.29562736   0.12895013
5250.00   2.57095146   0.13098653
5252.00   2.23036623   0.12867366
5254.00   1.90874374   0.12869930
5256.00   1.97169125   0.13628632
5258.00   2.54564404   0.14641131
5260.00   2.50572801   0.14553016
5262.00   2.09968996   0.13545427
5264.00   2.05259061   0.13158014
5266.00   2.20066714   0.13100834
5268.00   2.35952497   0.13140804
5270.00   2.45742464   0.13237187
5272.00   2.35930133   0.13304313
5274.00   2.38734841   0.13390930
5276.00   2.36870146   0.13497373
5278.00   2.34313822   0.13476397
5280.00   2.20284128   0.13626078
5282.00   2.42666125   0.13832913
5284.00   2.48179674   0.14142460
5286.00   2.20537543   0.14405786
5288.00   2.35438561   0.14175691
5290.00   2.20886159   0.13751449
5292.00   1.95726347   0.13486214
5294.00   1.98935103   0.13507493
5296.00   2.41606355   0.13975619
5298.00   2.16653967   0.13983828
5300.00   2.04126596   0.14116691
5302.00   2.33612823   0.14277735
5304.00   2.23983622   0.14145873
5306.00   2.14938426   0.13874568
5308.00   2.32290196   0.14014333
5310.00   2.22393084   0.14239733
5312.00   2.26698041   0.14598280
5314.00   2.14585209   0.14545096
5316.00   2.14555955   0.14367013
5318.00   2.20994091   0.14302957
5320.00   2.07114267   0.14176799
5322.00   2.24218440   0.14343008
5324.00   2.23978829   0.14577681
5326.00   2.10854292   0.14753930
5328.00   2.31342697   0.14951575
5330.00   2.09273958   0.15021196
5332.00   2.24878740   0.15184370
5334.00   2.41638255   0.15246905
5336.00   2.55063272   0.15355888
5338.00   2.58213568   0.15840434
5340.00   2.05443931   0.16426177
5342.00   2.10559273   0.17013319
5344.00   2.22100997   0.16912080
5346.00   2.27482891   0.16945153
5348.00   2.11226654   0.18145913
5350.00   2.03263116   0.19067815
5352.00   2.26547170   0.18497805
5354.00   2.64891720   0.19049741
5356.00   2.09206247   0.19523391
5358.00   2.54356694   0.19107063
5360.00   1.93451273   0.17299645
5362.00   1.97499597   0.16496211
5364.00   2.25380945   0.16129661
5366.00   2.14852190   0.15869734
5368.00   2.19155383   0.15820840
5370.00   2.01871324   0.15958214
5372.00   2.11855626   0.16492096
5374.00   2.06098580   0.17466494
5376.00   2.48910594   0.18304661
5378.00   2.57956934   0.18145069
5380.00   2.15031743   0.17367937
5382.00   2.14642668   0.16954747
5384.00   2.24788141   0.16926855
5386.00   2.22094965   0.17086516
5388.00   2.48605633   0.17420346
5390.00   2.34754372   0.18691657
5392.00   1.76588273   0.19401838
5394.00   1.94203210   0.19293240
5396.00   1.90283239   0.18650129
5398.00   2.19931865   0.18588164
5400.00   2.07969236   0.18272683
5402.00   1.77140725   0.18247811
5404.00   1.76733673   0.18499775
5406.00   2.19490838   0.18906336
5408.00   1.86728072   0.19024417
5410.00   2.13314414   0.19645542
5412.00   2.36106253   0.20519795
5414.00   2.40282393   0.21619523
5416.00   1.76057851   0.22182205
5418.00   2.30302691   0.22858386
5420.00   1.97364306   0.22816141
5422.00   2.10579276   0.22883545
5424.00   2.17671394   0.22943705
5426.00   1.74175537   0.22485992
5428.00   2.36809111   0.08355775
5430.00   2.36343288   0.08461562
5432.00   2.23148060   0.08517869
5434.00   2.20068979   0.08418462
5436.00   2.23495054   0.08005934
5438.00   2.30188942   0.07709210
5440.00   2.42469072   0.07785003
5442.00   2.57574916   0.08074358
5444.00   2.55153036   0.08372862
5446.00   2.33319497   0.08864074
5448.00   2.23211622   0.09133554
5450.00   2.20727444   0.08756922
5452.00   2.12260342   0.09275127
5454.00   1.87343836   0.11181215
5456.00   1.61080253   0.13246703
5458.00   1.65446496   0.14350531
5460.00   1.95514691   0.15343435
5462.00   2.17737484   0.15292367
5464.00   2.54068494   0.14038870
5466.00   2.70372868   0.12828314
5468.00   2.57827473   0.11591210
5470.00   2.37332940   0.10346632
5472.00   2.31305265   0.09444793
5474.00   2.30984688   0.08838068
5476.00   2.29390192   0.08530857
5478.00   2.26202297   0.08874810
5480.00   2.29448819   0.08931860
5482.00   2.45464063   0.08807784
5484.00   2.56547189   0.08586188
5486.00   2.47000670   0.08257723
5488.00   2.24028397   0.07804616
5490.00   2.16067553   0.07427421
5492.00   2.14881229   0.07016012
5494.00   2.15487719   0.06712615
5496.00   2.19566751   0.06515941
5498.00   2.25812435   0.06384509
5500.00   2.35186458   0.06321107
5502.00   2.46244359   0.06319533
5504.00   2.51010084   0.06291921
5506.00   2.50152850   0.06242244
5508.00   2.51736975   0.06271838
5510.00   2.53754830   0.06380350
5512.00   2.55100441   0.06480628
5514.00   2.55257654   0.06518988
5516.00   2.55035210   0.06584127
5518.00   2.56488323   0.06858827
5520.00   2.62640572   0.07425860
5522.00   2.54420424   0.07412698
5524.00   2.28599715   0.06852111
5526.00   2.12610650   0.06444200
5528.00   2.05504394   0.06223181
5530.00   2.05040646   0.06068788
5532.00   2.14192033   0.05926432
5534.00   2.34802890   0.05830873
5536.00   2.36983895   0.05723143
5538.00   2.23000765   0.05611322
5540.00   2.16715527   0.05533345
5542.00   2.14625144   0.05501985
5544.00   2.15145230   0.05474389
5546.00   2.19080591   0.05410215
5548.00   2.25934863   0.05331095
5550.00   2.28399158   0.05348263
5552.00   2.28084540   0.05490174
5554.00   2.28107142   0.05531849
5556.00   2.28292251   0.05511615
5558.00   2.26970840   0.05484998
5560.00   2.21953917   0.05418859
5562.00   2.15931129   0.05368402
5564.00   2.17165375   0.05547622
5566.00   2.25285149   0.05568754
5568.00   2.29805565   0.06511583
5570.00   2.37991452   0.08213288
5572.00   2.38123274   0.09375935
5574.00   2.20138192   0.10223537
5576.00   2.02531195   0.10741751
5578.00   2.16861510   0.10581309
5580.00   2.60544229   0.09714081
5582.00   2.75042224   0.09042301
5584.00   2.76354480   0.08086958
5586.00   2.72173834   0.07309886
5588.00   2.55969620   0.06767754
5590.00   2.40493774   0.06386914
5592.00   2.39661455   0.06143658
5594.00   2.48115158   0.06098975
5596.00   2.51168704   0.06011112
5598.00   2.54983020   0.05985036
5600.00   2.55551481   0.05952221
5602.00   2.51711392   0.05920759
5604.00   2.48344755   0.05904993
5606.00   2.48826408   0.05906589
5608.00   2.50962901   0.05925868
5610.00   2.48392749   0.05989507
5612.00   2.39279723   0.06146475
5614.00   2.37362385   0.06195291
5616.00   2.39203477   0.06188804
5618.00   2.43774199   0.06140259
5620.00   2.53947711   0.06024592
5622.00   2.65180087   0.05877760
5624.00   2.63697958   0.05820149
5626.00   2.48359156   0.05838215
5628.00   2.46043634   0.05805302
5630.00   2.52895832   0.05717920
5632.00   2.56248903   0.05697708
5634.00   2.54994321   0.05783481
5636.00   2.51823545   0.05892851
5638.00   2.47541022   0.05933854
5640.00   2.39814949   0.05944855
5642.00   2.41759872   0.05937865
5644.00   2.57912064   0.05814353
5646.00   2.61338925   0.05865403
5648.00   2.48536205   0.06160728
5650.00   2.35674524   0.06429968
5652.00   2.34503293   0.06486171
5654.00   2.39484072   0.06423359
5656.00   2.46592879   0.06396572
5658.00   2.63103533   0.06253511
5660.00   2.69880199   0.06315847
5662.00   2.69363880   0.06544021
5664.00   2.66163349   0.06836574
5666.00   2.60248423   0.07178058
5668.00   2.52426243   0.07556224
5670.00   2.52532959   0.07846221
5672.00   2.60802317   0.08014810
5674.00   2.64266849   0.08354925
5676.00   2.66209817   0.08613340
5678.00   2.68147612   0.09211368
5680.00   2.71625948   0.10391214
5682.00   2.74251723   0.11582405
5684.00   2.70379519   0.12019230
5686.00   2.57272387   0.12014554
5688.00   2.57782435   0.11958005
5690.00   2.68717885   0.11645140
5692.00   2.78602576   0.11311101
5694.00   2.91156387   0.10974227
5696.00   2.99912882   0.10561276
5698.00   2.94117284   0.09940576
5700.00   2.76154661   0.09006741
5702.00   2.64623976   0.08725548
5704.00   2.48269081   0.09266403
5706.00   2.43320155   0.09276203
5708.00   2.51555586   0.08766984
5710.00   2.62673926   0.08182691
5712.00   2.70037746   0.07826567
5714.00   2.77009606   0.07566041
5716.00   2.86364126   0.07375498
5718.00   3.03902388   0.07287076
5720.00   3.07441568   0.07258269
5722.00   2.98612571   0.07465037
5724.00   2.87303376   0.07476018
5726.00   2.73787522   0.07013805
5728.00   2.59634733   0.06273585
5730.00   2.60297275   0.05967012
5732.00   2.79629183   0.05996298
5734.00   2.82643008   0.05931045
5736.00   2.76669073   0.05839635
5738.00   2.70559096   0.05899130
5740.00   2.64475822   0.06194401
5742.00   2.58712220   0.06556133
5744.00   2.56280613   0.06781238
5746.00   2.55587316   0.07033250
5748.00   2.58587694   0.06939621
5750.00   2.67639494   0.06359185
5752.00   2.73820615   0.06011784
5754.00   2.79043531   0.05884615
5756.00   2.80775332   0.05958839
5758.00   2.74096704   0.06300209
5760.00   2.59662485   0.06868462
5762.00   2.53853655   0.07330037
5764.00   2.49516463   0.07955652
5766.00   2.52148461   0.08235158
5768.00   2.65905452   0.08161854
5770.00   2.78153682   0.08060692
5772.00   2.81041217   0.08170286
5774.00   2.78948069   0.08348639
5776.00   2.77582765   0.08143274
5778.00   2.72737670   0.07379073
5780.00   2.71732354   0.07070775
5782.00   2.76219916   0.06907753
5784.00   2.76586509   0.07097183
5786.00   2.66900301   0.07906182
5788.00   2.53851986   0.08842084
5790.00   2.52973104   0.08949079
5792.00   2.63756800   0.08461239
5794.00   2.65011024   0.08075783
5796.00   2.59533763   0.07396635
5798.00   2.57736373   0.06865986
5800.00   2.63903975   0.06599250
5802.00   2.69911027   0.06479701
5804.00   2.64072895   0.06407537
5806.00   2.48406243   0.06479149
5808.00   2.39695740   0.06400047
5810.00   2.29368496   0.06157765
5812.00   2.27281022   0.06064901
5814.00   2.36254716   0.06158033
5816.00   2.47451878   0.06286199
5818.00   2.54586196   0.06331332
5820.00   2.61166310   0.06342574
5822.00   2.59099460   0.06440994
5824.00   2.45577836   0.06703646
5826.00   2.38347173   0.06742258
5828.00   2.32946253   0.06484088
5830.00   2.31372738   0.06314834
5832.00   2.37297082   0.06491706
5834.00   2.47749805   0.06834354
5836.00   2.47899365   0.06968769
5838.00   2.39015031   0.07070996
5840.00   2.34694672   0.07024340
5842.00   2.30902815   0.06711199
5844.00   2.28097010   0.06529699
5846.00   2.27215838   0.06625883
5848.00   2.26857662   0.06847119
5850.00   2.23269987   0.07021127
5852.00   2.14822006   0.07298764
5854.00   2.14821410   0.07309296
5856.00   2.23335910   0.07009791
5858.00   2.28226256   0.06859449
5860.00   2.28215456   0.06898660
5862.00   2.26634121   0.07034978
5864.00   2.25437403   0.07246984
5866.00   2.22455382   0.07594816
5868.00   2.27025294   0.07656651
5870.00   2.46522117   0.07376833
5872.00   2.48802686   0.07367810
5874.00   2.29336452   0.07507443
5876.00   2.09150457   0.07872761
5878.00   2.03470993   0.08450594
5880.00   2.05078840   0.09174224
5882.00   2.04765320   0.10514913
5884.00   2.10488605   0.12347198
5886.00   2.06585336   0.13869005
5888.00   1.81941164   0.15469146
5890.00   1.74487948   0.16742475
5892.00   2.11173344   0.17772581
5894.00   2.68842936   0.18512683
5896.00   2.80101585   0.18134619
5898.00   2.55702019   0.16426605
5900.00   2.43976808   0.14899872
5902.00   2.25329971   0.12547669
5904.00   2.14421868   0.10364128
5906.00   2.14893532   0.08867590
5908.00   2.22026873   0.07926986
5910.00   2.31854010   0.07346296
5912.00   2.51554298   0.07635693
5914.00   2.54304290   0.07569730
5916.00   2.43481112   0.07519247
5918.00   2.33840251   0.07521638
5920.00   2.21031928   0.07595874
5922.00   2.12253475   0.07695720
5924.00   2.19401622   0.07775655
5926.00   2.39936686   0.07858171
5928.00   2.50170255   0.07923628
5930.00   2.60161281   0.07998291
5932.00   2.62686729   0.08021271
5934.00   2.56252146   0.07974041
5936.00   2.47331262   0.07926147
5938.00   2.38636827   0.07924943
5940.00   2.28741670   0.07945964
5942.00   2.26354837   0.07954788
5944.00   2.30387020   0.08048027
5946.00   2.34458113   0.07946471
5948.00   2.43243933   0.07591452
5950.00   2.48628163   0.07295840
5952.00   2.46598601   0.07198404
5954.00   2.40799761   0.07204701
5956.00   2.37933087   0.07215268
5958.00   2.33649206   0.07319516
5960.00   2.34895539   0.07320347
5962.00   2.41917896   0.07247686
5964.00   2.48088717   0.07184521
5966.00   2.53746557   0.07136721
5968.00   2.57969880   0.07098150
5970.00   2.56552625   0.07079090
5972.00   2.47958159   0.07073178
5974.00   2.49736047   0.07093368
5976.00   2.60567069   0.07196020
5978.00   2.67732072   0.07197750
5980.00   2.73525286   0.07072736
5982.00   2.75518417   0.06911819
5984.00   2.68605638   0.06787215
5986.00   2.53621006   0.06660653
5988.00   2.48133445   0.06597269
5990.00   2.47436309   0.06615774
5992.00   2.47917104   0.06594009
5994.00   2.50930405   0.06538013
5996.00   2.54833794   0.06489823
5998.00   2.59465551   0.06477445
6000.00   2.64735746   0.06483983
6002.00   2.65247679   0.06457039
6004.00   2.59962416   0.06415774
6006.00   2.58719254   0.06357030
6008.00   2.60469103   0.06255095
6010.00   2.60835457   0.06179403
6012.00   2.56535435   0.06136460
6014.00   2.51675344   0.06131432
6016.00   2.56677008   0.06219339
6018.00   2.76106882   0.06376565
6020.00   2.75245810   0.06596196
6022.00   2.55911994   0.07077324
6024.00   2.43394947   0.07221394
6026.00   2.39255548   0.06847420
6028.00   2.39994025   0.06316738
6030.00   2.46738601   0.06202637
6032.00   2.63159180   0.06381110
6034.00   2.63367915   0.06270937
6036.00   2.45445919   0.05931190
6038.00   2.40636134   0.05720653
6040.00   2.49785280   0.05598974
6042.00   2.62285280   0.05587165
6044.00   2.72018600   0.05768079
6046.00   2.82324004   0.06109924
6048.00   2.85967374   0.06206197
6050.00   2.86652064   0.06156638
6052.00   2.80314922   0.06110616
6054.00   2.59031749   0.06054932
6056.00   2.45123625   0.05939281
6058.00   2.53011894   0.05695885
6060.00   2.72262692   0.05367284
6062.00   2.76037169   0.05227417
6064.00   2.70099211   0.05258218
6066.00   2.67652130   0.05230103
6068.00   2.62002635   0.05148450
6070.00   2.60998464   0.05183455
6072.00   2.69465756   0.05407028
6074.00   2.80636549   0.05705662
6076.00   2.81098914   0.05932259
6078.00   2.73357177   0.06248726
6080.00   2.69582462   0.06203422
6082.00   2.66195011   0.05737384
6084.00   2.62687278   0.05401115
6086.00   2.58924651   0.05231001
6088.00   2.55226183   0.05163386
6090.00   2.51078725   0.05207355
6092.00   2.45100641   0.05381945
6094.00   2.49304962   0.05502954
6096.00   2.69549084   0.05671381
6098.00   2.75504589   0.05756966
6100.00   2.65459156   0.05681951
6102.00   2.54092360   0.05683350
6104.00   2.50803185   0.05971372
6106.00   2.50924850   0.06421065
6108.00   2.51604009   0.06633352
6110.00   2.55423689   0.06730478
6112.00   2.57143998   0.06812846
6114.00   2.57887530   0.06898091
6116.00   2.57962990   0.06884599
6118.00   2.56194520   0.06704315
6120.00   2.54033208   0.06406841
6122.00   2.58179975   0.06149667
6124.00   2.71472859   0.05800959
6126.00   2.74964952   0.05613440
6128.00   2.73075938   0.05577294
6130.00   2.69245100   0.05547506
6132.00   2.63931990   0.05465895
6134.00   2.56620383   0.05421541
6136.00   2.46866846   0.05555173
6138.00   2.32432628   0.05836539
6140.00   2.25339270   0.06083363
6142.00   2.20250010   0.06522363
6144.00   2.21887779   0.06633640
6146.00   2.34136510   0.06299113
6148.00   2.47953510   0.05855504
6150.00   2.53164434   0.05649946
6152.00   2.53289318   0.05505368
6154.00   2.58220863   0.05797404
6156.00   2.66305757   0.06711949
6158.00   2.72488213   0.07080711
6160.00   2.80866289   0.07096451
6162.00   2.83641648   0.06946312
6164.00   2.72427416   0.06625993
6166.00   2.51952386   0.06110735
6168.00   2.47944260   0.05968629
6170.00   2.55867839   0.06294271
6172.00   2.60975409   0.06188072
6174.00   2.70277333   0.05665538
6176.00   2.75251842   0.05235387
6178.00   2.70581603   0.05179662
6180.00   2.61886048   0.05289351
6182.00   2.62298393   0.05214841
6184.00   2.70825815   0.05055694
6186.00   2.72306347   0.04920156
6188.00   2.69719005   0.04728904
6190.00   2.67625403   0.04611159
6192.00   2.65687847   0.04612014
6194.00   2.64648342   0.04662491
6196.00   2.67395878   0.04676868
6198.00   2.74692869   0.04692996
6200.00   2.75502038   0.04696345
6202.00   2.71124244   0.04574954
6204.00   2.68221045   0.04682573
6206.00   2.66680217   0.05140433
6208.00   2.65220547   0.05531950
6210.00   2.62905598   0.05553968
6212.00   2.59962130   0.05346848
6214.00   2.59157228   0.05213092
6216.00   2.61790609   0.05012551
6218.00   2.60749149   0.04858245
6220.00   2.55495119   0.04732040
6222.00   2.50905275   0.04631519
6224.00   2.50236344   0.04549035
6226.00   2.51364613   0.04493804
6228.00   2.48201418   0.04529390
6230.00   2.38028979   0.04673767
6232.00   2.37224913   0.04783482
6234.00   2.45838952   0.04937273
6236.00   2.51352358   0.05027665
6238.00   2.49004722   0.05026313
6240.00   2.44048953   0.04965056
6242.00   2.44620061   0.04868274
6244.00   2.48933840   0.04664757
6246.00   2.51376390   0.04597294
6248.00   2.51999140   0.04593423
6250.00   2.55642796   0.04660134
6252.00   2.65989161   0.04854063
6254.00   2.75554967   0.05049256
6256.00   2.73587561   0.05084922
6258.00   2.62405944   0.05023868
6260.00   2.56821084   0.04936989
6262.00   2.53832340   0.04754543
6264.00   2.48026752   0.04607397
6266.00   2.36832523   0.04462990
6268.00   2.27814150   0.04362140
6270.00   2.27531886   0.04369212
6272.00   2.33143377   0.04462821
6274.00   2.36683989   0.04459414
6276.00   2.44479346   0.04391337
6278.00   2.44798946   0.04355590
6280.00   2.36310887   0.04293735
6282.00   2.29099226   0.04301070
6284.00   2.28565240   0.04411375
6286.00   2.30784845   0.04600133
6288.00   2.28122902   0.04889832
6290.00   2.22190022   0.05123031
6292.00   2.16947198   0.05725764
6294.00   2.05480981   0.06756070
6296.00   2.03709435   0.07427974
6298.00   2.20296311   0.07697859
6300.00   2.42673659   0.07763709
6302.00   2.47881317   0.07749163
6304.00   2.41401577   0.07658348
6306.00   2.39643574   0.07241693
6308.00   2.36782527   0.06209283
6310.00   2.35014677   0.05366902
6312.00   2.34009171   0.04873949
6314.00   2.34209943   0.04574301
6316.00   2.36594820   0.04337663
6318.00   2.40992236   0.04248948
6320.00   2.45332837   0.04345153
6322.00   2.52941155   0.04848781
6324.00   2.55536604   0.04977700
6326.00   2.51380014   0.04705865
6328.00   2.47724414   0.04425419
6330.00   2.50476623   0.04478443
6332.00   2.56737924   0.04700894
6334.00   2.55691099   0.04593765
6336.00   2.47132087   0.04125282
6338.00   2.43998218   0.03903578
6340.00   2.43130708   0.03850134
6342.00   2.44525599   0.03844840
6344.00   2.50227594   0.03864688
6346.00   2.57706285   0.03915653
6348.00   2.56893826   0.03916630
6350.00   2.47690797   0.03800547
6352.00   2.44111276   0.03922669
6354.00   2.39732885   0.04025155
6356.00   2.40851331   0.04486369
6358.00   2.51981306   0.05566345
6360.00   2.65423489   0.06490213
6362.00   2.68164563   0.06415472
6364.00   2.64379740   0.05467742
6366.00   2.59664321   0.04990525
6368.00   2.47297907   0.04588689
6370.00   2.42192364   0.04258407
6372.00   2.46856070   0.04017673
6374.00   2.53138089   0.03887513
6376.00   2.53820705   0.03889899
6378.00   2.51922345   0.04029305
6380.00   2.50177598   0.04198555
6382.00   2.46787810   0.04630216
6384.00   2.44585133   0.04664215
6386.00   2.42686796   0.04228040
6388.00   2.41983414   0.03764813
6390.00   2.43698263   0.03631066
6392.00   2.47067666   0.03673638
6394.00   2.47629762   0.03679766
6396.00   2.48719168   0.03768246
6398.00   2.44462800   0.03791767
6400.00   2.29905486   0.03766092
6402.00   2.22498298   0.03755355
6404.00   2.30895448   0.03788705
6406.00   2.45939040   0.03835656
6408.00   2.49529791   0.03839391
6410.00   2.44406366   0.03778223
6412.00   2.46829796   0.03823807
6414.00   2.55708218   0.03935162
6416.00   2.60010290   0.04071384
6418.00   2.58438706   0.04309530
6420.00   2.53445268   0.04491920
6422.00   2.45935369   0.04345863
6424.00   2.33535266   0.03818045
6426.00   2.28128076   0.03763982
6428.00   2.25647068   0.04202253
6430.00   2.26960397   0.04281323
6432.00   2.34772754   0.03927838
6434.00   2.42773509   0.03515555
6436.00   2.44924402   0.03447760
6438.00   2.43728232   0.03585936
6440.00   2.44616771   0.03591492
6442.00   2.46023345   0.03561253
6444.00   2.47116160   0.03550256
6446.00   2.48889947   0.03548088
6448.00   2.49274731   0.03552479
6450.00   2.46926808   0.03562786
6452.00   2.42750955   0.03579507
6454.00   2.38896036   0.03605802
6456.00   2.31217790   0.03642699
6458.00   2.31081176   0.03681942
6460.00   2.37470508   0.03731008
6462.00   2.44303274   0.03775185
6464.00   2.51456308   0.03821974
6466.00   2.58215952   0.03857708
6468.00   2.59689188   0.03836945
6470.00   2.56058979   0.03742165
6472.00   2.54730749   0.03722500
6474.00   2.52409148   0.03760007
6476.00   2.52082682   0.03775230
6478.00   2.56137609   0.03759389
6480.00   2.59577727   0.03735657
6482.00   2.55501628   0.03716185
6484.00   2.45506501   0.03680884
6486.00   2.39167809   0.03734149
6488.00   2.29008293   0.03920490
6490.00   2.28604245   0.03986808
6492.00   2.42551255   0.03898028
6494.00   2.55687737   0.03828271
6496.00   2.56070089   0.03931333
6498.00   2.49245048   0.04132712
6500.00   2.46295285   0.04180167
6502.00   2.42540836   0.04127466
6504.00   2.40891576   0.04093502
6506.00   2.42459846   0.04063382
6508.00   2.42647815   0.04004201
6510.00   2.38537455   0.03873532
6512.00   2.32557845   0.03706939
6514.00   2.31051373   0.03674936
6516.00   2.33257842   0.03830218
6518.00   2.33735657   0.03783714
6520.00   2.34745121   0.03524746
6522.00   2.34485555   0.03385931
6524.00   2.31373286   0.03488883
6526.00   2.27940512   0.03679747
6528.00   2.29228830   0.03784356
6530.00   2.34759068   0.03901375
6532.00   2.37231016   0.03902149
6534.00   2.39777923   0.03771149
6536.00   2.39837170   0.03673096
6538.00   2.35537601   0.03609888
6540.00   2.31169653   0.03560758
6542.00   2.31910634   0.03518051
6544.00   2.36274266   0.03480777
6546.00   2.37191486   0.03492259
6548.00   2.35582781   0.03566033
6550.00   2.35829711   0.03613414
6552.00   2.37762952   0.03638271
6554.00   2.40031457   0.03668377
6556.00   2.42247605   0.03714970
6558.00   2.44614983   0.03771596
6560.00   2.44767380   0.03857615
6562.00   2.42558479   0.04046407
6564.00   2.41182089   0.04066499
6566.00   2.39295363   0.03939781
6568.00   2.38323355   0.03790477
6570.00   2.38864589   0.03636704
6572.00   2.40423536   0.03477688
6574.00   2.42463350   0.03435566
6576.00   2.46981835   0.03529479
6578.00   2.47223234   0.03535452
6580.00   2.44528937   0.03514449
6582.00   2.40856957   0.03484932
6584.00   2.35251403   0.03428353
6586.00   2.29552364   0.03378605
6588.00   2.27446485   0.03404965
6590.00   2.27070761   0.03483495
6592.00   2.30378389   0.03585043
6594.00   2.39650702   0.03799095
6596.00   2.46137953   0.03870591
6598.00   2.50399041   0.03776871
6600.00   2.53016114   0.03631312
6602.00   2.53697014   0.03527598
6604.00   2.52478909   0.03419997
6606.00   2.50501704   0.03342835
6608.00   2.47096968   0.03305141
6610.00   2.43185472   0.03248886
6612.00   2.36632252   0.03140788
6614.00   2.32281756   0.03088818
6616.00   2.33980870   0.03188951
6618.00   2.39309812   0.03372445
6620.00   2.39982533   0.03411061
6622.00   2.37877488   0.03367048
6624.00   2.36510277   0.03316040
6626.00   2.33151507   0.03194684
6628.00   2.32586956   0.03111940
6630.00   2.37785101   0.03120564
6632.00   2.45185137   0.03168274
6634.00   2.47002411   0.03167121
6636.00   2.45325994   0.03147026
6638.00   2.43734908   0.03122835
6640.00   2.39730144   0.03060845
6642.00   2.37388873   0.03044452
6644.00   2.38514900   0.03073920
6646.00   2.39516521   0.03147183
6648.00   2.34759283   0.03295815
6650.00   2.23858714   0.03548334
6652.00   2.24068427   0.03578606
6654.00   2.33725786   0.03427140
6656.00   2.41011381   0.03305059
6658.00   2.49303722   0.03167689
6660.00   2.54210258   0.03058137
6662.00   2.49779606   0.03049593
6664.00   2.38072562   0.03118584
6666.00   2.33683920   0.03113992
6668.00   2.32129455   0.03026826
6670.00   2.31963086   0.03050464
6672.00   2.34304142   0.03209079
6674.00   2.37100387   0.03325662
6676.00   2.39791441   0.03324332
6678.00   2.42556477   0.03259720
6680.00   2.43177557   0.03200745
6682.00   2.40751624   0.03085149
6684.00   2.41036820   0.03033650
6686.00   2.44054294   0.03014072
6688.00   2.45120931   0.03024327
6690.00   2.42283273   0.03044432
6692.00   2.38090754   0.03105544
6694.00   2.36688638   0.03291159
6696.00   2.36323881   0.03648497
6698.00   2.37602186   0.03735845
6700.00   2.41609287   0.03600439
6702.00   2.44601989   0.03548345
6704.00   2.47105622   0.03615675
6706.00   2.48376536   0.03705652
6708.00   2.46282434   0.03749194
6710.00   2.40530491   0.03785190
6712.00   2.40286064   0.03754641
6714.00   2.44574904   0.03638104
6716.00   2.47177315   0.03549458
6718.00   2.50191832   0.03491223
6720.00   2.50870442   0.03420115
6722.00   2.45729184   0.03294947
6724.00   2.36291623   0.03128231
6726.00   2.32927251   0.03034102
6728.00   2.31060171   0.02955191
6730.00   2.34002972   0.02968384
6732.00   2.45421934   0.03127179
6734.00   2.53731132   0.03237430
6736.00   2.53044248   0.03221472
6738.00   2.48126984   0.03144383
6740.00   2.47912455   0.03105246
6742.00   2.50534558   0.03057182
6744.00   2.50912857   0.03038132
6746.00   2.50043654   0.03019565
6748.00   2.49381161   0.03051312
6750.00   2.49129820   0.03184455
6752.00   2.49050713   0.03324085
6754.00   2.49199700   0.03307397
6756.00   2.49938250   0.03144313
6758.00   2.49350691   0.03114165
6760.00   2.46595001   0.03177453
6762.00   2.45977998   0.03197142
6764.00   2.48859000   0.03167333
6766.00   2.51643825   0.03123306
6768.00   2.50481820   0.03082066
6770.00   2.46593189   0.03025763
6772.00   2.44835782   0.03049625
6774.00   2.43195891   0.03171514
6776.00   2.42979527   0.03230815
6778.00   2.45037818   0.03256586
6780.00   2.46747303   0.03252601
6782.00   2.45905018   0.03207659
6784.00   2.43740106   0.03126751
6786.00   2.45136547   0.03068895
6788.00   2.49593973   0.02996917
6790.00   2.53114891   0.02966517
6792.00   2.58179641   0.02982309
6794.00   2.60938931   0.02996790
6796.00   2.59163618   0.02991244
6798.00   2.55174661   0.02982624
6800.00   2.54128313   0.02996542
6802.00   2.55201411   0.03043864
6804.00   2.54096794   0.03044613
6806.00   2.51688242   0.02971240
6808.00   2.49186158   0.02971449
6810.00   2.46116495   0.03111881
6812.00   2.43394852   0.03262199
6814.00   2.42580867   0.03241657
6816.00   2.42152023   0.03046814
6818.00   2.47110343   0.03124226
6820.00   2.59505129   0.03427188
6822.00   2.68303585   0.03625445
6824.00   2.74476433   0.03755083
6826.00   2.78420258   0.03844236
6828.00   2.77984810   0.03879432
6830.00   2.72889280   0.03858375
6832.00   2.80242443   0.03932266
6834.00   2.93077755   0.04120868
6836.00   3.15376997   0.04187369
6838.00   3.55841112   0.04162215
6840.00   3.90761447   0.04098224
6842.00   4.09943342   0.04008878
6844.00   4.18699646   0.03885761
6846.00   4.06664848   0.03777064
6848.00   3.66039968   0.03678938
6850.00   3.35362792   0.03545296
6852.00   2.95218062   0.03293735
6854.00   2.69173908   0.03169224
6856.00   2.65849447   0.03279703
6858.00   2.75903106   0.03512126
6860.00   2.86663508   0.03728966
6862.00   3.08555460   0.04029585
6864.00   3.18222189   0.04183916
6866.00   3.25187731   0.04296573
6868.00   3.22520375   0.04305746
6870.00   3.04802656   0.04170902
6872.00   2.83065367   0.03967388
6874.00   2.72396994   0.03801610
6876.00   2.67908144   0.03618766
6878.00   2.59553838   0.03477098
6880.00   2.48331356   0.03346958
6882.00   2.41114831   0.03276737
6884.00   2.37343478   0.03286809
6886.00   2.36214685   0.03325294
6888.00   2.38373733   0.03359894
6890.00   2.43856359   0.03408300
6892.00   2.44673681   0.03416332
6894.00   2.42126966   0.03403154
6896.00   2.40798807   0.03367230
6898.00   2.38910580   0.03280151
6900.00   2.38400984   0.03211964
6902.00   2.41416335   0.03198572
6904.00   2.46041465   0.03217945
6906.00   2.44968891   0.03248314
6908.00   2.36895156   0.03307994
6910.00   2.35367227   0.03358553
6912.00   2.36745238   0.03381021
6914.00   2.40017939   0.03459150
6916.00   2.47527003   0.03660196
6918.00   2.55233026   0.03864224
6920.00   2.53055096   0.03865492
6922.00   2.41374016   0.03704080
6924.00   2.36823821   0.03588630
6926.00   2.35319018   0.03416655
6928.00   2.33700490   0.03290283
6930.00   2.31543994   0.03222955
6932.00   2.30086875   0.03188900
6934.00   2.30417800   0.03163011
6936.00   2.32065439   0.03148930
6938.00   2.34981036   0.03212154
6940.00   2.42431402   0.03372756
6942.00   2.44254518   0.03485864
6944.00   2.39664078   0.03592193
6946.00   2.34375429   0.03656758
6948.00   2.31642723   0.03651333
6950.00   2.29781008   0.03591447
6952.00   2.30050635   0.03487022
6954.00   2.33883882   0.03271425
6956.00   2.35146379   0.03127507
6958.00   2.35066199   0.03007793
6960.00   2.34361768   0.02934399
6962.00   2.32642937   0.02927339
6964.00   2.30524397   0.02971290
6966.00   2.31096101   0.03023606
6968.00   2.35882258   0.03112570
6970.00   2.35088444   0.03185599
6972.00   2.28591084   0.03237686
6974.00   2.25024366   0.03327521
6976.00   2.26248693   0.03521465
6978.00   2.29460859   0.03690832
6980.00   2.31899953   0.03615998
6982.00   2.35001183   0.03265731
6984.00   2.37101221   0.03221845
6986.00   2.40201354   0.03444448
6988.00   2.39856935   0.03524927
6990.00   2.32240415   0.03443905
6992.00   2.26473355   0.03332399
6994.00   2.32666850   0.03302586
6996.00   2.47473860   0.03312828
6998.00   2.57679844   0.03285983
7000.00   2.71268654   0.03229286
7002.00   2.76798892   0.03199279
7004.00   2.73500347   0.03199481
7006.00   2.68424082   0.03197243
7008.00   2.65030694   0.03161980
7010.00   2.61469460   0.03111834
7012.00   2.59141803   0.03142563
7014.00   2.57814741   0.03272953
7016.00   2.56623530   0.03322175
7018.00   2.55923414   0.03341507
7020.00   2.55377960   0.03327883
7022.00   2.55738378   0.03264989
7024.00   2.55860972   0.03172400
7026.00   2.51759195   0.03116533
7028.00   2.42967606   0.03074691
7030.00   2.37320924   0.03041696
7032.00   2.31316853   0.02995781
7034.00   2.28197765   0.03005707
7036.00   2.28803515   0.03118050
7038.00   2.31530070   0.03237488
7040.00   2.35002899   0.03227524
7042.00   2.41251493   0.03098930
7044.00   2.41567063   0.03133336
7046.00   2.35247207   0.03295784
7048.00   2.32896304   0.03407960
7050.00   2.35168934   0.03527901
7052.00   2.37867379   0.03578687
7054.00   2.37746310   0.03452071
7056.00   2.36148190   0.03163197
7058.00   2.36099648   0.03038294
7060.00   2.38275814   0.03008258
7062.00   2.37237096   0.02979333
7064.00   2.31845045   0.02978427
7066.00   2.27816081   0.02989666
7068.00   2.28001213   0.02994788
7070.00   2.30648828   0.03007607
7072.00   2.34200811   0.03081944
7074.00   2.42217779   0.03194418
7076.00   2.44585395   0.03343425
7078.00   2.42675519   0.03607978
7080.00   2.40637803   0.03751872
7082.00   2.39181352   0.03706003
7084.00   2.37796044   0.03567909
7086.00   2.37204981   0.03493103
7088.00   2.38026905   0.03437879
7090.00   2.36361289   0.03332209
7092.00   2.32188630   0.03131186
7094.00   2.29071569   0.03014310
7096.00   2.26865983   0.03028033
7098.00   2.25624990   0.03087358
7100.00   2.26530337   0.03107175
7102.00   2.30237436   0.03123152
7104.00   2.28521705   0.03142276
7106.00   2.18684387   0.03164193
7108.00   2.17307854   0.03182930
7110.00   2.26632524   0.03215517
7112.00   2.35961533   0.03224308
7114.00   2.37689710   0.03169909
7116.00   2.35460019   0.03066179
7118.00   2.33291101   0.03010397
7120.00   2.25816369   0.02959223
7122.00   2.26038337   0.02950109
7124.00   2.35854220   0.02995898
7126.00   2.42622328   0.03041633
7128.00   2.40159225   0.03058625
7130.00   2.33094907   0.03070059
7132.00   2.29098344   0.03123325
7134.00   2.24290633   0.03218454
7136.00   2.22445631   0.03288152
7138.00   2.23949718   0.03392965
7140.00   2.24596977   0.03420960
7142.00   2.23466659   0.03308078
7144.00   2.21718955   0.03148802
7146.00   2.20189691   0.03141668
7148.00   2.17586088   0.03269317
7150.00   2.18533564   0.03248938
7152.00   2.21700072   0.03086141
7154.00   2.26765752   0.03019494
7156.00   2.36039686   0.03088520
7158.00   2.44691920   0.03185895
7160.00   2.46919990   0.03229253
7162.00   2.44937372   0.03263193
7164.00   2.41925693   0.03229636
7166.00   2.33739209   0.03059330
7168.00   2.30124545   0.03021638
7170.00   2.31610680   0.03160642
7172.00   2.32994914   0.03265043
7174.00   2.30933189   0.03194829
7176.00   2.27176833   0.03019829
7178.00   2.24764991   0.02970788
7180.00   2.21400070   0.03022206
7182.00   2.21176004   0.03006551
7184.00   2.24176455   0.02924019
7186.00   2.27452517   0.02883560
7188.00   2.30588841   0.02938822
7190.00   2.33563399   0.03039646
7192.00   2.33949089   0.03103854
7194.00   2.32194281   0.03209237
7196.00   2.30019903   0.03180933
7198.00   2.24193811   0.02955246
7200.00   2.22435546   0.02849036
7202.00   2.27504826   0.02984946
7204.00   2.34653568   0.03164952
7206.00   2.37490129   0.03149884
7208.00   2.38821077   0.02990545
7210.00   2.37561536   0.02951462
7212.00   2.30624819   0.02960513
7214.00   2.28370380   0.02990291
7216.00   2.32598114   0.03079841
7218.00   2.37187028   0.03145722
7220.00   2.36899567   0.03081458
7222.00   2.33993793   0.02904397
7224.00   2.30322552   0.02936634
7226.00   2.20728326   0.03143658
7228.00   2.19673181   0.03279590
7230.00   2.29211354   0.03319537
7232.00   2.37372422   0.03452653
7234.00   2.36922216   0.03760445
7236.00   2.32171202   0.04157953
7238.00   2.31257248   0.04583636
7240.00   2.31336117   0.05239287
7242.00   2.32288051   0.05464369
7244.00   2.34596968   0.05428846
7246.00   2.37044024   0.05284235
7248.00   2.40225959   0.05029300
7250.00   2.43040538   0.04662245
7252.00   2.41380596   0.04308501
7254.00   2.34938192   0.03850519
7256.00   2.31372356   0.03514675
7258.00   2.26434183   0.03250172
7260.00   2.25670290   0.03086136
7262.00   2.31247997   0.03028175
7264.00   2.38822603   0.03102502
7266.00   2.43093228   0.03344207
7268.00   2.46664357   0.03737593
7270.00   2.47153783   0.04052157
7272.00   2.42859101   0.04368165
7274.00   2.41339064   0.04670276
7276.00   2.43420529   0.05070435
7278.00   2.45087433   0.05320764
7280.00   2.43578386   0.05206646
7282.00   2.40270090   0.04804267
7284.00   2.34273624   0.04526863
7286.00   2.20373940   0.04156933
7288.00   2.16375446   0.03930478
7290.00   2.21930075   0.03892487
7292.00   2.28159261   0.03860009
7294.00   2.31615376   0.03735808
7296.00   2.34271741   0.03578750
7298.00   2.34896541   0.03478191
7300.00   2.31122494   0.03369878
7302.00   2.32461500   0.03374932
7304.00   2.38968611   0.03454961
7306.00   2.42834830   0.03615415
7308.00   2.41218472   0.03890469
7310.00   2.37713957   0.04193103
7312.00   2.37860346   0.04374015
7314.00   2.40900779   0.04507343
7316.00   2.40523243   0.04581824
7318.00   2.38922071   0.04643022
7320.00   2.35370636   0.04580013
7322.00   2.27147627   0.04319162
7324.00   2.19894099   0.03988120
7326.00   2.21554160   0.03762020
7328.00   2.30326915   0.03551019
7330.00   2.33753562   0.03544233
7332.00   2.34646749   0.03739920
7334.00   2.36837721   0.03956492
7336.00   2.39828515   0.04274930
7338.00   2.43432951   0.04539491
7340.00   2.48715186   0.04666667
7342.00   2.55319190   0.04715722
7344.00   2.54854894   0.04638177
7346.00   2.46546650   0.04358047
7348.00   2.42364383   0.04147801
7350.00   2.39571857   0.03918497
7352.00   2.37874031   0.03733978
7354.00   2.37794638   0.03634880
7356.00   2.38698268   0.03603079
7358.00   2.37780881   0.03610612
7360.00   2.34250927   0.03651135
7362.00   2.34650040   0.03782792
7364.00   2.38186073   0.04034803
7366.00   2.41604972   0.04243401
7368.00   2.45080924   0.04447646
7370.00   2.48043036   0.04581630
7372.00   2.48324871   0.04460614
7374.00   2.46700144   0.04068090
7376.00   2.43640709   0.03766026
7378.00   2.36754084   0.03338758
7380.00   2.32753778   0.03058378
7382.00   2.32220149   0.02987163
7384.00   2.32827497   0.03047642
7386.00   2.33516812   0.03179715
7388.00   2.35692453   0.03411032
7390.00   2.30422664   0.03601420
7392.00   2.14597487   0.03824750
7394.00   2.07319045   0.03989854
7396.00   2.05578780   0.04098829
7398.00   2.08508039   0.04203297
7400.00   2.18445873   0.04372298
7402.00   2.33944082   0.04560303
7404.00   2.38647890   0.04466223
7406.00   2.35488248   0.04047041
7408.00   2.33705616   0.03730870
7410.00   2.29542947   0.03334524
7412.00   2.26626468   0.03032737
7414.00   2.27437067   0.02980635
7416.00   2.29265094   0.03068468
7418.00   2.25394464   0.03014676
7420.00   2.14619803   0.02835680
7422.00   2.11365676   0.02865931
7424.00   2.12323546   0.03068378
7426.00   2.14498186   0.03242749
7428.00   2.18908095   0.03375183
7430.00   2.23579407   0.03500282
7432.00   2.24013829   0.03637499
7434.00   2.20349765   0.03800042
7436.00   2.22363210   0.03864187
7438.00   2.30005980   0.03913156
7440.00   2.34013009   0.03827837
7442.00   2.34720540   0.03513806
7444.00   2.33544874   0.03155744
7446.00   2.30448127   0.02985644
7448.00   2.24968338   0.02931062
7450.00   2.23561954   0.02895407
7452.00   2.26412725   0.02943891
7454.00   2.26021051   0.02981237
7456.00   2.22377658   0.03037075
7458.00   2.19262362   0.03083876
7460.00   2.18894935   0.03063085
7462.00   2.19864631   0.03021594
7464.00   2.19065762   0.03238152
7466.00   2.15317416   0.03706236
7468.00   2.16293645   0.03980983
7470.00   2.20320559   0.04278028
7472.00   2.26119876   0.04401837
7474.00   2.36216998   0.04243426
7476.00   2.46523881   0.03943484
7478.00   2.44731092   0.03857690
7480.00   2.30824256   0.03931987
7482.00   2.24800920   0.03860440
7484.00   2.21207881   0.03696017
7486.00   2.18113947   0.03541501
7488.00   2.15230203   0.03387696
7490.00   2.13216877   0.03250968
7492.00   2.12346745   0.03183897
7494.00   2.11729836   0.03180762
7496.00   2.16537929   0.03168206
7498.00   2.30734611   0.03207128
7500.00   2.36977100   0.03183392
7502.00   2.34493685   0.03061089
7504.00   2.30387211   0.02950862
7506.00   2.29014254   0.02953896
7508.00   2.28150249   0.03027238
7510.00   2.29996729   0.03078618
7512.00   2.35338259   0.03060484
7514.00   2.39203548   0.03225669
7516.00   2.41944742   0.03520759
7518.00   2.45507431   0.03865535
7520.00   2.52233791   0.04315580
7522.00   2.59928632   0.04769009
7524.00   2.59493995   0.04814873
7526.00   2.52341390   0.04476568
7528.00   2.44961333   0.04255602
7530.00   2.31855536   0.03940793
7532.00   2.22954488   0.03679247
7534.00   2.21422791   0.03526484
7536.00   2.23112512   0.03443947
7538.00   2.22337604   0.03392234
7540.00   2.20553756   0.03437290
7542.00   2.21406364   0.03361022
7544.00   2.23256946   0.03136294
7546.00   2.27610826   0.03023309
7548.00   2.36438346   0.03072422
7550.00   2.45466185   0.03171464
7552.00   2.49365115   0.03226781
7554.00   2.49840093   0.03282499
7556.00   2.52062821   0.03317602
7558.00   2.54610682   0.03324351
7560.00   2.56656671   0.03350594
7562.00   2.58699775   0.03358522
7564.00   2.59865165   0.03419304
7566.00   2.60065532   0.03608001
7568.00   2.59387898   0.03871699
7570.00   2.53706098   0.03982655
7572.00   2.38637400   0.04022823
7574.00   2.33267641   0.04016133
7576.00   2.36236763   0.03924217
7578.00   2.38821650   0.03830181
7580.00   2.38432074   0.03766686
7582.00   2.36680269   0.03711719
7584.00   2.32343149   0.03652292
7586.00   2.23069644   0.03530739
7588.00   2.19172955   0.03576985
7590.00   2.18363309   0.03711930
7592.00   2.18383527   0.03946782
7594.00   2.19169521   0.04170705
7596.00   2.20698547   0.04547030
7598.00   2.21999526   0.05324976
7600.00   2.22205353   0.06327951
7602.00   2.27893567   0.07182155
7604.00   2.38136721   0.08503581
7606.00   2.49511051   0.08836619
7608.00   2.65148759   0.07981250
7610.00   2.78883958   0.06704766
7612.00   2.83813572   0.05995649
7614.00   2.82790399   0.05522264
7616.00   2.78906107   0.05109059
7618.00   2.67137623   0.04822505
7620.00   2.60166669   0.04799062
7622.00   2.58541846   0.05221208
7624.00   2.55169964   0.05563879
7626.00   2.43479252   0.05530522
7628.00   2.27540803   0.05310616
7630.00   2.27639818   0.05391490
7632.00   2.43061543   0.05854296
7634.00   2.52430892   0.05833295
7636.00   2.64586353   0.05371163
7638.00   2.71083021   0.04933781
7640.00   2.68329883   0.04714132
7642.00   2.59890747   0.04585950
7644.00   2.50995493   0.04438587
7646.00   2.34417892   0.04343192
7648.00   2.31025314   0.04197128
7650.00   2.39965987   0.03970137
7652.00   2.45476484   0.03828210
7654.00   2.44864750   0.03802774
7656.00   2.43305397   0.03854978
7658.00   2.45875907   0.03967298
7660.00   2.51085353   0.04178352
7662.00   2.55205870   0.04258619
7664.00   2.60415745   0.04308898
7666.00   2.63690138   0.04260620
7668.00   2.64948392   0.04053553
7670.00   2.65154958   0.03821239
7672.00   2.65164852   0.03708548
7674.00   2.64711356   0.03663541
7676.00   2.61615682   0.03575546
7678.00   2.52853036   0.03438338
7680.00   2.50502396   0.03389397
7682.00   2.55003095   0.03427158
7684.00   2.58898497   0.03490774
7686.00   2.57691789   0.03559387
7688.00   2.54449630   0.03642062
7690.00   2.56603932   0.03708262
7692.00   2.65378737   0.03761371
7694.00   2.67671418   0.03828490
7696.00   2.66802192   0.03927242
7698.00   2.63942170   0.03986619
7700.00   2.55701661   0.03915919
7702.00   2.47631669   0.03850867
7704.00   2.55259109   0.04104120
7706.00   2.79438543   0.04484383
7708.00   2.90269828   0.05097828
7710.00   2.99426627   0.06151037
7712.00   2.99627852   0.06678316
7714.00   2.87391520   0.06713700
7716.00   2.70242858   0.06515493
7718.00   2.56164622   0.06240204
7720.00   2.39776063   0.05733759
7722.00   2.34978008   0.05417842
7724.00   2.42129445   0.05160495
7726.00   2.46205378   0.05000261
7728.00   2.48821068   0.05063545
7730.00   2.51193619   0.05070601
7732.00   2.53832793   0.04754227
7734.00   2.56580997   0.04179615
7736.00   2.56443667   0.03852156
7738.00   2.53123212   0.03539364
7740.00   2.50924253   0.03550752
7742.00   2.48073435   0.03880580
7744.00   2.46582055   0.04324226
7746.00   2.48340511   0.04863607
7748.00   2.51597095   0.05436265
7750.00   2.50469899   0.05774841
7752.00   2.42929912   0.06140110
7754.00   2.43647981   0.06097810
7756.00   2.52006102   0.05576723
7758.00   2.57562447   0.05088696
7760.00   2.58805346   0.04756129
7762.00   2.57305503   0.04483578
7764.00   2.52210784   0.04252507
7766.00   2.40604424   0.04096995
7768.00   2.38203645   0.03953923
7770.00   2.43826604   0.03796349
7772.00   2.46428776   0.03780965
7774.00   2.45403767   0.03997740
7776.00   2.43565154   0.04222897
7778.00   2.42743897   0.04236986
7780.00   2.41995597   0.04115947
7782.00   2.42479920   0.04114987
7784.00   2.43531704   0.04035576
7786.00   2.46046257   0.04238200
7788.00   2.50456810   0.04793794
7790.00   2.55357480   0.05261990
7792.00   2.60283494   0.05469940
7794.00   2.65474439   0.05550739
7796.00   2.68028903   0.05493834
7798.00   2.69087243   0.05228480
7800.00   2.68216419   0.04978110
7802.00   2.63418007   0.04600485
7804.00   2.60266304   0.04287765
7806.00   2.60592985   0.04124670
7808.00   2.63064861   0.04083638
7810.00   2.67371535   0.04190968
7812.00   2.75678921   0.04407605
7814.00   2.80250835   0.04789742
7816.00   2.84219360   0.05440806
7818.00   2.85292792   0.05880378
7820.00   2.82472324   0.06177744
7822.00   2.77504468   0.06294712
7824.00   2.72849059   0.05998004
7826.00   2.67348957   0.05168637
7828.00   2.61839557   0.04609779
7830.00   2.56824017   0.03867618
7832.00   2.49984717   0.03582867
7834.00   2.38732743   0.04091062
7836.00   2.29255390   0.04640004
7838.00   2.27441502   0.04734349
7840.00   2.30657816   0.04623031
7842.00   2.37892056   0.04603726
7844.00   2.54380918   0.04414221
7846.00   2.64514184   0.04573296
7848.00   2.70853376   0.05018809
7850.00   2.74515581   0.05550127
7852.00   2.75334907   0.06203650
7854.00   2.73497343   0.06891431
7856.00   2.71592522   0.06963260
7858.00   2.70617747   0.06422942
7860.00   2.64175129   0.06129146
7862.00   2.48538208   0.05835748
7864.00   2.38498712   0.05579825
7866.00   2.39474654   0.05371162
7868.00   2.45939374   0.05217362
7870.00   2.50448442   0.05165333
7872.00   2.58725262   0.05280327
7874.00   2.58962393   0.05241609
7876.00   2.50515127   0.05091151
7878.00   2.45663834   0.04983654
7880.00   2.46398878   0.04918856
7882.00   2.48543930   0.04900536
7884.00   2.48269200   0.04987211
7886.00   2.47372174   0.05211221
7888.00   2.44665742   0.05183152
7890.00   2.37525988   0.04983673
7892.00   2.35169315   0.04735725
7894.00   2.38569951   0.04335999
7896.00   2.42888379   0.03934381
7898.00   2.43717003   0.03685929
7900.00   2.42692375   0.03531814
7902.00   2.48988199   0.03760341
7904.00   2.62678266   0.04327803
7906.00   2.73504138   0.04857384
7908.00   2.86409450   0.05501219
7910.00   2.94468427   0.06025253
7912.00   2.94359970   0.06404953
7914.00   2.88124061   0.06682774
7916.00   2.76467180   0.06688982
7918.00   2.51812553   0.06408330
7920.00   2.38939786   0.06110970
7922.00   2.30952954   0.05537850
7924.00   2.26874518   0.05104724
7926.00   2.27673101   0.05021219
7928.00   2.31638265   0.05101022
7930.00   2.34406304   0.05061723
7932.00   2.38488030   0.05069060
7934.00   2.40257788   0.04869208
7936.00   2.40502071   0.04340006
7938.00   2.40199828   0.03976417
7940.00   2.37845254   0.03853260
7942.00   2.36437035   0.03882721
7944.00   2.40746164   0.04042201
7946.00   2.50249600   0.04382926
7948.00   2.53154898   0.04456067
7950.00   2.51913285   0.04242889
7952.00   2.50814128   0.04287285
7954.00   2.50802398   0.04480055
7956.00   2.48116541   0.04853598
7958.00   2.38098550   0.05532087
7960.00   2.22730327   0.06365863
7962.00   2.20041299   0.06588199
7964.00   2.25005007   0.06425660
7966.00   2.33781123   0.06216374
7968.00   2.53980160   0.05732479
7970.00   2.68163085   0.05287284
7972.00   2.68263841   0.05074353
7974.00   2.60529566   0.04986194
7976.00   2.53940678   0.04851541
7978.00   2.40776539   0.04738954
7980.00   2.36908245   0.04636154
7982.00   2.39096975   0.04420822
7984.00   2.43141413   0.04451295
7986.00   2.51328230   0.04833335
7988.00   2.59289503   0.05345809
7990.00   2.56501341   0.05809173
7992.00   2.44428468   0.06468908
7994.00   2.36907816   0.06432047
7996.00   2.28342724   0.05691972
7998.00   2.22528434   0.05045959
8000.00   2.18697929   0.04432498
8002.00   2.17876244   0.03897971
8004.00   2.22507858   0.03696806
8006.00   2.32652092   0.03823335
8008.00   2.37073517   0.03943610
8010.00   2.38140178   0.04298368
8012.00   2.40066814   0.04432905
8014.00   2.43515348   0.04309581
8016.00   2.45062804   0.04251443
8018.00   2.42137098   0.04474876
8020.00   2.36176944   0.04836832
8022.00   2.32017684   0.05100133
8024.00   2.26281142   0.05503451
8026.00   2.24556184   0.05544836
8028.00   2.27779365   0.05257772
8030.00   2.29586506   0.04907350
8032.00   2.27688146   0.04551448
8034.00   2.24056530   0.04148882
8036.00   2.20718217   0.03817824
8038.00   2.14407706   0.03465386
8040.00   2.14829373   0.03336614
8042.00   2.22235107   0.03464023
8044.00   2.27513742   0.03613890
8046.00   2.28501630   0.03794476
8048.00   2.29093266   0.03978423
8050.00   2.33810139   0.04063363
8052.00   2.41223097   0.04025532
8054.00   2.48843932   0.04275038
8056.00   2.60908198   0.04882438
8058.00   2.66944742   0.05124796
8060.00   2.66709065   0.05008657
8062.00   2.63214231   0.04786153
8064.00   2.57704401   0.04664063
8066.00   2.49056864   0.04559467
8068.00   2.44625473   0.04298571
8070.00   2.42624807   0.03731740
8072.00   2.40891051   0.03411939
8074.00   2.40574956   0.03358187
8076.00   2.39887619   0.03381388
8078.00   2.37425852   0.03411140
8080.00   2.34134674   0.03480580
8082.00   2.33009219   0.03470170
8084.00   2.31500244   0.03359552
8086.00   2.34582114   0.03358784
8088.00   2.45039868   0.03441411
8090.00   2.51505160   0.03518403
8092.00   2.49946356   0.03562213
8094.00   2.44758153   0.03603875
8096.00   2.41835356   0.03683811
8098.00   2.36634922   0.03800755
8100.00   2.38769031   0.03885425
8102.00   2.50793862   0.03979036
8104.00   2.56700444   0.04026505
8106.00   2.52822971   0.04024975
8108.00   2.47193861   0.03986011
8110.00   2.49309206   0.03903771
8112.00   2.57300830   0.03749014
8114.00   2.56625462   0.03711407
8116.00   2.46399641   0.03797942
8118.00   2.43771410   0.03807238
8120.00   2.50854087   0.03706860
8122.00   2.57469845   0.03632584
8124.00   2.56267381   0.03719736
8126.00   2.50712419   0.03908951
8128.00   2.43950009   0.03908414
8130.00   2.30571985   0.03755635
8132.00   2.24651527   0.03652230
8134.00   2.25422502   0.03508839
8136.00   2.26759887   0.03439208
8138.00   2.26726627   0.03552064
8140.00   2.26320839   0.03748217
8142.00   2.23203516   0.03738450
8144.00   2.14161897   0.03533731
8146.00   2.13159561   0.03457953
8148.00   2.18505025   0.03435951
8150.00   2.23427582   0.03419739
8152.00   2.28011322   0.03376953
8154.00   2.31332922   0.03356264
8156.00   2.28223968   0.03462510
8158.00   2.17278123   0.03728503
8160.00   2.14555097   0.03765623
8162.00   2.16875529   0.03583838
8164.00   2.18911076   0.03524833
8166.00   2.21819830   0.03557732
8168.00   2.23808336   0.03714687
8170.00   2.20983887   0.04045100
8172.00   2.13333416   0.04465678
8174.00   2.14999938   0.05101377
8176.00   2.21117926   0.06069064
8178.00   2.32469487   0.06625038
8180.00   2.56883430   0.06907778
8182.00   2.75388098   0.07093020
8184.00   2.72711968   0.07240015
8186.00   2.56520653   0.07323654
8188.00   2.48218751   0.07476178
8190.00   2.35029268   0.07721302
8192.00   2.34610534   0.07823741
8194.00   2.49758983   0.07671897
8196.00   2.61725378   0.07723014
8198.00   2.62267828   0.08377092
8200.00   2.58201575   0.09133595
8202.00   2.60148835   0.08808317
8204.00   2.69397426   0.07183404
8206.00   2.66689801   0.06259164
8208.00   2.51556110   0.05546513
8210.00   2.41642237   0.04981311
8212.00   2.42326832   0.04676385
8214.00   2.44954753   0.04567028
8216.00   2.37457967   0.04406929
8218.00   2.21168876   0.04335778
8220.00   2.14690852   0.04182723
8222.00   2.13752890   0.03954814
8224.00   2.13617396   0.03775673
8226.00   2.15790558   0.03654282
8228.00   2.17887855   0.03565727
8230.00   2.16219449   0.03492022
8232.00   2.11609459   0.03441410
8234.00   2.13264179   0.03438804
8236.00   2.20629501   0.03471258
8238.00   2.25787568   0.03554157
8240.00   2.30088830   0.03742860
8242.00   2.33820605   0.03880204
8244.00   2.37106228   0.03870166
8246.00   2.39848351   0.03773450
8248.00   2.40849209   0.03742963
8250.00   2.38465333   0.03677606
8252.00   2.39571357   0.03736397
8254.00   2.44594526   0.03972453
8256.00   2.47464919   0.04110778
8258.00   2.45677686   0.04061873
8260.00   2.41750479   0.03921671
8262.00   2.39737153   0.03832131
8264.00   2.37926674   0.03677645
8266.00   2.37017322   0.03704313
8268.00   2.38344955   0.03850503
8270.00   2.37452817   0.04066951
8272.00   2.32592678   0.04241370
8274.00   2.27130389   0.04566216
8276.00   2.25506783   0.05329700
8278.00   2.26111746   0.06433915
8280.00   2.27505946   0.06865317
8282.00   2.32493258   0.06993558
8284.00   2.33911657   0.07001279
8286.00   2.31099796   0.06765372
8288.00   2.27418017   0.06509823
8290.00   2.25193048   0.06494552
8292.00   2.23258543   0.06620500
8294.00   2.22584772   0.06593905
8296.00   2.25035143   0.06541407
8298.00   2.23567772   0.06370105
8300.00   2.16707969   0.06047328
8302.00   2.11890864   0.05664087
8304.00   2.13691258   0.05204780
8306.00   2.18980241   0.04672892
8308.00   2.20255804   0.04482625
8310.00   2.19564867   0.04734392
8312.00   2.19077206   0.04730622
8314.00   2.15685391   0.04671878
8316.00   2.16201186   0.04555961
8318.00   2.24350858   0.04313519
8320.00   2.35203362   0.04033485
8322.00   2.39164281   0.04016785
8324.00   2.38197780   0.04283693
8326.00   2.39966178   0.04269801
8328.00   2.45443583   0.03980017
8330.00   2.44879270   0.03900236
8332.00   2.35109615   0.03877263
8334.00   2.23213220   0.04203764
8336.00   2.16777873   0.05254032
8338.00   2.11876774   0.06660976
8340.00   2.13278389   0.07584696
8342.00   2.23999166   0.08705772
8344.00   2.29914689   0.09089635
8346.00   2.32769346   0.08778766
8348.00   2.33204246   0.08177809
8350.00   2.31103945   0.07464734
8352.00   2.26553392   0.06438137
8354.00   2.18668270   0.05879936
8356.00   1.99517810   0.05752594
8358.00   1.95930171   0.05639919
8360.00   2.07062769   0.05823094
8362.00   2.19016862   0.05853908
8364.00   2.27843165   0.05457758
8366.00   2.35458684   0.04795353
8368.00   2.35668302   0.04441230
8370.00   2.24992752   0.04158042
8372.00   2.23637199   0.04199066
8374.00   2.25663257   0.04640043
8376.00   2.30892324   0.05019903
8378.00   2.41525173   0.05359562
8380.00   2.53748631   0.05620727
8382.00   2.59839749   0.05584999
8384.00   2.64682627   0.05216447
8386.00   2.59495139   0.05117558
8388.00   2.42233396   0.04903401
8390.00   2.27124405   0.05183120
8392.00   2.10566378   0.06132482
8394.00   1.98178148   0.07011808
8396.00   2.00430036   0.07367597
8398.00   2.16142464   0.07503483
8400.00   2.14331031   0.07359596
8402.00   1.93090665   0.06791399
8404.00   1.90357530   0.06225389
8406.00   2.08120584   0.05329612
8408.00   2.26140761   0.04604788
8410.00   2.32383132   0.04765817
8412.00   2.33176661   0.05476085
8414.00   2.33657026   0.05640109
8416.00   2.31652021   0.05584860
8418.00   2.28433037   0.05575176
8420.00   2.18503284   0.05201288
8422.00   2.15556073   0.05371540
8424.00   2.26757860   0.06536819
8426.00   2.45246100   0.07891268
8428.00   2.57255793   0.08496027
8430.00   2.73176098   0.09060970
8432.00   2.73159528   0.08785053
8434.00   2.56751561   0.07319115
8436.00   2.42240930   0.05909932
8438.00   2.30252242   0.04843180
8440.00   2.20343447   0.04000789
8442.00   2.16569400   0.03644634
8444.00   2.18151832   0.04012571
8446.00   2.20279408   0.04292131
8448.00   2.24953341   0.04870545
8450.00   2.30715871   0.05220995
8452.00   2.36191535   0.05291123
8454.00   2.44721365   0.05406067
8456.00   2.62327075   0.05865926
8458.00   2.88821697   0.06523576
8460.00   2.92937398   0.06805984
8462.00   2.78449798   0.06953138
8464.00   2.66517019   0.06928544
8466.00   2.51728892   0.06737604
8468.00   2.37341309   0.06369884
8470.00   2.23876381   0.05686535
8472.00   2.11454415   0.04653363
8474.00   2.11178875   0.04076726
8476.00   2.27511454   0.03996823
8478.00   2.32384205   0.03787489
8480.00   2.31265140   0.03562143
8482.00   2.30137515   0.03520264
8484.00   2.31051517   0.03733483
8486.00   2.31928301   0.04103171
8488.00   2.29605937   0.04536417
8490.00   2.21194696   0.05214705
8492.00   2.23516393   0.05399511
8494.00   2.36264324   0.05158129
8496.00   2.45478773   0.05076998
8498.00   2.47934699   0.05033474
8500.00   2.50291514   0.05265009
8502.00   2.62329888   0.06318110
8504.00   2.86539268   0.08049180
8506.00   2.80918431   0.08090197
8508.00   2.42551112   0.06639183
8510.00   2.21666002   0.05499437
8512.00   2.16422486   0.04590194
8514.00   2.16675735   0.03831669
8516.00   2.17565465   0.03431274
8518.00   2.21629810   0.03495354
8520.00   2.25159073   0.03472045
8522.00   2.30090261   0.03582149
8524.00   2.34221339   0.03725903
8526.00   2.39112878   0.03957804
8528.00   2.42009926   0.04169028
8530.00   2.41070533   0.04345046
8532.00   2.37658310   0.04490403
8534.00   2.35316610   0.04474883
8536.00   2.33226538   0.04180295
8538.00   2.29829621   0.04163448
8540.00   2.24561810   0.04323458
8542.00   2.20239711   0.04490375
8544.00   2.17394090   0.04689069
8546.00   2.15524292   0.04856964
8548.00   2.14769721   0.04788251
8550.00   2.16210365   0.04475338
8552.00   2.14726067   0.04285846
8554.00   2.10248232   0.04091780
8556.00   2.07635093   0.03941877
8558.00   2.07177329   0.03871441
8560.00   2.07820487   0.03818096
8562.00   2.08858728   0.03692897
8564.00   2.10496974   0.03509543
8566.00   2.13515139   0.03420337
8568.00   2.20398188   0.03400811
8570.00   2.22618198   0.03391045
8572.00   2.18880343   0.03408216
8574.00   2.15304661   0.03433858
8576.00   2.16636729   0.03452302
8578.00   2.20609879   0.03471437
8580.00   2.20336223   0.03493743
8582.00   2.15201974   0.03423342
8584.00   2.14972758   0.03570390
8586.00   2.19250202   0.03952469
8588.00   2.22982693   0.04258524
8590.00   2.24496961   0.04435333
8592.00   2.24856377   0.04532672
8594.00   2.23737216   0.04459858
8596.00   2.20279765   0.04124149
8598.00   2.18009949   0.03945111
8600.00   2.15410256   0.03807208
8602.00   2.13790059   0.03702990
8604.00   2.13476014   0.03617785
8606.00   2.13993216   0.03583541
8608.00   2.14931536   0.03660799
8610.00   2.17052555   0.03836538
8612.00   2.17347455   0.04021284
8614.00   2.15042925   0.04262611
8616.00   2.15271330   0.04479240
8618.00   2.18907547   0.04670308
8620.00   2.23226023   0.04858851
8622.00   2.25972319   0.05070026
8624.00   2.28325629   0.05303117
8626.00   2.28685236   0.05435938
8628.00   2.26559210   0.05513107
8630.00   2.25168300   0.05543432
8632.00   2.24635863   0.05503158
8634.00   2.23269701   0.05448592
8636.00   2.19458413   0.05420466
8638.00   2.14136529   0.05396503
8640.00   2.12394786   0.05328300
8642.00   2.12214255   0.05146953
8644.00   2.14380097   0.05131550
8646.00   2.21628523   0.05213611
8648.00   2.26119423   0.05382896
8650.00   2.24396896   0.05695300
8652.00   2.19776273   0.06045935
8654.00   2.17868519   0.06156099
8656.00   2.16867208   0.06111458
8658.00   2.15588975   0.06041526
8660.00   2.15816474   0.05871861
8662.00   2.13468695   0.05692065
8664.00   2.05344296   0.05478014
8666.00   1.97401047   0.05272887
8668.00   1.99262345   0.05194157
8670.00   2.09228015   0.05237971
8672.00   2.14254832   0.05188014
8674.00   2.19871354   0.05123447
8676.00   2.21850300   0.05008536
8678.00   2.18834066   0.04789555
8680.00   2.14857721   0.04579816
8682.00   2.14063692   0.04524711
8684.00   2.15086555   0.04584513
8686.00   2.09998989   0.04480211
8688.00   1.93359101   0.04218743
8690.00   1.91091335   0.04049441
8692.00   2.05173755   0.03923410
8694.00   2.17570567   0.03856287
8696.00   2.19091964   0.03885918
8698.00   2.15237093   0.03983835
8700.00   2.11025524   0.04003848
8702.00   2.01564932   0.03971943
8704.00   1.97273660   0.03978317
8706.00   1.94710267   0.04021132
8708.00   1.95290542   0.04036179
8710.00   2.00827050   0.04010440
8712.00   2.08751988   0.03953784
8714.00   2.12876153   0.03853563
8716.00   2.15588880   0.03639682
8718.00   2.16859603   0.03610668
8720.00   2.15336919   0.03768476
8722.00   2.14985394   0.03849487
8724.00   2.16006517   0.03796792
8726.00   2.17806220   0.03745208
8728.00   2.20745301   0.03876765
8730.00   2.25878549   0.04174712
8732.00   2.25057316   0.04152291
8734.00   2.18690825   0.03790253
8736.00   2.13604665   0.03615552
8738.00   2.08108568   0.03630105
8740.00   2.03989291   0.03711730
8742.00   2.03918505   0.03809805
8744.00   2.06920290   0.03950567
8746.00   2.04921412   0.04004403
8748.00   1.99966729   0.03768418
8750.00   1.94335568   0.04051682
8752.00   1.83057153   0.04578863
8754.00   1.77572894   0.05348865
8756.00   1.83168650   0.06370156
8758.00   1.96309090   0.07463862
8760.00   2.13901472   0.08324788
8762.00   2.53278780   0.09423044
8764.00   2.58627939   0.09719031
8766.00   2.33549762   0.09247752
8768.00   2.13914013   0.08963899
8770.00   2.05270290   0.09208743
8772.00   2.02363086   0.09545261
8774.00   2.07930255   0.09405503
8776.00   2.27358103   0.08867278
8778.00   2.30401301   0.08560140
8780.00   2.19210172   0.08431803
8782.00   2.15199709   0.08077654
8784.00   2.21171021   0.07306057
8786.00   2.28747654   0.06419639
8788.00   2.30545616   0.05918157
8790.00   2.29642487   0.05706607
8792.00   2.27436876   0.05443999
8794.00   2.23215175   0.05318613
8796.00   2.17781663   0.05137752
8798.00   2.06248426   0.04844430
8800.00   1.99974513   0.04636827
8802.00   2.08988714   0.04722423
8804.00   2.28282690   0.04997602
8806.00   2.38320065   0.05004684
8808.00   2.47696066   0.04813329
8810.00   2.50380087   0.04720476
8812.00   2.45431113   0.04390737
8814.00   2.39228535   0.04519570
8816.00   2.32632613   0.05058381
8818.00   2.25807095   0.06018705
8820.00   2.25166917   0.08023681
8822.00   2.34048367   0.11096036
8824.00   2.31346154   0.12153136
8826.00   2.12842441   0.12327111
8828.00   2.08371496   0.12313355
8830.00   2.31764722   0.12209359
8832.00   2.59746003   0.11870304
8834.00   2.55612946   0.11153563
8836.00   2.26914668   0.09876323
8838.00   2.12097383   0.08760267
8840.00   1.95305562   0.07276124
8842.00   1.87881136   0.06154357
8844.00   1.93239486   0.05769071
8846.00   2.01793647   0.05757648
8848.00   2.04608011   0.05758629
8850.00   2.05483079   0.05999707
8852.00   2.07416201   0.05828793
8854.00   2.07456350   0.05117093
8856.00   2.11815691   0.04857806
8858.00   2.22576308   0.04959203
8860.00   2.31781697   0.05304895
8862.00   2.35362816   0.05958728
8864.00   2.35511518   0.06761674
8866.00   2.30931544   0.06939971
8868.00   2.19115090   0.06706546
8870.00   2.09933591   0.06440973
8872.00   1.97301769   0.05555486
8874.00   1.90476239   0.05255381
8876.00   1.93736172   0.06107082
8878.00   2.02598333   0.07384647
8880.00   2.09342170   0.08503725
8882.00   2.20882058   0.09972037
8884.00   2.21284819   0.10552962
8886.00   2.11401892   0.10870663
8888.00   2.02711058   0.10595568
8890.00   1.96674430   0.09181266
8892.00   1.90428948   0.07229053
8894.00   1.80796683   0.06608718
8896.00   1.65992975   0.07062547
8898.00   1.64818382   0.07342907
8900.00   1.76772821   0.08250821
8902.00   1.85075557   0.08445846
8904.00   1.92669404   0.07740583
8906.00   1.97310317   0.06918947
8908.00   1.94768536   0.06757072
8910.00   1.86360741   0.06939068
8912.00   1.83277571   0.07600069
8914.00   1.81999218   0.08903287
8916.00   1.81728280   0.09730755
8918.00   1.83036304   0.10650966
8920.00   1.84902799   0.11012186
8922.00   1.86939192   0.10366131
8924.00   1.89336002   0.08927169
8926.00   1.91489482   0.07808226
8928.00   1.90346289   0.06204115
8930.00   1.96933436   0.05250650
8932.00   2.12097096   0.05139293
8934.00   2.24837589   0.05280344
8936.00   2.33406305   0.05586157
8938.00   2.38995671   0.06048358
8940.00   2.39465976   0.06442326
8942.00   2.34468627   0.06974922
8944.00   2.29159808   0.07110081
8946.00   2.23380613   0.06766594
8948.00   2.12951398   0.06727683
8950.00   1.91914380   0.06906911
8952.00   1.72625673   0.07409765
8954.00   1.72056866   0.08585823
8956.00   1.85462081   0.10341920
8958.00   1.94499481   0.10639507
8960.00   2.12502313   0.10044838
8962.00   2.16520834   0.09239988
8964.00   2.00468493   0.07629593
8966.00   1.86286616   0.05826712
8968.00   1.91249442   0.05059977
8970.00   2.07328558   0.05204708
8972.00   2.15316010   0.05011188
8974.00   2.21270633   0.04865587
8976.00   2.26870131   0.04956104
8978.00   2.33649206   0.05269078
8980.00   2.36628222   0.05678088
8982.00   2.32591295   0.06168532
8984.00   2.24284005   0.06702952
8986.00   2.18751121   0.07107996
8988.00   2.04641843   0.07445418
8990.00   2.12866092   0.07783141
8992.00   2.47385216   0.07844270
8994.00   2.71444368   0.08360430
8996.00   2.79416370   0.09757303
8998.00   2.77503228   0.11049461
9000.00   2.64575553   0.11013871
9002.00   2.31860161   0.09941163
9004.00   2.24156928   0.09063587
9006.00   2.37095737   0.07567891
9008.00   2.42120910   0.06354206
9010.00   2.36769867   0.05746113
9012.00   2.30329633   0.05439446
9014.00   2.30915451   0.05067952
9016.00   2.36149788   0.04835689
9018.00   2.34951878   0.04651250
9020.00   2.31039262   0.04599127
9022.00   2.24155974   0.04557261
9024.00   2.12028623   0.04541865
9026.00   2.00244665   0.04567444
9028.00   1.91149092   0.04640798
9030.00   1.83536053   0.04755814
9032.00   1.85767329   0.04888085
9034.00   1.99238229   0.05006585
9036.00   2.09728622   0.05230782
9038.00   2.22455502   0.05608493
9040.00   2.33161259   0.05893558
9042.00   2.41188407   0.05977877
9044.00   2.46523976   0.05992297
9046.00   2.45568991   0.06213074
9048.00   2.39585614   0.06761105
9050.00   2.28886938   0.06731960
9052.00   2.05899549   0.06224157
9054.00   1.91921890   0.05695390
9056.00   1.91839635   0.05122441
9058.00   1.97417116   0.04550129
9060.00   1.99629283   0.04313341
9062.00   2.02382684   0.04416672
9064.00   2.04484677   0.04423878
9066.00   2.03363037   0.04498826
9068.00   2.07937932   0.04562352
9070.00   2.21372080   0.04629437
9072.00   2.34774089   0.04684372
9074.00   2.40401626   0.04704583
9076.00   2.41878772   0.04699481
9078.00   2.38686037   0.04690045
9080.00   2.22535825   0.04553111
9082.00   2.20403433   0.04658549
9084.00   2.33701706   0.05033913
9086.00   2.45924473   0.05378965
9088.00   2.48475504   0.05602096
9090.00   2.46307182   0.05765741
9092.00   2.43226075   0.05736791
9094.00   2.35830379   0.05296144
9096.00   2.30984998   0.05326348
9098.00   2.27863407   0.05873019
9100.00   2.23609352   0.06126837
9102.00   2.16872191   0.05840956
9104.00   2.09198570   0.05273063
9106.00   2.03370786   0.04892930
9108.00   1.97134328   0.04473598
9110.00   1.95392799   0.04238059
9112.00   1.97916663   0.04104456
9114.00   2.01039314   0.04204267
9116.00   2.04324818   0.04695553
9118.00   2.08726859   0.05177551
9120.00   2.16112423   0.05218879
9122.00   2.28651786   0.04968643
9124.00   2.27459383   0.04818550
9126.00   2.08635616   0.04545415
9128.00   2.02729392   0.04436456
9130.00   2.11092353   0.04550028
9132.00   2.21843791   0.04689747
9134.00   2.27340961   0.04718357
9136.00   2.31379461   0.04702678
9138.00   2.31924677   0.04682168
9140.00   2.28714299   0.04590561
9142.00   2.24821854   0.04597612
9144.00   2.19052124   0.04712571
9146.00   2.12745309   0.04814666
9148.00   2.04971242   0.04848413
9150.00   1.96962798   0.04853491
9152.00   1.97846401   0.04885125
9154.00   2.07442093   0.04900517
9156.00   2.15195251   0.04976211
9158.00   2.26692748   0.05127570
9160.00   2.35066772   0.05242290
9162.00   2.40270233   0.05345927
9164.00   2.41487432   0.05388132
9166.00   2.33244348   0.05185807
9168.00   2.12674379   0.04653111
9170.00   2.02443838   0.04366161
9172.00   1.95581257   0.04125281
9174.00   1.92000961   0.04061593
9176.00   1.91955864   0.04281449
9178.00   1.94934022   0.04551500
9180.00   2.01041365   0.04617032
9182.00   2.11594725   0.04557438
9184.00   2.16095757   0.04689865
9186.00   2.15309286   0.05037560
9188.00   2.17481112   0.05172837
9190.00   2.21214652   0.05110119
9192.00   2.26834702   0.05000305
9194.00   2.36117840   0.04914689
9196.00   2.48346472   0.04813609
9198.00   2.53840041   0.04847009
9200.00   2.55059218   0.05011887
9202.00   2.54857278   0.05141429
9204.00   2.51123428   0.05281083
9206.00   2.47578812   0.05414756
9208.00   2.45849633   0.05533656
9210.00   2.44712496   0.05646134
9212.00   2.42699671   0.05766591
9214.00   2.38717341   0.05919121
9216.00   2.38664722   0.05996937
9218.00   2.43478203   0.06057338
9220.00   2.45569253   0.06036138
9222.00   2.43351150   0.05895889
9224.00   2.39051938   0.05690051
9226.00   2.34324074   0.05516606
9228.00   2.26538730   0.05338025
9230.00   2.25632668   0.05140553
9232.00   2.32555699   0.04832969
9234.00   2.35150456   0.04692225
9236.00   2.33509088   0.04800385
9238.00   2.29465151   0.04960493
9240.00   2.22890186   0.05011678
9242.00   2.12837529   0.05039202
9244.00   2.09194398   0.04942433
9246.00   2.10873818   0.04610241
9248.00   2.11005759   0.04469172
9250.00   2.09451962   0.04515639
9252.00   2.09531593   0.04604341
9254.00   2.13147545   0.04658042
9256.00   2.19262004   0.04718744
9258.00   2.26733947   0.04829479
9260.00   2.42853141   0.05035019
9262.00   2.44767284   0.05125096
9264.00   2.32822824   0.05107553
9266.00   2.22000241   0.05120082
9268.00   2.15946651   0.05235142
9270.00   2.12365818   0.05372805
9272.00   2.14109468   0.05372375
9274.00   2.24236822   0.05228622
9276.00   2.26658058   0.05200769
9278.00   2.24505162   0.05159960
9280.00   2.22738504   0.05253494
9282.00   2.20319986   0.05565628
9284.00   2.19284892   0.05906128
9286.00   2.25151634   0.06034050
9288.00   2.39067030   0.06018414
9290.00   2.41272402   0.06117086
9292.00   2.32427907   0.06164029
9294.00   2.29592609   0.06407796
9296.00   2.27937961   0.06421000
9298.00   2.34165597   0.07055994
9300.00   2.60417867   0.08781537
9302.00   3.04474068   0.10875023
9304.00   3.17936611   0.13202709
9306.00   3.18745065   0.16320978
9308.00   3.01369333   0.18045624
9310.00   2.45223284   0.19114010
9312.00   2.04649401   0.19678435
9314.00   2.20156193   0.19658305
9316.00   2.64141417   0.19161388
9318.00   2.48810554   0.18897939
9320.00   1.64718056   0.18586978
9322.00   1.48778760   0.18317120
9324.00   1.83790112   0.18444677
9326.00   2.11821127   0.17936373
9328.00   2.18453979   0.16051377
9330.00   2.16967416   0.13293935
9332.00   2.13825607   0.11727859
9334.00   2.02232957   0.11007467
9336.00   2.00468659   0.10590131
9338.00   2.11112595   0.11324986
9340.00   2.10330749   0.11467934
9342.00   1.87344420   0.10736866
9344.00   1.64827824   0.09731992
9346.00   1.73980832   0.09182490
9348.00   2.09742546   0.08795109
9350.00   2.16414762   0.08813567
9352.00   2.02980757   0.09673157
9354.00   1.97044003   0.09780085
9356.00   1.93553495   0.08817986
9358.00   1.95564795   0.07958653
9360.00   2.10361338   0.08234835
9362.00   2.35592723   0.09121618
9364.00   2.40998435   0.10934290
9366.00   2.42295218   0.12216550
9368.00   2.21906066   0.15838566
9370.00   1.67007768   0.21352643
9372.00   1.20700490   0.25259122
9374.00   1.00119627   0.27615681
9376.00   0.94772291   0.29039431
9378.00   1.06044841   0.28086591
9380.00   1.50965333   0.23563269
9382.00   1.69056821   0.20220657
9384.00   1.69628060   0.15779074
9386.00   1.76556993   0.11684185
9388.00   1.98838139   0.09672330
9390.00   2.23980093   0.09472223
9392.00   2.32993269   0.08994149
9394.00   2.32367802   0.09360308
9396.00   2.26816010   0.09757509
9398.00   2.03579736   0.10783511
9400.00   1.96131110   0.11268187
9402.00   2.10503554   0.11220255
9404.00   2.30071902   0.10899450
9406.00   2.40359139   0.10375398
9408.00   2.49388480   0.09415095
9410.00   2.43436980   0.09284254
9412.00   2.17289639   0.09891425
9414.00   2.01304865   0.10312036
9416.00   1.91173029   0.10764026
9418.00   1.85469949   0.11095122
9420.00   1.84954250   0.11206311
9422.00   1.89265120   0.11162424
9424.00   1.94258761   0.10831908
9426.00   2.01997304   0.09345535
9428.00   2.10417247   0.09586057
9430.00   2.29079890   0.10712698
9432.00   2.34189081   0.12704478
9434.00   2.00098777   0.15513588
9436.00   1.55039513   0.18506692
9438.00   1.90305853   0.20881647
9440.00   3.30575657   0.24426864
9442.00   3.59180331   0.24246727
9444.00   3.08284569   0.20067416
9446.00   2.70703340   0.16177000
9448.00   2.62823462   0.13760860
9450.00   2.60201430   0.12402292
9452.00   2.41189694   0.12718457
9454.00   2.06633639   0.15228517
9456.00   1.98350132   0.15849216
9458.00   2.17250443   0.16182883
9460.00   2.21004319   0.15614207
9462.00   2.04797864   0.13169575
9464.00   1.87238920   0.10290197
9466.00   1.81514049   0.09895530
9468.00   1.79857802   0.11254650
9470.00   2.01289225   0.12598267
9472.00   2.65087080   0.15084077
9474.00   2.90029120   0.16187978
9476.00   2.86258745   0.16603537
9478.00   2.66114116   0.16373079
9480.00   2.25890660   0.15141878
9482.00   1.69168830   0.12891951
9484.00   1.53535926   0.11541516
9486.00   1.72264075   0.10759521
9488.00   1.80163097   0.09922484
9490.00   1.91696656   0.08958802
9492.00   2.00525880   0.08660604
9494.00   2.02302623   0.09253680
9496.00   2.02093101   0.10505003
9498.00   2.11480308   0.12427095
9500.00   2.28883195   0.15632905
9502.00   2.43036699   0.16309845
9504.00   2.59611177   0.15418401
9506.00   2.72120452   0.14365530
9508.00   2.81371713   0.12819831
9510.00   2.85855198   0.11222730
9512.00   2.81722665   0.11168841
9514.00   2.70060754   0.12328248
9516.00   2.54016685   0.13256983
9518.00   2.18203688   0.14760563
9520.00   2.06581306   0.15579399
9522.00   2.25360775   0.16078456
9524.00   2.48857760   0.16002040
9526.00   2.58430552   0.14795224
9528.00   2.63252020   0.12297004
9530.00   2.58483720   0.10603686
9532.00   2.35121942   0.08984178
9534.00   2.27384257   0.07870912
9536.00   2.32587123   0.07734413
9538.00   2.39323473   0.07867866
9540.00   2.42165804   0.07887606
9542.00   2.44579887   0.08024783
9544.00   2.51041675   0.08398757
9546.00   2.65041900   0.08969206
9548.00   2.69384360   0.09604415
9550.00   2.72817016   0.10599720
9552.00   2.64908385   0.11164226
9554.00   2.32227588   0.10888373
9556.00   1.94745910   0.10423141
9558.00   1.98457539   0.11115126
9560.00   2.30157280   0.12158265
9562.00   2.69436169   0.14157084
9564.00   3.56140733   0.17745605
9566.00   3.91861916   0.19385621
9568.00   3.57537246   0.19330980
9570.00   2.99076962   0.18335937
9572.00   2.58817458   0.16611569
9574.00   2.11951923   0.13215721
9576.00   2.06063747   0.11181714
9578.00   2.47433662   0.10298979
9580.00   2.68845677   0.09482404
9582.00   2.75918007   0.09058095
9584.00   2.78212452   0.08891590
9586.00   2.79907417   0.08810285
9588.00   2.79021597   0.08917258
9590.00   2.72014260   0.08971565
9592.00   2.58641028   0.09299506
9594.00   2.43651772   0.09102935
9596.00   2.20400476   0.08194207
9598.00   2.03229904   0.07389220
9600.00   1.99982846   0.07158244
9602.00   2.04420590   0.07283702
9604.00   2.04024220   0.07632166
9606.00   2.07994771   0.08397223
9608.00   2.00033808   0.08897252
9610.00   1.72357047   0.09388576
9612.00   1.60290551   0.09761805
9614.00   1.77067733   0.09932237
9616.00   2.03108001   0.10069435
9618.00   2.08943892   0.10505795
9620.00   2.03359723   0.11311597
9622.00   2.00722766   0.11371586
9624.00   1.94416749   0.10876185
9626.00   1.90812242   0.10320134
9628.00   1.89628422   0.09570810
9630.00   1.90540278   0.08768678
9632.00   1.93916428   0.08208142
9634.00   1.99614918   0.07796983
9636.00   2.07434416   0.07578143
9638.00   2.21225572   0.07591354
9640.00   2.29082966   0.07746364
9642.00   2.29387045   0.08108585
9644.00   2.30941200   0.08518214
9646.00   2.40151381   0.08953875
9648.00   2.53603029   0.09417447
9650.00   2.61243725   0.09443464
9652.00   2.72815967   0.08923192
9654.00   2.67702746   0.08773293
9656.00   2.42545342   0.08651845
9658.00   2.20135117   0.08872420
9660.00   2.08554387   0.09647089
9662.00   2.01355886   0.10628663
9664.00   1.92596591   0.11198346
9666.00   1.78597772   0.11759216
9668.00   1.81765532   0.11834391
9670.00   2.05184340   0.11277433
9672.00   2.20848751   0.10938875
9674.00   2.24008989   0.10857975
9676.00   2.22461939   0.11038385
9678.00   2.23027563   0.11764172
9680.00   2.23585439   0.13119169
9682.00   2.20438719   0.13499670
9684.00   2.10200357   0.13342950
9686.00   2.06654859   0.13056019
9688.00   2.13090777   0.12202827
9690.00   2.19260359   0.11594398
9692.00   2.14878821   0.12348506
9694.00   2.03300762   0.13968381
9696.00   2.01826763   0.14671238
9698.00   2.09069705   0.15321036
9700.00   2.11059880   0.15294136
9702.00   2.06852841   0.14355442
9704.00   2.05553532   0.13318470
9706.00   2.13185406   0.12614594
9708.00   2.25964284   0.12060597
9710.00   2.33389807   0.12189447
9712.00   2.42941809   0.12957558
9714.00   2.42053342   0.13818011
9716.00   2.38361382   0.15057702
9718.00   2.20539260   0.16127802
9720.00   1.69905651   0.17196012
9722.00   1.12625587   0.17997369
9724.00   1.19637680   0.17513528
9726.00   1.87428463   0.15457480
9728.00   2.18610072   0.14212810
9730.00   2.43487597   0.12775326
9732.00   2.60298872   0.12058308
9734.00   2.69035888   0.12478763
9736.00   2.69765973   0.13398202
9738.00   2.61404824   0.14244542
9740.00   2.42204928   0.15510073
9742.00   2.26311707   0.15360372
9744.00   1.99835026   0.13737901
9746.00   1.91520047   0.12471569
9748.00   2.06807303   0.11411368
9750.00   2.24913263   0.10509783
9752.00   2.29404187   0.09906209
9754.00   2.27648997   0.09618259
9756.00   2.31081414   0.09498174
9758.00   2.34932280   0.09779187
9760.00   2.42100120   0.09913484
9762.00   2.59159446   0.10084374
9764.00   2.67746639   0.10133220
9766.00   2.53010368   0.09890565
9768.00   2.26929474   0.09486663
9770.00   2.29986501   0.09495351
9772.00   2.60094476   0.09531304
9774.00   2.74759841   0.10195380
9776.00   2.88941574   0.11179807
9778.00   2.95844245   0.12516554
9780.00   2.92423749   0.14247601
9782.00   2.82816195   0.16053210
9784.00   2.73416972   0.17488924
9786.00   2.57977247   0.18560180
9788.00   2.53490329   0.20338202
9790.00   2.64214182   0.23316856
9792.00   2.62118030   0.24671145
9794.00   2.36783934   0.24411838
9796.00   2.12409091   0.23322108
9798.00   2.18511200   0.21877472
9800.00   2.47899723   0.19505239
9802.00   2.56725311   0.17705205
9804.00   2.60698223   0.15868226
9806.00   2.55282712   0.14532541
9808.00   2.35584450   0.14054340
9810.00   2.14829588   0.13827002
9812.00   2.01250124   0.13417651
9814.00   1.90560687   0.13051508
9816.00   1.88562262   0.12497266
9818.00   1.98566842   0.11595306
9820.00   2.03183222   0.11045253
9822.00   2.07448530   0.10647196
9824.00   2.09127569   0.10593513
9826.00   2.02989292   0.11046164
9828.00   1.94943416   0.11804137
9830.00   2.07728624   0.12414233
9832.00   2.47272396   0.13438134
9834.00   2.61828375   0.13442041
9836.00   2.55699253   0.11849284
9838.00   2.60262704   0.11454172
9840.00   2.90200949   0.13158706
9842.00   3.21827221   0.15362383
9844.00   3.15770197   0.16900440
9846.00   2.76009083   0.18758515
9848.00   2.62598777   0.18784104
9850.00   2.64438915   0.16966030
9852.00   2.58449268   0.15353303
9854.00   2.39127016   0.13462964
9856.00   2.22211528   0.11993909
9858.00   2.23015690   0.12383106
9860.00   2.35740256   0.14059280
9862.00   2.49365473   0.16214600
9864.00   2.84119248   0.19345613
9866.00   2.87558746   0.21602210
9868.00   2.53644061   0.23855063
9870.00   2.19968200   0.25284031
9872.00   2.08935666   0.25433129
9874.00   2.08283424   0.24669005
9876.00   2.03843522   0.23497993
9878.00   1.90144956   0.20989467
9880.00   2.01811075   0.19092827
9882.00   2.51744628   0.16918951
9884.00   2.81342244   0.15600048
9886.00   2.64273620   0.16105673
9888.00   2.26397491   0.17571835
9890.00   2.13027549   0.18273626
9892.00   2.05928278   0.18936723
9894.00   2.09652019   0.19359104
9896.00   2.27781510   0.19845060
9898.00   2.46101522   0.19750878
9900.00   2.73483372   0.18379579
9902.00   2.92971897   0.16890886
9904.00   2.66250563   0.17436823
9906.00   1.85403574   0.18913166
9908.00   1.87961066   0.22037402
9910.00   2.80215645   0.27886558
9912.00   3.10210562   0.30374071
9914.00   2.77383947   0.30396602
9916.00   2.19701290   0.29138154
9918.00   1.48118424   0.26810339
9920.00   0.48805764   0.22613253
9922.00   0.44061834   0.19903353
9924.00   1.37274706   0.17809844
9926.00   1.86251915   0.16488378
9928.00   2.15165806   0.16306084
9930.00   2.35789466   0.16919604
9932.00   2.50798893   0.17955394
9934.00   2.58758640   0.19537477
9936.00   2.61617899   0.22154142
9938.00   2.66341877   0.25714841
9940.00   2.47189879   0.28675354
9942.00   1.98016107   0.32447058
9944.00   1.55324304   0.34525183
9946.00   1.31987214   0.33991715
9948.00   1.13730621   0.32386485
9950.00   0.77104747   0.32848686
9952.00   0.00067749   0.34744614
9954.00   0.14879429   0.35483119
9956.00   1.16494775   0.36374989
9958.00   2.01489496   0.36014068
9960.00   2.80637097   0.33633971
9962.00   3.37871385   0.30492386
9964.00   3.25715303   0.28710946
9966.00   2.46348453   0.27727681
9968.00   2.22659588   0.26356712
9970.00   2.24446416   0.24958402
9972.00   2.22788215   0.23596680
9974.00   2.15720129   0.22119959
9976.00   2.16896367   0.20872194
9978.00   2.39174342   0.20310146
9980.00   2.77591324   0.20330264
9982.00   2.97907472   0.19917251
9984.00   3.11738801   0.19268499
9986.00   3.19234395   0.18835798
9988.00   3.20283794   0.18410331
9990.00   3.15084243   0.18296123
9992.00   3.03632426   0.18694393
9994.00   2.85972023   0.19425911
9996.00   2.62448096   0.20092621
9998.00   2.17127252   0.20309585
10000.00   2.04635596   0.21853499
10002.00   2.23520136   0.23671152
10004.00   2.32848525   0.26597282
10006.00   2.16162157   0.30510619
10008.00   1.96744406   0.34865335
10010.00   2.12112331   0.39594981
10012.00   2.54865718   0.46033898
10014.00   2.90110373   0.47311327
10016.00   3.65051413   0.44571877
10018.00   3.71857357   0.41994312
10020.00   2.78247452   0.39181730
10022.00   1.64897621   0.36380765
10024.00   1.11582851   0.34981921
10026.00   0.79922998   0.34997270
10028.00   0.96969467   0.32673472
10030.00   1.93184149   0.26886392
10032.00   2.45482183   0.23391739
10034.00   2.61559701   0.23165709
10036.00   2.70776343   0.23708215
10038.00   2.91744804   0.23511007
10040.00   3.15044928   0.23351541
10042.00   3.09098887   0.23190495
10044.00   2.73884559   0.23149200
10046.00   2.45460939   0.22874397
10048.00   2.01802897   0.22123156
10050.00   1.77352405   0.21737626
10052.00   1.90322793   0.21874766
10054.00   2.24269509   0.22522280
10056.00   2.46368837   0.24346200
10058.00   2.72648764   0.27602348
10060.00   2.88880444   0.29463589
10062.00   3.05515862   0.31537476
10064.00   3.05032110   0.32096019
10066.00   2.73505211   0.30130786
10068.00   2.35237885   0.27257317
10070.00   2.31054926   0.26760578
10072.00   2.48171878   0.27397251
10074.00   2.66622972   0.29408044
10076.00   3.24747229   0.33938006
10078.00   3.26001644   0.36248818
10080.00   2.42458487   0.36821008
10082.00   1.53738606   0.36404508
10084.00   1.32503676   0.35078758
10086.00   1.46974361   0.32473892
10088.00   1.81213975   0.30713740
10090.00   2.72718883   0.28658444
10092.00   3.19198012   0.27832833
10094.00   3.37506008   0.28658247
10096.00   3.33316112   0.29621699
10098.00   3.01247764   0.30033034
10100.00   2.45369792   0.30281380
10102.00   2.05713916   0.30060545
10104.00   1.41543448   0.29230466
10106.00   1.41572428   0.28576505
10108.00   2.19471169   0.27321297
10110.00   2.74452186   0.26972049
10112.00   2.66085172   0.27928725
10114.00   2.35175204   0.29828450
10116.00   2.46090794   0.32711238
10118.00   2.83785605   0.37170187
10120.00   3.10583782   0.39501095
10122.00   3.62960529   0.41601041
10124.00   3.68729758   0.42011493
10126.00   3.04858303   0.39988732
10128.00   2.16314745   0.36847827
10130.00   1.56512773   0.34694430
10132.00   0.98512393   0.32494825
10134.00   0.70640534   0.31530011
10136.00   0.72368872   0.32372260
10138.00   0.77684027   0.32390818
10140.00   0.92696756   0.31054154
10142.00   1.10503757   0.30232385
10144.00   1.22263515   0.31730998
10146.00   1.31495106   0.34653386
10148.00   1.49715507   0.36526352
10150.00   1.87755156   0.38292170
10152.00   1.98257005   0.39765137
10154.00   1.71129334   0.41655326
10156.00   1.57142341   0.42364809
10158.00   1.82831573   0.40207040
10160.00   2.31056881   0.36284229
10162.00   2.77682233   0.37296286
10164.00   3.71119118   0.41787353
10166.00   3.77260542   0.45792484
10168.00   3.01585078   0.52349275
10170.00   2.35108948   0.55556899
10172.00   1.95821702   0.53906554
10174.00   1.67871010   0.49815777
10176.00   1.52950048   0.47434959
10178.00   1.55309784   0.44702399
10180.00   1.53366661   0.43786696
10182.00   1.43505859   0.45171443
10184.00   1.55805278   0.45796910
10186.00   2.06263494   0.45433530
10188.00   2.60141563   0.44830289
10190.00   2.76494431   0.44524157
10192.00   2.73208928   0.44260991
10194.00   2.48476577   0.44227558
10196.00   1.69044697   0.44413626
10198.00   1.39900339   0.44665384
10200.00   1.67673028   0.44534409
10202.00   2.01153493   0.45121071
10204.00   2.02169919   0.47609234
10206.00   1.88389170   0.51272374
10208.00   2.09290195   0.52558011
10210.00   2.72366309   0.52850306
10212.00   2.97889781   0.52082658
10214.00   2.99063039   0.49322864
10216.00   2.89919496   0.46761984
10218.00   2.66281724   0.45280054
10220.00   2.35474253   0.44516262
10222.00   2.45241737   0.45285895
10224.00   3.24541020   0.48968896
10226.00   3.09109235   0.49359089
10228.00   2.14643455   0.47541502
10230.00   1.33915257   0.45760944
10232.00   0.62901658   0.44585681
10234.00   0.17197624   0.43310905
10236.00   0.69329661   0.41014895
10238.00   2.40639520   0.36947986
10240.00   2.85576797   0.35732174
10242.00   2.50875235   0.37346286
10244.00   2.25445962   0.38189575
10246.00   2.05037427   0.38356039
10248.00   1.85657001   0.38263774
10250.00   1.74454355   0.37854376
10252.00   1.70518684   0.36960921
10254.00   1.53121912   0.37234434
10256.00   1.14586806   0.39093998
10258.00   1.00496137   0.39451194
10260.00   1.06875265   0.38144681
10262.00   1.24496377   0.36865443
10264.00   1.54058468   0.36737067
10266.00   1.95010364   0.37198052
10268.00   2.11317039   0.37663525
10270.00   2.18029761   0.37602320
10272.00   2.06905460   0.39395592
10274.00   1.53762782   0.40414241
10276.00   1.28274155   0.45425835
10278.00   1.47345102   0.55791563
10280.00   2.01863289   0.67055994
10282.00   3.18155527   0.74344397
10284.00   5.82979393   0.81497288
10286.00   6.28731728   0.84590608
10288.00   4.82128286   0.85046446
10290.00   3.82569623   0.83623713
10292.00   3.53112483   0.79165578
10294.00   3.59106588   0.73293990
10296.00   4.10206127   0.70125949
10298.00   5.42020941   0.69102007
10300.00   5.35405779   0.65382797
10302.00   3.82430029   0.58426619
10304.00   3.16805172   0.53313881
10306.00   3.63633132   0.50891417
10308.00   4.16340303   0.49498734
10310.00   3.79509020   0.47758120
10312.00   2.86158323   0.46353000
10314.00   2.75478244   0.45225465
10316.00   3.39516306   0.44486812
10318.00   3.55543303   0.43963885
10320.00   3.34561062   0.43654233
10322.00   3.08867049   0.43682334
10324.00   2.96081948   0.44398367
10326.00   2.85365820   0.45504785
10328.00   2.52947545   0.45126724
10330.00   2.10055351   0.41910598
10332.00   1.47336781   0.42514873
10334.00   0.16329272   0.46575752
10336.00   -0.44742078   0.49665144
10338.00   0.30755281   0.50563252
10340.00   1.65764952   0.50910920
10342.00   2.17209172   0.53071451
10344.00   2.44997716   0.57247341
10346.00   2.27726316   0.58265775
10348.00   1.08354402   0.56964499
10350.00   0.71274048   0.55865347
10352.00   1.72838187   0.55681753
10354.00   2.96739244   0.54973710
10356.00   3.00453496   0.51465797
10358.00   2.28471541   0.44057667
10360.00   1.81502771   0.42389384
10362.00   0.89222574   0.44697252
10364.00   0.68538207   0.48273882
10366.00   1.49125063   0.54583478
10368.00   2.28878403   0.59860778
10370.00   2.20173120   0.61899847
10372.00   1.60041451   0.62228191
10374.00   1.57044852   0.61243361
10376.00   1.72509646   0.57796270
10378.00   2.12543344   0.54777247
10380.00   3.13210320   0.50943720
10382.00   3.79149270   0.47650903
10384.00   3.51790333   0.45797992
10386.00   2.74247718   0.45075029
10388.00   2.48619771   0.45356759
10390.00   2.79818940   0.48119172
10392.00   2.26088715   0.48441830
10394.00   0.70883673   0.47124329
10396.00   -0.24651991   0.46029079
10398.00   -0.09212858   0.45673206
10400.00   0.53050441   0.45505229
10402.00   0.76339906   0.44882885
10404.00   0.88320506   0.43311033
10406.00   1.16079509   0.44128016
10408.00   1.80547583   0.46848428
10410.00   1.95301056   0.49518126
10412.00   1.33578217   0.52521890
10414.00   0.59181184   0.55222571
10416.00   0.46053225   0.56960928
10418.00   0.73365504   0.58466440
10420.00   0.52350980   0.57111371
10422.00   -0.27642292   0.51559955
10424.00   -0.43392801   0.47796303
10426.00   0.08243886   0.45505342
10428.00   0.74853295   0.43979660
10430.00   1.32573593   0.43219939
10432.00   1.94506025   0.43341675
10434.00   2.04338193   0.42337257
10436.00   1.39722359   0.39846614
10438.00   1.37449419   0.39145303
10440.00   1.95523798   0.40064770
10442.00   2.33067393   0.41141683
10444.00   2.13512516   0.41881984
10446.00   1.66266477   0.42637178
10448.00   1.38687503   0.43593875
10450.00   1.14056122   0.45551845
10452.00   0.89646697   0.45320499
10454.00   0.60482341   0.42002279
10456.00   0.42873257   0.40665796
10458.00   0.34451881   0.42313597
10460.00   0.40623078   0.45678970
10462.00   0.80960631   0.50468946
10464.00   1.66915131   0.57994199
10466.00   2.00164223   0.59595895
10468.00   2.05478716   0.57404673
10470.00   2.00924754   0.54485035
10472.00   1.86280322   0.49336815
10474.00   1.58934569   0.43862745
10476.00   1.06829834   0.41837642
10478.00   0.22441874   0.42502567
10480.00   0.35429752   0.41850379
10482.00   1.70833611   0.41075096
10484.00   2.14133716   0.40587103
10486.00   1.55234909   0.40220463
10488.00   1.12735558   0.40226799
10490.00   1.69841886   0.40864310
10492.00   2.79323149   0.41957507
10494.00   2.95737052   0.42774308
10496.00   2.37323570   0.43982697
10498.00   2.12774873   0.44225752
10500.00   1.84001315   0.43562227
10502.00   1.76676786   0.42814875
10504.00   2.21727896   0.41975415
10506.00   2.80792570   0.41209626
10508.00   2.42847562   0.41662481
10510.00   0.98052663   0.42555490
10512.00   0.48511216   0.45101967
10514.00   0.36636105   0.50285774
10516.00   0.52267325   0.53340840
10518.00   1.28882837   0.53816718
10520.00   2.03019500   0.53311646
10522.00   1.54642713   0.53383404
10524.00   -0.12055125   0.53519964
10526.00   -0.32860681   0.52948016
10528.00   0.64751393   0.51430619
10530.00   1.09035146   0.50357169
10532.00   1.02321899   0.49630818
10534.00   0.81219202   0.49188104
10536.00   0.60753351   0.49176264
10538.00   0.30112422   0.49601078
10540.00   0.42672390   0.49454868
10542.00   1.03291309   0.48989832
10544.00   1.39031219   0.48469886
10546.00   1.71215415   0.47542086
10548.00   1.83628893   0.46939349
10550.00   1.54036307   0.47512823
10552.00   0.99453062   0.48609689
10554.00   1.01120615   0.47354174
10556.00   1.74050510   0.43276647
10558.00   1.70285153   0.40800965
10560.00   0.91837084   0.38306615
10562.00   0.47017866   0.37092802
10564.00   0.80132776   0.38372731
10566.00   1.38974082   0.40547466
10568.00   1.35807729   0.40397602
10570.00   0.85598272   0.38472500
10572.00   0.68840683   0.37767720
10574.00   0.57316214   0.37344444
10576.00   0.61394811   0.37341267
10578.00   0.89212233   0.38126329
10580.00   1.23956990   0.38936445
10582.00   1.44141054   0.38678861
10584.00   1.58998668   0.37537193
10586.00   1.68034220   0.37408388
10588.00   1.71745157   0.38154918
10590.00   1.69088209   0.38334298
10592.00   1.58790946   0.37883994
10594.00   1.44133830   0.37412393
10596.00   1.25554585   0.37475169
10598.00   1.02151597   0.37851653
10600.00   0.91652662   0.37231109
10602.00   0.93118781   0.35301453
10604.00   0.89977247   0.34377974
10606.00   0.86407417   0.34155658
10608.00   0.81317371   0.34208053
10610.00   0.70940322   0.34474179
10612.00   0.59157038   0.34942997
10614.00   0.63501918   0.35122979
10616.00   0.82164228   0.34874123
10618.00   0.99315107   0.35310152
10620.00   1.27191174   0.36402708
10622.00   1.44794703   0.37251896
10624.00   1.41920972   0.37879795
10626.00   1.33558953   0.38196415
10628.00   1.47303927   0.37603796
10630.00   1.86291742   0.35825607
10632.00   1.84265459   0.35091546
10634.00   1.48430383   0.34914646
10636.00   1.18427646   0.34790033
10638.00   0.90358973   0.34510759
10640.00   0.67473197   0.34576184
10642.00   0.61259717   0.35682493
10644.00   0.70969874   0.37718397
10646.00   0.60265279   0.38384202
10648.00   0.15605973   0.38241595
10650.00   0.16627897   0.38052887
10652.00   0.77199656   0.37758243
10654.00   1.33075643   0.37194541
10656.00   1.41338336   0.36116338
10658.00   1.24040699   0.34594879
10660.00   1.12948871   0.33873624
10662.00   0.66898376   0.33440548
10664.00   0.85134858   0.33695397
10666.00   1.87013674   0.35099933
10668.00   2.56723833   0.36105415
10670.00   2.50634408   0.36316636
10672.00   2.02396774   0.36020464
10674.00   1.41305423   0.34954852
10676.00   0.11466000   0.32031587
10678.00   -0.19928081   0.31292847
10680.00   0.22995523   0.32386455
10682.00   0.66485965   0.33143878
10684.00   1.12241745   0.33213261
10686.00   1.53254783   0.33180156
10688.00   1.54709876   0.33631277
10690.00   1.22084761   0.34667760
10692.00   1.01336539   0.34420395
10694.00   0.63478404   0.32753849
10696.00   0.52266264   0.31763190
10698.00   0.77361691   0.31541762
10700.00   1.09105361   0.31602713
10702.00   1.21106744   0.31694332
10704.00   1.24784589   0.31980681
10706.00   1.27492380   0.31904542
10708.00   1.28144586   0.31557459
10710.00   1.22437227   0.31229621
10712.00   1.04104865   0.30904606
10714.00   0.90572810   0.30483931
10716.00   0.94973290   0.29826960
10718.00   1.09362471   0.29013184
10720.00   1.08615208   0.28670043
10722.00   1.02490640   0.28982338
10724.00   0.88000822   0.28647375
10726.00   0.40791208   0.27682361
10728.00   0.28549439   0.26929244
10730.00   0.90238971   0.26769441
10732.00   1.81140172   0.26849794
10734.00   2.05165434   0.26552635
10736.00   1.86011970   0.25598809
10738.00   1.75164890   0.26025331
10740.00   1.40669918   0.27861568
10742.00   1.29589283   0.29062861
10744.00   1.66131938   0.29670218
10746.00   2.03121305   0.29807845
10748.00   1.72711730   0.29178604
10750.00   0.90238822   0.27643245
10752.00   0.35348731   0.26493275
10754.00   -0.41520327   0.25293219
10756.00   -0.66513938   0.24093279
10758.00   -0.28734884   0.22774258
10760.00   0.27282092   0.21584345
10762.00   0.72368747   0.20836574
10764.00   1.22696733   0.20466556
10766.00   1.40509820   0.20032556
10768.00   1.39963388   0.18928038
10770.00   1.16461992   0.19613935
10772.00   0.45164666   0.22802027
10774.00   -0.08633427   0.24772294
10776.00   -0.05445713   0.23910785
10778.00   0.27685845   0.21450423
10780.00   0.32259434   0.21020266
10782.00   0.11096510   0.22252202
10784.00   0.25644535   0.22265437
10786.00   0.83580667   0.21999784
10788.00   1.15113902   0.21155070
10790.00   0.91985369   0.19121327
10792.00   0.49716726   0.16426370
10794.00   0.45582950   0.15258206
10796.00   0.57296371   0.15014888
10798.00   0.84942067   0.15862736
10800.00   1.49314976   0.18485673
10802.00   1.89323187   0.20077386
10804.00   2.09171939   0.20972697
10806.00   2.05073619   0.21234199
10808.00   1.52335715   0.20321545
10810.00   0.40558526   0.17895588
10812.00   0.23418981   0.16984348
10814.00   0.87487680   0.17212051
10816.00   1.20035112   0.17135793
10818.00   1.39557266   0.16149031
10820.00   1.41225040   0.16163862
10822.00   1.04081047   0.19044949
10824.00   0.35810032   0.23168766
10826.00   0.38038263   0.24147151
10828.00   1.13136709   0.23253959
10830.00   1.39726007   0.22497408
10832.00   1.42160678   0.21259998
10834.00   1.30974448   0.19760801
10836.00   0.95315307   0.17732736
10838.00   0.49475616   0.15340838
10840.00   0.67662776   0.14917807
10842.00   1.73580599   0.17211725
10844.00   1.86870933   0.17169644
10846.00   1.23094428   0.15293115
10848.00   0.88903970   0.14291008
10850.00   1.19335330   0.15333575
10852.00   1.63233292   0.16851254
10854.00   1.45131731   0.17096026
10856.00   0.68300349   0.16730666
10858.00   0.64233434   0.16242877
10860.00   1.25041068   0.15281367
10862.00   1.51945710   0.14301701
10864.00   1.35413516   0.13086212
