# File created by shivutils (I.Shivvers)
# wl(A)   flm    er(optional)
3440.00   31.58385086   0.41679424
3442.00   32.46741867   0.42405939
3444.00   31.51363754   0.42151454
3446.00   32.42816925   0.42751068
3448.00   32.94670105   0.43483558
3450.00   32.13912582   0.43195233
3452.00   32.65019608   0.43711606
3454.00   33.37626648   0.44196191
3456.00   32.79341125   0.43947464
3458.00   33.24287796   0.44167742
3460.00   33.26701355   0.44092494
3462.00   33.16347885   0.44069654
3464.00   32.43474960   0.43848023
3466.00   31.86440277   0.43537259
3468.00   31.66244698   0.43566400
3470.00   32.03690338   0.43978357
3472.00   32.37768555   0.44158089
3474.00   31.42427444   0.43820581
3476.00   31.28861809   0.43966246
3478.00   30.49355125   0.43739152
3480.00   30.90433693   0.44247407
3482.00   30.87017822   0.44433987
3484.00   30.41670227   0.44068483
3486.00   30.73376465   0.44144431
3488.00   30.34399796   0.43821430
3490.00   29.86883163   0.43434325
3492.00   29.97302055   0.43409812
3494.00   29.83984184   0.43258527
3496.00   29.40981674   0.42983320
3498.00   29.69752884   0.43127581
3500.00   30.37109947   0.43388772
3502.00   30.14943504   0.43320081
3504.00   30.29436111   0.43360198
3506.00   32.31927872   0.44547805
3508.00   31.64757156   0.43895939
3510.00   31.44141006   0.44014770
3512.00   31.28735924   0.43719360
3514.00   31.92195702   0.43963024
3516.00   31.19384384   0.43487692
3518.00   30.48439980   0.43030748
3520.00   31.54370689   0.43452957
3522.00   31.63094139   0.43443626
3524.00   31.60802460   0.43344334
3526.00   31.45843506   0.43258899
3528.00   31.78031349   0.43362376
3530.00   31.30809593   0.43100476
3532.00   31.77223396   0.43023285
3534.00   31.43144035   0.42853254
3536.00   31.50836945   0.42718819
3538.00   31.27668762   0.42682660
3540.00   31.57613564   0.42855713
3542.00   31.68071747   0.43109635
3544.00   32.94983673   0.43772221
3546.00   31.19554710   0.42693642
3548.00   31.14772415   0.42446992
3550.00   32.31464386   0.42909107
3552.00   30.91965103   0.41999173
3554.00   31.77861977   0.42531890
3556.00   32.26431656   0.42484275
3558.00   32.03784180   0.42177778
3560.00   31.74870682   0.41864628
3562.00   31.77108383   0.41695994
3564.00   32.76037598   0.42012438
3566.00   32.55500412   0.41629076
3568.00   33.44369888   0.41835690
3570.00   32.23864746   0.40991771
3572.00   32.73022079   0.41147420
3574.00   33.23521042   0.41234645
3576.00   33.74563217   0.41284466
3578.00   33.14801407   0.40783018
3580.00   33.13957214   0.40622652
3582.00   33.55465317   0.40776059
3584.00   33.33976746   0.40248582
3586.00   33.22927475   0.39922351
3588.00   33.25688934   0.39792070
3590.00   32.52680588   0.39407989
3592.00   33.03330612   0.39364585
3594.00   33.38616180   0.39296553
3596.00   32.24595642   0.38557976
3598.00   32.57942963   0.38516378
3600.00   31.66428375   0.37874049
3602.00   31.50694466   0.37613437
3604.00   31.60694504   0.37507242
3606.00   31.91629219   0.37411582
3608.00   32.14836502   0.37412080
3610.00   31.30218887   0.36752415
3612.00   31.06019211   0.36605218
3614.00   30.86331940   0.36449724
3616.00   31.32279778   0.36654201
3618.00   31.27837944   0.36457703
3620.00   31.42762375   0.36288276
3622.00   31.60508537   0.36184350
3624.00   31.95686150   0.36251122
3626.00   31.48598099   0.35806748
3628.00   31.32392311   0.35591137
3630.00   31.28335190   0.35533130
3632.00   30.43268585   0.34980085
3634.00   30.29383850   0.34695953
3636.00   30.69118118   0.34782642
3638.00   29.85784531   0.34244612
3640.00   30.03872681   0.34156367
3642.00   30.60854912   0.34338945
3644.00   30.64127731   0.34206578
3646.00   29.84905434   0.33698252
3648.00   30.01926994   0.34228519
3650.00   30.11754227   0.34785691
3652.00   31.07986450   0.34901333
3654.00   30.68323326   0.34210590
3656.00   31.06793785   0.33937386
3658.00   30.07672310   0.32951337
3660.00   30.12652969   0.32769114
3662.00   30.70556450   0.33162957
3664.00   30.11096764   0.32840088
3666.00   29.37651825   0.31994426
3668.00   29.41020393   0.31673834
3670.00   28.24452782   0.30850604
3672.00   28.74948502   0.30962607
3674.00   28.38609505   0.30631876
3676.00   27.77580261   0.30267033
3678.00   27.94135857   0.30213767
3680.00   28.30389214   0.30348709
3682.00   27.46755981   0.29776081
3684.00   27.61859512   0.29722354
3686.00   27.67454147   0.29696473
3688.00   26.95993996   0.29168940
3690.00   26.75532150   0.29037610
3692.00   26.56614113   0.28842059
3694.00   26.61664200   0.28797886
3696.00   26.17264175   0.28505677
3698.00   25.73907089   0.28286797
3700.00   25.01128006   0.27846837
3702.00   23.94022942   0.27249444
3704.00   23.51754761   0.26927397
3706.00   22.20153999   0.26175675
3708.00   21.63394165   0.25766668
3710.00   21.27540970   0.25447303
3712.00   20.33866310   0.24797013
3714.00   19.90584755   0.24499328
3716.00   19.46922874   0.24156113
3718.00   19.38144493   0.24069962
3720.00   18.64849281   0.23566063
3722.00   18.44780159   0.23406629
3724.00   18.21463585   0.23445511
3726.00   18.03184128   0.23089135
3728.00   18.27075577   0.23256938
3730.00   17.67667198   0.22723731
3732.00   17.69244957   0.22667047
3734.00   18.08091164   0.22875112
3736.00   18.22952843   0.22866893
3738.00   18.47701073   0.22968242
3740.00   18.88259315   0.23216496
3742.00   19.45456886   0.23466127
3744.00   19.77608299   0.23447470
3746.00   19.78261375   0.23210372
3748.00   20.16396141   0.23296912
3750.00   20.94335175   0.23774116
3752.00   22.07573509   0.24340272
3754.00   22.87200165   0.24694316
3756.00   22.98704147   0.24646498
3758.00   22.76212883   0.24256417
3760.00   22.14260292   0.23820697
3762.00   22.37122726   0.23796989
3764.00   22.88045502   0.24023128
3766.00   22.77252579   0.23907322
3768.00   22.63420296   0.23813693
3770.00   23.16280365   0.23959182
3772.00   21.84589577   0.23296252
3774.00   21.30852127   0.22918496
3776.00   21.41149521   0.22857843
3778.00   21.36890793   0.22849305
3780.00   20.59776115   0.22440816
3782.00   20.18465042   0.22230843
3784.00   20.41276932   0.22296008
3786.00   20.36447906   0.22224268
3788.00   19.70650482   0.21819705
3790.00   19.33394051   0.21631609
3792.00   19.16370964   0.21526189
3794.00   18.63171196   0.21169405
3796.00   18.35254478   0.20928648
3798.00   18.45383072   0.20890065
3800.00   18.16302490   0.20726483
3802.00   18.75823784   0.21019205
3804.00   18.94422722   0.21014531
3806.00   18.87540245   0.20968048
3808.00   18.98636246   0.20944488
3810.00   18.77095795   0.20806096
3812.00   18.96424484   0.20901065
3814.00   18.55335808   0.20687091
3816.00   18.89750481   0.20754793
3818.00   18.44495392   0.20398025
3820.00   18.13796043   0.20215137
3822.00   17.95788765   0.20084447
3824.00   17.72425842   0.19850005
3826.00   18.13123894   0.20060195
3828.00   18.33304405   0.20206097
3830.00   18.86326981   0.20543864
3832.00   19.12256622   0.20702265
3834.00   19.88386917   0.20922947
3836.00   20.45481300   0.21100833
3838.00   20.75550461   0.21171267
3840.00   21.17802811   0.21298657
3842.00   21.45353889   0.21337163
3844.00   21.85249901   0.21858782
3846.00   22.42131615   0.21807696
3848.00   22.66944695   0.21703804
3850.00   23.48356247   0.21949950
3852.00   23.50995827   0.21908642
3854.00   24.00045967   0.21996023
3856.00   24.66665840   0.22246201
3858.00   24.66516113   0.22116311
3860.00   24.54109573   0.22005047
3862.00   24.44697380   0.21961105
3864.00   25.56891251   0.22365403
3866.00   25.98329735   0.22484390
3868.00   26.99710846   0.22864889
3870.00   27.55812263   0.23066092
3872.00   27.89002991   0.23199257
3874.00   28.22227097   0.23347028
3876.00   28.77495003   0.23524219
3878.00   28.69376564   0.23412435
3880.00   28.95116997   0.23442543
3882.00   29.30250549   0.23555295
3884.00   29.86736870   0.23705332
3886.00   30.19322014   0.23809664
3888.00   30.09027290   0.23877214
3890.00   30.19885063   0.23888622
3892.00   30.53535080   0.23794277
3894.00   30.93153763   0.23974416
3896.00   31.39986038   0.23947631
3898.00   31.43639374   0.23932631
3900.00   31.49140167   0.23898225
3902.00   31.79875755   0.23999490
3904.00   31.93851662   0.24075738
3906.00   32.11518860   0.24248941
3908.00   31.83269119   0.24155930
3910.00   32.06028748   0.24237099
3912.00   31.58881378   0.24118780
3914.00   32.28762054   0.24243066
3916.00   32.32846832   0.23984712
3918.00   32.18703461   0.23653096
3920.00   32.99008942   0.23809713
3922.00   33.68481445   0.23985811
3924.00   34.55961990   0.24187797
3926.00   34.96411896   0.24320978
3928.00   35.28018188   0.24346717
3930.00   35.24755478   0.24322341
3932.00   34.64573669   0.24084288
3934.00   34.86948013   0.24141686
3936.00   36.09120178   0.24469747
3938.00   37.03817749   0.24723354
3940.00   37.12598038   0.24731514
3942.00   37.40768814   0.24805748
3944.00   37.53081131   0.24803922
3946.00   37.41878510   0.24681982
3948.00   37.50771332   0.24640305
3950.00   37.92513657   0.24692971
3952.00   37.68700790   0.24525832
3954.00   37.64868546   0.24449991
3956.00   37.03905106   0.24197218
3958.00   36.42892838   0.23898949
3960.00   34.75778198   0.23390383
3962.00   34.17081070   0.23153599
3964.00   34.81188965   0.23280184
3966.00   35.18819427   0.23325861
3968.00   35.00353622   0.23224854
3970.00   34.89590073   0.23158583
3972.00   34.35192871   0.22974800
3974.00   34.27158356   0.22908792
3976.00   33.56520081   0.22655351
3978.00   32.68668747   0.22336195
3980.00   32.32392120   0.22188585
3982.00   32.23562241   0.22097790
3984.00   31.75754929   0.21858107
3986.00   31.05101204   0.21589848
3988.00   30.26299095   0.21282515
3990.00   29.35499001   0.20953789
3992.00   29.02493477   0.20702681
3994.00   28.15553665   0.20383134
3996.00   27.32588005   0.20107055
3998.00   27.31065941   0.20153853
4000.00   27.84412766   0.20256233
4002.00   28.65347099   0.20429079
4004.00   28.79431534   0.20443398
4006.00   29.06968117   0.20563744
4008.00   29.01271439   0.20538639
4010.00   28.81023407   0.20478308
4012.00   29.28560638   0.20571147
4014.00   29.12427330   0.20477802
4016.00   29.04393959   0.20377791
4018.00   29.43937874   0.20555139
4020.00   28.95020103   0.20516814
4022.00   29.18320656   0.20586036
4024.00   29.19422340   0.20537864
4026.00   29.39699745   0.20459844
4028.00   29.80222130   0.20461519
4030.00   29.86605263   0.20429125
4032.00   30.11206818   0.20462120
4034.00   29.97174072   0.20365211
4036.00   30.17033958   0.20376539
4038.00   30.84754181   0.20543714
4040.00   30.74317169   0.20501271
4042.00   31.23741341   0.20677103
4044.00   31.25617409   0.21183963
4046.00   31.59199524   0.22143693
4048.00   31.67726517   0.22010313
4050.00   31.55017281   0.20997947
4052.00   31.87674141   0.20670743
4054.00   32.04800415   0.20672283
4056.00   32.64244080   0.20760563
4058.00   32.32487488   0.20534106
4060.00   32.27201843   0.20448713
4062.00   32.91518784   0.20606521
4064.00   32.83251953   0.20600390
4066.00   33.40619278   0.20710072
4068.00   33.81030655   0.20787540
4070.00   33.34005356   0.20659405
4072.00   33.35411835   0.20555933
4074.00   33.78721619   0.20624554
4076.00   33.88313675   0.20781083
4078.00   33.91151047   0.20859693
4080.00   34.10039139   0.20819367
4082.00   34.35794449   0.20753996
4084.00   34.17075348   0.20660657
4086.00   33.79737091   0.20495713
4088.00   33.97074127   0.20465904
4090.00   34.24417877   0.20430443
4092.00   33.97103882   0.20299967
4094.00   34.61056519   0.20431051
4096.00   34.45980453   0.20354322
4098.00   34.37741089   0.20286146
4100.00   35.06876755   0.20420535
4102.00   35.15306091   0.20370807
4104.00   34.72603607   0.20210241
4106.00   34.36566544   0.20076051
4108.00   34.61146164   0.20119934
4110.00   34.47954559   0.20052947
4112.00   34.12667465   0.19910423
4114.00   34.06219864   0.19841838
4116.00   33.62755966   0.19692704
4118.00   33.20850754   0.19527100
4120.00   32.96465302   0.19406383
4122.00   32.28046417   0.19176209
4124.00   32.00358200   0.19054765
4126.00   31.48658752   0.18831605
4128.00   31.45264816   0.18787044
4130.00   31.29323769   0.18706587
4132.00   31.15551567   0.18759765
4134.00   31.24033356   0.18699011
4136.00   30.99979019   0.18553820
4138.00   31.31094742   0.18622345
4140.00   31.03588867   0.18543561
4142.00   31.23711014   0.18545684
4144.00   31.12805557   0.18411754
4146.00   31.25823021   0.18397322
4148.00   31.06638336   0.18314154
4150.00   30.16503143   0.18056403
4152.00   30.54213524   0.18167412
4154.00   30.14441299   0.18056750
4156.00   30.33343506   0.18015362
4158.00   30.08991051   0.17893660
4160.00   30.28033066   0.17887759
4162.00   30.53177834   0.17979103
4164.00   30.23729515   0.17948568
4166.00   30.62066078   0.18049313
4168.00   30.42320824   0.17907752
4170.00   30.28014755   0.17776839
4172.00   30.03958130   0.17665994
4174.00   30.03887367   0.17599194
4176.00   30.48792839   0.17707503
4178.00   30.34592628   0.17637844
4180.00   30.17063141   0.17570646
4182.00   29.88414955   0.17436925
4184.00   30.23456764   0.17489213
4186.00   29.62834740   0.17325191
4188.00   29.80986595   0.17343225
4190.00   29.65248108   0.17297354
4192.00   29.50849152   0.17264920
4194.00   29.49808121   0.17245233
4196.00   28.74950981   0.16994374
4198.00   28.73950386   0.16947412
4200.00   28.29521370   0.16807322
4202.00   28.12522888   0.16710049
4204.00   28.13772202   0.16703473
4206.00   27.57407379   0.16543053
4208.00   27.27111626   0.16451196
4210.00   27.09360695   0.16370654
4212.00   27.07623672   0.16337211
4214.00   26.99769020   0.16283901
4216.00   26.65142822   0.16141340
4218.00   26.52445221   0.16075966
4220.00   26.26675415   0.15949225
4222.00   25.90842438   0.15842393
4224.00   25.41443825   0.15673266
4226.00   25.59778404   0.15688564
4228.00   25.41693878   0.15586457
4230.00   24.66170692   0.15369771
4232.00   24.76798248   0.15388095
4234.00   24.70397568   0.15385616
4236.00   24.89297104   0.15450296
4238.00   24.72157288   0.15582086
4240.00   24.52135849   0.15227792
4242.00   24.02821732   0.15020658
4244.00   23.70737648   0.15018387
4246.00   23.66437912   0.15141268
4248.00   23.76684380   0.15123089
4250.00   23.69415092   0.14957686
4252.00   23.38462257   0.14760627
4254.00   23.07663345   0.14754269
4256.00   22.88286400   0.14584550
4258.00   23.44189644   0.14695264
4260.00   22.89724541   0.14522727
4262.00   23.17025757   0.14570816
4264.00   22.64751434   0.14415556
4266.00   22.63139725   0.14387013
4268.00   22.49354362   0.14342672
4270.00   22.44195557   0.14319147
4272.00   22.15169334   0.14230175
4274.00   22.04487610   0.14184770
4276.00   21.97555542   0.14186627
4278.00   21.84235001   0.14119300
4280.00   21.61948586   0.14010401
4282.00   21.76757240   0.14026140
4284.00   21.28734207   0.13864905
4286.00   21.35073662   0.13864315
4288.00   21.71612740   0.13921888
4290.00   21.89837265   0.13953289
4292.00   21.60227776   0.13885513
4294.00   21.93057823   0.13980894
4296.00   21.63494110   0.13887291
4298.00   21.32482147   0.13752837
4300.00   21.07589149   0.13663121
4302.00   20.90353584   0.13587615
4304.00   20.89268875   0.13580009
4306.00   20.72555923   0.13540851
4308.00   20.58355522   0.13507505
4310.00   20.44177055   0.13445456
4312.00   20.11903381   0.13414024
4314.00   19.89754295   0.13407931
4316.00   19.83699608   0.13326901
4318.00   20.13493347   0.13332810
4320.00   19.79520226   0.13257581
4322.00   19.71337891   0.13236864
4324.00   20.40022278   0.13394004
4326.00   20.33827972   0.13355544
4328.00   20.42814064   0.13312030
4330.00   20.27126503   0.13211106
4332.00   20.06526184   0.13123661
4334.00   20.47044182   0.13237725
4336.00   20.07470131   0.13140567
4338.00   20.59069252   0.13274354
4340.00   20.95585442   0.13394709
4342.00   21.25232315   0.13471851
4344.00   21.67990685   0.13615450
4346.00   21.90009117   0.13742377
4348.00   22.25578880   0.13869761
4350.00   22.18285942   0.13815443
4352.00   21.98819160   0.13693044
4354.00   21.89805031   0.13745509
4356.00   22.18102837   0.14993943
4358.00   22.72040939   0.16217771
4360.00   22.40387917   0.15759043
4362.00   22.88569260   0.14545658
4364.00   22.63669395   0.13925797
4366.00   22.50991631   0.13774954
4368.00   22.22056389   0.13737816
4370.00   22.27725220   0.13715188
4372.00   22.38871193   0.13749920
4374.00   22.79170227   0.13822933
4376.00   23.05086327   0.13822584
4378.00   23.65088654   0.13906416
4380.00   23.49252510   0.13817075
4382.00   23.30971718   0.13748050
4384.00   23.35070419   0.13727959
4386.00   23.48036194   0.13749492
4388.00   23.30786133   0.13710332
4390.00   23.61237526   0.13763845
4392.00   23.43729782   0.13727294
4394.00   23.40437317   0.13700038
4396.00   23.08934402   0.13578486
4398.00   22.65312195   0.13480861
4400.00   22.44713211   0.13456370
4402.00   22.59233856   0.13462204
4404.00   22.17558289   0.13323621
4406.00   21.99457550   0.13243197
4408.00   21.92427635   0.13228361
4410.00   21.66424179   0.13149537
4412.00   21.34624481   0.13028751
4414.00   20.96667671   0.12938394
4416.00   21.05113792   0.12945335
4418.00   20.55669022   0.12798563
4420.00   20.63920975   0.12798007
4422.00   20.55305862   0.12750584
4424.00   20.70134544   0.12785794
4426.00   20.82277298   0.12801206
4428.00   20.79557037   0.12854752
4430.00   20.79617882   0.12785447
4432.00   20.85827637   0.12795430
4434.00   20.81770325   0.12742576
4436.00   20.76073837   0.12730426
4438.00   21.08214188   0.12855339
4440.00   21.28661156   0.12948902
4442.00   21.61043358   0.12931283
4444.00   21.79072952   0.12957467
4446.00   22.03350449   0.13022925
4448.00   21.95845222   0.12997980
4450.00   22.31300354   0.13074480
4452.00   22.41297913   0.13114028
4454.00   22.63154030   0.13129547
4456.00   22.78939247   0.13164268
4458.00   23.20363617   0.13262831
4460.00   23.36638832   0.13358651
4462.00   23.41647530   0.13353410
4464.00   23.49704361   0.13308184
4466.00   23.49429321   0.13297220
4468.00   24.10034370   0.13443141
4470.00   24.51157188   0.13530254
4472.00   24.45552826   0.13503101
4474.00   24.76006699   0.13589348
4476.00   24.96005440   0.13618238
4478.00   24.90865326   0.13609117
4480.00   25.18499947   0.13653992
4482.00   25.10145950   0.13643149
4484.00   25.15670586   0.13647886
4486.00   25.01232338   0.13590999
4488.00   24.86806870   0.13526781
4490.00   24.86618614   0.13546640
4492.00   24.77399635   0.13516368
4494.00   25.19864273   0.13619944
4496.00   25.17045975   0.13622065
4498.00   25.13965034   0.13598137
4500.00   25.36930847   0.13646521
4502.00   25.18305016   0.13591979
4504.00   25.19238091   0.13584127
4506.00   25.68597794   0.13697241
4508.00   25.72318268   0.13700908
4510.00   25.91069031   0.13721301
4512.00   25.47906303   0.13598147
4514.00   25.71270370   0.13636881
4516.00   25.76855469   0.13655509
4518.00   25.82441902   0.13646847
4520.00   25.87681580   0.13638939
4522.00   25.76700020   0.13613988
4524.00   25.45720482   0.13526295
4526.00   25.47254181   0.13522705
4528.00   25.93277359   0.13628817
4530.00   25.89661217   0.13624415
4532.00   25.76345444   0.13581616
4534.00   25.70492172   0.13581347
4536.00   25.84247589   0.13595770
4538.00   25.91008186   0.13582672
4540.00   25.78373146   0.13541996
4542.00   25.49994850   0.13486435
4544.00   25.59367180   0.13497396
4546.00   25.28482437   0.13395986
4548.00   25.24641609   0.13354486
4550.00   25.21763229   0.13344759
4552.00   25.17937660   0.13333319
4554.00   25.13901711   0.13312849
4556.00   24.74154091   0.13202320
4558.00   24.76757240   0.13174753
4560.00   24.71478462   0.13160872
4562.00   24.91665649   0.13194074
4564.00   25.00576973   0.13185194
4566.00   24.71331024   0.13121867
4568.00   24.86033630   0.13161187
4570.00   24.96558380   0.13210650
4572.00   24.97391510   0.13203824
4574.00   24.99243164   0.13201059
4576.00   24.76068306   0.13156736
4578.00   24.83836365   0.13162871
4580.00   24.66808510   0.13108885
4582.00   24.57064247   0.13086189
4584.00   24.72297096   0.13089891
4586.00   24.82117271   0.13113739
4588.00   25.12674522   0.13203979
4590.00   25.22867393   0.13235316
4592.00   25.29678535   0.13259198
4594.00   25.31478882   0.13247801
4596.00   25.20557785   0.13245092
4598.00   25.26187897   0.13240325
4600.00   25.21997261   0.13209580
4602.00   25.37933159   0.13247104
4604.00   25.71301460   0.13326387
4606.00   25.78479004   0.13353238
4608.00   25.81731987   0.13358657
4610.00   25.43456268   0.13260549
4612.00   25.65473175   0.13274576
4614.00   25.83068657   0.13294259
4616.00   25.66317558   0.13265280
4618.00   25.72605324   0.13269807
4620.00   25.61793709   0.13252290
4622.00   25.64694405   0.13250542
4624.00   25.73602486   0.13256370
4626.00   25.55660439   0.13215889
4628.00   25.47001266   0.13191091
4630.00   25.41220093   0.13170612
4632.00   25.14385605   0.13092035
4634.00   25.05038261   0.13057737
4636.00   24.69810677   0.12973799
4638.00   24.41991806   0.12900482
4640.00   24.52900314   0.12918448
4642.00   24.24850464   0.12841195
4644.00   23.63190842   0.12677164
4646.00   23.24132347   0.12570152
4648.00   23.18554306   0.12543048
4650.00   23.03433418   0.12500928
4652.00   22.68108368   0.12424816
4654.00   22.49492073   0.12387848
4656.00   22.37782669   0.12350022
4658.00   22.19887924   0.12330219
4660.00   22.05705070   0.12301433
4662.00   21.77825928   0.12319738
4664.00   21.99355316   0.12347391
4666.00   22.13106537   0.12376967
4668.00   21.94144440   0.12350605
4670.00   22.02345848   0.12370329
4672.00   21.74166298   0.12295415
4674.00   21.67698097   0.12251659
4676.00   21.65028954   0.12227047
4678.00   21.57906914   0.12179804
4680.00   21.39824104   0.12119275
4682.00   21.59727478   0.12161911
4684.00   21.49488258   0.12119722
4686.00   21.63064575   0.12135474
4688.00   21.74890709   0.12135807
4690.00   21.84614754   0.12171838
4692.00   22.15321541   0.12215516
4694.00   21.94769669   0.12163538
4696.00   21.61707497   0.12059892
4698.00   21.50094795   0.12003306
4700.00   21.55941200   0.12005246
4702.00   21.61662865   0.12021071
4704.00   21.77482033   0.12068504
4706.00   21.87750626   0.12089998
4708.00   22.39567184   0.12216128
4710.00   22.16106606   0.12169652
4712.00   22.07247543   0.12129059
4714.00   22.22659683   0.12132210
4716.00   22.26200104   0.12134609
4718.00   22.26688576   0.12128173
4720.00   21.90583420   0.12041736
4722.00   22.20518875   0.12106003
4724.00   22.11407661   0.12061896
4726.00   22.01240158   0.12060846
4728.00   21.94213295   0.12115765
4730.00   21.89209366   0.12172871
4732.00   21.89099884   0.12095254
4734.00   21.59359741   0.12038577
4736.00   21.31140709   0.11976692
4738.00   20.94721413   0.11923610
4740.00   20.98310852   0.11929666
4742.00   20.89300537   0.11958986
4744.00   20.76539040   0.11900728
4746.00   20.65079498   0.11796299
4748.00   20.33535004   0.11637827
4750.00   20.20135117   0.11595426
4752.00   20.51489258   0.11699731
4754.00   20.09855270   0.11588931
4756.00   20.13320160   0.11538705
4758.00   19.81447411   0.11436390
4760.00   19.79424095   0.11394549
4762.00   19.72376251   0.11353773
4764.00   19.85496902   0.11380990
4766.00   19.72818756   0.11342822
4768.00   19.84540367   0.11365732
4770.00   19.96936035   0.11394533
4772.00   20.21920586   0.11444312
4774.00   20.24989510   0.11443826
4776.00   20.41743279   0.11492776
4778.00   20.64112854   0.11567461
4780.00   20.74584389   0.11600558
4782.00   20.87802696   0.11605734
4784.00   20.78787804   0.11565050
4786.00   20.96410942   0.11580696
4788.00   20.79039383   0.11530793
4790.00   21.05803680   0.11605810
4792.00   21.03281593   0.11600836
4794.00   21.26673126   0.11643620
4796.00   21.36066246   0.11618258
4798.00   21.21942139   0.11576524
4800.00   21.31517601   0.11595698
4802.00   21.37034607   0.11602148
4804.00   21.52250862   0.11640090
4806.00   21.35959244   0.11598048
4808.00   21.15825653   0.11550309
4810.00   21.33269691   0.11573700
4812.00   21.14305878   0.11519977
4814.00   21.20211220   0.11521988
4816.00   20.65109253   0.11387695
4818.00   20.63297653   0.11367316
4820.00   20.73853874   0.11402842
4822.00   20.47747612   0.11348569
4824.00   20.26418304   0.11309990
4826.00   20.01044846   0.11246060
4828.00   20.04658508   0.11250941
4830.00   19.90889740   0.11223724
4832.00   19.65161514   0.11167292
4834.00   19.50262642   0.11128200
4836.00   19.39988899   0.11098348
4838.00   19.16934967   0.11043520
4840.00   18.88226318   0.10980578
4842.00   18.75578499   0.10933629
4844.00   18.40874863   0.10802282
4846.00   17.94947815   0.10704201
4848.00   17.96218300   0.10709035
4850.00   18.04032707   0.10697470
4852.00   17.65302658   0.10585127
4854.00   17.68717957   0.10990923
4856.00   17.10570145   0.10429469
4858.00   17.02254486   0.10395235
4860.00   16.75478554   0.10335509
4862.00   16.64183044   0.10294244
4864.00   16.57688141   0.10326530
4866.00   16.42152405   0.10322359
4868.00   16.21530342   0.10216772
4870.00   16.02216911   0.10071734
4872.00   16.04328537   0.10082845
4874.00   15.93020439   0.10056743
4876.00   15.81710243   0.09993556
4878.00   16.01039314   0.10046291
4880.00   15.75783825   0.09971319
4882.00   15.81263351   0.09964076
4884.00   15.87053680   0.09951378
4886.00   15.94864941   0.09959873
4888.00   15.56747913   0.09838953
4890.00   15.44169521   0.09813880
4892.00   15.34969425   0.09827559
4894.00   15.73992062   0.09932914
4896.00   15.85720444   0.09943341
4898.00   15.45960999   0.09839816
4900.00   15.77539349   0.09924970
4902.00   15.93540955   0.09904764
4904.00   15.87391758   0.09829215
4906.00   15.70455265   0.09805012
4908.00   16.10556221   0.09909145
4910.00   16.13062286   0.09928048
4912.00   16.38612747   0.09980689
4914.00   16.60059929   0.10033237
4916.00   16.55455399   0.10010995
4918.00   16.37394524   0.09950214
4920.00   16.22296143   0.09891573
4922.00   16.21027184   0.09888034
4924.00   16.50161934   0.09966142
4926.00   16.60021210   0.09957794
4928.00   16.66204262   0.09996425
4930.00   16.76543427   0.10021286
4932.00   16.72228813   0.10014093
4934.00   16.69409752   0.10012772
4936.00   16.90048409   0.10046197
4938.00   16.82871246   0.10024054
4940.00   17.25897408   0.10132911
4942.00   16.84901619   0.10012511
4944.00   16.85392761   0.10002366
4946.00   16.86831093   0.09984166
4948.00   16.89046478   0.10004382
4950.00   16.78256035   0.09978374
4952.00   16.56518936   0.09910411
4954.00   16.48807716   0.09900739
4956.00   16.22109985   0.09822170
4958.00   16.53773308   0.09893588
4960.00   16.85382843   0.09965270
4962.00   16.79761696   0.09970932
4964.00   16.83172035   0.10001370
4966.00   16.82616234   0.09995934
4968.00   16.79424667   0.09989270
4970.00   16.56024742   0.09946255
4972.00   16.41507721   0.09923400
4974.00   16.56142426   0.09992907
4976.00   16.50771332   0.10031147
4978.00   16.42371559   0.10065134
4980.00   16.75955582   0.10207690
4982.00   16.60023499   0.10218640
4984.00   16.71426773   0.10242602
4986.00   16.58116341   0.10166986
4988.00   16.97282410   0.10194554
4990.00   16.67206764   0.10076270
4992.00   16.50739288   0.10016994
4994.00   16.58595085   0.09989111
4996.00   16.88256645   0.10020244
4998.00   17.19432831   0.10060511
5000.00   17.04627609   0.10007739
5002.00   16.93579674   0.09963652
5004.00   16.93555450   0.09970651
5006.00   17.06461906   0.09986644
5008.00   17.13951111   0.10007856
5010.00   17.20770454   0.10017313
5012.00   17.24633789   0.10002757
5014.00   17.16889763   0.09979974
5016.00   17.06295967   0.09945927
5018.00   17.05086899   0.09941769
5020.00   16.97415161   0.09941728
5022.00   17.09998512   0.09980230
5024.00   17.14905548   0.09978686
5026.00   17.29111862   0.10003296
5028.00   17.14215851   0.09980407
5030.00   17.30357933   0.10019518
5032.00   17.29620934   0.10022307
5034.00   17.04994583   0.09968317
5036.00   17.25122452   0.09976117
5038.00   17.32558250   0.10012686
5040.00   17.53807068   0.10062648
5042.00   17.68955040   0.10103438
5044.00   17.59384918   0.10082047
5046.00   17.64911079   0.10075339
5048.00   17.67510033   0.10070712
5050.00   17.55051613   0.10033647
5052.00   17.52272606   0.10028705
5054.00   17.56549072   0.10037641
5056.00   17.59674644   0.10055124
5058.00   17.83650589   0.10109819
5060.00   17.80925560   0.10118614
5062.00   17.86766434   0.10146876
5064.00   18.05574417   0.10224544
5066.00   18.30589676   0.10291188
5068.00   18.41599655   0.10355123
5070.00   18.54339409   0.10391489
5072.00   18.54524803   0.10352687
5074.00   18.20306587   0.10255034
5076.00   18.36881638   0.10277701
5078.00   18.32703209   0.10303620
5080.00   18.50329971   0.10418269
5082.00   18.91375732   0.10624592
5084.00   18.73680115   0.10664419
5086.00   18.85885239   0.10706531
5088.00   18.82421875   0.10645242
5090.00   18.89471436   0.10555465
5092.00   19.30826569   0.10588040
5094.00   19.44112587   0.10600383
5096.00   19.48403358   0.10620432
5098.00   19.63554573   0.10696340
5100.00   19.52760315   0.10689992
5102.00   19.61910629   0.10669750
5104.00   19.67638016   0.10652423
5106.00   19.90952873   0.10686336
5108.00   19.95326424   0.10690598
5110.00   19.97731972   0.10706512
5112.00   19.74737740   0.10664743
5114.00   19.62273598   0.10640926
5116.00   19.43747520   0.10608292
5118.00   19.46262550   0.10605042
5120.00   19.52899742   0.10631544
5122.00   19.40126801   0.10591479
5124.00   19.53054428   0.10641395
5126.00   19.40744019   0.10623914
5128.00   19.57367897   0.10667007
5130.00   19.54585266   0.10657979
5132.00   19.29896927   0.10598201
5134.00   19.21734428   0.10591608
5136.00   19.16798782   0.10577889
5138.00   19.03650475   0.10567778
5140.00   18.99039459   0.10557083
5142.00   18.78526115   0.10526551
5144.00   18.89492226   0.10558096
5146.00   18.87445259   0.10569067
5148.00   18.55176544   0.10544632
5150.00   18.54447556   0.10561666
5152.00   18.89845467   0.10671639
5154.00   18.98690033   0.10712812
5156.00   18.69200706   0.10642283
5158.00   18.75947762   0.10629028
5160.00   18.67733574   0.10573898
5162.00   18.46442604   0.10514174
5164.00   18.33029938   0.10471755
5166.00   18.52283669   0.10522238
5168.00   18.64013672   0.10554603
5170.00   18.66075706   0.10578296
5172.00   18.89685249   0.10716742
5174.00   18.76434898   0.10585541
5176.00   18.66372681   0.10590916
5178.00   18.70773125   0.10609998
5180.00   18.45609665   0.10560132
5182.00   18.73831749   0.10620853
5184.00   18.90801048   0.10673912
5186.00   18.89024353   0.10680686
5188.00   18.89219666   0.10692135
5190.00   18.98521614   0.10733334
5192.00   19.25119209   0.10810743
5194.00   19.30224419   0.10847568
5196.00   19.49827957   0.10903589
5198.00   19.46388817   0.10918198
5200.00   19.03135490   0.10809574
5202.00   18.89179993   0.10756581
5204.00   18.90783310   0.10752630
5206.00   19.02803993   0.10807112
5208.00   18.97472191   0.10814402
5210.00   19.05087852   0.10870084
5212.00   19.15562630   0.10920011
5214.00   19.39494133   0.10982555
5216.00   19.36544228   0.10991769
5218.00   19.15062332   0.10948978
5220.00   19.12636375   0.10967354
5222.00   18.94635391   0.10927132
5224.00   19.05248642   0.10975668
5226.00   18.91912079   0.10948246
5228.00   18.77128792   0.10936128
5230.00   18.85279846   0.10974173
5232.00   18.60008240   0.10942952
5234.00   18.66082954   0.10977681
5236.00   18.36830521   0.10930961
5238.00   18.24879837   0.10905175
5240.00   17.72676277   0.10784030
5242.00   17.55642128   0.10721151
5244.00   17.40594292   0.10677935
5246.00   17.03400040   0.10608105
5248.00   17.11199951   0.10827228
5250.00   16.93177795   0.10724616
5252.00   16.77154732   0.10580131
5254.00   16.60397148   0.10572131
5256.00   16.54334641   0.10598443
5258.00   16.34622955   0.10565768
5260.00   16.15271378   0.10501431
5262.00   16.08176231   0.10461444
5264.00   15.62227917   0.10337469
5266.00   15.78539085   0.10389704
5268.00   15.61157513   0.10350208
5270.00   15.49586868   0.10309407
5272.00   15.56506538   0.10356130
5274.00   15.78241730   0.10448990
5276.00   15.55356121   0.10416164
5278.00   15.57495785   0.10435852
5280.00   15.38168240   0.10384390
5282.00   15.46394062   0.10433087
5284.00   15.45247269   0.10454000
5286.00   15.46699142   0.10475136
5288.00   14.98374462   0.10345746
5290.00   15.42918777   0.10472760
5292.00   15.53464031   0.10548667
5294.00   15.35416412   0.10507978
5296.00   15.49386597   0.10571109
5298.00   15.67127705   0.10642681
5300.00   15.43692970   0.10571271
5302.00   15.15252018   0.10510778
5304.00   15.14644241   0.10539856
5306.00   15.15837479   0.10547881
5308.00   15.31121922   0.10646703
5310.00   15.38541126   0.10698308
5312.00   15.25354290   0.10717776
5314.00   15.40412712   0.10777188
5316.00   15.46911335   0.10820636
5318.00   15.64440536   0.10882918
5320.00   15.64389133   0.10928144
5322.00   15.63374996   0.10960088
5324.00   15.94030190   0.11074837
5326.00   15.94818401   0.11102523
5328.00   15.95266247   0.11140428
5330.00   15.82967377   0.11136997
5332.00   15.78580189   0.11146437
5334.00   16.09570694   0.11226455
5336.00   16.00136375   0.11228380
5338.00   16.19676590   0.11314208
5340.00   16.25988007   0.11377648
5342.00   16.40615463   0.11474469
5344.00   16.51082420   0.11528003
5346.00   16.66961479   0.11644108
5348.00   16.79432106   0.11722248
5350.00   16.69045258   0.11706918
5352.00   16.64284325   0.11700063
5354.00   16.54607010   0.11715558
5356.00   16.67953682   0.11795954
5358.00   16.69453239   0.11841398
5360.00   16.68220901   0.11778785
5362.00   16.34570122   0.11682670
5364.00   16.05458450   0.11590062
5366.00   16.06879807   0.11616839
5368.00   16.29588509   0.11736979
5370.00   16.38737869   0.11794037
5372.00   16.57973671   0.11907993
5374.00   16.52447701   0.11940953
5376.00   16.39627457   0.11951669
5378.00   16.35593414   0.11973999
5380.00   16.40377808   0.12012246
5382.00   16.25473213   0.11980462
5384.00   16.24471855   0.12009934
5386.00   16.45017052   0.12117565
5388.00   16.85504532   0.12261017
5390.00   16.88679504   0.12317999
5392.00   16.58189583   0.12306502
5394.00   16.70780563   0.12391607
5396.00   16.95059776   0.12486386
5398.00   16.78622818   0.12441649
5400.00   16.64284515   0.12428585
5402.00   16.41844177   0.12377839
5404.00   16.40415001   0.12400355
5406.00   15.97203064   0.12292881
5408.00   15.90127850   0.12338560
5410.00   16.05351639   0.12417907
5412.00   15.93188286   0.12456796
5414.00   16.29457092   0.12626924
5416.00   15.98192310   0.12590519
5418.00   15.87763977   0.12598498
5420.00   15.98532581   0.12682019
5422.00   15.95613480   0.12684478
5424.00   15.77919674   0.12665580
5426.00   15.82874203   0.12681231
5428.00   15.60206223   0.12643325
5430.00   15.13840485   0.12523042
5432.00   15.06143665   0.12505451
5434.00   15.76904202   0.07737064
5436.00   15.71464157   0.07983395
5438.00   15.42705059   0.07778970
5440.00   15.10513687   0.07401402
5442.00   14.71822548   0.06643321
5444.00   14.33145142   0.05756838
5446.00   14.12962532   0.05691280
5448.00   14.08077431   0.06430046
5450.00   13.96239376   0.06367937
5452.00   13.78633881   0.05438545
5454.00   13.72660255   0.05294304
5456.00   13.81088829   0.06195071
5458.00   13.94923115   0.07202898
5460.00   14.09912300   0.07930670
5462.00   14.32481766   0.08724010
5464.00   14.19772434   0.08435509
5466.00   13.53602028   0.06331585
5468.00   13.35664177   0.05391218
5470.00   13.70186424   0.06064333
5472.00   14.04453850   0.06861375
5474.00   14.05315590   0.07243755
5476.00   13.90238380   0.07544135
5478.00   13.88236713   0.07285054
5480.00   13.70559406   0.05494995
5482.00   13.98597431   0.05662301
5484.00   14.82753944   0.07788898
5486.00   15.55321884   0.09054302
5488.00   15.96107388   0.09147328
5490.00   16.17840195   0.08658246
5492.00   16.10634232   0.07904726
5494.00   15.51326561   0.05890635
5496.00   15.37698841   0.04967809
5498.00   15.46393013   0.05205427
5500.00   15.60777664   0.05393403
5502.00   15.83054352   0.05381013
5504.00   16.08164024   0.05364292
5506.00   16.20474052   0.05361950
5508.00   16.23641205   0.05365200
5510.00   16.30612183   0.05380484
5512.00   16.36387444   0.05446116
5514.00   16.43802643   0.05441555
5516.00   16.57542419   0.05199445
5518.00   16.67290878   0.05084898
5520.00   16.58033180   0.05617951
5522.00   16.31085205   0.06591920
5524.00   16.32730865   0.06817954
5526.00   16.61570930   0.06518956
5528.00   16.74492073   0.06415966
5530.00   16.73204231   0.06539540
5532.00   16.70466232   0.06546778
5534.00   16.72427177   0.06109592
5536.00   16.75847435   0.05303919
5538.00   16.85753441   0.05250276
5540.00   17.14552879   0.06041538
5542.00   17.15921211   0.06177821
5544.00   16.88649940   0.05790537
5546.00   16.65109634   0.05536209
5548.00   16.56419182   0.05850843
5550.00   16.55323029   0.06333414
5552.00   16.62562180   0.06148945
5554.00   16.91511917   0.05142905
5556.00   16.93751717   0.04776783
5558.00   16.74675751   0.04794277
5560.00   16.59512138   0.04894702
5562.00   16.51439667   0.05066251
5564.00   16.47337723   0.05287251
5566.00   16.49336243   0.05408664
5568.00   16.57395363   0.05381528
5570.00   16.67692947   0.05734543
5572.00   16.82475662   0.06519647
5574.00   16.98612022   0.06934952
5576.00   17.21879196   0.07073434
5578.00   17.40657234   0.06978983
5580.00   17.38240433   0.06499554
5582.00   17.18008423   0.05440557
5584.00   17.11223793   0.05053013
5586.00   17.09092522   0.05276059
5588.00   17.07268906   0.05329509
5590.00   17.05217743   0.05337429
5592.00   17.05776405   0.05298666
5594.00   17.12858009   0.05127705
5596.00   17.24931908   0.04844949
5598.00   17.24542999   0.04883786
5600.00   17.11700249   0.05310420
5602.00   17.05912781   0.05409199
5604.00   17.04690742   0.05218430
5606.00   17.02680016   0.05096774
5608.00   16.95779419   0.05244105
5610.00   16.87699127   0.05498911
5612.00   16.90840530   0.05561723
5614.00   17.09886742   0.05468687
5616.00   17.12986183   0.05491705
5618.00   17.13875008   0.05396584
5620.00   17.00650024   0.05608097
5622.00   16.57982254   0.06456356
5624.00   16.10052872   0.07265263
5626.00   16.09635544   0.07045688
5628.00   16.50374222   0.05717454
5630.00   16.66658592   0.05198863
5632.00   16.79637527   0.05100813
5634.00   16.86827278   0.05132262
5636.00   16.87407684   0.05401720
5638.00   16.83288383   0.05694743
5640.00   16.74715996   0.05729064
5642.00   16.57942200   0.05617961
5644.00   16.59561729   0.05494975
5646.00   16.83382988   0.05138503
5648.00   16.90916252   0.05080864
5650.00   16.82287979   0.05492765
5652.00   16.70100784   0.05790441
5654.00   16.60305786   0.05542616
5656.00   16.49429512   0.04896683
5658.00   16.51151466   0.04695917
5660.00   16.68042374   0.04797861
5662.00   16.76626968   0.04840676
5664.00   16.82269478   0.04938903
5666.00   16.84790993   0.05006917
5668.00   16.82010078   0.04998341
5670.00   16.76065445   0.04946470
5672.00   16.77400398   0.04901849
5674.00   16.82118607   0.04723903
5676.00   16.90596962   0.04824448
5678.00   17.12937355   0.05254756
5680.00   17.21024704   0.05494713
5682.00   17.01816177   0.05351452
5684.00   16.72691536   0.05110260
5686.00   16.64895439   0.05340879
5688.00   16.71766853   0.06025609
5690.00   16.69116402   0.06119825
5692.00   16.66613960   0.05664445
5694.00   16.57763672   0.05536212
5696.00   16.35146141   0.06039685
5698.00   16.14071655   0.06494067
5700.00   16.16570282   0.06192028
5702.00   16.38208008   0.05176388
5704.00   16.45018387   0.04748797
5706.00   16.44079399   0.04708594
5708.00   16.47314453   0.04619066
5710.00   16.57113075   0.04565318
5712.00   16.64319038   0.04493024
5714.00   16.60645866   0.04280781
5716.00   16.49362373   0.03947168
5718.00   16.45792770   0.03955170
5720.00   16.49865913   0.04277891
5722.00   16.45040894   0.04494849
5724.00   16.31165695   0.04772728
5726.00   16.17718887   0.04924843
5728.00   16.08369637   0.04836730
5730.00   16.01057434   0.04591563
5732.00   15.97743988   0.04435429
5734.00   16.01210403   0.04193531
5736.00   15.99714184   0.04158128
5738.00   15.96890640   0.04336313
5740.00   15.92014217   0.04488012
5742.00   15.86051369   0.04586448
5744.00   15.77380848   0.04649193
5746.00   15.61043358   0.04600691
5748.00   15.36230755   0.04360325
5750.00   15.14460182   0.04379891
5752.00   14.86495495   0.04411655
5754.00   14.68919563   0.04764759
5756.00   14.64796925   0.05648820
5758.00   14.67393398   0.06407358
5760.00   14.71550560   0.06427938
5762.00   14.83766174   0.05908546
5764.00   14.76556015   0.05613855
5766.00   14.36104012   0.04886545
5768.00   14.31713963   0.04970554
5770.00   14.80690956   0.06246660
5772.00   15.24406624   0.07202784
5774.00   15.10591507   0.07051456
5776.00   14.60028458   0.06164968
5778.00   14.41174984   0.05783074
5780.00   14.29162788   0.05372837
5782.00   14.29734707   0.05403417
5784.00   14.54617405   0.06135978
5786.00   14.71384621   0.06601716
5788.00   14.58512497   0.06379861
5790.00   14.30347729   0.05748633
5792.00   14.24996090   0.05347072
5794.00   14.23689079   0.04567714
5796.00   14.43714333   0.04691328
5798.00   15.01677418   0.05893968
5800.00   15.39457703   0.06518704
5802.00   15.37084103   0.06254367
5804.00   15.15234756   0.05586519
5806.00   15.00915718   0.05360974
5808.00   14.79825211   0.05408354
5810.00   14.68159294   0.05214493
5812.00   14.57475662   0.04729662
5814.00   14.57890129   0.04497293
5816.00   14.76752949   0.04717484
5818.00   14.99734211   0.05047796
5820.00   15.06340981   0.05135924
5822.00   15.04063797   0.05138042
5824.00   14.99353600   0.05066684
5826.00   14.82793045   0.04879895
5828.00   14.76797295   0.04675488
5830.00   14.83684254   0.04357194
5832.00   14.92619419   0.04095946
5834.00   14.94659233   0.04129462
5836.00   14.93401814   0.04380872
5838.00   14.97183323   0.04471730
5840.00   15.05701256   0.04536273
5842.00   15.11000633   0.04561541
5844.00   15.14147568   0.04526095
5846.00   15.16432571   0.04491451
5848.00   15.16831970   0.04469060
5850.00   15.16285706   0.04457609
5852.00   15.24803925   0.04591604
5854.00   15.43264961   0.04911853
5856.00   15.56895924   0.05083292
5858.00   15.73315811   0.05156383
5860.00   15.82842064   0.05263381
5862.00   15.81074429   0.05547966
5864.00   15.72669029   0.05808238
5866.00   15.65721607   0.05537128
5868.00   15.53703308   0.04512082
5870.00   15.50290775   0.04053768
5872.00   15.53093433   0.03949610
5874.00   15.57067013   0.03929248
5876.00   15.62669373   0.04024848
5878.00   15.69003773   0.04171068
5880.00   15.73945904   0.04189456
5882.00   15.79989910   0.04094688
5884.00   15.77971745   0.04232892
5886.00   15.65925598   0.04551011
5888.00   15.58606625   0.04824311
5890.00   15.55943108   0.05081456
5892.00   15.54781437   0.05319374
5894.00   15.52969265   0.05550692
5896.00   15.51192284   0.05797097
5898.00   15.53116703   0.05764728
5900.00   15.60684586   0.05491332
5902.00   15.63845730   0.05152007
5904.00   15.59475517   0.04479350
5906.00   15.59955978   0.03929362
5908.00   15.74617958   0.04034932
5910.00   15.97894001   0.04522169
5912.00   16.10664940   0.04618428
5914.00   16.27408791   0.04464892
5916.00   16.22418213   0.04542594
5918.00   15.86559677   0.04785065
5920.00   15.62332058   0.05005995
5922.00   15.66904545   0.05173750
5924.00   15.84228230   0.05312235
5926.00   15.90087700   0.05382193
5928.00   15.98282719   0.05412674
5930.00   15.90830421   0.05362970
5932.00   15.64465809   0.05073177
5934.00   15.43955803   0.05023303
5936.00   15.35477448   0.05374121
5938.00   15.28414631   0.05816461
5940.00   15.06198883   0.06049592
5942.00   14.59803200   0.06299586
5944.00   14.74307442   0.06105912
5946.00   15.53315544   0.05196524
5948.00   16.05152893   0.04642485
5950.00   16.38318062   0.04510826
5952.00   16.52406120   0.04706190
5954.00   16.30236816   0.05312119
5956.00   15.70470047   0.06282846
5958.00   15.68417168   0.06358259
5960.00   16.16158485   0.05706860
5962.00   16.38961601   0.05234402
5964.00   16.44576836   0.04719089
5966.00   16.47046471   0.04308501
5968.00   16.55209351   0.04221876
5970.00   16.64122581   0.04381242
5972.00   16.53720856   0.04451415
5974.00   16.14458847   0.04510024
5976.00   16.01063538   0.04680659
5978.00   16.06917191   0.05056728
5980.00   16.12378693   0.05270124
5982.00   16.09910202   0.05186116
5984.00   16.05909348   0.04940591
5986.00   16.09185982   0.04782165
5988.00   16.22142410   0.04496308
5990.00   16.23568916   0.04535356
5992.00   16.12308693   0.04999111
5994.00   16.09664345   0.05193436
5996.00   16.26254272   0.04952206
5998.00   16.44137192   0.04568506
6000.00   16.32785416   0.04515036
6002.00   15.92332745   0.04677258
6004.00   15.85463428   0.04730262
6006.00   16.04559135   0.04796553
6008.00   16.13527489   0.04815898
6010.00   16.11958504   0.04785156
6012.00   16.06857491   0.04721835
6014.00   16.00566864   0.04631833
6016.00   15.90087605   0.04501354
6018.00   15.93533421   0.04411835
6020.00   16.17396355   0.04277212
6022.00   16.22514534   0.04288386
6024.00   16.11226082   0.04465292
6026.00   15.94062614   0.04670548
6028.00   15.72667408   0.04838537
6030.00   15.46095181   0.05004939
6032.00   15.41949844   0.05135532
6034.00   15.63915443   0.05254315
6036.00   15.68341446   0.05331195
6038.00   15.61731815   0.05455952
6040.00   15.55492878   0.05418715
6042.00   15.54663372   0.05053605
6044.00   15.54957867   0.04466369
6046.00   15.48611641   0.04144699
6048.00   15.35812759   0.03923969
6050.00   15.26299953   0.03884230
6052.00   15.15566730   0.04182960
6054.00   15.08091831   0.04325757
6056.00   15.05605602   0.04228893
6058.00   15.05416107   0.04025176
6060.00   15.03892231   0.03843845
6062.00   15.04469109   0.03580413
6064.00   14.97430897   0.03464406
6066.00   14.78964043   0.03293853
6068.00   14.69440460   0.03492438
6070.00   14.73186588   0.04096946
6072.00   14.78186607   0.04759263
6074.00   14.73919201   0.05368772
6076.00   14.66426468   0.06097592
6078.00   14.44091320   0.05956770
6080.00   13.97183037   0.04618696
6082.00   13.68025875   0.03841902
6084.00   13.54763222   0.03823695
6086.00   13.45521450   0.03991196
6088.00   13.35645103   0.04042262
6090.00   13.27731514   0.04133207
6092.00   13.08772850   0.04066344
6094.00   12.82539558   0.03802589
6096.00   12.51389313   0.03669180
6098.00   11.86271286   0.03128807
6100.00   11.61250782   0.03402137
6102.00   12.28088570   0.05030901
6104.00   13.39715576   0.06699077
6106.00   13.63801956   0.07179839
6108.00   13.45418072   0.07199325
6110.00   12.97083664   0.06859336
6112.00   11.72276211   0.05475648
6114.00   10.90374184   0.04436561
6116.00   10.90360832   0.04739687
6118.00   11.17321682   0.05422890
6120.00   10.92390060   0.05251294
6122.00   10.33649254   0.04461277
6124.00   10.03101730   0.04088149
6126.00   9.85354805   0.03886191
6128.00   9.68956375   0.03764448
6130.00   9.53563023   0.03793605
6132.00   9.41213417   0.03858696
6134.00   9.31126308   0.03742988
6136.00   9.20507526   0.03412531
6138.00   9.33732700   0.03776814
6140.00   9.87395954   0.04885781
6142.00   10.05198479   0.05261298
6144.00   9.88227940   0.05115511
6146.00   9.61178589   0.04773550
6148.00   9.34599972   0.04338001
6150.00   9.02319813   0.03670631
6152.00   8.94690228   0.03439554
6154.00   9.12161732   0.03692807
6156.00   9.19371319   0.03747436
6158.00   9.23964405   0.03746743
6160.00   9.27402306   0.03738547
6162.00   9.28825092   0.03729401
6164.00   9.29287338   0.03717639
6166.00   9.34681511   0.03732099
6168.00   9.45915127   0.03787692
6170.00   9.52475262   0.03796078
6172.00   9.53525162   0.03767505
6174.00   9.60005760   0.03746546
6176.00   9.75319195   0.03741065
6178.00   9.95104885   0.03743598
6180.00   10.14228916   0.03754457
6182.00   10.39299107   0.03773692
6184.00   10.49573517   0.03800053
6186.00   10.44075298   0.03740756
6188.00   10.44519997   0.03868980
6190.00   10.52739811   0.04325952
6192.00   10.63065910   0.04722844
6194.00   10.71058083   0.04689253
6196.00   10.78142071   0.04341749
6198.00   10.87871552   0.04093634
6200.00   10.99346542   0.03661558
6202.00   11.11792088   0.03471275
6204.00   11.26452732   0.03609754
6206.00   11.40694809   0.03805058
6208.00   11.51580811   0.03882566
6210.00   11.60240841   0.03930142
6212.00   11.74619389   0.04024262
6214.00   11.96702671   0.04252849
6216.00   12.11284256   0.04239789
6218.00   12.20873833   0.03911307
6220.00   12.27752972   0.03645699
6222.00   12.30961514   0.03692058
6224.00   12.31826973   0.03891767
6226.00   12.40391350   0.03975062
6228.00   12.57875729   0.04104568
6230.00   12.67867947   0.04067660
6232.00   12.73502445   0.03828619
6234.00   12.79370213   0.03638444
6236.00   12.86184406   0.03581132
6238.00   12.93414021   0.03581624
6240.00   13.01841068   0.03561027
6242.00   13.11852932   0.03542903
6244.00   13.20440960   0.03559194
6246.00   13.25961781   0.03538624
6248.00   13.35917664   0.03659127
6250.00   13.52057076   0.04076504
6252.00   13.70414639   0.04408716
6254.00   13.88108540   0.04206071
6256.00   14.09565735   0.03449469
6258.00   14.13351822   0.03237600
6260.00   13.95960903   0.03444169
6262.00   13.89411831   0.03542960
6264.00   13.92952919   0.03579437
6266.00   13.98646450   0.03619253
6268.00   14.02099609   0.03679135
6270.00   14.05519199   0.03747319
6272.00   14.07497501   0.03875422
6274.00   14.06704426   0.04097059
6276.00   14.08964157   0.04227676
6278.00   14.16987896   0.04313697
6280.00   14.20749474   0.04354677
6282.00   14.15222836   0.04237100
6284.00   14.03588486   0.04063263
6286.00   13.89261150   0.04518543
6288.00   13.64169502   0.05666498
6290.00   13.51342297   0.06033632
6292.00   13.42880249   0.06055320
6294.00   13.42398834   0.05961839
6296.00   13.52325344   0.05700139
6298.00   13.69456673   0.05361010
6300.00   13.87682152   0.05395877
6302.00   14.15629101   0.05830609
6304.00   14.26965332   0.05829038
6306.00   14.21260548   0.05378594
6308.00   14.23151684   0.05252099
6310.00   14.34419537   0.05635072
6312.00   14.50647640   0.06128980
6314.00   14.69935703   0.06435228
6316.00   14.93373871   0.06793327
6318.00   15.19149303   0.06588077
6320.00   15.65997410   0.05312444
6322.00   15.78377914   0.04894464
6324.00   15.42464447   0.05834850
6326.00   15.04749203   0.06656484
6328.00   15.08607483   0.06530353
6330.00   15.37857723   0.05822347
6332.00   15.22373962   0.05702189
6334.00   14.59351921   0.06018065
6336.00   14.33501244   0.06058322
6338.00   14.36131668   0.05943799
6340.00   14.45213985   0.05743850
6342.00   14.53574467   0.05413521
6344.00   14.64752865   0.04969269
6346.00   14.66217422   0.04837706
6348.00   14.57940578   0.05015209
6350.00   14.54981136   0.05080711
6352.00   14.48592854   0.05003325
6354.00   14.51116085   0.05184146
6356.00   14.74487591   0.05594564
6358.00   15.02925396   0.06247327
6360.00   14.95744228   0.07470805
6362.00   14.47906780   0.09764809
6364.00   14.42987347   0.09649040
6366.00   14.61040020   0.06908015
6368.00   14.86179829   0.04445960
6370.00   15.31832886   0.04217226
6372.00   15.72466850   0.04962582
6374.00   15.60416794   0.05102671
6376.00   15.01910114   0.05364588
6378.00   14.77842617   0.05291809
6380.00   14.66106319   0.04736817
6382.00   14.55562592   0.04544521
6384.00   14.35756779   0.04860300
6386.00   14.32756233   0.05202217
6388.00   14.83134270   0.05203128
6390.00   15.80430508   0.04998460
6392.00   15.83848381   0.05229570
6394.00   15.01664257   0.06013817
6396.00   14.57812977   0.06169063
6398.00   14.27519703   0.05674936
6400.00   14.11525726   0.05214008
6402.00   14.16094494   0.05306907
6404.00   14.37016678   0.05658905
6406.00   14.53489971   0.05675811
6408.00   14.82115078   0.05424626
6410.00   14.92121696   0.05394080
6412.00   14.80274200   0.05558420
6414.00   14.77610779   0.05635229
6416.00   14.99122143   0.05502217
6418.00   15.28709888   0.05284998
6420.00   15.34385490   0.05245128
6422.00   15.17846775   0.05332868
6424.00   15.20074844   0.05369244
6426.00   15.41973972   0.05409989
6428.00   15.45380020   0.05450588
6430.00   15.16118336   0.05515783
6432.00   14.80326176   0.05558925
6434.00   14.73164368   0.05498717
6436.00   14.80867863   0.05352902
6438.00   14.99308777   0.05194055
6440.00   15.39919186   0.04947696
6442.00   15.72078514   0.04751534
6444.00   16.01139641   0.04627861
6446.00   16.22033501   0.04512918
6448.00   16.28008080   0.04320025
6450.00   16.22860336   0.04050020
6452.00   15.98856735   0.04062841
6454.00   15.45684719   0.04149063
6456.00   15.04240322   0.04585718
6458.00   14.53837490   0.05594983
6460.00   14.26326275   0.06217175
6462.00   14.49238396   0.06070482
6464.00   15.06284618   0.05426837
6466.00   15.36809826   0.04878729
6468.00   15.74207878   0.03701499
6470.00   15.78483772   0.03339205
6472.00   15.49499130   0.03894705
6474.00   15.15617466   0.04468511
6476.00   14.80322933   0.04942583
6478.00   14.43997192   0.05389299
6480.00   14.27974510   0.05607517
6482.00   14.21862602   0.05724476
6484.00   14.34726143   0.05662412
6486.00   14.78247833   0.05304391
6488.00   15.11416340   0.05019015
6490.00   15.29955482   0.04894088
6492.00   15.40253162   0.04820462
6494.00   15.43046856   0.04691151
6496.00   15.37206650   0.04549924
6498.00   15.27151680   0.04385838
6500.00   15.08257008   0.04086306
6502.00   14.90240669   0.03988428
6504.00   14.68559933   0.04193795
6506.00   14.51194859   0.04430817
6508.00   14.49902630   0.04456261
6510.00   14.62332535   0.04352089
6512.00   14.58042145   0.04484905
6514.00   14.35165501   0.04992187
6516.00   14.31387138   0.05011446
6518.00   14.49292374   0.04417771
6520.00   14.66231346   0.03816532
6522.00   14.70720005   0.03722266
6524.00   14.68847275   0.03932539
6526.00   14.54229450   0.04398561
6528.00   14.16924381   0.05482408
6530.00   13.97107506   0.05711128
6532.00   13.87219334   0.05306637
6534.00   13.80170918   0.04876597
6536.00   13.73845196   0.04626771
6538.00   13.69788456   0.04452618
6540.00   13.68397522   0.04493497
6542.00   13.66129112   0.04859230
6544.00   13.75564861   0.04938483
6546.00   13.97399998   0.04955437
6548.00   14.19000149   0.04816476
6550.00   14.41097736   0.04395615
6552.00   14.61649609   0.03827298
6554.00   14.72847843   0.03496750
6556.00   14.76403046   0.03309324
6558.00   14.79642296   0.03192491
6560.00   14.83966923   0.03194531
6562.00   14.78319836   0.03288382
6564.00   14.56855869   0.03459290
6566.00   14.33857727   0.03715071
6568.00   14.23343849   0.04094927
6570.00   14.18458462   0.04592632
6572.00   14.24353886   0.04782498
6574.00   14.50868702   0.04878364
6576.00   14.61782455   0.04753173
6578.00   14.58073044   0.04255417
6580.00   14.52132225   0.03690200
6582.00   14.49754810   0.03344063
6584.00   14.47877216   0.03118835
6586.00   14.52763081   0.03005051
6588.00   14.66445255   0.03049979
6590.00   14.75107098   0.03178781
6592.00   14.86021519   0.03532271
6594.00   14.89079571   0.03739011
6596.00   14.70170307   0.03550056
6598.00   14.44821262   0.03220179
6600.00   14.67333603   0.03657370
6602.00   15.13673401   0.04557104
6604.00   15.98110485   0.05244470
6606.00   17.77257347   0.06224110
6608.00   18.80334091   0.06651541
6610.00   18.72768593   0.06416798
6612.00   18.01142693   0.05802199
6614.00   16.99001884   0.05149406
6616.00   15.16307831   0.03992874
6618.00   14.31139183   0.03318740
6620.00   13.71101284   0.02483055
6622.00   13.86221886   0.03085913
6624.00   15.13751316   0.05183667
6626.00   16.68664551   0.06704926
6628.00   17.66704941   0.06994477
6630.00   18.58563995   0.06683953
6632.00   18.32857132   0.06147689
6634.00   16.58169746   0.04511074
6636.00   15.46422482   0.03378124
6638.00   14.67853451   0.03267477
6640.00   14.12704468   0.03410576
6642.00   13.88005257   0.03247828
6644.00   13.90914822   0.03053256
6646.00   13.80030727   0.02938584
6648.00   13.64531326   0.02886517
6650.00   13.61076260   0.02855112
6652.00   13.71378422   0.02853397
6654.00   13.80664253   0.02888063
6656.00   13.82160568   0.02971434
6658.00   13.81024075   0.03085269
6660.00   13.85203743   0.03169385
6662.00   13.96032619   0.03306535
6664.00   13.98594952   0.03287569
6666.00   13.96744251   0.03104707
6668.00   13.92100239   0.02941214
6670.00   13.82915115   0.02808292
6672.00   13.72312164   0.02719421
6674.00   13.67925358   0.02794561
6676.00   13.68092251   0.03068080
6678.00   13.66479206   0.03117093
6680.00   13.65699577   0.03012001
6682.00   13.63841724   0.02952989
6684.00   13.59101105   0.02956020
6686.00   13.55411339   0.02971264
6688.00   13.57501984   0.02914699
6690.00   13.63536358   0.02724834
6692.00   13.71763611   0.03110727
6694.00   13.90017796   0.04167203
6696.00   13.95727921   0.04451912
6698.00   13.88799381   0.04088511
6700.00   13.77388287   0.03544347
6702.00   13.64808941   0.03141943
6704.00   13.48999596   0.02705285
6706.00   13.42911530   0.02645671
6708.00   13.46060753   0.03111237
6710.00   13.45590591   0.03245780
6712.00   13.44688797   0.03216772
6714.00   13.42779255   0.03156919
6716.00   13.37681580   0.03089601
6718.00   13.31618977   0.03008438
6720.00   13.34786510   0.03035097
6722.00   13.52325439   0.03240015
6724.00   13.53934383   0.03223943
6726.00   13.43360901   0.03014431
6728.00   13.35037231   0.02849234
6730.00   13.32585716   0.02796586
6732.00   13.31778145   0.02798564
6734.00   13.28301430   0.02817939
6736.00   13.22544479   0.02896693
6738.00   13.20341682   0.02908725
6740.00   13.20441341   0.02884832
6742.00   13.21228504   0.02850423
6744.00   13.24721909   0.02791781
6746.00   13.26967716   0.02732805
6748.00   13.21771526   0.02701850
6750.00   13.10212421   0.02667526
6752.00   13.03576374   0.02771286
6754.00   12.96678066   0.03034794
6756.00   12.94262028   0.03204821
6758.00   12.91690254   0.03243528
6760.00   12.98165607   0.03349003
6762.00   13.28041935   0.03719297
6764.00   13.76943398   0.04227266
6766.00   13.82231808   0.04255452
6768.00   13.40566063   0.03739021
6770.00   13.31766033   0.03616118
6772.00   13.46219444   0.03759740
6774.00   13.63250923   0.04009490
6776.00   13.78934097   0.04418477
6778.00   13.94035912   0.04866737
6780.00   13.85893726   0.04771722
6782.00   13.50689316   0.04039687
6784.00   13.28973007   0.03597987
6786.00   13.06312561   0.03127951
6788.00   12.89900780   0.02795109
6790.00   12.83520126   0.02771123
6792.00   12.82145500   0.02913452
6794.00   12.75930691   0.02896415
6796.00   12.65210342   0.02795328
6798.00   12.65053749   0.02828723
6800.00   12.76189137   0.02976541
6802.00   12.82986355   0.03090003
6804.00   12.84172726   0.03201422
6806.00   12.83187580   0.03263264
6808.00   12.82080364   0.03161902
6810.00   12.79601192   0.02864150
6812.00   12.78244114   0.02826200
6814.00   12.75942707   0.02973634
6816.00   12.76581955   0.03104469
6818.00   12.80218697   0.03234160
6820.00   12.85572624   0.03383096
6822.00   12.93875694   0.03594498
6824.00   13.05585957   0.03856472
6826.00   13.01549435   0.03829430
6828.00   12.78829670   0.03456835
6830.00   12.67747021   0.03273851
6832.00   12.65031719   0.03226412
6834.00   12.62602425   0.03207553
6836.00   12.55427837   0.03170879
6838.00   12.47106266   0.03145363
6840.00   12.48704243   0.03156290
6842.00   12.61707306   0.03263529
6844.00   12.67779350   0.03234128
6846.00   12.72137642   0.03056327
6848.00   12.74754143   0.02930050
6850.00   12.75131798   0.02951121
6852.00   12.74017429   0.03018872
6854.00   12.73311520   0.02963969
6856.00   12.71490955   0.02793808
6858.00   12.71856689   0.02731331
6860.00   12.74879169   0.02690926
6862.00   12.76269531   0.02735339
6864.00   12.75590420   0.02808537
6866.00   12.73834515   0.03003835
6868.00   12.71410179   0.03465001
6870.00   12.67401409   0.04118390
6872.00   12.66429234   0.04493979
6874.00   12.69696331   0.04917620
6876.00   12.69010162   0.04997591
6878.00   12.64078712   0.04617653
6880.00   12.57759285   0.04135999
6882.00   12.51431465   0.03938362
6884.00   12.44077110   0.03882537
6886.00   12.41109848   0.03873507
6888.00   12.41366005   0.04024724
6890.00   12.42740917   0.04078601
6892.00   12.47143459   0.04130258
6894.00   12.50879288   0.04079494
6896.00   12.51732540   0.03789642
6898.00   12.51070309   0.03311366
6900.00   12.51130009   0.03184829
6902.00   12.53701591   0.03367107
6904.00   12.50131035   0.03466778
6906.00   12.38995552   0.03635443
6908.00   12.30607224   0.03746755
6910.00   12.27568054   0.03770035
6912.00   12.27733612   0.03740287
6914.00   12.30912495   0.03680863
6916.00   12.40096474   0.03535621
6918.00   12.43513775   0.03483997
6920.00   12.44462395   0.03510523
6922.00   12.43760014   0.03510185
6924.00   12.39303684   0.03481027
6926.00   12.35100269   0.03426925
6928.00   12.38451862   0.03319903
6930.00   12.48762894   0.03128704
6932.00   12.51723289   0.03071209
6934.00   12.49712467   0.03150881
6936.00   12.49337006   0.03163607
6938.00   12.50025558   0.03100763
6940.00   12.51458073   0.03030307
6942.00   12.54489422   0.02993358
6944.00   12.59249783   0.02963760
6946.00   12.58976460   0.03042412
6948.00   12.49012184   0.03181900
6950.00   12.51403999   0.03398915
6952.00   12.69395828   0.03811189
6954.00   12.84291840   0.04065372
6956.00   12.86019230   0.03979355
6958.00   12.80337429   0.03673244
6960.00   12.71861553   0.03488100
6962.00   12.52846241   0.03281100
6964.00   12.43643856   0.03127956
6966.00   12.40515518   0.02991622
6968.00   12.38809967   0.02938760
6970.00   12.39583588   0.03017309
6972.00   12.40542698   0.03170219
6974.00   12.30747795   0.03281215
6976.00   12.04132652   0.03431592
6978.00   12.00568390   0.03475675
6980.00   12.16076183   0.03403914
6982.00   12.27506065   0.03380227
6984.00   12.34531879   0.03425542
6986.00   12.37380219   0.03503772
6988.00   12.30025959   0.03608091
6990.00   12.11287975   0.03786414
6992.00   12.01481724   0.03770658
6994.00   11.89136028   0.03490283
6996.00   11.89478302   0.03406315
6998.00   12.09317684   0.03621167
7000.00   12.30477142   0.03821766
7002.00   12.33720398   0.03735672
7004.00   12.25209808   0.03433997
7006.00   12.35040951   0.03464200
7008.00   12.70264530   0.03771188
7010.00   12.76817703   0.03937065
7012.00   12.51035976   0.04043208
7014.00   12.26570034   0.04106251
7016.00   12.24514580   0.04135119
7018.00   12.32952690   0.04125521
7020.00   12.27147102   0.04006596
7022.00   12.03808689   0.03628910
7024.00   12.02624226   0.03527261
7026.00   12.24044323   0.03710996
7028.00   12.39305592   0.03820086
7030.00   12.37699890   0.03707341
7032.00   12.28526878   0.03512553
7034.00   12.23353672   0.03530182
7036.00   12.17208481   0.03796998
7038.00   12.12491894   0.03754267
7040.00   12.05107880   0.03425699
7042.00   12.04637432   0.03189286
7044.00   12.14727879   0.03048617
7046.00   12.29111576   0.03068338
7048.00   12.39306068   0.03508940
7050.00   12.50180626   0.04385316
7052.00   12.54261780   0.04448182
7054.00   12.51284790   0.03855627
7056.00   12.49112701   0.03409504
7058.00   12.45960903   0.03120633
7060.00   12.44221497   0.02928681
7062.00   12.48699570   0.02883357
7064.00   12.59049129   0.03005689
7066.00   12.57074833   0.03017989
7068.00   12.45284653   0.02996760
7070.00   12.34729195   0.02991275
7072.00   12.20353699   0.02988065
7074.00   12.09658432   0.02998724
7076.00   12.08885384   0.03022476
7078.00   12.14667988   0.03059654
7080.00   12.16896439   0.03174256
7082.00   12.17958736   0.03451660
7084.00   12.21611309   0.03509225
7086.00   12.30542374   0.03354311
7088.00   12.35154533   0.03241159
7090.00   12.29520702   0.03300589
7092.00   12.19490528   0.03419271
7094.00   12.19593143   0.03401948
7096.00   12.29502106   0.03268504
7098.00   12.30504513   0.03210444
7100.00   12.28573704   0.03194628
7102.00   12.22690201   0.03156859
7104.00   12.09665775   0.03017470
7106.00   11.95107555   0.02907828
7108.00   11.89506626   0.03101348
7110.00   11.88432884   0.03534640
7112.00   11.92910290   0.03786329
7114.00   12.09480476   0.04091348
7116.00   12.17655087   0.04184943
7118.00   12.15392017   0.04012159
7120.00   12.10285187   0.03746175
7122.00   12.08769226   0.03561066
7124.00   12.08307838   0.03357865
7126.00   12.05829716   0.03349017
7128.00   12.04425049   0.03523659
7130.00   11.97564602   0.03702194
7132.00   11.85414219   0.03854230
7134.00   11.70196915   0.04109178
7136.00   11.48648739   0.04643121
7138.00   11.22185135   0.05294406
7140.00   11.25333023   0.05238121
7142.00   11.66602802   0.04384148
7144.00   11.78804779   0.03910880
7146.00   11.72116184   0.03566639
7148.00   11.63023376   0.03397215
7150.00   11.56029510   0.03509618
7152.00   11.48536205   0.03797003
7154.00   11.44283009   0.03933625
7156.00   11.43173409   0.04101345
7158.00   11.40605354   0.04099527
7160.00   11.38535500   0.03842624
7162.00   11.35330296   0.03733616
7164.00   11.29545307   0.03931819
7166.00   11.23544979   0.04199723
7168.00   11.21716690   0.04231080
7170.00   11.22476864   0.04061275
7172.00   11.25024319   0.04146685
7174.00   11.31881332   0.04497736
7176.00   11.36303425   0.04629700
7178.00   11.38450146   0.04495878
7180.00   11.38876915   0.04284883
7182.00   11.37020779   0.04182719
7184.00   11.32487583   0.04114079
7186.00   11.30527020   0.04057908
7188.00   11.31543922   0.04020496
7190.00   11.28923893   0.04007876
7192.00   11.15007019   0.04063055
7194.00   11.10394096   0.04082352
7196.00   11.35772610   0.03964613
7198.00   11.81753063   0.03747091
7200.00   11.92835140   0.03691814
7202.00   11.75685310   0.03716992
7204.00   11.70938015   0.03812949
7206.00   11.72847557   0.04078595
7208.00   11.71331882   0.04239391
7210.00   11.62425137   0.04172232
7212.00   11.48968983   0.03981496
7214.00   11.33929157   0.03894520
7216.00   11.08192253   0.03843854
7218.00   10.99791145   0.03783163
7220.00   11.05059052   0.03700751
7222.00   11.11034393   0.03668305
7224.00   11.16592407   0.03678636
7226.00   11.22273540   0.03752906
7228.00   11.23940372   0.03976522
7230.00   11.19553661   0.04401562
7232.00   11.26100063   0.04522607
7234.00   11.43305492   0.04505080
7236.00   11.56442165   0.04379477
7238.00   11.68375301   0.04037540
7240.00   11.74765110   0.03644901
7242.00   11.65665817   0.03514991
7244.00   11.40706158   0.03582478
7246.00   11.35283661   0.03539123
7248.00   11.47401237   0.03352343
7250.00   11.47571659   0.03432075
7252.00   11.36221695   0.03888211
7254.00   11.22553062   0.04244553
7256.00   11.09727764   0.04240427
7258.00   10.95549202   0.04023107
7260.00   10.98535538   0.03852325
7262.00   11.20407009   0.03463950
7264.00   11.34988785   0.03395435
7266.00   11.50448036   0.03679586
7268.00   11.61194324   0.03934240
7270.00   11.63371468   0.04046379
7272.00   11.59973335   0.04101381
7274.00   11.58305645   0.04090488
7276.00   11.58749580   0.03850790
7278.00   11.50962543   0.03946109
7280.00   11.30754852   0.04415759
7282.00   11.18136215   0.04635236
7284.00   11.19431400   0.04436294
7286.00   11.26776218   0.04059034
7288.00   11.29679585   0.03943142
7290.00   11.32421112   0.04011434
7292.00   11.34221172   0.03910859
7294.00   11.31972122   0.03720129
7296.00   11.35488796   0.03502844
7298.00   11.49606895   0.03180308
7300.00   11.63793182   0.02877953
7302.00   11.64533329   0.02873918
7304.00   11.55491638   0.03133448
7306.00   11.51679420   0.03174711
7308.00   11.46472263   0.03103034
7310.00   11.45348930   0.03086228
7312.00   11.49269676   0.03129942
7314.00   11.54273319   0.03168460
7316.00   11.57512760   0.03143624
7318.00   11.60359287   0.03076042
7320.00   11.63380909   0.03128470
7322.00   11.69218349   0.03270613
7324.00   11.68710995   0.03406317
7326.00   11.60745907   0.03615061
7328.00   11.53287315   0.03740479
7330.00   11.50619602   0.03688652
7332.00   11.49779034   0.03533515
7334.00   11.45164299   0.03501975
7336.00   11.35421085   0.03532497
7338.00   11.31937218   0.03563612
7340.00   11.32639694   0.03662053
7342.00   11.34165192   0.03691463
7344.00   11.36900902   0.03604630
7346.00   11.39765072   0.03454309
7348.00   11.38095760   0.03323612
7350.00   11.30803871   0.03144595
7352.00   11.30306435   0.03061778
7354.00   11.35270977   0.03074077
7356.00   11.38475609   0.03074811
7358.00   11.38364315   0.03070108
7360.00   11.38400745   0.03053503
7362.00   11.42562103   0.02984205
7364.00   11.49907494   0.02843773
7366.00   11.55546379   0.02844145
7368.00   11.63016605   0.02971600
7370.00   11.66281986   0.03058913
7372.00   11.65467644   0.03161189
7374.00   11.62041664   0.03205709
7376.00   11.56136990   0.03095537
7378.00   11.47302151   0.02848022
7380.00   11.42280293   0.02759179
7382.00   11.39097595   0.02761045
7384.00   11.36773014   0.02781033
7386.00   11.36575603   0.02867754
7388.00   11.35831642   0.02934054
7390.00   11.32312107   0.02915688
7392.00   11.27648163   0.02860111
7394.00   11.27800465   0.02931959
7396.00   11.32554531   0.03143225
7398.00   11.35461044   0.03232647
7400.00   11.40111923   0.03307959
7402.00   11.41693497   0.03292859
7404.00   11.38612938   0.03115030
7406.00   11.32544708   0.02850571
7408.00   11.25295734   0.02742699
7410.00   11.13022900   0.02742326
7412.00   11.08765507   0.02723454
7414.00   11.08556461   0.02744717
7416.00   11.12349319   0.02750006
7418.00   11.22250652   0.02727857
7420.00   11.34173489   0.02701957
7422.00   11.41661739   0.02694445
7424.00   11.46617126   0.02685814
7426.00   11.54004478   0.02739339
7428.00   11.65998936   0.02842234
7430.00   11.71118546   0.02960350
7432.00   11.69372082   0.03133401
7434.00   11.63757324   0.03272123
7436.00   11.54736328   0.03299179
7438.00   11.41137409   0.03250594
7440.00   11.36728764   0.03221914
7442.00   11.41455746   0.03192810
7444.00   11.40694427   0.03123826
7446.00   11.33911991   0.02967701
7448.00   11.29835224   0.02851384
7450.00   11.34050179   0.02863251
7452.00   11.42971992   0.02953208
7454.00   11.46834564   0.03030349
7456.00   11.48917770   0.03186347
7458.00   11.49868011   0.03215720
7460.00   11.51041412   0.03129197
7462.00   11.48299694   0.03056524
7464.00   11.38413620   0.03015416
7466.00   11.25430298   0.03005885
7468.00   11.19278336   0.03111001
7470.00   11.18771267   0.03372068
7472.00   11.13513470   0.03455216
7474.00   11.06521225   0.03387121
7476.00   10.98207951   0.03407522
7478.00   10.84739971   0.03558706
7480.00   10.73400402   0.03746806
7482.00   10.76931190   0.03896806
7484.00   10.93118000   0.04063682
7486.00   11.04147243   0.04119601
7488.00   11.20661163   0.04037345
7490.00   11.27546120   0.04037131
7492.00   11.20482063   0.04119902
7494.00   11.12606144   0.04229159
7496.00   11.16220474   0.04360631
7498.00   11.26620483   0.04536993
7500.00   11.30996609   0.04466431
7502.00   11.34909058   0.03985222
7504.00   11.34272575   0.03886006
7506.00   11.26946831   0.04174222
7508.00   11.20169926   0.04481809
7510.00   11.17805386   0.04695820
7512.00   11.17694855   0.04882371
7514.00   11.19308567   0.04848418
7516.00   11.25102234   0.04522897
7518.00   11.27530098   0.04355474
7520.00   11.29185486   0.04232658
7522.00   11.28527832   0.04154164
7524.00   11.23513412   0.04141008
7526.00   11.16731358   0.04168388
7528.00   11.15634251   0.04152897
7530.00   11.18769264   0.04107570
7532.00   11.20850372   0.04103381
7534.00   11.24688148   0.04158334
7536.00   11.26822567   0.04159861
7538.00   11.28189564   0.04103688
7540.00   11.26976109   0.03993178
7542.00   11.17950249   0.03785602
7544.00   10.98461723   0.03401666
7546.00   10.94863796   0.03263869
7548.00   11.01135540   0.03286139
7550.00   11.10301208   0.03391693
7552.00   11.29263306   0.03669279
7554.00   11.44382858   0.03906670
7556.00   11.38485718   0.03897715
7558.00   11.16346836   0.03711324
7560.00   11.11804485   0.03725101
7562.00   11.13310051   0.03853659
7564.00   11.21866226   0.03966822
7566.00   11.44498920   0.04111807
7568.00   11.63594532   0.04228531
7570.00   11.68176842   0.04287824
7572.00   11.64287472   0.04308707
7574.00   11.58387566   0.04264160
7576.00   11.42483044   0.04079805
7578.00   11.35532665   0.04024108
7580.00   11.35905743   0.04072708
7582.00   11.34864616   0.04113600
7584.00   11.28094387   0.04116084
7586.00   11.19820690   0.04102297
7588.00   11.18741417   0.04064789
7590.00   11.23302460   0.03905201
7592.00   11.27084923   0.04001078
7594.00   11.37430477   0.04206974
7596.00   11.38993931   0.04569147
7598.00   11.24210453   0.04948016
7600.00   11.06120872   0.05519622
7602.00   11.05774117   0.06644255
7604.00   11.19947433   0.08373962
7606.00   11.20793915   0.08547486
7608.00   11.08346367   0.07375763
7610.00   11.08782959   0.06569217
7612.00   11.31570816   0.06351146
7614.00   11.51606083   0.06206615
7616.00   11.40540600   0.05661642
7618.00   11.05761909   0.04760140
7620.00   11.00067711   0.04292805
7622.00   11.20995140   0.04226224
7624.00   11.21410084   0.04156077
7626.00   10.99034977   0.04134282
7628.00   10.79325962   0.04224247
7630.00   10.79408932   0.04532449
7632.00   10.90170860   0.04963829
7634.00   10.88778687   0.04908405
7636.00   10.80854893   0.04319784
7638.00   10.74084187   0.04008947
7640.00   10.62036037   0.03813028
7642.00   10.56544113   0.03693930
7644.00   10.64216900   0.03679846
7646.00   10.78892231   0.03738953
7648.00   10.87016106   0.03708114
7650.00   10.95508099   0.03633719
7652.00   10.97462368   0.03563747
7654.00   10.91366005   0.03482488
7656.00   10.87309456   0.03390762
7658.00   10.88066769   0.03259223
7660.00   10.89406204   0.03135929
7662.00   10.85838699   0.03143026
7664.00   10.78540897   0.03304968
7666.00   10.72654438   0.03261460
7668.00   10.65351582   0.03033022
7670.00   10.60266685   0.02872821
7672.00   10.57229137   0.02787329
7674.00   10.56043625   0.02749211
7676.00   10.56970692   0.02762207
7678.00   10.60004234   0.02834959
7680.00   10.64177227   0.02876977
7682.00   10.69623852   0.02945236
7684.00   10.76918030   0.02954486
7686.00   10.87280464   0.02865858
7688.00   10.97567749   0.02805078
7690.00   11.07257366   0.02868840
7692.00   11.16746998   0.03004501
7694.00   11.14263058   0.03116164
7696.00   10.96613121   0.03289440
7698.00   10.87619877   0.03348064
7700.00   10.82536221   0.03289260
7702.00   10.78600693   0.03245293
7704.00   10.74037838   0.03234774
7706.00   10.70571232   0.03262086
7708.00   10.73606873   0.03475314
7710.00   10.90646267   0.04008502
7712.00   10.87839699   0.04082247
7714.00   10.70644093   0.03710038
7716.00   10.52028275   0.03552008
7718.00   10.29879761   0.03832869
7720.00   10.08982754   0.04233224
7722.00   10.04071522   0.04463597
7724.00   10.11282349   0.04770901
7726.00   10.21052837   0.04595526
7728.00   10.40501499   0.03677927
7730.00   10.57353306   0.03040389
7732.00   10.74096966   0.02963798
7734.00   10.87097549   0.03147197
7736.00   10.89770412   0.03353024
7738.00   10.83793449   0.03696087
7740.00   10.78966522   0.03879239
7742.00   10.70981884   0.04056673
7744.00   10.63300228   0.04093279
7746.00   10.51228333   0.03944441
7748.00   10.44574070   0.03767282
7750.00   10.53791618   0.03670372
7752.00   10.74243736   0.03601578
7754.00   10.77251530   0.03627774
7756.00   10.60086823   0.03807556
7758.00   10.63818645   0.03868128
7760.00   10.92404270   0.03782656
7762.00   11.10598946   0.03795296
7764.00   10.97379112   0.04085852
7766.00   10.70214748   0.04458149
7768.00   10.73101234   0.04451052
7770.00   11.09853935   0.04061918
7772.00   11.11323929   0.03899862
7774.00   10.83252811   0.03809763
7776.00   10.66685104   0.03746051
7778.00   10.71286011   0.03713746
7780.00   10.85327053   0.03701945
7782.00   10.98639107   0.03667497
7784.00   11.20612621   0.03644565
7786.00   11.26560879   0.03552638
7788.00   11.21757889   0.03235522
7790.00   11.13194561   0.03208056
7792.00   10.94912529   0.03580653
7794.00   10.78415585   0.04026731
7796.00   10.81921101   0.04329496
7798.00   11.02670288   0.04625781
7800.00   11.02464676   0.04735434
7802.00   10.87601662   0.04698022
7804.00   10.76982212   0.04618717
7806.00   10.64026165   0.04472036
7808.00   10.57651424   0.04268456
7810.00   10.69363117   0.03963246
7812.00   10.94664574   0.03530946
7814.00   10.99076366   0.03512778
7816.00   10.81616116   0.03970242
7818.00   10.83713436   0.04129541
7820.00   11.03359985   0.04165388
7822.00   11.21590233   0.04128170
7824.00   11.33850861   0.03927013
7826.00   11.41713238   0.03644909
7828.00   11.29511547   0.03896919
7830.00   10.81679344   0.04794349
7832.00   10.70238304   0.04977313
7834.00   10.85645962   0.04777936
7836.00   10.95565128   0.04535040
7838.00   10.91190338   0.04269461
7840.00   10.82707405   0.03982047
7842.00   10.80885696   0.03882540
7844.00   10.79644775   0.03978973
7846.00   10.87261391   0.03943102
7848.00   11.13807964   0.03767664
7850.00   11.22328663   0.03765856
7852.00   11.04110241   0.04081187
7854.00   10.79389954   0.04373952
7856.00   10.69714451   0.04280354
7858.00   10.65934753   0.03866158
7860.00   10.67393017   0.03708503
7862.00   10.79683495   0.03668877
7864.00   10.86212730   0.03645691
7866.00   10.87829876   0.03683143
7868.00   10.87765121   0.03713138
7870.00   10.86773682   0.03664430
7872.00   10.84106445   0.03564357
7874.00   10.87689018   0.03532540
7876.00   11.02178288   0.03539246
7878.00   11.03843880   0.03553384
7880.00   10.94841671   0.03610514
7882.00   10.82866573   0.03636775
7884.00   10.67953777   0.03598229
7886.00   10.51266766   0.03514875
7888.00   10.50841618   0.03395465
7890.00   10.66483021   0.03115338
7892.00   10.76947403   0.03060541
7894.00   10.90744209   0.03201699
7896.00   11.01350021   0.03334255
7898.00   11.08244801   0.03426476
7900.00   11.11296272   0.03506804
7902.00   11.06508541   0.03555899
7904.00   10.90760422   0.03559973
7906.00   10.83918762   0.03616499
7908.00   10.80680752   0.03653923
7910.00   10.78748322   0.03788722
7912.00   10.79071808   0.04117834
7914.00   10.79886532   0.04405105
7916.00   10.77922344   0.04384838
7918.00   10.73701572   0.04145908
7920.00   10.72790241   0.03886554
7922.00   10.77146435   0.03277680
7924.00   10.75289631   0.03027404
7926.00   10.64763165   0.03315728
7928.00   10.54422951   0.03656719
7930.00   10.51128864   0.03782465
7932.00   10.51681614   0.03847727
7934.00   10.54471397   0.03749745
7936.00   10.64558315   0.03370773
7938.00   10.67430019   0.03141510
7940.00   10.63860130   0.03005400
7942.00   10.59560776   0.02926677
7944.00   10.56877899   0.02913778
7946.00   10.54482365   0.02959770
7948.00   10.53049755   0.02955646
7950.00   10.54138184   0.02913579
7952.00   10.51709747   0.02923327
7954.00   10.45572376   0.02936629
7956.00   10.40853596   0.03014794
7958.00   10.39177990   0.03229161
7960.00   10.38893318   0.03458513
7962.00   10.38326550   0.03453080
7964.00   10.40877247   0.03228625
7966.00   10.35202408   0.03130393
7968.00   10.19374752   0.03035616
7970.00   10.08969879   0.03003688
7972.00   10.04429531   0.03055569
7974.00   10.04549789   0.03150668
7976.00   10.11642647   0.03242108
7978.00   10.27980614   0.03349270
7980.00   10.33918667   0.03462372
7982.00   10.32034969   0.03657202
7984.00   10.33588219   0.03708134
7986.00   10.39735985   0.03550768
7988.00   10.44986057   0.03391296
7990.00   10.46016693   0.03457237
7992.00   10.44951153   0.03664572
7994.00   10.34048939   0.03650998
7996.00   10.05276299   0.03471783
7998.00   9.92615223   0.03333816
8000.00   9.92647648   0.03176287
8002.00   9.96879864   0.03045412
8004.00   10.03092957   0.02986949
8006.00   10.12190533   0.02978583
8008.00   10.15079784   0.02946883
8010.00   10.11097527   0.02910245
8012.00   10.13239765   0.02894741
8014.00   10.20986271   0.02903177
8016.00   10.26165295   0.02909677
8018.00   10.25396347   0.02885247
8020.00   10.22224617   0.02867669
8022.00   10.22611713   0.02961274
8024.00   10.24410725   0.03170722
8026.00   10.27146816   0.03285256
8028.00   10.35263634   0.03415681
8030.00   10.36415958   0.03441474
8032.00   10.25492573   0.03281743
8034.00   10.12135315   0.03080697
8036.00   10.09818077   0.03093594
8038.00   10.14511395   0.03241073
8040.00   10.17328453   0.03386817
8042.00   10.27003479   0.03677548
8044.00   10.25613594   0.03775794
8046.00   10.08156872   0.03655130
8048.00   9.89811039   0.03473815
8050.00   9.83340740   0.03356224
8052.00   9.82677937   0.03234367
8054.00   9.89418125   0.03254791
8056.00   10.13451862   0.03489185
8058.00   10.21633244   0.03546970
8060.00   10.13757133   0.03414702
8062.00   10.06002140   0.03321062
8064.00   10.06964970   0.03443654
8066.00   10.11793137   0.03666097
8068.00   10.16299438   0.03653004
8070.00   10.25383854   0.03389376
8072.00   10.27671719   0.03315841
8074.00   10.23421288   0.03425548
8076.00   10.20021915   0.03440514
8078.00   10.19760227   0.03216305
8080.00   10.20760727   0.02874611
8082.00   10.21773624   0.02773662
8084.00   10.23195648   0.02838824
8086.00   10.25313568   0.02919859
8088.00   10.27830696   0.03137291
8090.00   10.31346035   0.03254563
8092.00   10.36869621   0.03196597
8094.00   10.42549324   0.03116423
8096.00   10.45468998   0.03265252
8098.00   10.47411060   0.03635824
8100.00   10.45181084   0.03608778
8102.00   10.37449646   0.03174003
8104.00   10.31264305   0.02919400
8106.00   10.24976730   0.02898817
8108.00   10.20754147   0.02966751
8110.00   10.22340679   0.03034879
8112.00   10.29016590   0.03146683
8114.00   10.30231476   0.03233929
8116.00   10.26090717   0.03389834
8118.00   10.27327251   0.03391973
8120.00   10.36498070   0.03184220
8122.00   10.42591095   0.02990208
8124.00   10.37488461   0.02990998
8126.00   10.25745869   0.03095184
8128.00   10.21914673   0.03093872
8130.00   10.20804405   0.02997095
8132.00   10.22723675   0.03013867
8134.00   10.32320786   0.03116179
8136.00   10.37067413   0.03229388
8138.00   10.29703045   0.03370887
8140.00   10.17546749   0.03502462
8142.00   10.17532158   0.03448811
8144.00   10.27306461   0.03165750
8146.00   10.31965351   0.03038127
8148.00   10.35698700   0.02936423
8150.00   10.39335537   0.02922406
8152.00   10.44854641   0.03037895
8154.00   10.48724365   0.03203465
8156.00   10.43563652   0.03314227
8158.00   10.27790356   0.03440142
8160.00   10.25081921   0.03451581
8162.00   10.33333492   0.03338885
8164.00   10.36559677   0.03256290
8166.00   10.34171486   0.03207584
8168.00   10.30228424   0.03161863
8170.00   10.27159786   0.03092924
8172.00   10.23504543   0.03000800
8174.00   10.22725201   0.02986832
8176.00   10.25418758   0.02938973
8178.00   10.26114845   0.03107438
8180.00   10.24632168   0.03596739
8182.00   10.23692989   0.03941837
8184.00   10.24853706   0.03901755
8186.00   10.27294254   0.03629105
8188.00   10.30639362   0.03587590
8190.00   10.33531952   0.03507139
8192.00   10.40867901   0.03757958
8194.00   10.56197739   0.04429507
8196.00   10.66975212   0.04865478
8198.00   10.71638680   0.04939874
8200.00   10.69746876   0.04817323
8202.00   10.47507000   0.04583283
8204.00   9.84474850   0.03826972
8206.00   9.73763180   0.03791921
8208.00   10.03860378   0.04429115
8210.00   10.28748226   0.04835447
8212.00   10.45936680   0.04959997
8214.00   10.56519890   0.04966144
8216.00   10.46041965   0.04896346
8218.00   10.07448387   0.04617717
8220.00   10.04306316   0.04679325
8222.00   10.27589607   0.05117374
8224.00   10.44996262   0.05281544
8226.00   10.58303070   0.05099731
8228.00   10.68531513   0.04857001
8230.00   10.73451424   0.04850551
8232.00   10.74451923   0.04971419
8234.00   10.68115997   0.05060921
8236.00   10.52717686   0.05238859
8238.00   10.37165451   0.05287767
8240.00   10.21048832   0.05232172
8242.00   10.01871204   0.05103895
8244.00   9.74845886   0.04896102
8246.00   9.42076397   0.04596782
8248.00   9.30997753   0.04336798
8250.00   9.36652088   0.03890656
8252.00   9.44218922   0.03844510
8254.00   9.62087440   0.04257296
8256.00   9.77750206   0.04606710
8258.00   9.84737682   0.04750802
8260.00   9.88314533   0.04819109
8262.00   9.98462677   0.04882308
8264.00   10.17307186   0.04872833
8266.00   10.24286747   0.04944830
8268.00   10.21462250   0.05079164
8270.00   10.20185566   0.05194011
8272.00   10.26229763   0.05275662
8274.00   10.30757236   0.05344061
8276.00   10.17135334   0.05421176
8278.00   9.82096958   0.05545416
8280.00   9.72423840   0.05493544
8282.00   9.73337364   0.05259731
8284.00   9.85514259   0.05049753
8286.00   10.23724174   0.04859112
8288.00   10.57214355   0.04676932
8290.00   10.43343258   0.04508397
8292.00   9.91140461   0.04332709
8294.00   9.77090931   0.04314953
8296.00   9.81371975   0.04474246
8298.00   9.88090038   0.04589964
8300.00   10.05090523   0.04685326
8302.00   10.19653511   0.04787762
8304.00   10.19455910   0.04923467
8306.00   10.10153198   0.05080329
8308.00   10.13979912   0.05121930
8310.00   10.31781578   0.05127477
8312.00   10.35919094   0.05001028
8314.00   10.25085354   0.04610043
8316.00   10.19335270   0.04306327
8318.00   10.31026936   0.04324100
8320.00   10.49905491   0.04509760
8322.00   10.48970032   0.04576658
8324.00   10.32907295   0.04650004
8326.00   10.19592857   0.04662741
8328.00   9.93873978   0.04624715
8330.00   9.83073425   0.04564988
8332.00   9.99319553   0.04448343
8334.00   10.25502682   0.04333049
8336.00   10.32933521   0.04383942
8338.00   10.32207680   0.04588809
8340.00   10.26472092   0.04693895
8342.00   10.12214470   0.04852070
8344.00   9.96903133   0.04850917
8346.00   9.75829124   0.04603642
8348.00   9.57895279   0.04285634
8350.00   9.57565498   0.04136021
8352.00   9.72505856   0.04062993
8354.00   9.74015713   0.04083830
8356.00   9.64630222   0.04235798
8358.00   9.65303898   0.04379899
8360.00   9.77368259   0.04541534
8362.00   9.90712738   0.04703447
8364.00   10.00195789   0.04884799
8366.00   10.08831215   0.05085909
8368.00   10.04510593   0.05007298
8370.00   9.79258442   0.04517243
8372.00   9.72331905   0.04329247
8374.00   9.81757450   0.04421014
8376.00   9.89950848   0.04497319
8378.00   9.90198898   0.04426240
8380.00   9.86564255   0.04296734
8382.00   9.78323078   0.04241287
8384.00   9.60879517   0.04221254
8386.00   9.50670528   0.04211121
8388.00   9.42723751   0.04266874
8390.00   9.37419701   0.04255601
8392.00   9.34429169   0.04064576
8394.00   9.34334087   0.03844733
8396.00   9.39356995   0.03992953
8398.00   9.53530216   0.04544587
8400.00   9.55393696   0.04568036
8402.00   9.47266388   0.04199066
8404.00   9.41687870   0.03889449
8406.00   9.37174034   0.03668733
8408.00   9.35841370   0.03482887
8410.00   9.44237423   0.03325772
8412.00   9.63344574   0.03183112
8414.00   9.67458630   0.03221690
8416.00   9.57932186   0.03554815
8418.00   9.56115055   0.03647880
8420.00   9.60223484   0.03457612
8422.00   9.67802906   0.03268763
8424.00   9.79943466   0.03356744
8426.00   9.96963882   0.03602615
8428.00   10.01988220   0.03616340
8430.00   9.97558880   0.03460457
8432.00   9.93939209   0.03368333
8434.00   9.89615154   0.03258966
8436.00   9.82784462   0.03212940
8438.00   9.70335102   0.03321728
8440.00   9.55053043   0.03505014
8442.00   9.51783848   0.03483501
8444.00   9.61746788   0.03210870
8446.00   9.62851810   0.03175241
8448.00   9.56786823   0.03333376
8450.00   9.56250668   0.03429896
8452.00   9.66298389   0.03396178
8454.00   9.80903912   0.03312426
8456.00   9.90333939   0.03279448
8458.00   9.99232960   0.03265253
8460.00   10.03859043   0.03243387
8462.00   10.03854942   0.03215868
8464.00   10.03589344   0.03200437
8466.00   10.03038788   0.03197177
8468.00   10.02063274   0.03205547
8470.00   10.01684189   0.03223180
8472.00   10.02632713   0.03238986
8474.00   9.97509098   0.03327610
8476.00   9.79445744   0.03509135
8478.00   9.76739502   0.03630849
8480.00   9.95435715   0.03699553
8482.00   10.13925076   0.03754712
8484.00   10.13754845   0.03817323
8486.00   10.02579117   0.03876685
8488.00   9.99362755   0.03944980
8490.00   9.93022060   0.03946752
8492.00   9.98612595   0.04109303
8494.00   10.27330303   0.04538488
8496.00   10.43225574   0.04794517
8498.00   10.20131493   0.04636658
8500.00   9.76036835   0.04225990
8502.00   9.68646431   0.04135444
8504.00   9.96490097   0.04277529
8506.00   9.95423508   0.04305511
8508.00   9.74096489   0.04315025
8510.00   9.57652760   0.04311079
8512.00   9.51173782   0.04293224
8514.00   9.51016521   0.04262332
8516.00   9.61363316   0.04219663
8518.00   9.92249298   0.04130913
8520.00   9.96139812   0.04132066
8522.00   9.77918053   0.04189029
8524.00   9.65319347   0.04279980
8526.00   9.59491730   0.04467396
8528.00   9.57742786   0.04622410
8530.00   9.61540985   0.04541314
8532.00   9.70595551   0.04239308
8534.00   9.82971478   0.04094368
8536.00   10.09149075   0.03996497
8538.00   10.19092464   0.03933296
8540.00   10.10415363   0.03891281
8542.00   9.96012020   0.03909193
8544.00   9.86077309   0.04009445
8546.00   9.76383400   0.04169184
8548.00   9.59175587   0.04464677
8550.00   9.34206009   0.05015723
8552.00   9.10563755   0.05264093
8554.00   8.78349304   0.05378500
8556.00   8.57654190   0.05304466
8558.00   8.62156391   0.04887283
8560.00   8.83407021   0.04150515
8562.00   9.00748730   0.03834260
8564.00   9.28718948   0.03809527
8566.00   9.43262959   0.03862396
8568.00   9.48794842   0.04177115
8570.00   9.51035500   0.04388880
8572.00   9.49249935   0.04408992
8574.00   9.45457554   0.04337341
8576.00   9.49621677   0.04260687
8578.00   9.61737919   0.04076626
8580.00   9.66868210   0.04047961
8582.00   9.72747231   0.04134036
8584.00   9.70191193   0.04228818
8586.00   9.49244499   0.04336415
8588.00   9.28590298   0.04446642
8590.00   9.42294693   0.04519540
8592.00   9.94334698   0.04559787
8594.00   9.82411575   0.04643828
8596.00   9.19884300   0.04824203
8598.00   8.64550781   0.04863432
8600.00   7.94718266   0.04741642
8602.00   7.45271254   0.04556318
8604.00   7.62727880   0.04343006
8606.00   8.33278084   0.04031577
8608.00   8.66079903   0.04140772
8610.00   8.88662529   0.04737749
8612.00   9.09697247   0.04981612
8614.00   9.25977707   0.05088183
8616.00   9.41333771   0.05008021
8618.00   9.59307957   0.04552194
8620.00   9.77762985   0.03730155
8622.00   9.88310814   0.03558343
8624.00   9.88837624   0.03971713
8626.00   9.96166611   0.04224412
8628.00   10.09680367   0.04618872
8630.00   10.19166756   0.04846857
8632.00   10.22427464   0.04776135
8634.00   10.20668030   0.04567633
8636.00   10.10432911   0.04585170
8638.00   9.84825611   0.04792444
8640.00   9.75287628   0.04803062
8642.00   9.77087021   0.04690418
8644.00   9.76663971   0.04578939
8646.00   9.71763039   0.04473965
8648.00   9.66116238   0.04370347
8650.00   9.62844086   0.04293795
8652.00   9.60399818   0.04237438
8654.00   9.60241890   0.04189946
8656.00   9.62291908   0.04130947
8658.00   9.65400314   0.04134659
8660.00   9.68873501   0.04235745
8662.00   9.74444103   0.04341005
8664.00   9.85524750   0.04366392
8666.00   10.02493191   0.04349272
8668.00   10.05298710   0.04320002
8670.00   9.91371918   0.04228969
8672.00   9.89816952   0.04198878
8674.00   9.99264622   0.04209113
8676.00   10.10246944   0.04258037
8678.00   10.19964981   0.04401144
8680.00   10.29785252   0.04597216
8682.00   10.25809479   0.04472086
8684.00   10.02788734   0.03857100
8686.00   9.94124222   0.03649636
8688.00   9.92671776   0.03821468
8690.00   9.94670296   0.03939487
8692.00   10.01032257   0.03848366
8694.00   10.09937286   0.03680872
8696.00   10.12053967   0.03638642
8698.00   10.10522556   0.03699623
8700.00   10.06619167   0.03678158
8702.00   9.96427345   0.03583702
8704.00   9.89941311   0.03544850
8706.00   9.92212009   0.03538980
8708.00   9.94704342   0.03616691
8710.00   9.84041786   0.03920944
8712.00   9.65158939   0.04452268
8714.00   9.40498829   0.04681773
8716.00   9.02186489   0.04840695
8718.00   8.71493435   0.04827182
8720.00   8.43185234   0.04552525
8722.00   8.24856281   0.04195010
8724.00   8.28273106   0.03970469
8726.00   8.49918461   0.03778273
8728.00   8.73261929   0.03773747
8730.00   9.19099808   0.04000872
8732.00   9.39164257   0.04163981
8734.00   9.28108788   0.04335755
8736.00   9.18684101   0.04467139
8738.00   9.34757423   0.04521096
8740.00   9.63924885   0.04521765
8742.00   9.68640709   0.04487101
8744.00   9.49087715   0.04421481
8746.00   9.47555065   0.04284601
8748.00   9.56623936   0.04008351
8750.00   9.68190479   0.03766394
8752.00   9.81491470   0.03638220
8754.00   9.96071148   0.03585580
8756.00   10.03306484   0.03598780
8758.00   10.04062176   0.03653418
8760.00   10.06771946   0.03847083
8762.00   10.09772587   0.04308562
8764.00   10.10651684   0.04525439
8766.00   10.07781887   0.04395469
8768.00   10.03829002   0.04113260
8770.00   10.03843784   0.03948030
8772.00   10.08046150   0.03739245
8774.00   10.05446053   0.03761288
8776.00   9.96096706   0.04030320
8778.00   9.90049076   0.04230225
8780.00   9.85788250   0.04439962
8782.00   9.85072327   0.04555092
8784.00   9.93113708   0.04384108
8786.00   10.10685635   0.03909822
8788.00   10.11697006   0.03779843
8790.00   9.99192429   0.03937300
8792.00   9.90360260   0.03964379
8794.00   9.79769325   0.03868841
8796.00   9.73725510   0.03794895
8798.00   9.79441833   0.03869242
8800.00   9.93506813   0.04028235
8802.00   9.97407532   0.03956995
8804.00   9.96566582   0.03577703
8806.00   9.94152546   0.03465205
8808.00   9.87015820   0.03597027
8810.00   9.81364918   0.03709617
8812.00   9.79611492   0.03705130
8814.00   9.80118084   0.03659165
8816.00   9.82243919   0.03655746
8818.00   9.87160969   0.03562798
8820.00   9.91564941   0.03736219
8822.00   9.96807671   0.04186741
8824.00   10.01861668   0.04498312
8826.00   10.08984280   0.04673310
8828.00   10.14232063   0.04737327
8830.00   10.07815456   0.04577840
8832.00   9.88170624   0.04086265
8834.00   9.80879402   0.03860920
8836.00   9.78381538   0.03796131
8838.00   9.79529762   0.03723386
8840.00   9.87391281   0.03615355
8842.00   9.95751667   0.03548374
8844.00   9.95247459   0.03612164
8846.00   9.87103271   0.03791235
8848.00   9.93637848   0.03869580
8850.00   10.10847473   0.03861360
8852.00   10.28586769   0.03950314
8854.00   10.55212593   0.04184236
8856.00   10.74708366   0.04365208
8858.00   10.73381424   0.04372720
8860.00   10.57693958   0.04272462
8862.00   10.42931652   0.04133404
8864.00   10.19740009   0.03799384
8866.00   10.01502323   0.03665763
8868.00   9.84488583   0.03707183
8870.00   9.70305538   0.03791812
8872.00   9.57776260   0.03859624
8874.00   9.48590374   0.03953043
8876.00   9.53706646   0.04136322
8878.00   9.80151749   0.04486930
8880.00   9.90023708   0.04616022
8882.00   9.99330235   0.04486232
8884.00   9.94832134   0.04557971
8886.00   9.64416885   0.05045651
8888.00   9.26575279   0.05569368
8890.00   9.19492626   0.05614927
8892.00   9.31816578   0.05252393
8894.00   9.47105122   0.05195449
8896.00   9.88577652   0.05213296
8898.00   10.02940559   0.05347850
8900.00   9.75847149   0.05735752
8902.00   9.41209507   0.06057725
8904.00   9.36172390   0.05926555
8906.00   9.46472836   0.05401577
8908.00   9.59229088   0.05179669
8910.00   9.94735527   0.05120556
8912.00   10.03116989   0.05011772
8914.00   9.80455017   0.04822714
8916.00   9.52253819   0.04689219
8918.00   9.35746861   0.04736093
8920.00   9.22572803   0.04909826
8922.00   9.08899498   0.05012502
8924.00   8.92382431   0.05218650
8926.00   8.84846306   0.05182842
8928.00   8.84201050   0.04828005
8930.00   8.89030266   0.04516579
8932.00   8.99743176   0.04428734
8934.00   9.15723991   0.04481839
8936.00   9.32003021   0.04726160
8938.00   9.54362965   0.05382019
8940.00   9.69335651   0.05526543
8942.00   9.84620190   0.05365973
8944.00   9.89888763   0.05153460
8946.00   9.79191113   0.04876238
8948.00   9.60672951   0.04574420
8950.00   9.49585152   0.04511137
8952.00   9.35978031   0.04523877
8954.00   9.37318325   0.04919231
8956.00   9.51107025   0.05859006
8958.00   9.68952751   0.06333435
8960.00   9.98655510   0.06393664
8962.00   10.25181675   0.06216729
8964.00   10.24367237   0.05820056
8966.00   10.01774025   0.04998943
8968.00   9.89250660   0.04602715
8970.00   9.73686314   0.04525759
8972.00   9.63867569   0.04456891
8974.00   9.59114933   0.04424065
8976.00   9.58337784   0.04467658
8978.00   9.62809658   0.04640538
8980.00   9.72717094   0.04923905
8982.00   9.72818184   0.04939039
8984.00   9.67663670   0.04663328
8986.00   9.59227276   0.04593232
8988.00   9.43832970   0.04661840
8990.00   9.29702091   0.04780283
8992.00   9.19115639   0.04958463
8994.00   9.11270428   0.05167687
8996.00   9.15242672   0.05161369
8998.00   9.29400539   0.04811421
9000.00   9.48265648   0.04848914
9002.00   9.84593201   0.05222657
9004.00   10.07857227   0.05477814
9006.00   10.07856178   0.05576709
9008.00   9.95793533   0.05552248
9010.00   9.86002350   0.05238662
9012.00   9.67304134   0.04350389
9014.00   9.63422680   0.04072561
9016.00   9.71997643   0.04321066
9018.00   9.78809834   0.04496727
9020.00   9.85688496   0.04620515
9022.00   9.89587402   0.04692029
9024.00   9.82050133   0.04588567
9026.00   9.62930679   0.04293166
9028.00   9.55554485   0.04178746
9030.00   9.52008438   0.04120405
9032.00   9.53649235   0.04159928
9034.00   9.63394070   0.04367472
9036.00   9.74275112   0.04557497
9038.00   9.80534935   0.04565037
9040.00   9.85001755   0.04455224
9042.00   9.86419201   0.04525563
9044.00   9.87189579   0.04748927
9046.00   9.80966282   0.04873766
9048.00   9.63936520   0.04967721
9050.00   9.48925114   0.05003313
9052.00   9.43134499   0.04964870
9054.00   9.42105198   0.04860042
9056.00   9.39059830   0.04671908
9058.00   9.37228107   0.04239048
9060.00   9.33888721   0.04067232
9062.00   9.29200554   0.04094011
9064.00   9.24780750   0.04167434
9066.00   9.21739388   0.04310764
9068.00   9.18682384   0.04458206
9070.00   9.12224770   0.04348147
9072.00   9.01044273   0.03919709
9074.00   8.95755482   0.03760125
9076.00   8.92858887   0.03731954
9078.00   8.93123055   0.03767180
9080.00   8.95624733   0.03850442
9082.00   9.02123165   0.04004792
9084.00   9.17084599   0.04259896
9086.00   9.43403149   0.04618369
9088.00   9.52917385   0.04872968
9090.00   9.46756840   0.05176702
9092.00   9.48770905   0.05291979
9094.00   9.58223534   0.05171338
9096.00   9.70889187   0.05001233
9098.00   9.87091446   0.04963505
9100.00   10.08570576   0.04990312
9102.00   10.10510254   0.04891498
9104.00   9.89298630   0.04614884
9106.00   9.82950878   0.04509477
9108.00   9.91427231   0.04575447
9110.00   9.96230793   0.04662104
9112.00   9.86504936   0.04725489
9114.00   9.68786049   0.04785031
9116.00   9.56663513   0.04679943
9118.00   9.43695641   0.04249642
9120.00   9.35311604   0.04179171
9122.00   9.25873661   0.04377086
9124.00   9.26577377   0.04614585
9126.00   9.45133018   0.04875400
9128.00   9.72467804   0.05139727
9130.00   9.87230968   0.05250071
9132.00   9.99649620   0.05267651
9134.00   10.01318836   0.05229054
9136.00   9.87518501   0.05087676
9138.00   9.79059982   0.04937303
9140.00   9.79960346   0.04791617
9142.00   9.82938766   0.04624258
9144.00   9.80027866   0.04394808
9146.00   9.72607040   0.04045841
9148.00   9.71358967   0.03932640
9150.00   9.72020245   0.04038390
9152.00   9.77248096   0.04122732
9154.00   9.91902733   0.04230281
9156.00   10.04718494   0.04314766
9158.00   10.02839947   0.04297630
9160.00   9.90137672   0.04197624
9162.00   9.90230465   0.04220369
9164.00   9.99829769   0.04383217
9166.00   10.04434967   0.04409995
9168.00   10.08020020   0.04321282
9170.00   10.07532310   0.04195698
9172.00   9.98710728   0.04054987
9174.00   9.84190941   0.03885626
9176.00   9.79176998   0.03808358
9178.00   9.81502151   0.03799694
9180.00   9.80618763   0.03813938
9182.00   9.80698013   0.03864416
9184.00   9.78010750   0.03945782
9186.00   9.69170380   0.04078043
9188.00   9.58107758   0.04226859
9190.00   9.55696392   0.04288622
9192.00   9.60567856   0.04320149
9194.00   9.62364960   0.04267461
9196.00   9.65176964   0.04077674
9198.00   9.66257954   0.03933686
9200.00   9.65403461   0.03860657
9202.00   9.62890053   0.03833181
9204.00   9.57844925   0.03856400
9206.00   9.47955704   0.03947073
9208.00   9.47435379   0.04000666
9210.00   9.50422859   0.04047230
9212.00   9.61071205   0.04096219
9214.00   9.85317421   0.04140446
9216.00   10.09509182   0.04193565
9218.00   10.19716644   0.04271876
9220.00   10.21972275   0.04369038
9222.00   10.19395733   0.04460128
9224.00   10.07623863   0.04605480
9226.00   9.97173309   0.04640095
9228.00   9.85197735   0.04543814
9230.00   9.74038219   0.04440164
9232.00   9.65255737   0.04407565
9234.00   9.58024597   0.04405707
9236.00   9.53467846   0.04397168
9238.00   9.48154926   0.04400596
9240.00   9.52113342   0.04397789
9242.00   9.71239471   0.04402353
9244.00   9.83213425   0.04390601
9246.00   9.79553699   0.04364164
9248.00   9.67107773   0.04315732
9250.00   9.53074646   0.04192251
9252.00   9.28557014   0.03892255
9254.00   9.16573906   0.03836186
9256.00   9.11298180   0.03987269
9258.00   9.09672165   0.04111561
9260.00   9.14476871   0.04209496
9262.00   9.20563412   0.04274069
9264.00   9.16829872   0.04215649
9266.00   9.05881500   0.03998309
9268.00   8.97248268   0.03968790
9270.00   8.83292961   0.04042808
9272.00   8.77911282   0.04154757
9274.00   8.82904339   0.04365230
9276.00   8.92154694   0.04542249
9278.00   9.01654816   0.04501515
9280.00   9.14834881   0.04251932
9282.00   9.16821861   0.04469068
9284.00   9.01184177   0.04965561
9286.00   9.03479099   0.05485258
9288.00   9.26781750   0.06353150
9290.00   9.49258995   0.06817745
9292.00   9.58328438   0.06333464
9294.00   9.60566616   0.05049404
9296.00   9.55490017   0.04700528
9298.00   9.35286808   0.05011949
9300.00   9.26163673   0.05302473
9302.00   9.23447227   0.05869303
9304.00   9.22435093   0.06283394
9306.00   9.22366047   0.06392941
9308.00   9.23373985   0.06371441
9310.00   9.22000027   0.06511022
9312.00   9.17228317   0.06868156
9314.00   9.17325592   0.06832647
9316.00   9.22864056   0.06361119
9318.00   9.25311184   0.06060959
9320.00   9.22125912   0.06179147
9322.00   9.17048359   0.06386914
9324.00   9.14085579   0.06220048
9326.00   9.06870461   0.05703166
9328.00   9.18556690   0.05525648
9330.00   9.45939922   0.05395655
9332.00   9.77080441   0.05596774
9334.00   10.23900127   0.06332243
9336.00   10.63025188   0.06990308
9338.00   10.61583042   0.07060233
9340.00   10.27397919   0.06759793
9342.00   10.16286850   0.06556271
9344.00   10.06366920   0.06157600
9346.00   10.08978748   0.05970154
9348.00   10.36581135   0.05962491
9350.00   10.55324745   0.06094633
9352.00   10.35084057   0.06451226
9354.00   9.90138245   0.06968353
9356.00   9.81978416   0.06876600
9358.00   10.06639862   0.06106723
9360.00   10.07795048   0.05681910
9362.00   9.89935589   0.05339494
9364.00   9.76300144   0.05216923
9366.00   9.77789593   0.05442356
9368.00   9.85869217   0.05882115
9370.00   9.85389805   0.06227370
9372.00   9.82416630   0.06700495
9374.00   9.75163841   0.06906341
9376.00   9.64728546   0.07020713
9378.00   9.49533939   0.06939295
9380.00   9.24227524   0.06512751
9382.00   8.97712421   0.05923903
9384.00   8.89607525   0.05701121
9386.00   8.96368122   0.05808719
9388.00   8.98339748   0.05601407
9390.00   9.03346729   0.05085215
9392.00   9.06297970   0.04760922
9394.00   9.06835270   0.04683404
9396.00   9.06257915   0.04772463
9398.00   9.05163193   0.05027319
9400.00   9.02687073   0.05496138
9402.00   9.03435516   0.05598618
9404.00   9.05238914   0.05451675
9406.00   9.10184574   0.05330531
9408.00   9.21076775   0.05172608
9410.00   9.30609798   0.05023384
9412.00   9.33397484   0.04882183
9414.00   9.32087517   0.04736429
9416.00   9.28448963   0.05033508
9418.00   9.14509010   0.05842447
9420.00   9.14224148   0.06233351
9422.00   9.27925682   0.06407466
9424.00   9.40565872   0.06529926
9426.00   9.45101166   0.06666484
9428.00   9.46555424   0.06771368
9430.00   9.52306747   0.06768233
9432.00   9.67520523   0.06547412
9434.00   9.65334034   0.06580069
9436.00   9.48585129   0.06891447
9438.00   9.31405067   0.07016280
9440.00   9.15443039   0.06783145
9442.00   8.99684048   0.06418220
9444.00   8.87216949   0.06350145
9446.00   8.75272751   0.06513989
9448.00   8.70832729   0.06490485
9450.00   8.74374485   0.06385454
9452.00   8.78169060   0.06264938
9454.00   8.79990673   0.06035540
9456.00   8.84994316   0.05874859
9458.00   9.00406647   0.06113732
9460.00   9.26464272   0.06716496
9462.00   9.39429569   0.06726653
9464.00   9.45930099   0.06180473
9466.00   9.49206066   0.05928705
9468.00   9.47374439   0.05908661
9470.00   9.43746662   0.06051639
9472.00   9.41803741   0.06403579
9474.00   9.40126705   0.06929232
9476.00   9.31882000   0.07105756
9478.00   9.13245392   0.07094683
9480.00   9.04118061   0.07020639
9482.00   9.01407146   0.06814822
9484.00   9.01739025   0.06567654
9486.00   9.04951954   0.06277548
9488.00   9.10720634   0.05955711
9490.00   9.13076305   0.05882994
9492.00   9.11964321   0.06078563
9494.00   9.14851665   0.06169246
9496.00   9.23299694   0.06302968
9498.00   9.27057743   0.06371079
9500.00   9.23537445   0.06354574
9502.00   9.15449619   0.06271878
9504.00   9.04577065   0.06115411
9506.00   8.86513138   0.05849270
9508.00   8.77290630   0.05603892
9510.00   8.73103523   0.05149097
9512.00   8.70684052   0.05024692
9514.00   8.67962933   0.05382528
9516.00   8.69241428   0.05885826
9518.00   8.81421280   0.06286004
9520.00   9.04999161   0.06789242
9522.00   9.17266655   0.06747631
9524.00   9.22686195   0.06050650
9526.00   9.29987526   0.05640093
9528.00   9.35102654   0.05480677
9530.00   9.44747543   0.05486519
9532.00   9.67841053   0.05664713
9534.00   10.01577282   0.06010080
9536.00   10.18641758   0.06263701
9538.00   10.25546360   0.06615646
9540.00   10.31077957   0.06739257
9542.00   10.35732937   0.06665629
9544.00   10.33528614   0.06519605
9546.00   10.19306469   0.06312377
9548.00   9.96997452   0.06042558
9550.00   9.82217789   0.05969226
9552.00   9.68285465   0.06047333
9554.00   9.58833694   0.06138977
9556.00   9.51919079   0.06276938
9558.00   9.50025082   0.06468360
9560.00   9.58665085   0.06821460
9562.00   9.69746113   0.07151939
9564.00   9.62025642   0.07006796
9566.00   9.39807034   0.06321319
9568.00   9.19222355   0.06002014
9570.00   8.86898232   0.05838361
9572.00   8.67292881   0.05705083
9574.00   8.64169788   0.05609974
9576.00   8.69406605   0.05548567
9578.00   8.75780487   0.05479972
9580.00   8.87202454   0.05407099
9582.00   8.98264885   0.05422159
9584.00   9.15287495   0.05526130
9586.00   9.24245930   0.05623470
9588.00   9.21705055   0.05778475
9590.00   9.19169998   0.05870105
9592.00   9.26526451   0.05750937
9594.00   9.39629936   0.05454328
9596.00   9.50175953   0.05409171
9598.00   9.68999481   0.05555053
9600.00   9.70340252   0.05638107
9602.00   9.52274609   0.05677687
9604.00   9.32772541   0.05756956
9606.00   9.18553352   0.05941522
9608.00   9.06245518   0.06176645
9610.00   9.06578350   0.06263392
9612.00   9.30058765   0.06308021
9614.00   9.28759575   0.06211016
9616.00   9.07045078   0.05851581
9618.00   8.88919449   0.05599960
9620.00   8.79449654   0.05630334
9622.00   8.75081635   0.05780051
9624.00   8.79586124   0.05800783
9626.00   8.99335861   0.05808230
9628.00   9.02844238   0.05720929
9630.00   8.97689915   0.05429858
9632.00   8.89634991   0.05302925
9634.00   8.74580383   0.05493577
9636.00   8.60303974   0.05717948
9638.00   8.61190891   0.05609912
9640.00   8.73892784   0.05210316
9642.00   8.82979107   0.05118567
9644.00   8.96521854   0.05173527
9646.00   9.04913425   0.05314448
9648.00   9.06705761   0.05634554
9650.00   9.07428932   0.05911487
9652.00   9.12010765   0.05944464
9654.00   9.18600845   0.05817636
9656.00   9.21407986   0.05796079
9658.00   9.24064159   0.05790687
9660.00   9.21164036   0.05804042
9662.00   9.14154148   0.05807272
9664.00   9.02070808   0.05870104
9666.00   8.79751873   0.06078484
9668.00   8.51009178   0.06361873
9670.00   8.46298313   0.06388097
9672.00   8.67472839   0.06149741
9674.00   8.72507858   0.06076387
9676.00   8.68841362   0.06112155
9678.00   8.66819382   0.06104057
9680.00   8.70811176   0.05994976
9682.00   8.76365757   0.05835406
9684.00   8.75498104   0.05700726
9686.00   8.69217300   0.05542860
9688.00   8.65376949   0.05437255
9690.00   8.58525372   0.05343742
9692.00   8.57452297   0.05319893
9694.00   8.67312908   0.05415586
9696.00   8.78635693   0.05537401
9698.00   8.77532387   0.05544175
9700.00   8.70077324   0.05476860
9702.00   8.54272938   0.05436724
9704.00   8.15023899   0.05293331
9706.00   7.99838924   0.05343311
9708.00   8.13723946   0.05668020
9710.00   8.35591602   0.05994709
9712.00   8.50146103   0.06122543
9714.00   8.65734386   0.06157145
9716.00   8.67888165   0.06111607
9718.00   8.55547142   0.05856998
9720.00   8.47313690   0.05778547
9722.00   8.38559151   0.05913913
9724.00   8.32127857   0.06005030
9726.00   8.30216599   0.05869495
9728.00   8.31619549   0.05605325
9730.00   8.35725689   0.05603381
9732.00   8.45075798   0.05830992
9734.00   8.51962852   0.05945340
9736.00   8.63415241   0.06081615
9738.00   8.66097546   0.06123288
9740.00   8.50848866   0.05993445
9742.00   8.27614117   0.05769191
9744.00   8.21248341   0.05657572
9746.00   8.22535801   0.05519323
9748.00   8.31074429   0.05602140
9750.00   8.56450081   0.05987646
9752.00   8.71779346   0.06201260
9754.00   8.72313595   0.06187131
9756.00   8.65623760   0.06064282
9758.00   8.57862091   0.05919148
9760.00   8.44367027   0.05670600
9762.00   8.36516190   0.05528647
9764.00   8.27774620   0.05375768
9766.00   8.27009010   0.05381759
9768.00   8.35079384   0.05618973
9770.00   8.48483562   0.05885178
9772.00   8.67196274   0.06006433
9774.00   8.94498062   0.06062962
9776.00   8.98031330   0.06121718
9778.00   8.75239277   0.06093601
9780.00   8.67896843   0.06192709
9782.00   8.73812580   0.06452869
9784.00   8.80390739   0.06681415
9786.00   8.81900120   0.06754369
9788.00   8.81368637   0.06746440
9790.00   8.74525261   0.06869631
9792.00   8.58543491   0.07195232
9794.00   8.47655010   0.07229450
9796.00   8.38443375   0.07024936
9798.00   8.30413914   0.06775389
9800.00   8.22229004   0.06493988
9802.00   8.15577602   0.06194450
9804.00   8.17035007   0.06144237
9806.00   8.31746578   0.06343524
9808.00   8.31754971   0.06454162
9810.00   8.16286182   0.06591782
9812.00   8.11172390   0.06713168
9814.00   8.22986317   0.06801245
9816.00   8.41666889   0.06886348
9818.00   8.56015301   0.07029961
9820.00   8.73899364   0.07286379
9822.00   8.78427505   0.07243770
9824.00   8.69649982   0.06905646
9826.00   8.63212299   0.06628817
9828.00   8.58658218   0.06393351
9830.00   8.54479694   0.06198722
9832.00   8.50457478   0.06094632
9834.00   8.46352291   0.06072639
9836.00   8.45177460   0.06068091
9838.00   8.48730755   0.06136918
9840.00   8.48267651   0.06170809
9842.00   8.43900490   0.06143142
9844.00   8.38865852   0.06161974
9846.00   8.34420300   0.06323591
9848.00   8.29876709   0.06571658
9850.00   8.29221344   0.06666184
9852.00   8.34063244   0.06728600
9854.00   8.34590816   0.06650174
9856.00   8.32797813   0.06299823
9858.00   8.29761219   0.06065756
9860.00   8.23808765   0.06144907
9862.00   8.17165852   0.06392039
9864.00   8.20251465   0.06617010
9866.00   8.35567474   0.06940149
9868.00   8.40369987   0.07156891
9870.00   8.40555763   0.07391179
9872.00   8.38620758   0.07484203
9874.00   8.33102417   0.07373810
9876.00   8.26743889   0.07158098
9878.00   8.26386166   0.06991142
9880.00   8.31169891   0.06761485
9882.00   8.32095146   0.06705479
9884.00   8.28946781   0.06813793
9886.00   8.30685902   0.06906658
9888.00   8.39497375   0.06992271
9890.00   8.49636269   0.07077613
9892.00   8.55519009   0.07163839
9894.00   8.59755898   0.07272345
9896.00   8.61155319   0.07224572
9898.00   8.60258007   0.06965538
9900.00   8.56590748   0.06838605
9902.00   8.46145535   0.06772599
9904.00   8.38583565   0.06820828
9906.00   8.41930962   0.07055727
9908.00   8.52339172   0.07427952
9910.00   8.58316517   0.07727594
9912.00   8.65294647   0.08159310
9914.00   8.68458271   0.08292245
9916.00   8.66088963   0.08179504
9918.00   8.65595245   0.07979286
9920.00   8.72234726   0.07684365
9922.00   8.81328773   0.07316820
9924.00   8.79102421   0.07229474
9926.00   8.63792610   0.07428297
9928.00   8.59163284   0.07477617
9930.00   8.61029148   0.07495676
9932.00   8.61399460   0.07515318
9934.00   8.57650948   0.07464350
9936.00   8.53362083   0.07467821
9938.00   8.53772163   0.07830957
9940.00   8.58232498   0.08527400
9942.00   8.60179329   0.08935815
9944.00   8.63283253   0.09334568
9946.00   8.62720776   0.09528356
9948.00   8.54468346   0.09404162
9950.00   8.47298241   0.09239040
9952.00   8.53551197   0.09401724
9954.00   8.71630192   0.09795591
9956.00   8.73140144   0.09876807
9958.00   8.58431149   0.09762337
9960.00   8.55037880   0.09654701
9962.00   8.64436722   0.09477162
9964.00   8.73663044   0.09335674
9966.00   8.74082184   0.09392581
9968.00   8.69878483   0.09586094
9970.00   8.64965534   0.09325406
9972.00   8.54091072   0.08412684
9974.00   8.49967766   0.08025886
9976.00   8.48501587   0.08136600
9978.00   8.52738380   0.08251137
9980.00   8.68139172   0.08161117
9982.00   8.89421654   0.08006601
9984.00   8.93438721   0.07936244
9986.00   8.84229374   0.07912130
9988.00   8.76683521   0.07884258
9990.00   8.63557625   0.07838400
9992.00   8.52695942   0.07855208
9994.00   8.44502354   0.07958621
9996.00   8.39287376   0.08116128
9998.00   8.40992641   0.08290485
10000.00   8.47794628   0.08512901
10002.00   8.60945129   0.08696835
10004.00   8.91852093   0.08709645
10006.00   9.05947113   0.09022002
10008.00   8.96487045   0.09835607
10010.00   8.79789352   0.10591589
10012.00   8.73293495   0.10738350
10014.00   8.71621227   0.10480724
10016.00   8.59966373   0.10349199
10018.00   8.34998131   0.10170248
10020.00   8.21757412   0.09941532
10022.00   8.18552303   0.09576900
10024.00   8.21332741   0.09260189
10026.00   8.30323792   0.09169442
10028.00   8.46248150   0.09234556
10030.00   8.50857639   0.09313576
10032.00   8.48265362   0.09525267
10034.00   8.45230961   0.09633961
10036.00   8.34321785   0.09740887
10038.00   8.30654144   0.09726617
10040.00   8.45563030   0.09437769
10042.00   8.70345020   0.08987061
10044.00   8.77442360   0.08973251
10046.00   8.67445946   0.09394820
10048.00   8.71902752   0.09541550
10050.00   8.89067364   0.09652970
10052.00   8.98681545   0.09649486
10054.00   8.93431664   0.09430449
10056.00   8.82033157   0.09133998
10058.00   8.77558422   0.09121142
10060.00   8.75176048   0.09332323
10062.00   8.73878288   0.09436296
10064.00   8.73996925   0.09467233
10066.00   8.75466728   0.09622571
10068.00   8.78258133   0.09933195
10070.00   8.82433033   0.10305958
10072.00   8.90762806   0.10669325
10074.00   9.08727264   0.11083469
10076.00   8.92907715   0.11338229
10078.00   8.29286957   0.11630645
10080.00   8.03699017   0.11593550
10082.00   8.21135521   0.11091153
10084.00   8.45322037   0.10502939
10086.00   8.49939823   0.10181751
10088.00   8.46825218   0.09983606
10090.00   8.50707436   0.09793698
10092.00   8.63109779   0.09588255
10094.00   8.63126087   0.09583417
10096.00   8.48911572   0.09811894
10098.00   8.36250401   0.10071597
10100.00   8.36764431   0.10320714
10102.00   8.42101479   0.10568308
10104.00   8.23813152   0.10556593
10106.00   7.72406006   0.10172883
10108.00   7.53968334   0.10106155
10110.00   7.50707006   0.10179907
10112.00   7.60262585   0.10353360
10114.00   7.91598940   0.10641982
10116.00   8.30723381   0.11001772
10118.00   8.36866093   0.11324386
10120.00   8.16921234   0.11739253
10122.00   8.07169724   0.11883160
10124.00   7.90952539   0.11677025
10126.00   7.84407806   0.11697191
10128.00   7.92429256   0.12228768
10130.00   8.05083370   0.12677324
10132.00   8.09386921   0.12205449
10134.00   8.07756805   0.10695560
10136.00   8.18788338   0.10558886
10138.00   8.42273903   0.11365348
10140.00   8.60712051   0.12170299
10142.00   8.76587677   0.13172273
10144.00   8.88904762   0.14098288
10146.00   8.96322060   0.14790022
10148.00   8.99989128   0.15403585
10150.00   8.92497730   0.15311076
10152.00   8.68824005   0.14401166
10154.00   8.53004360   0.13660383
10156.00   8.41556263   0.12730691
10158.00   8.31015301   0.11971925
10160.00   8.18086815   0.11656830
10162.00   8.05192471   0.11686482
10164.00   8.05579662   0.12030371
10166.00   8.25929070   0.12905279
10168.00   8.28171921   0.13495015
10170.00   8.04628277   0.13857096
10172.00   8.04246426   0.14472426
10174.00   8.58545399   0.15847442
10176.00   9.29464722   0.17167290
10178.00   9.29039860   0.16666113
10180.00   8.62865543   0.13745283
10182.00   8.42672157   0.12993158
10184.00   8.42671871   0.13920850
10186.00   8.39365005   0.14454696
10188.00   8.29275322   0.14522305
10190.00   8.19062042   0.14359631
10192.00   8.15120316   0.13843979
10194.00   8.17050266   0.12734726
10196.00   8.11802769   0.12445563
10198.00   7.92695951   0.12725654
10200.00   7.92593050   0.13091315
10202.00   8.15142345   0.13517915
10204.00   8.44537258   0.14137271
10206.00   8.75714684   0.15118034
10208.00   9.17131424   0.16394000
10210.00   8.93436527   0.16962406
10212.00   7.75719309   0.17367965
10214.00   7.36093521   0.17139082
10216.00   7.64427948   0.15804301
10218.00   8.03455830   0.14592192
10220.00   8.28823948   0.14549413
10222.00   8.53600502   0.15138339
10224.00   8.62130642   0.15062211
10226.00   8.49777126   0.14425527
10228.00   8.50349140   0.14390218
10230.00   8.60362816   0.14981243
10232.00   8.64959049   0.15298051
10234.00   8.59131718   0.14997898
10236.00   8.47327328   0.14418860
10238.00   8.33945084   0.14166068
10240.00   8.10507107   0.13956174
10242.00   8.03472710   0.14039879
10244.00   8.17289639   0.14706202
10246.00   8.16399574   0.14892888
10248.00   7.90340328   0.14270777
10250.00   7.57772779   0.13410127
10252.00   7.40872908   0.13199238
10254.00   7.25502443   0.13344572
10256.00   7.39289236   0.13621892
10258.00   8.02415085   0.14363360
10260.00   8.27632999   0.14723735
10262.00   8.05659866   0.14596562
10264.00   7.74871302   0.14443587
10266.00   7.65271759   0.14702976
10268.00   7.62634134   0.15209319
10270.00   7.71817636   0.15447389
10272.00   8.07860184   0.15526287
10274.00   8.18032455   0.15665193
10276.00   8.01650524   0.15709904
10278.00   7.84139442   0.15937527
10280.00   7.78657103   0.16451785
10282.00   7.78076410   0.17174284
10284.00   7.82169628   0.18381190
10286.00   7.94014311   0.20692554
10288.00   8.03688622   0.21398179
10290.00   8.13343143   0.21056512
10292.00   8.24104404   0.20384285
10294.00   8.38319111   0.19408977
10296.00   8.53007221   0.18144672
10298.00   8.57771778   0.17420207
10300.00   8.46262646   0.16894107
10302.00   8.57070160   0.16880803
10304.00   8.81686878   0.17241040
10306.00   9.11293507   0.18100625
10308.00   9.60273552   0.20044737
10310.00   10.02141380   0.21757057
10312.00   9.79822350   0.21217507
10314.00   8.90340519   0.18250662
10316.00   8.70308781   0.17696337
10318.00   9.09217834   0.19219756
10320.00   9.09705353   0.19609588
10322.00   8.60540676   0.18633766
10324.00   8.03421116   0.17406552
10326.00   7.70429087   0.17001624
10328.00   7.44243956   0.17014068
10330.00   7.52011967   0.17192440
10332.00   8.14577389   0.18019754
10334.00   8.38057518   0.18199781
10336.00   8.33337784   0.17379671
10338.00   8.13826847   0.16973330
10340.00   7.75735378   0.18266939
10342.00   7.21191359   0.20375374
10344.00   7.17190552   0.20580539
10346.00   7.79443693   0.19099391
10348.00   7.79325819   0.18559274
10350.00   7.19675398   0.18547519
10352.00   6.78197527   0.18501504
10354.00   6.88173914   0.18177092
10356.00   7.21510553   0.17777644
10358.00   7.34234381   0.17683341
10360.00   7.45012665   0.17765540
10362.00   7.45292139   0.17996737
10364.00   7.29330015   0.18115191
10366.00   7.20520735   0.18855581
10368.00   7.20387602   0.20754448
10370.00   7.27812338   0.22624330
10372.00   7.49358368   0.22843012
10374.00   7.90957880   0.21846408
10376.00   8.09872627   0.21201728
10378.00   8.18006229   0.20131719
10380.00   8.19740677   0.19423304
10382.00   8.10256481   0.19096133
10384.00   7.99093056   0.19082710
10386.00   7.99039698   0.19489421
10388.00   8.06696129   0.20394568
10390.00   8.01856041   0.20480761
10392.00   7.85337400   0.19893785
10394.00   7.75351477   0.19558640
10396.00   7.72821283   0.19372505
10398.00   7.68343973   0.19232067
10400.00   7.54607058   0.19045760
10402.00   7.35239840   0.18855773
10404.00   7.24697542   0.19121513
10406.00   7.16804552   0.20022388
10408.00   7.15404320   0.20391466
10410.00   7.20149851   0.20374493
10412.00   7.29504061   0.20380864
10414.00   7.47282553   0.20601544
10416.00   7.68563080   0.20875192
10418.00   7.70609713   0.20904659
10420.00   7.60592175   0.20678176
10422.00   7.42815256   0.20633133
10424.00   7.00691986   0.20745051
10426.00   6.77025890   0.20718996
10428.00   6.80735159   0.20397608
10430.00   7.00259447   0.20017265
10432.00   7.28191376   0.20038606
10434.00   7.81664991   0.20489809
10436.00   7.92942238   0.20368092
10438.00   7.61152315   0.19580692
10440.00   7.51375246   0.19301857
10442.00   7.71335745   0.19759899
10444.00   7.96742439   0.20352641
10446.00   8.08127117   0.20562443
10448.00   8.16376781   0.20639330
10450.00   8.02903080   0.20487227
10452.00   7.56630945   0.19739284
10454.00   7.30980206   0.19613825
10456.00   7.25900459   0.20195119
10458.00   7.21875238   0.20836152
10460.00   7.02997255   0.21206783
10462.00   6.76449490   0.21491867
10464.00   6.80039215   0.21434592
10466.00   7.25496769   0.20846939
10468.00   7.32161283   0.20621456
10470.00   6.99453259   0.20562764
10472.00   6.77960300   0.20650178
10474.00   6.92743683   0.21028715
10476.00   7.24500084   0.21520467
10478.00   7.37323713   0.21339209
10480.00   7.45063257   0.20179734
10482.00   7.45217896   0.20055895
10484.00   7.27941275   0.20806728
10486.00   7.22635937   0.21242514
10488.00   7.41797352   0.21003661
10490.00   7.67715406   0.20598449
10492.00   7.69394064   0.20752004
10494.00   7.45154953   0.21057834
10496.00   7.58697128   0.22031257
10498.00   8.20569324   0.24499242
10500.00   8.41581535   0.25266290
10502.00   8.01206589   0.23706330
10504.00   7.50332451   0.21528776
10506.00   7.41904259   0.21014887
10508.00   7.54621124   0.21404362
10510.00   7.75913191   0.21879616
10512.00   8.43281937   0.23254013
10514.00   8.53120041   0.23723489
10516.00   7.87239647   0.23032916
10518.00   7.23270607   0.22473684
10520.00   7.21046734   0.23140371
10522.00   7.53074265   0.24489279
10524.00   7.55517244   0.25130045
10526.00   7.46172762   0.25501403
10528.00   7.38071918   0.25816342
10530.00   7.25033569   0.26091775
10532.00   7.15316200   0.26176417
10534.00   7.10519075   0.25947717
10536.00   7.10540152   0.25504988
10538.00   7.26584673   0.25214440
10540.00   7.56224251   0.24651279
10542.00   7.93910265   0.24808860
10544.00   8.58596611   0.25557479
10546.00   9.02555466   0.26404023
10548.00   9.19026184   0.27290729
10550.00   9.12901783   0.28236938
10552.00   8.70701694   0.29167911
10554.00   7.58383036   0.30462536
10556.00   7.49347210   0.30578306
10558.00   8.32578373   0.29128546
10560.00   8.83886433   0.28666413
10562.00   8.95830250   0.29806733
10564.00   8.92453003   0.31142733
10566.00   8.85199928   0.31218067
10568.00   8.65593338   0.30347231
10570.00   8.58182049   0.30859306
10572.00   8.52088070   0.32897028
10574.00   8.56427193   0.33559069
10576.00   8.74884987   0.32620871
10578.00   8.96127987   0.31622371
10580.00   9.11591244   0.31848234
10582.00   9.25398636   0.32735384
10584.00   9.38851261   0.33044475
10586.00   9.41282654   0.32923388
10588.00   9.65708923   0.33277103
10590.00   10.37303638   0.34111619
10592.00   10.73867702   0.34870461
10594.00   10.16429234   0.35454386
10596.00   9.09318733   0.35890061
10598.00   8.90685081   0.35517746
10600.00   9.48523903   0.33832571
10602.00   9.55566502   0.33246243
10604.00   9.41263866   0.33337998
10606.00   9.25396919   0.33443356
10608.00   9.08660221   0.33394259
10610.00   8.92761040   0.33359858
10612.00   8.92037392   0.33481327
10614.00   9.06758976   0.33815357
10616.00   9.12180233   0.33882385
10618.00   9.17231464   0.33922699
10620.00   9.18009377   0.33668286
10622.00   9.12553120   0.32896322
10624.00   9.04913616   0.32024497
10626.00   8.99919319   0.31690580
10628.00   8.94753742   0.31726354
10630.00   8.94374943   0.31585008
10632.00   9.01070213   0.31332350
10634.00   9.02949429   0.31304649
10636.00   9.06059933   0.31559354
10638.00   9.00036526   0.31868434
10640.00   8.66662025   0.32160494
10642.00   8.09632874   0.32522607
10644.00   8.13130569   0.32064164
10646.00   8.85195923   0.30461299
10648.00   9.08719635   0.29599959
10650.00   8.98925114   0.29439574
10652.00   8.79290485   0.29194760
10654.00   8.54364872   0.28412220
10656.00   8.22977734   0.27354679
10658.00   8.13488007   0.26648536
10660.00   8.20646667   0.26167905
10662.00   8.28040791   0.25643674
10664.00   8.63744068   0.25295180
10666.00   8.64059067   0.24742961
10668.00   7.94865704   0.23763341
10670.00   6.97686481   0.22569048
10672.00   6.56247997   0.21672575
10674.00   6.46673775   0.20852296
10676.00   6.35148001   0.20309430
10678.00   6.39172506   0.20111759
10680.00   6.37988710   0.19968769
10682.00   6.27049398   0.19983098
10684.00   6.15598774   0.19966309
10686.00   6.15601540   0.19531715
10688.00   6.27523899   0.18715379
10690.00   6.18193626   0.18135823
10692.00   5.79949188   0.17552385
10694.00   5.68425131   0.17116193
10696.00   5.89814138   0.16945454
10698.00   6.15942717   0.16769759
10700.00   6.25699854   0.16275750
10702.00   6.29077959   0.15536563
10704.00   6.25792933   0.15287240
10706.00   6.07601643   0.15485515
10708.00   6.01157045   0.15541479
10710.00   6.08567858   0.15674888
10712.00   6.11263275   0.15635325
10714.00   5.96732664   0.15187025
10716.00   5.72970676   0.14457542
10718.00   5.63670015   0.14071101
10720.00   5.68252373   0.13984834
10722.00   5.60560131   0.13660192
10724.00   5.37750483   0.12840396
10726.00   5.26738214   0.12579687
10728.00   5.39126921   0.13510674
10730.00   5.62596893   0.14814152
10732.00   5.76183414   0.15166284
10734.00   5.94840717   0.15191090
10736.00   5.90774775   0.14656214
10738.00   5.66378450   0.12586436
10740.00   5.39013433   0.11648770
10742.00   5.02582073   0.12984996
10744.00   4.68659687   0.14689887
10746.00   4.60391617   0.15025912
10748.00   4.69848585   0.14804471
10750.00   4.87552214   0.14142813
10752.00   5.32042789   0.12225147
10754.00   5.56244612   0.10989346
10756.00   5.58611917   0.10816664
10758.00   5.53352976   0.10918195
10760.00   5.50741100   0.10655256
10762.00   5.46526003   0.10308323
10764.00   5.34390306   0.09965816
10766.00   5.04985952   0.09491003
10768.00   4.94738245   0.09210995
10770.00   5.06030703   0.09142788
10772.00   5.15784264   0.09131839
10774.00   5.11804295   0.09108981
10776.00   5.00911570   0.09110968
10778.00   4.86721134   0.09072533
10780.00   4.54328537   0.09103948
10782.00   4.49019098   0.08913663
10784.00   4.71089792   0.08409730
10786.00   4.87599564   0.07994443
10788.00   4.87892199   0.07868682
10790.00   4.80949068   0.07873481
10792.00   4.73905277   0.07735068
10794.00   4.56945944   0.07446785
10796.00   4.57558155   0.07419351
10798.00   4.78664780   0.07693314
10800.00   4.88241482   0.07803396
10802.00   4.79147577   0.07672524
10804.00   4.63735104   0.07437970
10806.00   4.55789518   0.07217459
10808.00   4.50131893   0.06872998
10810.00   4.44220829   0.06869835
10812.00   4.34148645   0.07187153
10814.00   4.34110403   0.07444479
10816.00   4.52797556   0.07801992
10818.00   4.68409443   0.07991796
10820.00   4.56491756   0.07649286
10822.00   4.24168348   0.06792799
10824.00   4.14552641   0.06414988
10826.00   4.21542883   0.06355046
10828.00   4.19228220   0.06223597
10830.00   4.07980871   0.06008802
10832.00   3.98421526   0.05915108
10834.00   3.96352601   0.06139753
10836.00   3.98615289   0.06549322
10838.00   4.02568531   0.06578701
10840.00   4.17826366   0.06359652
10842.00   4.15658379   0.06130528
10844.00   3.94318485   0.05614583
10846.00   3.78067756   0.05337057
10848.00   3.79738712   0.05713137
10850.00   3.86726546   0.06293649
10852.00   3.71245861   0.06181594
