# File created by shivutils (I.Shivvers)
# 
# wl(A)   flm    er(optional)
3442.00   0.41492163   0.07497676
3444.00   0.58753383   0.07690306
3446.00   0.77191210   0.07994961
3448.00   0.37148088   0.07496554
3450.00   0.36715325   0.07728655
3452.00   0.57181776   0.08125310
3454.00   0.53116831   0.08113797
3456.00   0.41467177   0.07847181
3458.00   0.41457539   0.07860004
3460.00   0.40466245   0.07707343
3462.00   0.47773199   0.07787668
3464.00   0.32746851   0.07438762
3466.00   0.30348050   0.07288244
3468.00   0.47499193   0.07513891
3470.00   0.35781858   0.07301124
3472.00   0.46646803   0.07331260
3474.00   0.44267325   0.07326534
3476.00   0.49605793   0.07319995
3478.00   0.43977499   0.07650307
3480.00   0.34198123   0.08054827
3482.00   0.46085781   0.08163342
3484.00   0.47345571   0.07991395
3486.00   0.37615137   0.07828341
3488.00   0.56102171   0.07884282
3490.00   0.55558206   0.07851740
3492.00   0.56118523   0.07582317
3494.00   0.50599549   0.07466717
3496.00   0.43698387   0.07221041
3498.00   0.40297801   0.07288095
3500.00   0.42364635   0.07172148
3502.00   0.48956246   0.07226420
3504.00   0.41867209   0.07153204
3506.00   0.60068349   0.07232289
3508.00   0.41170477   0.06937729
3510.00   0.60792172   0.07349067
3512.00   0.51162559   0.07164445
3514.00   0.36194487   0.06767506
3516.00   0.52287576   0.06962716
3518.00   0.40962752   0.06833643
3520.00   0.39723280   0.06680360
3522.00   0.52227237   0.06861629
3524.00   0.57741302   0.06852585
3526.00   0.52702805   0.06763563
3528.00   0.51479883   0.06633170
3530.00   0.51715334   0.06664576
3532.00   0.44914625   0.06494222
3534.00   0.52326052   0.06623643
3536.00   0.51581322   0.06734812
3538.00   0.46870322   0.06664422
3540.00   0.54374781   0.06924265
3542.00   0.65766486   0.07426818
3544.00   0.48145051   0.07417506
3546.00   0.51631916   0.07332245
3548.00   0.51897081   0.07163676
3550.00   0.54898723   0.07082053
3552.00   0.56189936   0.07149668
3554.00   0.49506850   0.07099855
3556.00   0.63645551   0.07268896
3558.00   0.59560435   0.07089304
3560.00   0.48269225   0.06869813
3562.00   0.48649945   0.06587746
3564.00   0.52040144   0.06443445
3566.00   0.51094042   0.06354508
3568.00   0.44263117   0.06310998
3570.00   0.45125794   0.06153140
3572.00   0.54782516   0.06412718
3574.00   0.58644372   0.06411868
3576.00   0.48127447   0.06189064
3578.00   0.49719095   0.06100192
3580.00   0.46564920   0.05926175
3582.00   0.55475655   0.05985840
3584.00   0.56786229   0.05814482
3586.00   0.53242024   0.05653063
3588.00   0.59870290   0.05697545
3590.00   0.61789456   0.06023829
3592.00   0.65123713   0.05961522
3594.00   0.60923453   0.05711778
3596.00   0.61283714   0.05650218
3598.00   0.57002494   0.05549407
3600.00   0.57959533   0.05555209
3602.00   0.54704098   0.05411386
3604.00   0.54850202   0.05383461
3606.00   0.49336944   0.05279163
3608.00   0.60898545   0.05345082
3610.00   0.65410987   0.05423821
3612.00   0.62393220   0.05549146
3614.00   0.55514318   0.05721722
3616.00   0.63788534   0.05820547
3618.00   0.61323384   0.05634125
3620.00   0.64049437   0.05551269
3622.00   0.70056970   0.05644613
3624.00   0.75457227   0.05676602
3626.00   0.59501401   0.05392707
3628.00   0.65328530   0.05448389
3630.00   0.57762224   0.05628408
3632.00   0.69748166   0.05830811
3634.00   0.72898447   0.05743391
3636.00   0.64327226   0.05562141
3638.00   0.64090463   0.05550409
3640.00   0.70662268   0.05551759
3642.00   0.76025270   0.05788469
3644.00   0.68653240   0.05808823
3646.00   0.73466974   0.05828406
3648.00   0.82652884   0.06880821
3650.00   0.80920775   0.08487070
3652.00   0.83185182   0.08042535
3654.00   0.77029758   0.07143098
3656.00   0.74773474   0.06772599
3658.00   0.60840923   0.05601444
3660.00   0.68076009   0.05470137
3662.00   0.85386222   0.06278871
3664.00   0.76957255   0.06330838
3666.00   0.72924288   0.05399254
3668.00   0.76381646   0.04944309
3670.00   0.78106395   0.04879196
3672.00   0.83340880   0.04860395
3674.00   0.66496642   0.04562156
3676.00   0.70684861   0.04534347
3678.00   0.82661423   0.04683054
3680.00   0.79087860   0.04524319
3682.00   0.67890086   0.04355422
3684.00   0.71364590   0.04344624
3686.00   0.69218345   0.04333717
3688.00   0.64463779   0.04247992
3690.00   0.76045006   0.04396614
3692.00   0.69927655   0.04344118
3694.00   0.68578283   0.04322539
3696.00   0.74594061   0.04278740
3698.00   0.71648218   0.04419921
3700.00   0.62112149   0.04370973
3702.00   0.61457067   0.04282104
3704.00   0.62005146   0.04293780
3706.00   0.60941603   0.04257356
3708.00   0.69290549   0.04284481
3710.00   0.66454962   0.04191879
3712.00   0.74148517   0.04238349
3714.00   0.71767457   0.04226790
3716.00   0.62445877   0.04109842
3718.00   0.65259108   0.04099629
3720.00   0.74614543   0.04151876
3722.00   0.71765895   0.04103727
3724.00   0.67821259   0.04040779
3726.00   0.65243160   0.04133398
3728.00   0.74644954   0.04324769
3730.00   0.71637841   0.04226161
3732.00   0.72261874   0.04231329
3734.00   0.77110577   0.04218197
3736.00   0.70084227   0.04152456
3738.00   0.73451026   0.04275953
3740.00   0.80908019   0.04381720
3742.00   0.70553656   0.04251654
3744.00   0.73914925   0.04149024
3746.00   0.78839478   0.04091584
3748.00   0.70986904   0.03929112
3750.00   0.77658932   0.03966903
3752.00   0.72930047   0.03998528
3754.00   0.78902798   0.04093805
3756.00   0.86029602   0.04151551
3758.00   0.79730903   0.04043728
3760.00   0.79079415   0.04013080
3762.00   0.86174366   0.04014298
3764.00   0.75066303   0.03907169
3766.00   0.81354543   0.03887473
3768.00   0.85166879   0.03879825
3770.00   0.92974334   0.03961985
3772.00   0.87131272   0.04005584
3774.00   0.91657195   0.04048852
3776.00   0.82785957   0.03937640
3778.00   0.82802418   0.03928313
3780.00   0.89578004   0.04026686
3782.00   0.91742505   0.04017793
3784.00   0.83651038   0.03937371
3786.00   0.83364189   0.03881800
3788.00   0.88709241   0.03941475
3790.00   0.92886645   0.04023094
3792.00   0.88023565   0.03941713
3794.00   0.85381925   0.03846051
3796.00   0.86476802   0.03764930
3798.00   0.96493055   0.03806074
3800.00   0.86982830   0.03746222
3802.00   0.95397880   0.03911012
3804.00   1.00314329   0.03980265
3806.00   1.00564748   0.03955478
3808.00   0.93718863   0.03878789
3810.00   0.91242822   0.03863935
3812.00   0.94809884   0.03907044
3814.00   0.94076417   0.03955522
3816.00   0.88106337   0.03869581
3818.00   0.90774545   0.03881851
3820.00   0.93635927   0.03845119
3822.00   0.90442462   0.03835763
3824.00   0.95132967   0.03850192
3826.00   0.97192064   0.03838019
3828.00   0.93187926   0.03895739
3830.00   1.00563766   0.04008374
3832.00   1.00548581   0.03934665
3834.00   1.02712984   0.03841121
3836.00   0.96287607   0.03801663
3838.00   1.01698036   0.03826984
3840.00   1.04731751   0.03850690
3842.00   1.02383323   0.03873286
3844.00   0.99497752   0.03832562
3846.00   0.99330180   0.03799911
3848.00   0.98211318   0.03742972
3850.00   0.92521577   0.03673365
3852.00   0.95220115   0.03694645
3854.00   0.94198336   0.03641973
3856.00   0.95685751   0.03630162
3858.00   0.93323664   0.03590697
3860.00   0.97564349   0.03594802
3862.00   0.88499808   0.03542067
3864.00   0.90616263   0.03553151
3866.00   0.92486869   0.03525274
3868.00   0.84603662   0.03429225
3870.00   0.89218353   0.03435348
3872.00   0.89687580   0.03477368
3874.00   0.95388612   0.03612704
3876.00   0.91041136   0.03546682
3878.00   0.85497177   0.03383911
3880.00   0.89686085   0.03372746
3882.00   0.81399023   0.03259161
3884.00   0.81639576   0.03224859
3886.00   0.79278846   0.03138580
3888.00   0.76093949   0.03087331
3890.00   0.81148769   0.03142517
3892.00   0.72790276   0.03087603
3894.00   0.67428785   0.03074818
3896.00   0.70373623   0.03136059
3898.00   0.73811737   0.03205038
3900.00   0.74891904   0.03217202
3902.00   0.75496551   0.03239052
3904.00   0.73453469   0.03324147
3906.00   0.70438295   0.03574741
3908.00   0.61763403   0.03690461
3910.00   0.61777464   0.03717649
3912.00   0.71777896   0.03791054
3914.00   0.62122256   0.03560669
3916.00   0.62604284   0.03338329
3918.00   0.63581789   0.03238641
3920.00   0.68830632   0.03221220
3922.00   0.66638168   0.03108773
3924.00   0.61805980   0.03088120
3926.00   0.64715467   0.03059524
3928.00   0.67590412   0.03042617
3930.00   0.65657742   0.03019875
3932.00   0.62589675   0.03101721
3934.00   0.55427355   0.03058404
3936.00   0.63812253   0.03013718
3938.00   0.75840299   0.03097657
3940.00   0.70225865   0.03092046
3942.00   0.67716790   0.03174656
3944.00   0.81617084   0.03364851
3946.00   0.84397285   0.03332031
3948.00   0.75525558   0.03181136
3950.00   0.72665056   0.03113191
3952.00   0.73291722   0.03093432
3954.00   0.74451835   0.03074830
3956.00   0.84235496   0.03137230
3958.00   0.76478948   0.03066933
3960.00   0.82634846   0.03246557
3962.00   0.82336805   0.03276159
3964.00   0.83368401   0.03077902
3966.00   0.88635029   0.03018378
3968.00   0.76253112   0.02861020
3970.00   0.81497631   0.02878057
3972.00   0.99357417   0.03113572
3974.00   0.94723391   0.03121108
3976.00   0.97438601   0.03132625
3978.00   0.87154490   0.03077755
3980.00   0.90170784   0.03128026
3982.00   0.94453485   0.03155392
3984.00   1.01129612   0.03216514
3986.00   0.98246155   0.03189487
3988.00   0.92277904   0.03148202
3990.00   1.02475693   0.03236262
3992.00   1.03178361   0.03226796
3994.00   1.09978441   0.03338046
3996.00   1.10138565   0.03458689
3998.00   1.11686436   0.03453136
4000.00   1.09514974   0.03325329
4002.00   1.12523673   0.03304950
4004.00   1.18187226   0.03328971
4006.00   1.16132818   0.03336217
4008.00   1.08756871   0.03335775
4010.00   1.06585841   0.03336002
4012.00   1.13402633   0.03366411
4014.00   1.12657689   0.03355032
4016.00   1.14712971   0.03343901
4018.00   1.12166556   0.03483575
4020.00   1.23117994   0.03832988
4022.00   1.19929072   0.03893791
4024.00   1.10335415   0.03791819
4026.00   1.15004863   0.03617576
4028.00   1.21078406   0.03523832
4030.00   1.24477922   0.03526844
4032.00   1.18307341   0.03441677
4034.00   1.22897057   0.03429094
4036.00   1.22724839   0.03423154
4038.00   1.19611758   0.03384144
4040.00   1.17217235   0.03350587
4042.00   1.15962122   0.03404337
4044.00   1.28707990   0.04451534
4046.00   1.27024627   0.06072394
4048.00   1.26070424   0.05667586
4050.00   1.17334692   0.03930320
4052.00   1.21476197   0.03525183
4054.00   1.23088405   0.03561852
4056.00   1.22946736   0.03519936
4058.00   1.18186828   0.03355039
4060.00   1.15606830   0.03269852
4062.00   1.17747543   0.03265597
4064.00   1.19141397   0.03299286
4066.00   1.22996057   0.03317741
4068.00   1.25265543   0.03316200
4070.00   1.22469570   0.03264587
4072.00   1.24721710   0.03216804
4074.00   1.29300578   0.03295768
4076.00   1.23439948   0.03554874
4078.00   1.26656894   0.03759321
4080.00   1.24002598   0.03541721
4082.00   1.20327773   0.03440924
4084.00   1.19325226   0.03372946
4086.00   1.20910129   0.03335842
4088.00   1.21077964   0.03279011
4090.00   1.18888644   0.03123929
4092.00   1.14004765   0.03061198
4094.00   1.15155184   0.03043893
4096.00   1.16976236   0.03035574
4098.00   1.17148248   0.03035994
4100.00   1.13910348   0.02980484
4102.00   1.17039413   0.02963902
4104.00   1.18176779   0.02960420
4106.00   1.12122321   0.02941253
4108.00   1.06695132   0.02930012
4110.00   1.07623498   0.02941354
4112.00   1.07077979   0.02932805
4114.00   1.08105671   0.02950885
4116.00   1.11712964   0.02978453
4118.00   1.14426626   0.02971632
4120.00   1.12905319   0.02934431
4122.00   1.10729895   0.02925624
4124.00   1.01695756   0.02863597
4126.00   1.00593708   0.02877632
4128.00   1.04492782   0.02912832
4130.00   1.09540119   0.02951524
4132.00   1.10117075   0.03050864
4134.00   1.09625058   0.03043616
4136.00   1.03347959   0.02921971
4138.00   1.03655803   0.02933105
4140.00   1.05426132   0.03006199
4142.00   1.04880051   0.02933387
4144.00   1.03055697   0.02824467
4146.00   0.97852479   0.02787639
4148.00   1.02637486   0.02819630
4150.00   1.03683318   0.02888421
4152.00   1.00516372   0.02959844
4154.00   0.99712442   0.02917583
4156.00   0.97722996   0.02815901
4158.00   0.95307590   0.02779480
4160.00   1.01712623   0.02831845
4162.00   1.01130923   0.02869534
4164.00   0.99069698   0.02995427
4166.00   1.01032289   0.03036840
4168.00   1.04628935   0.02903180
4170.00   1.06488006   0.02875237
4172.00   1.00766560   0.02812042
4174.00   1.04806726   0.02783541
4176.00   1.09507258   0.02836937
4178.00   1.11191068   0.02874200
4180.00   1.04889051   0.02816444
4182.00   1.07492601   0.02787849
4184.00   1.06273138   0.02764008
4186.00   1.02338062   0.02744510
4188.00   1.05735316   0.02767502
4190.00   1.08775675   0.02786479
4192.00   1.08875764   0.02798780
4194.00   1.06498528   0.02778341
4196.00   1.07066109   0.02737656
4198.00   1.05501822   0.02713132
4200.00   1.03246839   0.02684586
4202.00   1.04736753   0.02711367
4204.00   1.07806876   0.02741006
4206.00   1.04857302   0.02746149
4208.00   1.00916622   0.02730490
4210.00   1.06695502   0.02787215
4212.00   1.04469587   0.02761185
4214.00   1.04632161   0.02728026
4216.00   1.03167165   0.02713697
4218.00   1.00433200   0.02685403
4220.00   1.08202636   0.02734974
4222.00   1.06048957   0.02704249
4224.00   1.08508977   0.02709563
4226.00   1.02881426   0.02663365
4228.00   1.06657381   0.02680085
4230.00   1.03395014   0.02676302
4232.00   0.97630770   0.02678930
4234.00   0.98253880   0.02675126
4236.00   1.08741574   0.02767722
4238.00   1.03777405   0.02763233
4240.00   1.01557924   0.02689643
4242.00   1.07799767   0.02663143
4244.00   1.01774756   0.02745203
4246.00   1.05264089   0.03032913
4248.00   1.05227043   0.02971784
4250.00   1.00465453   0.02702408
4252.00   0.99825797   0.02634998
4254.00   1.05517533   0.02658969
4256.00   1.01178969   0.02645750
4258.00   1.04625053   0.02665647
4260.00   1.06714275   0.02647954
4262.00   1.01391142   0.02601607
4264.00   1.02178375   0.02595865
4266.00   1.05009136   0.02605328
4268.00   1.00627466   0.02585795
4270.00   1.05702991   0.02614890
4272.00   1.05930456   0.02615830
4274.00   1.02550476   0.02592134
4276.00   1.00364253   0.02588379
4278.00   1.04443558   0.02625109
4280.00   1.03865076   0.02617499
4282.00   1.03738329   0.02638078
4284.00   1.00056560   0.02598545
4286.00   1.05993414   0.02608310
4288.00   1.05774655   0.02615559
4290.00   1.07209500   0.02599130
4292.00   1.05343357   0.02624179
4294.00   1.08996804   0.02656049
4296.00   1.11915057   0.02656684
4298.00   1.10857945   0.02649649
4300.00   1.06143548   0.02608891
4302.00   1.10358057   0.02612592
4304.00   1.17331795   0.02679865
4306.00   1.15602685   0.02704412
4308.00   1.12905319   0.02691398
4310.00   1.12688653   0.02689057
4312.00   1.09523889   0.02821131
4314.00   1.14582070   0.02948682
4316.00   1.10637931   0.02807481
4318.00   1.09800931   0.02765370
4320.00   1.08053623   0.02857656
4322.00   1.13234034   0.02865095
4324.00   1.19837617   0.02880142
4326.00   1.17025473   0.02798954
4328.00   1.17223424   0.02737075
4330.00   1.15218116   0.02697572
4332.00   1.17952005   0.02700762
4334.00   1.15592783   0.02682983
4336.00   1.11986150   0.02689049
4338.00   1.09025260   0.02685985
4340.00   1.14118152   0.02737543
4342.00   1.17180970   0.02745398
4344.00   1.14846286   0.02773507
4346.00   1.14951007   0.02887390
4348.00   1.15998807   0.02933746
4350.00   1.12124847   0.02830859
4352.00   1.16297557   0.02816795
4354.00   1.12767542   0.02943611
4356.00   1.17923384   0.04837835
4358.00   1.24567123   0.06280887
4360.00   1.14481445   0.05230073
4362.00   1.15472270   0.03580778
4364.00   1.14050477   0.02996944
4366.00   1.11570064   0.02883864
4368.00   1.12682794   0.02850722
4370.00   1.10799623   0.02804106
4372.00   1.11961433   0.02862833
4374.00   1.15236549   0.02941699
4376.00   1.17552081   0.02899924
4378.00   1.21076956   0.02805045
4380.00   1.17706472   0.02752540
4382.00   1.19134463   0.02731686
4384.00   1.18405628   0.02718242
4386.00   1.21572573   0.02727551
4388.00   1.16448168   0.02703982
4390.00   1.22157540   0.02741222
4392.00   1.26619665   0.02770308
4394.00   1.26376845   0.02746759
4396.00   1.25200969   0.02727526
4398.00   1.28877271   0.02796359
4400.00   1.22903536   0.02816718
4402.00   1.31142169   0.02836271
4404.00   1.27010963   0.02765397
4406.00   1.24904485   0.02740696
4408.00   1.26599178   0.02749615
4410.00   1.23198222   0.02740793
4412.00   1.21693091   0.02758111
4414.00   1.25025422   0.02799645
4416.00   1.29390944   0.02821086
4418.00   1.27555202   0.02764141
4420.00   1.26522824   0.02750637
4422.00   1.27870498   0.02742902
4424.00   1.27417152   0.02741907
4426.00   1.25651276   0.02724545
4428.00   1.21402948   0.02687678
4430.00   1.23104951   0.02701284
4432.00   1.28162841   0.02739275
4434.00   1.29271613   0.02707993
4436.00   1.28352042   0.02715617
4438.00   1.20973390   0.02685300
4440.00   1.25690366   0.02707476
4442.00   1.19302124   0.02649207
4444.00   1.22187647   0.02695484
4446.00   1.20715176   0.02676805
4448.00   1.22323644   0.02672591
4450.00   1.22380284   0.02657571
4452.00   1.20478710   0.02644752
4454.00   1.18301335   0.02620409
4456.00   1.17100350   0.02624090
4458.00   1.14414792   0.02604332
4460.00   1.06525493   0.02557656
4462.00   1.10869600   0.02580644
4464.00   1.10450551   0.02571869
4466.00   1.11893223   0.02580455
4468.00   1.06460554   0.02531745
4470.00   1.06238997   0.02511783
4472.00   1.01322753   0.02496854
4474.00   1.04819720   0.02524123
4476.00   0.99595436   0.02503382
4478.00   0.99723521   0.02484665
4480.00   0.96308102   0.02453286
4482.00   0.97595964   0.02482339
4484.00   0.96237759   0.02481992
4486.00   1.00436073   0.02503304
4488.00   0.95549995   0.02456245
4490.00   0.92374366   0.02440998
4492.00   0.88431575   0.02459624
4494.00   0.90592419   0.02465481
4496.00   0.91595152   0.02458688
4498.00   0.92046222   0.02456059
4500.00   0.92671652   0.02457149
4502.00   0.87184570   0.02406569
4504.00   0.86242041   0.02399466
4506.00   0.90063332   0.02416609
4508.00   0.83277273   0.02356912
4510.00   0.88590968   0.02383843
4512.00   0.87496930   0.02365587
4514.00   0.82229676   0.02335151
4516.00   0.82433159   0.02319928
4518.00   0.85569698   0.02330304
4520.00   0.83770436   0.02319461
4522.00   0.84767231   0.02324528
4524.00   0.79147775   0.02286140
4526.00   0.83554952   0.02306869
4528.00   0.81229681   0.02300177
4530.00   0.84543869   0.02319178
4532.00   0.87375288   0.02323650
4534.00   0.84539338   0.02310466
4536.00   0.87506435   0.02321159
4538.00   0.85036435   0.02291516
4540.00   0.80493894   0.02268975
4542.00   0.84099793   0.02301995
4544.00   0.87277341   0.02358136
4546.00   0.89368054   0.02342574
4548.00   0.87876049   0.02299949
4550.00   0.87567653   0.02288619
4552.00   0.86239403   0.02269496
4554.00   0.89009736   0.02291643
4556.00   0.90238638   0.02307679
4558.00   0.90208530   0.02312257
4560.00   0.93772647   0.02307462
4562.00   0.90571779   0.02269713
4564.00   0.92252715   0.02274985
4566.00   0.95838696   0.02287538
4568.00   0.96726763   0.02286905
4570.00   0.93047850   0.02269327
4572.00   0.89971793   0.02250721
4574.00   0.92715084   0.02292265
4576.00   0.96342921   0.02290709
4578.00   0.98938538   0.02297146
4580.00   0.92855731   0.02249208
4582.00   1.01234466   0.02284627
4584.00   1.05252973   0.02296250
4586.00   1.05371353   0.02294980
4588.00   1.01394752   0.02283671
4590.00   1.02630994   0.02287602
4592.00   1.08230013   0.02314992
4594.00   1.11255316   0.02346761
4596.00   1.03477553   0.02286446
4598.00   1.08006693   0.02298538
4600.00   1.09726714   0.02294545
4602.00   1.06816894   0.02284462
4604.00   1.10488677   0.02304531
4606.00   1.07465711   0.02293278
4608.00   1.10802264   0.02328297
4610.00   1.14231262   0.02347366
4612.00   1.07383248   0.02286573
4614.00   1.14552815   0.02299054
4616.00   1.16325446   0.02305410
4618.00   1.14006421   0.02285750
4620.00   1.17807386   0.02315269
4622.00   1.22893844   0.02343512
4624.00   1.22780913   0.02355795
4626.00   1.29581590   0.02386248
4628.00   1.21976625   0.02332807
4630.00   1.23891157   0.02354267
4632.00   1.26986559   0.02363447
4634.00   1.33581311   0.02396951
4636.00   1.36350095   0.02402882
4638.00   1.30387882   0.02373118
4640.00   1.33594912   0.02393067
4642.00   1.37649470   0.02403247
4644.00   1.43055436   0.02435541
4646.00   1.42879649   0.02429707
4648.00   1.40955371   0.02422412
4650.00   1.41919105   0.02434087
4652.00   1.47135474   0.02467189
4654.00   1.46552069   0.02466449
4656.00   1.51159536   0.02503417
4658.00   1.51871490   0.02530710
4660.00   1.58904484   0.02582936
4662.00   1.58329660   0.02587581
4664.00   1.60605107   0.02627892
4666.00   1.61085642   0.02638703
4668.00   1.61799787   0.02670240
4670.00   1.68518836   0.02716282
4672.00   1.73176263   0.02728009
4674.00   1.73489346   0.02704200
4676.00   1.75858421   0.02682692
4678.00   1.80912866   0.02683890
4680.00   1.78606022   0.02659060
4682.00   1.84888481   0.02678388
4684.00   1.87571844   0.02674382
4686.00   1.82316123   0.02647390
4688.00   1.82696381   0.02638506
4690.00   1.84531873   0.02640520
4692.00   1.88454806   0.02660561
4694.00   1.91886352   0.02669098
4696.00   1.89739125   0.02644768
4698.00   1.90487933   0.02638420
4700.00   1.90655760   0.02630708
4702.00   1.96153105   0.02663492
4704.00   1.93518471   0.02665198
4706.00   2.00359912   0.02707296
4708.00   2.03686906   0.02734632
4710.00   1.99813263   0.02715610
4712.00   2.01077501   0.02715023
4714.00   2.06467083   0.02726690
4716.00   2.08494935   0.02725440
4718.00   2.06086253   0.02714020
4720.00   2.09156853   0.02725183
4722.00   2.11415218   0.02730520
4724.00   2.06514472   0.02707523
4726.00   2.07600469   0.02739489
4728.00   2.13248961   0.02842947
4730.00   2.10514496   0.02829590
4732.00   2.08746492   0.02808895
4734.00   2.05847958   0.02819053
4736.00   2.12056922   0.02870225
4738.00   2.11610497   0.02893526
4740.00   2.14428924   0.02936251
4742.00   2.19451857   0.02999406
4744.00   2.14666390   0.02934823
4746.00   2.23311988   0.02867994
4748.00   2.26478661   0.02816708
4750.00   2.26465873   0.02817942
4752.00   2.22340896   0.02819697
4754.00   2.28678348   0.02840674
4756.00   2.20948607   0.02757001
4758.00   2.28767870   0.02761867
4760.00   2.27161213   0.02743485
4762.00   2.21185216   0.02702658
4764.00   2.25438698   0.02717702
4766.00   2.19704521   0.02684077
4768.00   2.14746729   0.02653832
4770.00   2.15214216   0.02657076
4772.00   2.10869721   0.02632732
4774.00   2.13253361   0.02640647
4776.00   2.08762083   0.02631459
4778.00   2.07641522   0.02664067
4780.00   2.06658372   0.02657530
4782.00   2.03947593   0.02612971
4784.00   2.03831226   0.02590576
4786.00   1.99295852   0.02561725
4788.00   1.98696557   0.02563740
4790.00   1.91281078   0.02533926
4792.00   1.86084982   0.02511761
4794.00   1.86792166   0.02504226
4796.00   1.87287025   0.02500053
4798.00   1.82685511   0.02462935
4800.00   1.78621641   0.02439412
4802.00   1.75500929   0.02425104
4804.00   1.72773791   0.02409636
4806.00   1.68151639   0.02398117
4808.00   1.67003835   0.02385599
4810.00   1.64731552   0.02373493
4812.00   1.56988073   0.02332942
4814.00   1.59699918   0.02350460
4816.00   1.58226862   0.02348059
4818.00   1.54929698   0.02330833
4820.00   1.55449595   0.02342927
4822.00   1.54645772   0.02346886
4824.00   1.52495809   0.02331043
4826.00   1.49710769   0.02329478
4828.00   1.48158726   0.02319085
4830.00   1.49304928   0.02330466
4832.00   1.49240336   0.02340468
4834.00   1.46916621   0.02326991
4836.00   1.46049575   0.02312107
4838.00   1.46096648   0.02337555
4840.00   1.44066823   0.02340780
4842.00   1.39169611   0.02288409
4844.00   1.42055067   0.02277055
4846.00   1.39899838   0.02269782
4848.00   1.37137734   0.02263179
4850.00   1.39381695   0.02267056
4852.00   1.37260835   0.02251667
4854.00   1.35414447   0.02221558
4856.00   1.34438450   0.02198064
4858.00   1.35235210   0.02198870
4860.00   1.32060014   0.02199018
4862.00   1.28998208   0.02195168
4864.00   1.30349296   0.02196258
4866.00   1.32041740   0.02201814
4868.00   1.25612048   0.02164133
4870.00   1.26669388   0.02166052
4872.00   1.26477385   0.02166594
4874.00   1.22376473   0.02147939
4876.00   1.22702452   0.02154509
4878.00   1.25069635   0.02182531
4880.00   1.23320600   0.02177036
4882.00   1.17460144   0.02134341
4884.00   1.19880388   0.02130650
4886.00   1.15719311   0.02096887
4888.00   1.18425079   0.02100392
4890.00   1.17963861   0.02104321
4892.00   1.19722838   0.02117475
4894.00   1.15701685   0.02103189
4896.00   1.18708309   0.02111123
4898.00   1.20223328   0.02108321
4900.00   1.22905187   0.02116416
4902.00   1.18162759   0.02084474
4904.00   1.22956580   0.02111891
4906.00   1.20437193   0.02100341
4908.00   1.26830611   0.02151250
4910.00   1.22568659   0.02131110
4912.00   1.22375420   0.02127313
4914.00   1.25519322   0.02143163
4916.00   1.29471238   0.02170750
4918.00   1.30504834   0.02156616
4920.00   1.29496441   0.02142571
4922.00   1.27598205   0.02141214
4924.00   1.31538385   0.02149917
4926.00   1.32312624   0.02145493
4928.00   1.35395906   0.02151419
4930.00   1.38761258   0.02157985
4932.00   1.37812285   0.02164331
4934.00   1.41730471   0.02184048
4936.00   1.42384991   0.02191321
4938.00   1.41824362   0.02195414
4940.00   1.47721189   0.02220184
4942.00   1.40308865   0.02180427
4944.00   1.43497051   0.02182674
4946.00   1.41467642   0.02172840
4948.00   1.38482494   0.02153428
4950.00   1.41576401   0.02177850
4952.00   1.45138380   0.02214279
4954.00   1.43098881   0.02213431
4956.00   1.42112898   0.02185048
4958.00   1.37678965   0.02164603
4960.00   1.39462463   0.02173899
4962.00   1.41840377   0.02195616
4964.00   1.43850795   0.02206192
4966.00   1.40902582   0.02202238
4968.00   1.45291178   0.02234246
4970.00   1.41644938   0.02240829
4972.00   1.42626186   0.02295823
4974.00   1.45302128   0.02343349
4976.00   1.46590293   0.02391895
4978.00   1.48270368   0.02479590
4980.00   1.42168512   0.02522452
4982.00   1.47564554   0.02581701
4984.00   1.44498108   0.02556465
4986.00   1.43071817   0.02498414
4988.00   1.44329045   0.02440912
4990.00   1.40168263   0.02379105
4992.00   1.42770939   0.02346714
4994.00   1.40838392   0.02294403
4996.00   1.47810623   0.02282513
4998.00   1.45021789   0.02245033
5000.00   1.48971952   0.02237716
5002.00   1.46749267   0.02224724
5004.00   1.47559842   0.02209230
5006.00   1.52675505   0.02229836
5008.00   1.51776282   0.02222847
5010.00   1.55980041   0.02235279
5012.00   1.58045314   0.02241105
5014.00   1.58808223   0.02238560
5016.00   1.67381425   0.02286610
5018.00   1.68932036   0.02317279
5020.00   1.69321611   0.02328086
5022.00   1.74185124   0.02333636
5024.00   1.77467014   0.02334956
5026.00   1.80136999   0.02336987
5028.00   1.77702712   0.02346959
5030.00   1.80989948   0.02377244
5032.00   1.79456160   0.02366245
5034.00   1.82592445   0.02357226
5036.00   1.85392649   0.02361036
5038.00   1.85481966   0.02352565
5040.00   1.88211406   0.02358605
5042.00   1.91385478   0.02384018
5044.00   1.89831878   0.02387286
5046.00   1.91754492   0.02396248
5048.00   1.98659368   0.02425364
5050.00   1.99273308   0.02428590
5052.00   1.93353196   0.02399497
5054.00   1.96835193   0.02412722
5056.00   1.96598040   0.02410075
5058.00   1.98698387   0.02419671
5060.00   1.99537627   0.02432139
5062.00   2.01113753   0.02467150
5064.00   1.98258021   0.02485347
5066.00   2.03321195   0.02504024
5068.00   1.98062153   0.02526063
5070.00   1.99030827   0.02538846
5072.00   1.99358279   0.02508650
5074.00   1.96660236   0.02487017
5076.00   1.95561147   0.02464919
5078.00   1.94738229   0.02484438
5080.00   1.97969061   0.02618929
5082.00   1.98983848   0.02735436
5084.00   1.91962345   0.02778031
5086.00   1.97535344   0.02790811
5088.00   1.90792092   0.02665652
5090.00   1.80208297   0.02519800
5092.00   1.84430775   0.02460465
5094.00   1.82553043   0.02427758
5096.00   1.75183053   0.02417473
5098.00   1.73038200   0.02453828
5100.00   1.67215865   0.02432904
5102.00   1.67623130   0.02381288
5104.00   1.67943915   0.02343303
5106.00   1.66313363   0.02322728
5108.00   1.66610011   0.02320631
5110.00   1.64299308   0.02311809
5112.00   1.62504847   0.02310361
5114.00   1.64664935   0.02330332
5116.00   1.57589969   0.02306020
5118.00   1.59151436   0.02301671
5120.00   1.54452059   0.02256627
5122.00   1.55294361   0.02250903
5124.00   1.52588214   0.02233359
5126.00   1.45724274   0.02200856
5128.00   1.45693717   0.02199817
5130.00   1.43814271   0.02196666
5132.00   1.39548545   0.02178930
5134.00   1.44166270   0.02208721
5136.00   1.40216054   0.02186145
5138.00   1.32736225   0.02146568
5140.00   1.35911291   0.02162141
5142.00   1.33386362   0.02159505
5144.00   1.29343139   0.02145560
5146.00   1.30069256   0.02168598
5148.00   1.31677368   0.02212154
5150.00   1.30602500   0.02238201
5152.00   1.28134153   0.02275708
5154.00   1.28937860   0.02291041
5156.00   1.28545456   0.02252939
5158.00   1.24460438   0.02198071
5160.00   1.21950280   0.02155681
5162.00   1.22758110   0.02133847
5164.00   1.17816052   0.02095113
5166.00   1.20729611   0.02097371
5168.00   1.16345603   0.02067938
5170.00   1.24210354   0.02107815
5172.00   1.20583261   0.02083722
5174.00   1.20697545   0.02100034
5176.00   1.21452850   0.02118368
5178.00   1.22887543   0.02126429
5180.00   1.17625472   0.02093529
5182.00   1.18332424   0.02093305
5184.00   1.12587872   0.02062683
5186.00   1.17971228   0.02101627
5188.00   1.14579424   0.02078979
5190.00   1.16283510   0.02110497
5192.00   1.17650260   0.02109623
5194.00   1.15312560   0.02104155
5196.00   1.17264294   0.02148954
5198.00   1.13870789   0.02150250
5200.00   1.17777418   0.02175623
5202.00   1.14207933   0.02137966
5204.00   1.17911188   0.02150018
5206.00   1.15710293   0.02127594
5208.00   1.16242028   0.02166451
5210.00   1.15838901   0.02185183
5212.00   1.14662668   0.02162865
5214.00   1.19413731   0.02175009
5216.00   1.21583560   0.02196301
5218.00   1.17789104   0.02192539
5220.00   1.19816890   0.02213260
5222.00   1.20436947   0.02211374
5224.00   1.22140556   0.02214227
5226.00   1.19722146   0.02189596
5228.00   1.18236918   0.02187835
5230.00   1.21221556   0.02212650
5232.00   1.15870181   0.02186737
5234.00   1.19497131   0.02207964
5236.00   1.20083864   0.02209392
5238.00   1.16211462   0.02214340
5240.00   1.19399790   0.02233088
5242.00   1.23668203   0.02253454
5244.00   1.22612965   0.02236822
5246.00   1.20775720   0.02229883
5248.00   1.18409988   0.02220979
5250.00   1.20962935   0.02234396
5252.00   1.21973974   0.02248162
5254.00   1.21397121   0.02259017
5256.00   1.25807167   0.02316534
5258.00   1.19308577   0.02304099
5260.00   1.22143122   0.02302679
5262.00   1.20317474   0.02272519
5264.00   1.22020244   0.02274144
5266.00   1.21189611   0.02270850
5268.00   1.21121931   0.02275254
5270.00   1.22077830   0.02282288
5272.00   1.22544755   0.02284914
5274.00   1.19389706   0.02290890
5276.00   1.23452389   0.02314088
5278.00   1.22012158   0.02315734
5280.00   1.21531659   0.02317491
5282.00   1.15629570   0.02291431
5284.00   1.21731846   0.02352851
5286.00   1.26070857   0.02382860
5288.00   1.21432065   0.02349765
5290.00   1.23330461   0.02367966
5292.00   1.25899264   0.02396020
5294.00   1.26208550   0.02386319
5296.00   1.25607385   0.02389358
5298.00   1.29692090   0.02421138
5300.00   1.28672916   0.02427521
5302.00   1.31444329   0.02458465
5304.00   1.29655883   0.02448986
5306.00   1.25496176   0.02433536
5308.00   1.27239575   0.02456310
5310.00   1.27170860   0.02464268
5312.00   1.34411743   0.02519167
5314.00   1.30590421   0.02485744
5316.00   1.28499472   0.02484516
5318.00   1.33935639   0.02530282
5320.00   1.35530190   0.02538775
5322.00   1.37989693   0.02588048
5324.00   1.35003358   0.02559050
5326.00   1.35498646   0.02566676
5328.00   1.34599066   0.02576594
5330.00   1.41223474   0.02625888
5332.00   1.34810065   0.02598060
5334.00   1.44591477   0.02806585
5336.00   1.46703087   0.02804128
5338.00   1.48432046   0.02717824
5340.00   1.48380488   0.02754225
5342.00   1.44289965   0.02735342
5344.00   1.53598615   0.02786217
5346.00   1.49778984   0.02786550
5348.00   1.52327656   0.02851251
5350.00   1.51836345   0.02842587
5352.00   1.51420709   0.02845042
5354.00   1.58138143   0.02922143
5356.00   1.55696873   0.02921438
5358.00   1.60495611   0.02915895
5360.00   1.56975476   0.02880014
5362.00   1.51365020   0.02834175
5364.00   1.54071127   0.02839061
5366.00   1.57294913   0.02877213
5368.00   1.63390009   0.02900088
5370.00   1.62248752   0.02907728
5372.00   1.70737086   0.02989250
5374.00   1.66597944   0.01258747
5376.00   1.65154254   0.01279143
5378.00   1.65096545   0.01287704
5380.00   1.67506349   0.01291568
5382.00   1.71296239   0.01298369
5384.00   1.73658758   0.01305924
5386.00   1.75018036   0.01304980
5388.00   1.75525302   0.01329884
5390.00   1.74653274   0.01381598
5392.00   1.74192739   0.01419281
5394.00   1.74193370   0.01446358
5396.00   1.74177659   0.01463927
5398.00   1.74575543   0.01443072
5400.00   1.77472913   0.01389916
5402.00   1.81589317   0.01400463
5404.00   1.86862874   0.01445395
5406.00   1.89549321   0.01456020
5408.00   1.90816504   0.01437935
5410.00   1.91866446   0.01445363
5412.00   1.90428370   0.01456195
5414.00   1.88095105   0.01468273
5416.00   1.89330274   0.01485730
5418.00   1.92297727   0.01506170
5420.00   1.95179212   0.01519019
5422.00   1.99517685   0.01522364
5424.00   2.03108490   0.01532855
5426.00   2.03855294   0.01544996
5428.00   2.03579575   0.01562675
5430.00   2.05231732   0.01639025
5432.00   2.07529122   0.01788998
5434.00   2.09122288   0.01869824
5436.00   2.09472865   0.01943500
5438.00   2.11618626   0.01968414
5440.00   2.16872197   0.01899314
5442.00   2.23899841   0.01786041
5444.00   2.28146386   0.01768383
5446.00   2.28859729   0.01788630
5448.00   2.27408820   0.01760341
5450.00   2.22322184   0.01678134
5452.00   2.21396756   0.01683788
5454.00   2.25124478   0.01787207
5456.00   2.27943063   0.01926545
5458.00   2.28301227   0.02047805
5460.00   2.27151895   0.02159038
5462.00   2.24282944   0.02160652
5464.00   2.17702031   0.02026549
5466.00   2.16743827   0.01982884
5468.00   2.23189938   0.02060384
5470.00   2.27921927   0.02118435
5472.00   2.27157265   0.02044323
5474.00   2.24153173   0.01879653
5476.00   2.20695263   0.01750381
5478.00   2.13450122   0.01551583
5480.00   2.11831844   0.01479099
5482.00   2.15786123   0.01576477
5484.00   2.19079846   0.01649199
5486.00   2.20846701   0.01628737
5488.00   2.22095847   0.01569909
5490.00   2.21283567   0.01528897
5492.00   2.17883039   0.01472753
5494.00   2.16827881   0.01451890
5496.00   2.16837382   0.01465135
5498.00   2.17168546   0.01465798
5500.00   2.18472385   0.01450367
5502.00   2.19326204   0.01437789
5504.00   2.17715716   0.01423547
5506.00   2.13407576   0.01402116
5508.00   2.13035560   0.01399417
5510.00   2.15986258   0.01413436
5512.00   2.18201917   0.01426482
5514.00   2.19814670   0.01429219
5516.00   2.20493048   0.01442026
5518.00   2.20074826   0.01506661
5520.00   2.19778675   0.01616107
5522.00   2.21381378   0.01602710
5524.00   2.23893476   0.01463853
5526.00   2.24859732   0.01399091
5528.00   2.25175285   0.01411539
5530.00   2.24557406   0.01401458
5532.00   2.22119808   0.01354675
5534.00   2.20466870   0.01325181
5536.00   2.21739823   0.01315873
5538.00   2.25607747   0.01319651
5540.00   2.26644325   0.01319168
5542.00   2.25706774   0.01320912
5544.00   2.25176185   0.01320982
5546.00   2.25590014   0.01323641
5548.00   2.25431389   0.01316492
5550.00   2.24020648   0.01306643
5552.00   2.21874958   0.01306619
5554.00   2.22626466   0.01319168
5556.00   2.26347649   0.01357564
5558.00   2.27771074   0.01362906
5560.00   2.26174009   0.01311401
5562.00   2.24387056   0.01258479
5564.00   2.24915850   0.01270011
5566.00   2.27333373   0.01323667
5568.00   2.28790325   0.01445963
5570.00   2.29981387   0.01640206
5572.00   2.32434440   0.01802505
5574.00   2.36404437   0.01976825
5576.00   2.39499319   0.02085713
5578.00   2.43304944   0.02135079
5580.00   2.48533720   0.02151265
5582.00   2.50661910   0.02081253
5584.00   2.49946499   0.01898900
5586.00   2.50118446   0.01748054
5588.00   2.49985695   0.01567109
5590.00   2.50728005   0.01430014
5592.00   2.53037798   0.01406741
5594.00   2.56230885   0.01422580
5596.00   2.59046286   0.01403681
5598.00   2.62115759   0.01395054
5600.00   2.65910053   0.01392554
5602.00   2.71041906   0.01402519
5604.00   2.74783576   0.01413155
5606.00   2.76463658   0.01416463
5608.00   2.77508593   0.01408527
5610.00   2.79721361   0.01403558
5612.00   2.83057612   0.01396901
5614.00   2.87346739   0.01400693
5616.00   2.93559420   0.01371474
5618.00   2.97375304   0.01422046
5620.00   2.98122418   0.01610760
5622.00   2.98536146   0.01776588
5624.00   3.01537144   0.01768117
5626.00   3.06194687   0.01634374
5628.00   3.09376752   0.01560824
5630.00   3.11942291   0.01471762
5632.00   3.14249027   0.01447564
5634.00   3.15653813   0.01523231
5636.00   3.18553281   0.01546002
5638.00   3.22537315   0.01510344
5640.00   3.24967253   0.01492126
5642.00   3.25889516   0.01480133
5644.00   3.25540328   0.01455727
5646.00   3.26232708   0.01446285
5648.00   3.27400732   0.01451651
5650.00   3.29255307   0.01456933
5652.00   3.31370330   0.01463137
5654.00   3.32751107   0.01469177
5656.00   3.34232807   0.01468493
5658.00   3.36300540   0.01444151
5660.00   3.36444771   0.01477539
5662.00   3.35343182   0.01540325
5664.00   3.33597481   0.01635514
5666.00   3.30389774   0.01818464
5668.00   3.26805997   0.01953851
5670.00   3.25418222   0.01875841
5672.00   3.26229644   0.01582925
5674.00   3.24294150   0.01496183
5676.00   3.20271623   0.01541073
5678.00   3.16896546   0.01582357
5680.00   3.13422215   0.01635697
5682.00   3.11268532   0.01691707
5684.00   3.11735678   0.01751613
5686.00   3.13488615   0.01809342
5688.00   3.11449158   0.01809751
5690.00   3.06850034   0.01764310
5692.00   3.02541900   0.01723581
5694.00   2.97614044   0.01670844
5696.00   2.92711622   0.01615305
5698.00   2.87981528   0.01548443
5700.00   2.83959848   0.01478622
5702.00   2.81138450   0.01512977
5704.00   2.79379463   0.01686568
5706.00   2.77583611   0.01735419
5708.00   2.76631385   0.01737315
5710.00   2.74678338   0.01694418
5712.00   2.71468687   0.01570238
5714.00   2.67486125   0.01390236
5716.00   2.63437790   0.01326057
5718.00   2.59402335   0.01369899
5720.00   2.55663931   0.01356907
5722.00   2.51690757   0.01330177
5724.00   2.48935324   0.01314193
5726.00   2.47813219   0.01312583
5728.00   2.46820086   0.01311499
5730.00   2.45685494   0.01304842
5732.00   2.44617236   0.01295891
5734.00   2.43236971   0.01287908
5736.00   2.42265850   0.01281468
5738.00   2.40531653   0.01276744
5740.00   2.38469958   0.01266472
5742.00   2.34495902   0.01271230
5744.00   2.28262979   0.01299829
5746.00   2.22297615   0.01305794
5748.00   2.20207012   0.01303396
5750.00   2.20771623   0.01327006
5752.00   2.20228368   0.01321276
5754.00   2.19633096   0.01273648
5756.00   2.19080657   0.01240339
5758.00   2.18419641   0.01239171
5760.00   2.17442662   0.01249027
5762.00   2.17376852   0.01270379
5764.00   2.19621742   0.01314979
5766.00   2.18063807   0.01334806
5768.00   2.12935770   0.01347112
5770.00   2.08904564   0.01343487
5772.00   2.07105488   0.01319165
5774.00   2.05600226   0.01285331
5776.00   2.02352142   0.01253230
5778.00   1.98746127   0.01216071
5780.00   1.96986145   0.01203269
5782.00   1.95463878   0.01205410
5784.00   1.95134836   0.01232971
5786.00   1.97972816   0.01305310
5788.00   2.00364834   0.01348895
5790.00   1.98644608   0.01357386
5792.00   1.93525541   0.01369053
5794.00   1.90652084   0.01348198
5796.00   1.89702964   0.01248034
5798.00   1.89345556   0.01236099
5800.00   1.90880799   0.01323915
5802.00   1.89456177   0.01411964
5804.00   1.84250253   0.01473158
5806.00   1.76788825   0.01518539
5808.00   1.72892255   0.01459694
5810.00   1.72463828   0.01235952
5812.00   1.71253347   0.01131405
5814.00   1.70278156   0.01116898
5816.00   1.68845928   0.01114675
5818.00   1.67454100   0.01112245
5820.00   1.65393907   0.01113351
5822.00   1.63280332   0.01119486
5824.00   1.61786455   0.01151051
5826.00   1.61536169   0.01201748
5828.00   1.62340033   0.01299058
5830.00   1.61560965   0.01306671
5832.00   1.59152007   0.01182414
5834.00   1.58917820   0.01065913
5836.00   1.59256566   0.01078993
5838.00   1.58838993   0.01167994
5840.00   1.59053773   0.01201483
5842.00   1.59034306   0.01241167
5844.00   1.60575271   0.01244113
5846.00   1.64838761   0.01188454
5848.00   1.68471509   0.01126572
5850.00   1.69210702   0.01123982
5852.00   1.68832541   0.01153811
5854.00   1.69385749   0.01154049
5856.00   1.69458401   0.01147982
5858.00   1.70925778   0.01155184
5860.00   1.74356699   0.01155175
5862.00   1.77380794   0.01186452
5864.00   1.79221356   0.01285952
5866.00   1.79373044   0.01375842
5868.00   1.78270948   0.01390328
5870.00   1.74925560   0.01368725
5872.00   1.74096477   0.01321745
5874.00   1.75309300   0.01203522
5876.00   1.76181751   0.01137795
5878.00   1.75829780   0.01100073
5880.00   1.75314838   0.01175836
5882.00   1.75214595   0.01398579
5884.00   1.73227519   0.01632391
5886.00   1.70127428   0.01842931
5888.00   1.65801507   0.02118599
5890.00   1.64115685   0.02260376
5892.00   1.63174552   0.02278429
5894.00   1.64395404   0.02244623
5896.00   1.70305991   0.02141408
5898.00   1.78531736   0.01925523
5900.00   1.80953062   0.01746396
5902.00   1.79458082   0.01554102
5904.00   1.79212409   0.01402346
5906.00   1.78618562   0.01293898
5908.00   1.79232830   0.01210451
5910.00   1.82101256   0.01173820
5912.00   1.85539883   0.01174714
5914.00   1.87070191   0.01165049
5916.00   1.87462443   0.01166600
5918.00   1.88950914   0.01165218
5920.00   1.91257042   0.01163737
5922.00   1.93483120   0.01163081
5924.00   1.95219040   0.01165064
5926.00   1.96435976   0.01169651
5928.00   1.97947586   0.01173081
5930.00   2.00174648   0.01180823
5932.00   2.02486748   0.01189625
5934.00   2.05343616   0.01201693
5936.00   2.06621450   0.01199056
5938.00   2.06340641   0.01181600
5940.00   2.05580968   0.01166777
5942.00   2.04997271   0.01156128
5944.00   2.05162007   0.01148724
5946.00   2.06588423   0.01148338
5948.00   2.09090346   0.01154541
5950.00   2.11191291   0.01157169
5952.00   2.13688147   0.01158732
5954.00   2.15485394   0.01160198
5956.00   2.16098672   0.01159318
5958.00   2.16046482   0.01156271
5960.00   2.16309655   0.01152857
5962.00   2.17143142   0.01150548
5964.00   2.17088431   0.01150577
5966.00   2.15466279   0.01142884
5968.00   2.14553243   0.01158274
5970.00   2.16201252   0.01219166
5972.00   2.18478471   0.01249292
5974.00   2.18176877   0.01216643
5976.00   2.15330404   0.01161586
5978.00   2.14509469   0.01143505
5980.00   2.15138352   0.01141528
5982.00   2.15801466   0.01142103
5984.00   2.15047139   0.01162261
5986.00   2.14684141   0.01170138
5988.00   2.16520780   0.01153490
5990.00   2.19226998   0.01146226
5992.00   2.20884556   0.01180564
5994.00   2.22408497   0.01241863
5996.00   2.23371804   0.01253625
5998.00   2.23657525   0.01234693
6000.00   2.23164582   0.01217199
6002.00   2.22512674   0.01187128
6004.00   2.22458142   0.01180429
6006.00   2.21732855   0.01165681
6008.00   2.20198715   0.01117457
6010.00   2.19747770   0.01100471
6012.00   2.20393860   0.01125961
6014.00   2.21036202   0.01159160
6016.00   2.22222430   0.01199614
6018.00   2.23557520   0.01258251
6020.00   2.22788864   0.01242252
6022.00   2.19787580   0.01125760
6024.00   2.18963003   0.01075160
6026.00   2.20054394   0.01077061
6028.00   2.20571822   0.01087178
6030.00   2.20069486   0.01085989
6032.00   2.18771935   0.01082475
6034.00   2.17433137   0.01082786
6036.00   2.15829259   0.01083799
6038.00   2.14080507   0.01079308
6040.00   2.11983639   0.01072918
6042.00   2.10909122   0.01067538
6044.00   2.11139631   0.01053208
6046.00   2.10519421   0.01041982
6048.00   2.08508968   0.01051256
6050.00   2.05464894   0.01072778
6052.00   2.03998739   0.01090699
6054.00   2.04018027   0.01119335
6056.00   2.03462523   0.01115977
6058.00   2.02177376   0.01064875
6060.00   2.00303847   0.01027441
6062.00   1.98764557   0.01022332
6064.00   1.97874987   0.01024947
6066.00   1.97209853   0.01032762
6068.00   1.97256213   0.01055704
6070.00   1.95981812   0.01056553
6072.00   1.93077075   0.01034669
6074.00   1.90351647   0.01021775
6076.00   1.88950777   0.01008966
6078.00   1.88519651   0.00986383
6080.00   1.87714171   0.00974196
6082.00   1.86937302   0.00956428
6084.00   1.85468757   0.00968417
6086.00   1.83026862   0.01020294
6088.00   1.81062406   0.01057929
6090.00   1.80016416   0.01066938
6092.00   1.79505366   0.01059232
6094.00   1.78852326   0.01036865
6096.00   1.78698027   0.00975690
6098.00   1.78080201   0.00953298
6100.00   1.76572108   0.00955603
6102.00   1.76708645   0.00988263
6104.00   1.79715008   0.01058441
6106.00   1.82005906   0.01095857
6108.00   1.81864905   0.01110973
6110.00   1.79999477   0.01119990
6112.00   1.77423209   0.01101818
6114.00   1.73107785   0.01059001
6116.00   1.71660107   0.01038052
6118.00   1.73648202   0.01035832
6120.00   1.74735051   0.01020269
6122.00   1.73993886   0.01000612
6124.00   1.72123617   0.00981084
6126.00   1.69813132   0.00962986
6128.00   1.65988964   0.00905694
6130.00   1.65333915   0.00935787
6132.00   1.68179429   0.01082421
6134.00   1.70442230   0.01177392
6136.00   1.71118462   0.01157825
6138.00   1.70199835   0.01076042
6140.00   1.68233740   0.01024229
6142.00   1.64188856   0.00939099
6144.00   1.62038380   0.00904102
6146.00   1.61198574   0.00903101
6148.00   1.60907286   0.00932879
6150.00   1.60582936   0.01009210
6152.00   1.59208626   0.01090788
6154.00   1.57843256   0.01095358
6156.00   1.56095725   0.01034725
6158.00   1.55381000   0.01002313
6160.00   1.55980444   0.00964525
6162.00   1.56421608   0.00936433
6164.00   1.56605083   0.00923170
6166.00   1.56210124   0.00915769
6168.00   1.55180609   0.00899824
6170.00   1.53579834   0.00881050
6172.00   1.52718055   0.00867972
6174.00   1.51983047   0.00858364
6176.00   1.51803559   0.00863960
6178.00   1.51975107   0.00896020
6180.00   1.53139818   0.00904865
6182.00   1.55571640   0.00890791
6184.00   1.57648349   0.00875398
6186.00   1.58143008   0.00866561
6188.00   1.58091092   0.00859602
6190.00   1.58285898   0.00856710
6192.00   1.58413857   0.00857627
6194.00   1.58195120   0.00858372
6196.00   1.57659137   0.00863539
6198.00   1.56970817   0.00870674
6200.00   1.56917137   0.00869733
6202.00   1.57544833   0.00860327
6204.00   1.57531911   0.00857952
6206.00   1.57055736   0.00859298
6208.00   1.57041496   0.00860221
6210.00   1.57729417   0.00860910
6212.00   1.57975149   0.00861015
6214.00   1.57942206   0.00859874
6216.00   1.58627224   0.00857171
6218.00   1.58212900   0.00851413
6220.00   1.56177777   0.00840839
6222.00   1.55587536   0.00837755
6224.00   1.56898987   0.00835830
6226.00   1.58444136   0.00850129
6228.00   1.59244108   0.00887080
6230.00   1.58874577   0.00907203
6232.00   1.58011723   0.00896978
6234.00   1.56943953   0.00875470
6236.00   1.56727231   0.00867449
6238.00   1.57108641   0.00863594
6240.00   1.57173932   0.00857612
6242.00   1.57015568   0.00850530
6244.00   1.57567441   0.00845084
6246.00   1.59464997   0.00848625
6248.00   1.61560297   0.00859601
6250.00   1.63136941   0.00876635
6252.00   1.64840865   0.00906731
6254.00   1.67215121   0.00910433
6256.00   1.69469893   0.00885734
6258.00   1.70361918   0.00871978
6260.00   1.70865685   0.00870559
6262.00   1.71360373   0.00872495
6264.00   1.73920703   0.00874345
6266.00   1.79057378   0.00879476
6268.00   1.82244396   0.00881909
6270.00   1.83226830   0.00881007
6272.00   1.83222091   0.00879699
6274.00   1.83395088   0.00880073
6276.00   1.82967621   0.00878261
6278.00   1.84025073   0.00880695
6280.00   1.86493200   0.00887768
6282.00   1.88421041   0.00898921
6284.00   1.90141523   0.00912196
6286.00   1.91687655   0.00932850
6288.00   1.92285693   0.00963239
6290.00   1.92522311   0.00970233
6292.00   1.93127483   0.00959627
6294.00   1.93357176   0.00946983
6296.00   1.93531972   0.00964742
6298.00   1.93566257   0.01015448
6300.00   1.93592238   0.01040612
6302.00   1.93720722   0.01038101
6304.00   1.94352710   0.01019367
6306.00   1.95446151   0.01000105
6308.00   1.98100138   0.00976577
6310.00   1.98676080   0.00949905
6312.00   1.97735339   0.00911521
6314.00   1.96472144   0.00886734
6316.00   1.95043439   0.00875807
6318.00   1.93420619   0.00882110
6320.00   1.92443013   0.00909018
6322.00   1.91868597   0.00929537
6324.00   1.91753250   0.00931025
6326.00   1.92668504   0.00916092
6328.00   1.93848002   0.00918275
6330.00   1.95589107   0.00929946
6332.00   1.96108252   0.00967024
6334.00   1.95376503   0.00997416
6336.00   1.93570399   0.01015701
6338.00   1.94488853   0.01010864
6340.00   1.98933911   0.00958547
6342.00   2.00301629   0.00911132
6344.00   1.98843879   0.00846559
6346.00   1.96755916   0.00832985
6348.00   1.94858140   0.00859195
6350.00   1.93142724   0.00902989
6352.00   1.92547113   0.00945443
6354.00   1.92275840   0.01033062
6356.00   1.93452454   0.01037631
6358.00   1.97217590   0.00952476
6360.00   1.98934114   0.00880576
6362.00   1.98162496   0.00878372
6364.00   1.95951825   0.00899602
6366.00   1.91286308   0.00881106
6368.00   1.83822358   0.00837394
6370.00   1.83139873   0.00823639
6372.00   1.88014424   0.00829746
6374.00   1.89593703   0.00833621
6376.00   1.88114816   0.00838245
6378.00   1.86840951   0.00840447
6380.00   1.85573208   0.00828435
6382.00   1.83373952   0.00813406
6384.00   1.80709738   0.00818109
6386.00   1.77117300   0.00828382
6388.00   1.74274403   0.00837949
6390.00   1.71746141   0.00864122
6392.00   1.70402682   0.00870943
6394.00   1.69732451   0.00845077
6396.00   1.68766981   0.00827065
6398.00   1.67013216   0.00813767
6400.00   1.64227974   0.00785141
6402.00   1.60896760   0.00773787
6404.00   1.56656969   0.00784031
6406.00   1.53312027   0.00789291
6408.00   1.49558040   0.00788491
6410.00   1.46565196   0.00776775
6412.00   1.46047691   0.00763600
6414.00   1.47084039   0.00767004
6416.00   1.46640944   0.00771662
6418.00   1.46038049   0.00785538
6420.00   1.45028344   0.00781451
6422.00   1.42628148   0.00754831
6424.00   1.39932153   0.00721211
6426.00   1.38965240   0.00709238
6428.00   1.39376315   0.00718291
6430.00   1.38352197   0.00725393
6432.00   1.36435291   0.00737903
6434.00   1.35340762   0.00738625
6436.00   1.35092294   0.00716914
6438.00   1.34620866   0.00709468
6440.00   1.34241453   0.00752699
6442.00   1.34366703   0.00834286
6444.00   1.34648043   0.00866918
6446.00   1.34993860   0.00884626
6448.00   1.35773280   0.00864946
6450.00   1.37290683   0.00777145
6452.00   1.38556710   0.00705391
6454.00   1.39068025   0.00700948
6456.00   1.39841834   0.00731313
6458.00   1.41662118   0.00739103
6460.00   1.44176945   0.00742556
6462.00   1.45805183   0.00746968
6464.00   1.47086364   0.00753021
6466.00   1.47745940   0.00755863
6468.00   1.47234073   0.00741179
6470.00   1.46893579   0.00728227
6472.00   1.48587441   0.00779646
6474.00   1.51956090   0.00880124
6476.00   1.55293262   0.00961752
6478.00   1.60497385   0.01091092
6480.00   1.63591233   0.01134805
6482.00   1.63475886   0.01056228
6484.00   1.61915189   0.00919390
6486.00   1.61434203   0.00842010
6488.00   1.60685819   0.00779853
6490.00   1.61441267   0.00753391
6492.00   1.63828683   0.00786850
6494.00   1.66268826   0.00801724
6496.00   1.68885469   0.00796734
6498.00   1.71172506   0.00792230
6500.00   1.73771942   0.00806566
6502.00   1.76551151   0.00832192
6504.00   1.78324938   0.00839067
6506.00   1.79758805   0.00838269
6508.00   1.80017418   0.00846568
6510.00   1.78541350   0.00862770
6512.00   1.77322435   0.00870569
6514.00   1.76822019   0.00876803
6516.00   1.77096570   0.00874242
6518.00   1.77651507   0.00865354
6520.00   1.78481692   0.00852970
6522.00   1.80828357   0.00852861
6524.00   1.84736133   0.00847727
6526.00   1.87774050   0.00857418
6528.00   1.90845132   0.00913205
6530.00   1.94003534   0.00985600
6532.00   1.94923621   0.00988183
6534.00   1.94623899   0.00945431
6536.00   1.95258522   0.00910253
6538.00   1.95941305   0.00823445
6540.00   1.95637643   0.00794927
6542.00   1.93832409   0.00857273
6544.00   1.92812443   0.00952951
6546.00   1.95231545   0.01027813
6548.00   2.01463157   0.01097060
6550.00   2.04869294   0.01089762
6552.00   2.07402891   0.01001137
6554.00   2.08760929   0.00937244
6556.00   2.08673805   0.00862580
6558.00   2.07934904   0.00829303
6560.00   2.07317674   0.00893911
6562.00   2.06745899   0.01012016
6564.00   2.08662546   0.01025203
6566.00   2.14053190   0.00955533
6568.00   2.16705382   0.00962991
6570.00   2.16868633   0.01042737
6572.00   2.17905539   0.01076068
6574.00   2.21199095   0.01051662
6576.00   2.24626672   0.01006237
6578.00   2.27349645   0.00959179
6580.00   2.31261343   0.00888752
6582.00   2.32720971   0.00859555
6584.00   2.32105207   0.00846598
6586.00   2.31278449   0.00863355
6588.00   2.30228335   0.00938357
6590.00   2.28860664   0.01028053
6592.00   2.28490120   0.01040650
6594.00   2.29384375   0.00961766
6596.00   2.30790573   0.00972489
6598.00   2.33424443   0.01072301
6600.00   2.35030156   0.01106076
6602.00   2.35644323   0.01061558
6604.00   2.35852104   0.00993104
6606.00   2.36109501   0.00935416
6608.00   2.36052328   0.00861089
6610.00   2.36794829   0.00831765
6612.00   2.38164639   0.00829864
6614.00   2.39544779   0.00866582
6616.00   2.41091543   0.00974295
6618.00   2.43108475   0.01047601
6620.00   2.44922310   0.01036680
6622.00   2.46181524   0.00972539
6624.00   2.47041196   0.00932582
6626.00   2.46450007   0.00877669
6628.00   2.46691608   0.00854330
6630.00   2.47656238   0.00865374
6632.00   2.48662746   0.00876624
6634.00   2.49293590   0.00867272
6636.00   2.49310327   0.00855989
6638.00   2.47634971   0.00902058
6640.00   2.43913811   0.01024679
6642.00   2.43732363   0.01042182
6644.00   2.46309501   0.00985032
6646.00   2.48007751   0.00934182
6648.00   2.48774111   0.00886441
6650.00   2.49375302   0.00857669
6652.00   2.50516671   0.00876913
6654.00   2.51804936   0.00915395
6656.00   2.51380664   0.00911972
6658.00   2.49774903   0.00889755
6660.00   2.48048651   0.00876707
6662.00   2.45210189   0.00847564
6664.00   2.43046063   0.00841937
6666.00   2.43117398   0.00903883
6668.00   2.44680601   0.01004432
6670.00   2.43985200   0.01011862
6672.00   2.41307038   0.00940432
6674.00   2.39453548   0.00899006
6676.00   2.38233632   0.00863730
6678.00   2.36735594   0.00838803
6680.00   2.34325939   0.00824862
6682.00   2.31556982   0.00824603
6684.00   2.29386187   0.00859782
6686.00   2.28151500   0.00967605
6688.00   2.25464261   0.00979921
6690.00   2.21431625   0.00921696
6692.00   2.17855340   0.00866701
6694.00   2.15058804   0.00829407
6696.00   2.12400180   0.00800106
6698.00   2.09915018   0.00790032
6700.00   2.07645887   0.00803739
6702.00   2.05255127   0.00804947
6704.00   2.02926052   0.00801354
6706.00   2.01197994   0.00803831
6708.00   1.99885499   0.00816533
6710.00   1.98622310   0.00828709
6712.00   1.97833961   0.00825618
6714.00   1.97480887   0.00806239
6716.00   1.97111940   0.00834606
6718.00   1.96841490   0.00935733
6720.00   1.96241355   0.00968602
6722.00   1.95648605   0.00943395
6724.00   1.94678009   0.00881109
6726.00   1.92474347   0.00824251
6728.00   1.89661956   0.00778574
6730.00   1.88327336   0.00758489
6732.00   1.88412571   0.00751014
6734.00   1.87153041   0.00775381
6736.00   1.84730339   0.00854635
6738.00   1.82499075   0.00904130
6740.00   1.81070334   0.00901005
6742.00   1.80263293   0.00867407
6744.00   1.78800702   0.00833322
6746.00   1.76498759   0.00771453
6748.00   1.74740803   0.00742890
6750.00   1.73581332   0.00737129
6752.00   1.71659040   0.00737405
6754.00   1.68412340   0.00749596
6756.00   1.65279812   0.00761888
6758.00   1.63003671   0.00747794
6760.00   1.60623330   0.00712331
6762.00   1.58872396   0.00743515
6764.00   1.58521581   0.00841993
6766.00   1.56916922   0.00867219
6768.00   1.53676659   0.00818403
6770.00   1.50159216   0.00762657
6772.00   1.47096461   0.00722617
6774.00   1.44389546   0.00683909
6776.00   1.42920664   0.00675364
6778.00   1.43162102   0.00704228
6780.00   1.41710731   0.00708317
6782.00   1.38693586   0.00695353
6784.00   1.35700721   0.00680309
6786.00   1.33179754   0.00667895
6788.00   1.31459057   0.00658349
6790.00   1.30794054   0.00658351
6792.00   1.31078878   0.00673482
6794.00   1.30669788   0.00673848
6796.00   1.29972523   0.00659667
6798.00   1.29633367   0.00661214
6800.00   1.29868388   0.00684296
6802.00   1.29384544   0.00696572
6804.00   1.28419313   0.00720927
6806.00   1.28409189   0.00796197
6808.00   1.27414066   0.00798052
6810.00   1.25182799   0.00731344
6812.00   1.23269880   0.00679280
6814.00   1.21964130   0.00651729
6816.00   1.21066424   0.00638173
6818.00   1.20262712   0.00641397
6820.00   1.19666114   0.00662998
6822.00   1.19461566   0.00667503
6824.00   1.19543305   0.00643740
6826.00   1.19242495   0.00668609
6828.00   1.18763408   0.00764389
6830.00   1.18408313   0.00832626
6832.00   1.17517826   0.00817967
6834.00   1.16223010   0.00745131
6836.00   1.14930400   0.00709335
6838.00   1.13322198   0.00682500
6840.00   1.12113866   0.00666263
6842.00   1.11192650   0.00669119
6844.00   1.10330293   0.00668530
6846.00   1.09702155   0.00646877
6848.00   1.09049392   0.00618924
6850.00   1.07817113   0.00641349
6852.00   1.05916566   0.00731600
6854.00   1.04701337   0.00742098
6856.00   1.03606942   0.00689740
6858.00   1.03162244   0.00658966
6860.00   1.03956059   0.00665659
6862.00   1.04898658   0.00695401
6864.00   1.04023421   0.00742278
6866.00   1.01473677   0.00797441
6868.00   0.98378778   0.00788714
6870.00   0.93893215   0.00726664
6872.00   0.90641388   0.00682182
6874.00   0.88044745   0.00641402
6876.00   0.86356932   0.00610500
6878.00   0.86496553   0.00598079
6880.00   0.87593508   0.00593635
6882.00   0.87543055   0.00631796
6884.00   0.88290253   0.00736679
6886.00   0.87909448   0.00788509
6888.00   0.86185816   0.00812730
6890.00   0.83370247   0.00803118
6892.00   0.80515429   0.00775461
6894.00   0.78244451   0.00741091
6896.00   0.78096467   0.00701302
6898.00   0.80016497   0.00630799
6900.00   0.81030974   0.00593373
6902.00   0.81938401   0.00584151
6904.00   0.82950512   0.00582494
6906.00   0.84348541   0.00587149
6908.00   0.85380784   0.00597684
6910.00   0.85152310   0.00601558
6912.00   0.83911830   0.00599785
6914.00   0.83886555   0.00603582
6916.00   0.84303075   0.00614491
6918.00   0.85249856   0.00620778
6920.00   0.87114337   0.00619498
6922.00   0.89088050   0.00613564
6924.00   0.90394807   0.00606536
6926.00   0.90618834   0.00603849
6928.00   0.91280073   0.00620203
6930.00   0.92461666   0.00647407
6932.00   0.93899509   0.00652451
6934.00   0.95830512   0.00636985
6936.00   0.96884033   0.00634775
6938.00   0.96674761   0.00627565
6940.00   0.95684749   0.00616291
6942.00   0.96740246   0.00659346
6944.00   1.00399709   0.00778103
6946.00   1.02161822   0.00804403
6948.00   1.02446875   0.00755648
6950.00   1.02318686   0.00696968
6952.00   1.02656919   0.00659205
6954.00   1.02864850   0.00627389
6956.00   1.03219032   0.00607806
6958.00   1.03968957   0.00613171
6960.00   1.03872898   0.00620521
6962.00   1.03207463   0.00627954
6964.00   1.02800396   0.00639010
6966.00   1.02296489   0.00678248
6968.00   1.01394808   0.00727561
6970.00   1.01206625   0.00718507
6972.00   1.02274638   0.00652577
6974.00   1.03627348   0.00674624
6976.00   1.06351224   0.00765364
6978.00   1.06774265   0.00811678
6980.00   1.04496571   0.00833980
6982.00   1.01388240   0.00822711
6984.00   0.99382806   0.00762825
6986.00   0.98041424   0.00662347
6988.00   0.97583851   0.00615050
6990.00   0.98688683   0.00606140
6992.00   0.98305050   0.00606087
6994.00   0.96293625   0.00635255
6996.00   0.94805181   0.00640372
6998.00   0.93976557   0.00618048
7000.00   0.92959872   0.00600096
7002.00   0.92458788   0.00606551
7004.00   0.92591244   0.00611732
7006.00   0.91655505   0.00639326
7008.00   0.89469481   0.00703011
7010.00   0.88102448   0.00741465
7012.00   0.87976679   0.00741305
7014.00   0.88469216   0.00734670
7016.00   0.88628042   0.00715555
7018.00   0.89318278   0.00633137
7020.00   0.89600879   0.00621764
7022.00   0.89164218   0.00671769
7024.00   0.89112470   0.00714726
7026.00   0.90117472   0.00742837
7028.00   0.91799062   0.00770846
7030.00   0.92346087   0.00787346
7032.00   0.90910318   0.00774830
7034.00   0.90146956   0.00738322
7036.00   0.89949235   0.00658006
7038.00   0.89433387   0.00608673
7040.00   0.88045928   0.00590545
7042.00   0.86984703   0.00587712
7044.00   0.86572930   0.00589344
7046.00   0.86360744   0.00596843
7048.00   0.86244330   0.00597850
7050.00   0.86406222   0.00588889
7052.00   0.86707303   0.00614669
7054.00   0.87155202   0.00692039
7056.00   0.87525472   0.00725826
7058.00   0.88218823   0.00692604
7060.00   0.89015964   0.00631310
7062.00   0.89597401   0.00605938
7064.00   0.90647244   0.00595380
7066.00   0.91481653   0.00594584
7068.00   0.92361617   0.00615824
7070.00   0.92574841   0.00626014
7072.00   0.92075536   0.00611952
7074.00   0.91432855   0.00594770
7076.00   0.91074494   0.00615335
7078.00   0.90468708   0.00682668
7080.00   0.90622249   0.00699482
7082.00   0.91395557   0.00680167
7084.00   0.92424631   0.00654550
7086.00   0.94333613   0.00620984
7088.00   0.95463389   0.00605273
7090.00   0.94544554   0.00607004
7092.00   0.92818499   0.00614476
7094.00   0.92062712   0.00646868
7096.00   0.90913633   0.00724393
7098.00   0.90926284   0.00741645
7100.00   0.92644414   0.00683929
7102.00   0.94323829   0.00642111
7104.00   0.94975656   0.00657528
7106.00   0.95498744   0.00699714
7108.00   0.97192669   0.00748646
7110.00   1.00011849   0.00833865
7112.00   1.01194066   0.00834505
7114.00   1.01293474   0.00740628
7116.00   1.01165238   0.00669997
7118.00   1.00218725   0.00671203
7120.00   0.98915344   0.00702552
7122.00   0.99095762   0.00698917
7124.00   1.00086653   0.00655204
7126.00   1.00641340   0.00665249
7128.00   1.01558387   0.00733371
7130.00   1.02252972   0.00765234
7132.00   1.02498823   0.00740494
7134.00   1.01757717   0.00696905
7136.00   1.00311473   0.00674907
7138.00   0.98550275   0.00640855
7140.00   0.98221919   0.00620435
7142.00   0.99098229   0.00619946
7144.00   0.99444669   0.00618680
7146.00   0.99212378   0.00609280
7148.00   0.99009767   0.00605115
7150.00   0.99783123   0.00615371
7152.00   1.00986609   0.00633599
7154.00   1.01248857   0.00635346
7156.00   1.01136002   0.00623753
7158.00   1.00817060   0.00619265
7160.00   0.99944091   0.00618010
7162.00   0.99312258   0.00619769
7164.00   0.99384600   0.00622586
7166.00   0.99425694   0.00633470
7168.00   0.98015383   0.00653828
7170.00   0.95094317   0.00679809
7172.00   0.94009429   0.00679210
7174.00   0.94115716   0.00640647
7176.00   0.94210455   0.00633219
7178.00   0.94427481   0.00683171
7180.00   0.94628617   0.00748006
7182.00   0.94733155   0.00753572
7184.00   0.95278463   0.00697414
7186.00   0.95579672   0.00706529
7188.00   0.96054244   0.00777284
7190.00   0.95890850   0.00805796
7192.00   0.94844389   0.00778819
7194.00   0.93347588   0.00727407
7196.00   0.92389259   0.00687255
7198.00   0.91663256   0.00637642
7200.00   0.91228819   0.00615491
7202.00   0.91404784   0.00616894
7204.00   0.91290051   0.00628036
7206.00   0.90954584   0.00657983
7208.00   0.90186504   0.00684437
7210.00   0.89453080   0.00697282
7212.00   0.88684362   0.00711623
7214.00   0.88450658   0.00706876
7216.00   0.89284694   0.00667165
7218.00   0.90358338   0.00642828
7220.00   0.91825947   0.00625482
7222.00   0.93067592   0.00615536
7224.00   0.94781068   0.00608531
7226.00   0.96403489   0.00623164
7228.00   0.96305788   0.00643460
7230.00   0.93909130   0.00619970
7232.00   0.93419674   0.00667154
7234.00   0.94004527   0.00793164
7236.00   0.94309515   0.00864934
7238.00   0.94057035   0.00859655
7240.00   0.94096196   0.00823821
7242.00   0.94298679   0.00792806
7244.00   0.94381589   0.00721257
7246.00   0.94806716   0.00713740
7248.00   0.95176837   0.00776811
7250.00   0.96328941   0.00805825
7252.00   0.98845053   0.00800210
7254.00   1.01314229   0.00777720
7256.00   1.02361619   0.00741329
7258.00   1.02557230   0.00679481
7260.00   1.02928734   0.00656219
7262.00   1.02760074   0.00665626
7264.00   1.03895867   0.00670980
7266.00   1.06891802   0.00675279
7268.00   1.09075585   0.00687244
7270.00   1.09644642   0.00709083
7272.00   1.09234101   0.00731730
7274.00   1.09412363   0.00753146
7276.00   1.10041770   0.00784993
7278.00   1.10544088   0.00788738
7280.00   1.11204991   0.00764284
7282.00   1.11334097   0.00743859
7284.00   1.10651702   0.00733570
7286.00   1.09780002   0.00725769
7288.00   1.09698382   0.00716396
7290.00   1.10324180   0.00708568
7292.00   1.11326313   0.00697215
7294.00   1.12816235   0.00677818
7296.00   1.14057088   0.00667687
7298.00   1.15333053   0.00669591
7300.00   1.16654423   0.00678468
7302.00   1.17790431   0.00693616
7304.00   1.19233447   0.00720984
7306.00   1.20565909   0.00731543
7308.00   1.21529174   0.00728474
7310.00   1.22239044   0.00738771
7312.00   1.22555375   0.00765944
7314.00   1.23709887   0.00782078
7316.00   1.25096530   0.00797215
7318.00   1.26936325   0.00817444
7320.00   1.28990251   0.00804749
7322.00   1.30748275   0.00756484
7324.00   1.32041207   0.00732573
7326.00   1.32978481   0.00724244
7328.00   1.34092584   0.00718662
7330.00   1.35001361   0.00718198
7332.00   1.35991460   0.00724452
7334.00   1.37827843   0.00734558
7336.00   1.41031453   0.00749165
7338.00   1.43357277   0.00768749
7340.00   1.45523462   0.00802550
7342.00   1.47040156   0.00819923
7344.00   1.47847199   0.00815529
7346.00   1.48218954   0.00799700
7348.00   1.48705396   0.00779681
7350.00   1.49060085   0.00742021
7352.00   1.49322098   0.00739806
7354.00   1.49248445   0.00771849
7356.00   1.49779618   0.00792256
7358.00   1.51169041   0.00801204
7360.00   1.52602062   0.00804834
7362.00   1.53178394   0.00801870
7364.00   1.53188562   0.00786127
7366.00   1.54308778   0.00785921
7368.00   1.56003422   0.00798970
7370.00   1.58103955   0.00802580
7372.00   1.61272377   0.00798478
7374.00   1.63655210   0.00793273
7376.00   1.65063685   0.00781237
7378.00   1.66344833   0.00762740
7380.00   1.66753805   0.00769341
7382.00   1.65870029   0.00816765
7384.00   1.65039045   0.00846467
7386.00   1.63546449   0.00863519
7388.00   1.62933546   0.00870973
7390.00   1.63315588   0.00899402
7392.00   1.64575374   0.00930264
7394.00   1.65524554   0.00933150
7396.00   1.65507954   0.00949978
7398.00   1.66552508   0.00932481
7400.00   1.68889081   0.00859021
7402.00   1.70206767   0.00806679
7404.00   1.70484579   0.00813181
7406.00   1.69580972   0.00831682
7408.00   1.66851646   0.00825696
7410.00   1.62575740   0.00814769
7412.00   1.61310351   0.00794265
7414.00   1.62641901   0.00735445
7416.00   1.62757885   0.00733325
7418.00   1.61840504   0.00810686
7420.00   1.60144806   0.00883892
7422.00   1.58216357   0.00910713
7424.00   1.56013310   0.00924424
7426.00   1.56060976   0.00894184
7428.00   1.58447534   0.00764783
7430.00   1.60478216   0.00724712
7432.00   1.62845510   0.00788522
7434.00   1.64758068   0.00847121
7436.00   1.66444391   0.00868362
7438.00   1.67508066   0.00872116
7440.00   1.67458028   0.00859643
7442.00   1.66152561   0.00821213
7444.00   1.65162712   0.00812374
7446.00   1.64052069   0.00834993
7448.00   1.63017434   0.00838608
7450.00   1.61448485   0.00798038
7452.00   1.60386181   0.00740611
7454.00   1.61005092   0.00747170
7456.00   1.62448335   0.00807210
7458.00   1.62824535   0.00828082
7460.00   1.63001239   0.00849047
7462.00   1.63305891   0.00852463
7464.00   1.63363820   0.00820667
7466.00   1.63052690   0.00773914
7468.00   1.62962741   0.00769953
7470.00   1.62725770   0.00791141
7472.00   1.62655693   0.00788005
7474.00   1.62952209   0.00777778
7476.00   1.63212931   0.00776486
7478.00   1.63692892   0.00781025
7480.00   1.63565576   0.00782145
7482.00   1.62449378   0.00786487
7484.00   1.60763460   0.00795434
7486.00   1.59948349   0.00798343
7488.00   1.59803891   0.00795017
7490.00   1.59238821   0.00794201
7492.00   1.58566040   0.00790034
7494.00   1.57507116   0.00792206
7496.00   1.55998176   0.00813672
7498.00   1.54405802   0.00846025
7500.00   1.52738187   0.00839207
7502.00   1.50351104   0.00778442
7504.00   1.49857217   0.00762192
7506.00   1.50812978   0.00769645
7508.00   1.51975173   0.00782733
7510.00   1.53763527   0.00808334
7512.00   1.55285913   0.00831837
7514.00   1.55671483   0.00812063
7516.00   1.55971140   0.00746032
7518.00   1.55926192   0.00748313
7520.00   1.55068696   0.00797402
7522.00   1.54880708   0.00839080
7524.00   1.56239277   0.00896456
7526.00   1.56051320   0.00926843
7528.00   1.54075778   0.00893810
7530.00   1.52185994   0.00815745
7532.00   1.51348796   0.00783352
7534.00   1.51375514   0.00753433
7536.00   1.51171920   0.00776129
7538.00   1.51225746   0.00870327
7540.00   1.50397968   0.00948344
7542.00   1.48712161   0.00990904
7544.00   1.46797103   0.00997900
7546.00   1.46357194   0.00942595
7548.00   1.46849501   0.00779067
7550.00   1.47109523   0.00728642
7552.00   1.47452223   0.00789832
7554.00   1.48576379   0.00827768
7556.00   1.50347674   0.00819930
7558.00   1.51740485   0.00785404
7560.00   1.52355075   0.00761805
7562.00   1.52180630   0.00743334
7564.00   1.52949208   0.00748157
7566.00   1.54050153   0.00771896
7568.00   1.55584437   0.00800095
7570.00   1.57889342   0.00847461
7572.00   1.60624933   0.00888389
7574.00   1.62531930   0.00881276
7576.00   1.62719256   0.00821649
7578.00   1.63239396   0.00798360
7580.00   1.63551384   0.00786945
7582.00   1.65174729   0.00788343
7584.00   1.68617940   0.00792370
7586.00   1.71477568   0.00825392
7588.00   1.72708642   0.00892482
7590.00   1.72518742   0.00977900
7592.00   1.69154155   0.01018724
7594.00   1.62651855   0.00993180
7596.00   1.60786301   0.01097953
7598.00   1.62525320   0.01294493
7600.00   1.63070685   0.01476770
7602.00   1.64658493   0.01688861
7604.00   1.65724647   0.01862313
7606.00   1.65579832   0.01822898
7608.00   1.66152716   0.01556320
7610.00   1.68734664   0.01404497
7612.00   1.73520702   0.01266585
7614.00   1.77858669   0.01170787
7616.00   1.83519596   0.01148477
7618.00   1.85594702   0.01137051
7620.00   1.79927140   0.01091728
7622.00   1.68602031   0.01041734
7624.00   1.65944701   0.01055606
7626.00   1.68048108   0.01135808
7628.00   1.69313794   0.01179964
7630.00   1.71383810   0.01196989
7632.00   1.73286206   0.01194794
7634.00   1.73047471   0.01177230
7636.00   1.71351343   0.01145136
7638.00   1.69562358   0.01110078
7640.00   1.66576070   0.01054849
7642.00   1.65678495   0.01016731
7644.00   1.67372942   0.00997451
7646.00   1.68540555   0.00983756
7648.00   1.67879087   0.00960687
7650.00   1.66013390   0.00933382
7652.00   1.65404880   0.00961354
7654.00   1.65216357   0.01087539
7656.00   1.64855140   0.01092291
7658.00   1.64788824   0.00978826
7660.00   1.64532918   0.00869550
7662.00   1.62672603   0.00832388
7664.00   1.61152565   0.00831546
7666.00   1.63128197   0.00830955
7668.00   1.68319523   0.00856720
7670.00   1.69699138   0.00858446
7672.00   1.69100720   0.00846412
7674.00   1.67978448   0.00835614
7676.00   1.66063005   0.00824926
7678.00   1.64071858   0.00817543
7680.00   1.61577791   0.00816129
7682.00   1.58047861   0.00804993
7684.00   1.55330956   0.00858378
7686.00   1.51776859   0.01013921
7688.00   1.50740924   0.01060265
7690.00   1.53449231   0.00977379
7692.00   1.56701574   0.00857912
7694.00   1.56930369   0.00832486
7696.00   1.54797840   0.00874264
7698.00   1.54321140   0.00884433
7700.00   1.54764879   0.00892092
7702.00   1.54742473   0.00877659
7704.00   1.54091656   0.00826469
7706.00   1.53700298   0.00795423
7708.00   1.54532075   0.00801791
7710.00   1.56076813   0.00834956
7712.00   1.55839157   0.00877814
7714.00   1.54754642   0.00939347
7716.00   1.54245114   0.00953291
7718.00   1.53903913   0.00936148
7720.00   1.52854362   0.00916065
7722.00   1.51907080   0.00881875
7724.00   1.50258985   0.00839222
7726.00   1.46774021   0.00811432
7728.00   1.42333004   0.00792296
7730.00   1.40902591   0.00777242
7732.00   1.41783470   0.00762206
7734.00   1.41107076   0.00761858
7736.00   1.39041343   0.00785785
7738.00   1.37183306   0.00815713
7740.00   1.35869709   0.00828246
7742.00   1.34870496   0.00835416
7744.00   1.32858410   0.00837866
7746.00   1.29824588   0.00828777
7748.00   1.27600229   0.00840361
7750.00   1.25986889   0.00883477
7752.00   1.24676812   0.00899237
7754.00   1.23603329   0.00898650
7756.00   1.22829029   0.00901429
7758.00   1.22652704   0.00871840
7760.00   1.22924665   0.00799055
7762.00   1.23289472   0.00762406
7764.00   1.23833257   0.00752047
7766.00   1.24806434   0.00744846
7768.00   1.26351109   0.00747901
7770.00   1.27665776   0.00751426
7772.00   1.28398371   0.00746453
7774.00   1.29048207   0.00735222
7776.00   1.29134661   0.00751321
7778.00   1.28572723   0.00802375
7780.00   1.28413308   0.00830493
7782.00   1.28431746   0.00822309
7784.00   1.28735861   0.00799892
7786.00   1.29277235   0.00788824
7788.00   1.29264477   0.00745084
7790.00   1.30254540   0.00827975
7792.00   1.32680184   0.01062835
7794.00   1.34355438   0.01142464
7796.00   1.35071278   0.01062452
7798.00   1.35175973   0.00929903
7800.00   1.35431850   0.00860972
7802.00   1.35513139   0.00814492
7804.00   1.36424312   0.00788019
7806.00   1.37840199   0.00799611
7808.00   1.39124987   0.00801894
7810.00   1.40455648   0.00798906
7812.00   1.42420074   0.00802198
7814.00   1.44077045   0.00816376
7816.00   1.45243710   0.00837857
7818.00   1.45512101   0.00860477
7820.00   1.44505361   0.00899791
7822.00   1.43612888   0.00902570
7824.00   1.42024180   0.00865286
7826.00   1.41376474   0.00835655
7828.00   1.41777411   0.00833046
7830.00   1.42694470   0.00846678
7832.00   1.44561204   0.00844630
7834.00   1.48363024   0.00826017
7836.00   1.51469865   0.00817178
7838.00   1.55219358   0.00811695
7840.00   1.56914699   0.00808437
7842.00   1.56215245   0.00804176
7844.00   1.54560471   0.00807122
7846.00   1.53566825   0.00816880
7848.00   1.52897334   0.00834520
7850.00   1.53964365   0.00862090
7852.00   1.56952989   0.00903123
7854.00   1.58492416   0.00920862
7856.00   1.58600414   0.00919439
7858.00   1.59090710   0.00914415
7860.00   1.59773245   0.00899295
7862.00   1.60762274   0.00883155
7864.00   1.61563671   0.00881061
7866.00   1.61759830   0.00881248
7868.00   1.61415172   0.00878152
7870.00   1.60174966   0.00875697
7872.00   1.59852666   0.00874960
7874.00   1.60601890   0.00867913
7876.00   1.61509401   0.00862608
7878.00   1.61866158   0.00873870
7880.00   1.61361873   0.00903268
7882.00   1.60742825   0.00917461
7884.00   1.60057461   0.00930548
7886.00   1.59780726   0.00932880
7888.00   1.58776924   0.00914178
7890.00   1.57917792   0.00887556
7892.00   1.58485034   0.00888654
7894.00   1.59768665   0.00916593
7896.00   1.60458511   0.00913805
7898.00   1.61243939   0.00888782
7900.00   1.61196321   0.00869192
7902.00   1.59988552   0.00849856
7904.00   1.58620703   0.00840429
7906.00   1.58088303   0.00853227
7908.00   1.58335322   0.00883375
7910.00   1.57804149   0.00910677
7912.00   1.56391686   0.00949041
7914.00   1.55301905   0.00972255
7916.00   1.54152775   0.00989755
7918.00   1.54039156   0.00990828
7920.00   1.54739982   0.00966069
7922.00   1.56123883   0.00914390
7924.00   1.56709874   0.00880271
7926.00   1.56094670   0.00857908
7928.00   1.55410975   0.00843714
7930.00   1.54212666   0.00841576
7932.00   1.53984112   0.00838290
7934.00   1.54553115   0.00835155
7936.00   1.55334550   0.00827387
7938.00   1.55658406   0.00813828
7940.00   1.55577785   0.00799847
7942.00   1.54639417   0.00796046
7944.00   1.52677506   0.00800020
7946.00   1.50813651   0.00800322
7948.00   1.49074408   0.00798750
7950.00   1.47443691   0.00799204
7952.00   1.45566118   0.00800946
7954.00   1.44617462   0.00802113
7956.00   1.42904377   0.00804750
7958.00   1.39797443   0.00810312
7960.00   1.38181061   0.00831509
7962.00   1.38598606   0.00873626
7964.00   1.38794702   0.00899117
7966.00   1.39141920   0.00922103
7968.00   1.40590820   0.00922713
7970.00   1.40704101   0.00879791
7972.00   1.39389110   0.00802257
7974.00   1.39561662   0.00781640
7976.00   1.41286048   0.00813042
7978.00   1.42665973   0.00824602
7980.00   1.43161818   0.00824111
7982.00   1.43267351   0.00813026
7984.00   1.44243231   0.00812890
7986.00   1.45746759   0.00828723
7988.00   1.46907404   0.00861173
7990.00   1.48330754   0.00927339
7992.00   1.49622521   0.00957982
7994.00   1.50110203   0.00942405
7996.00   1.49806973   0.00898814
7998.00   1.49902862   0.00867867
8000.00   1.50141367   0.00843687
8002.00   1.49453536   0.00827085
8004.00   1.47740752   0.00810580
8006.00   1.46621400   0.00802194
8008.00   1.46470219   0.00810744
8010.00   1.46011901   0.00831418
8012.00   1.44189298   0.00843919
8014.00   1.41981259   0.00856563
8016.00   1.41158387   0.00852345
8018.00   1.41114706   0.00820332
8020.00   1.40913913   0.00810874
8022.00   1.41125154   0.00831367
8024.00   1.40930369   0.00847680
8026.00   1.40065393   0.00842097
8028.00   1.38493824   0.00824869
8030.00   1.35929564   0.00813594
8032.00   1.31530973   0.00798676
8034.00   1.30029869   0.00797888
8036.00   1.31482977   0.00821243
8038.00   1.32168561   0.00825919
8040.00   1.31055811   0.00792463
8042.00   1.29364675   0.00746237
8044.00   1.28704828   0.00732103
8046.00   1.28637901   0.00740167
8048.00   1.28362447   0.00742745
8050.00   1.28724152   0.00750643
8052.00   1.27295798   0.00755321
8054.00   1.23088211   0.00757950
8056.00   1.19674799   0.00756005
8058.00   1.17786112   0.00748106
8060.00   1.15765029   0.00739835
8062.00   1.13807440   0.00738461
8064.00   1.11946109   0.00740219
8066.00   1.10095516   0.00731913
8068.00   1.08338735   0.00713392
8070.00   1.06989872   0.00701947
8072.00   1.04889047   0.00690812
8074.00   1.02424580   0.00677856
8076.00   1.01120147   0.00673892
8078.00   1.00307456   0.00673477
8080.00   0.98978168   0.00682526
8082.00   0.97020382   0.00713439
8084.00   0.96009988   0.00728188
8086.00   0.96114117   0.00708105
8088.00   0.96513283   0.00672240
8090.00   0.96001261   0.00664683
8092.00   0.94891813   0.00670730
8094.00   0.94685593   0.00681889
8096.00   0.95314163   0.00713208
8098.00   0.95408371   0.00729089
8100.00   0.95173192   0.00714465
8102.00   0.94486696   0.00685381
8104.00   0.92469957   0.00672419
8106.00   0.88922411   0.00655606
8108.00   0.87377045   0.00678606
8110.00   0.87237269   0.00761330
8112.00   0.87422171   0.00790121
8114.00   0.88062114   0.00744503
8116.00   0.87855482   0.00676790
8118.00   0.87184668   0.00650848
8120.00   0.86654145   0.00641803
8122.00   0.86784264   0.00655113
8124.00   0.87827188   0.00715227
8126.00   0.87519008   0.00734667
8128.00   0.85388270   0.00709082
8130.00   0.83768517   0.00677113
8132.00   0.83573550   0.00668301
8134.00   0.83698943   0.00668740
8136.00   0.83741421   0.00679500
8138.00   0.84158674   0.00715920
8140.00   0.84218401   0.00730283
8142.00   0.83905628   0.00727449
8144.00   0.83974805   0.00719819
8146.00   0.84253046   0.00717889
8148.00   0.84148487   0.00710579
8150.00   0.84191161   0.00700301
8152.00   0.84670898   0.00695449
8154.00   0.84793070   0.00692533
8156.00   0.84580377   0.00689137
8158.00   0.84501216   0.00690402
8160.00   0.84579462   0.00701703
8162.00   0.84919351   0.00713419
8164.00   0.85781214   0.00720063
8166.00   0.87237689   0.00725894
8168.00   0.88602892   0.00729906
8170.00   0.90176526   0.00726406
8172.00   0.92223874   0.00742505
8174.00   0.94959754   0.00779040
8176.00   0.96969426   0.00813790
8178.00   0.99013177   0.00856902
8180.00   1.00909325   0.00912438
8182.00   1.01165578   0.00938340
8184.00   1.00250560   0.00945714
8186.00   1.00569654   0.00955205
8188.00   1.01919752   0.00961235
8190.00   1.02648827   0.00966590
8192.00   1.03520545   0.00982115
8194.00   1.03733641   0.00997397
8196.00   1.01650840   0.00981631
8198.00   0.97107413   0.00932679
8200.00   0.96278426   0.00898238
8202.00   0.98630947   0.00868208
8204.00   1.00226048   0.00841637
8206.00   1.00800440   0.00812190
8208.00   1.00802654   0.00781401
8210.00   1.00141022   0.00761517
8212.00   0.98400825   0.00750378
8214.00   0.98648700   0.00743433
8216.00   1.00540575   0.00733475
8218.00   1.01680040   0.00746596
8220.00   1.02123311   0.00797275
8222.00   1.02373073   0.00852083
8224.00   1.01830506   0.00874860
8226.00   1.00483280   0.00881100
8228.00   1.01494217   0.00869644
8230.00   1.04649866   0.00825826
8232.00   1.07109362   0.00800931
8234.00   1.09485281   0.00794748
8236.00   1.10827038   0.00793616
8238.00   1.11039507   0.00802286
8240.00   1.10646909   0.00819165
8242.00   1.10519436   0.00807648
8244.00   1.10196191   0.00771334
8246.00   1.09954292   0.00748084
8248.00   1.09839734   0.00728347
8250.00   1.09451389   0.00716106
8252.00   1.08956280   0.00717237
8254.00   1.08428699   0.00724483
8256.00   1.07727247   0.00726435
8258.00   1.06789720   0.00730563
8260.00   1.06345251   0.00728688
8262.00   1.06621888   0.00715331
8264.00   1.06488702   0.00712588
8266.00   1.05495709   0.00728149
8268.00   1.04028618   0.00752107
8270.00   1.02429983   0.00767142
8272.00   1.00079992   0.00779775
8274.00   0.99445358   0.00790767
8276.00   1.00167185   0.00794090
8278.00   1.00899509   0.00805195
8280.00   1.01876566   0.00823891
8282.00   1.02702096   0.00849417
8284.00   1.03247148   0.00890787
8286.00   1.03627113   0.00952160
8288.00   1.02237967   0.00962779
8290.00   0.99312627   0.00928928
8292.00   0.97099447   0.00910523
8294.00   0.94549617   0.00899677
8296.00   0.92681023   0.00895390
8298.00   0.93691584   0.00909010
8300.00   0.95994249   0.00929298
8302.00   0.95988822   0.00900622
8304.00   0.95700631   0.00814899
8306.00   0.94919989   0.00766797
8308.00   0.93068531   0.00739965
8310.00   0.90894881   0.00726990
8312.00   0.89410657   0.00731278
8314.00   0.88197398   0.00744226
8316.00   0.86962268   0.00753726
8318.00   0.86485264   0.00785039
8320.00   0.86581677   0.00788904
8322.00   0.87529677   0.00772483
8324.00   0.87741292   0.00749922
8326.00   0.87399539   0.00720306
8328.00   0.86680672   0.00691668
8330.00   0.85849911   0.00681627
8332.00   0.85274249   0.00682744
8334.00   0.85352650   0.00712351
8336.00   0.85797915   0.00762993
8338.00   0.86386144   0.00824315
8340.00   0.87914607   0.00918910
8342.00   0.88621843   0.00989469
8344.00   0.87711382   0.00996312
8346.00   0.86010462   0.00956434
8348.00   0.84801087   0.00924925
8350.00   0.83444807   0.00877256
8352.00   0.82225326   0.00836975
8354.00   0.80975512   0.00797630
8356.00   0.80101749   0.00763506
8358.00   0.79743469   0.00737266
8360.00   0.80037192   0.00725861
8362.00   0.79889053   0.00721124
8364.00   0.79143658   0.00731508
8366.00   0.79185873   0.00725227
8368.00   0.80137148   0.00700874
8370.00   0.80350825   0.00684122
8372.00   0.79432419   0.00688430
8374.00   0.78586170   0.00704586
8376.00   0.78374091   0.00706435
8378.00   0.78200564   0.00694077
8380.00   0.77814412   0.00694536
8382.00   0.77386856   0.00707446
8384.00   0.77324700   0.00709809
8386.00   0.77312014   0.00688490
8388.00   0.77488792   0.00673150
8390.00   0.78165242   0.00689862
8392.00   0.78997529   0.00727376
8394.00   0.80788893   0.00795269
8396.00   0.84646508   0.00920592
8398.00   0.86446860   0.00958983
8400.00   0.86210233   0.00915029
8402.00   0.84313318   0.00848767
8404.00   0.82593465   0.00790688
8406.00   0.81735867   0.00733108
8408.00   0.82260457   0.00711504
8410.00   0.85069197   0.00728817
8412.00   0.86555094   0.00735791
8414.00   0.87478027   0.00747212
8416.00   0.87193322   0.00751162
8418.00   0.86324537   0.00740286
8420.00   0.84724379   0.00726888
8422.00   0.83140478   0.00740663
8424.00   0.81393793   0.00778331
8426.00   0.81371427   0.00814634
8428.00   0.83676928   0.00867142
8430.00   0.84237584   0.00894902
8432.00   0.82108170   0.00891453
8434.00   0.79036430   0.00871579
8436.00   0.77459678   0.00881345
8438.00   0.77362800   0.00952523
8440.00   0.76897094   0.00930947
8442.00   0.76036856   0.00801669
8444.00   0.75637381   0.00712702
8446.00   0.76232371   0.00701663
8448.00   0.77083737   0.00709523
8450.00   0.77470648   0.00705916
8452.00   0.77596527   0.00711957
8454.00   0.77104458   0.00714499
8456.00   0.75649413   0.00690930
8458.00   0.74947110   0.00728649
8460.00   0.74997959   0.00848125
8462.00   0.75034758   0.00934606
8464.00   0.74836659   0.00945147
8466.00   0.74502654   0.00908564
8468.00   0.73284854   0.00858042
8470.00   0.70755598   0.00746032
8472.00   0.69630843   0.00680884
8474.00   0.69787470   0.00654280
8476.00   0.69771345   0.00639238
8478.00   0.68901844   0.00626996
8480.00   0.67421181   0.00621176
8482.00   0.66688766   0.00618072
8484.00   0.66578843   0.00620193
8486.00   0.66329727   0.00626664
8488.00   0.66295734   0.00641018
8490.00   0.66289832   0.00652069
8492.00   0.66250788   0.00657074
8494.00   0.65869564   0.00663028
8496.00   0.65409666   0.00676574
8498.00   0.64597715   0.00690912
8500.00   0.64679407   0.00702306
8502.00   0.65948409   0.00719725
8504.00   0.66552085   0.00723982
8506.00   0.66286084   0.00712960
8508.00   0.65872382   0.00694529
8510.00   0.65928006   0.00670688
8512.00   0.66393766   0.00643473
8514.00   0.66492216   0.00632034
8516.00   0.66113089   0.00621705
8518.00   0.65630440   0.00625316
8520.00   0.64536317   0.00655033
8522.00   0.64386104   0.00678619
8524.00   0.65822493   0.00673101
8526.00   0.67893864   0.00651949
8528.00   0.68671158   0.00641439
8530.00   0.68684234   0.00628157
8532.00   0.68612418   0.00624811
8534.00   0.67618954   0.00629980
8536.00   0.67796613   0.00638234
8538.00   0.69766757   0.00648996
8540.00   0.72315821   0.00662241
8542.00   0.74134919   0.00676221
8544.00   0.75846170   0.00694061
8546.00   0.76784156   0.00702842
8548.00   0.76769577   0.00706561
8550.00   0.77146903   0.00704971
8552.00   0.78022957   0.00695621
8554.00   0.78955698   0.00685135
8556.00   0.79545242   0.00678420
8558.00   0.79950282   0.00673175
8560.00   0.80548009   0.00670941
8562.00   0.81184644   0.00672333
8564.00   0.81859881   0.00673562
8566.00   0.82823375   0.00675854
8568.00   0.83348262   0.00677342
8570.00   0.83506805   0.00675065
8572.00   0.83554995   0.00669947
8574.00   0.82556310   0.00684569
8576.00   0.80008683   0.00728567
8578.00   0.79364339   0.00743212
8580.00   0.80020276   0.00737142
8582.00   0.81113160   0.00726478
8584.00   0.82794815   0.00713285
8586.00   0.85046661   0.00696732
8588.00   0.86759168   0.00695620
8590.00   0.87512571   0.00712243
8592.00   0.88978747   0.00726174
8594.00   0.91190270   0.00744829
8596.00   0.92919105   0.00753856
8598.00   0.93321997   0.00755880
8600.00   0.94199151   0.00756399
8602.00   0.96339318   0.00751259
8604.00   0.98744914   0.00739672
8606.00   1.01153421   0.00755993
8608.00   1.04326728   0.00798698
8610.00   1.05728742   0.00828161
8612.00   1.04740024   0.00842709
8614.00   1.04083520   0.00858827
8616.00   1.04404643   0.00886540
8618.00   1.05317920   0.00925198
8620.00   1.06329426   0.00968087
8622.00   1.07684433   0.01024953
8624.00   1.08762464   0.01051675
8626.00   1.09741274   0.01053367
8628.00   1.10247105   0.01043771
8630.00   1.10860950   0.01033276
8632.00   1.11352444   0.01031506
8634.00   1.11339828   0.01024543
8636.00   1.11199129   0.01003625
8638.00   1.13021174   0.00985641
8640.00   1.16799751   0.00961973
8642.00   1.20035952   0.00949822
8644.00   1.22907940   0.00947255
8646.00   1.25081921   0.00965048
8648.00   1.26430827   0.01001652
8650.00   1.27186310   0.01050011
8652.00   1.29682037   0.01078254
8654.00   1.34075251   0.01101897
8656.00   1.36423486   0.01114155
8658.00   1.36781707   0.01110642
8660.00   1.36007854   0.01102801
8662.00   1.34301424   0.01088705
8664.00   1.32024777   0.01059226
8666.00   1.32547212   0.01057236
8668.00   1.35190362   0.01080566
8670.00   1.36608922   0.01093785
8672.00   1.36502630   0.01108587
8674.00   1.37798813   0.01109778
8676.00   1.40857232   0.01070550
8678.00   1.45289245   0.00998177
8680.00   1.50752208   0.00980114
8682.00   1.58006054   0.01006459
8684.00   1.63136834   0.01013230
8686.00   1.66923106   0.01013475
8688.00   1.70199424   0.01011047
8690.00   1.72662252   0.01002429
8692.00   1.74412864   0.00995427
8694.00   1.76675719   0.01010901
8696.00   1.79330385   0.01037535
8698.00   1.80621767   0.01046190
8700.00   1.81412250   0.01057777
8702.00   1.80935395   0.01060138
8704.00   1.77944887   0.01028380
8706.00   1.74614584   0.00978353
8708.00   1.74099821   0.00962401
8710.00   1.75593543   0.00968959
8712.00   1.76356876   0.00967895
8714.00   1.77453202   0.00969146
8716.00   1.78355205   0.00970776
8718.00   1.79052931   0.00972739
8720.00   1.79569507   0.00976421
8722.00   1.80068779   0.00979425
8724.00   1.79727936   0.00981211
8726.00   1.79467458   0.00987716
8728.00   1.79683381   0.00997106
8730.00   1.80197215   0.00997753
8732.00   1.80733150   0.00987234
8734.00   1.81144696   0.00985185
8736.00   1.82527518   0.00990658
8738.00   1.84270900   0.00997924
8740.00   1.84133965   0.00999475
8742.00   1.83077663   0.00997786
8744.00   1.82539457   0.00996272
8746.00   1.82128692   0.00991562
8748.00   1.80785125   0.00990022
8750.00   1.78952432   0.00989870
8752.00   1.77208966   0.00997249
8754.00   1.75834805   0.01024320
8756.00   1.74736345   0.01069958
8758.00   1.74106342   0.01108899
8760.00   1.73450065   0.01153877
8762.00   1.73597997   0.01185456
8764.00   1.75599647   0.01206897
8766.00   1.78049392   0.01217720
8768.00   1.77714932   0.01209716
8770.00   1.74939269   0.01186840
8772.00   1.74709439   0.01187598
8774.00   1.76133490   0.01210967
8776.00   1.76608658   0.01246472
8778.00   1.75417733   0.01327407
8780.00   1.75881827   0.01321462
8782.00   1.78391540   0.01232483
8784.00   1.80843604   0.01135095
8786.00   1.83294058   0.01099307
8788.00   1.86873788   0.01108458
8790.00   1.89513832   0.01109246
8792.00   1.91113538   0.01114815
8794.00   1.92505515   0.01110867
8796.00   1.94546163   0.01117947
8798.00   1.97662848   0.01140065
8800.00   1.99367982   0.01138081
8802.00   1.98808342   0.01097771
8804.00   1.99849731   0.01085392
8806.00   2.02398407   0.01058079
8808.00   2.03476107   0.01090049
8810.00   2.01751322   0.01234070
8812.00   1.99910265   0.01387151
8814.00   2.00960761   0.01376798
8816.00   2.04393047   0.01201165
8818.00   2.08388591   0.01185303
8820.00   2.14888227   0.01258586
8822.00   2.18973541   0.01339998
8824.00   2.20820504   0.01451492
8826.00   2.20229632   0.01545713
8828.00   2.18517148   0.01580035
8830.00   2.17009944   0.01559881
8832.00   2.14712268   0.01509594
8834.00   2.10044831   0.01402943
8836.00   2.07503444   0.01327774
8838.00   2.07293671   0.01269073
8840.00   2.07603407   0.01226234
8842.00   2.07886660   0.01200962
8844.00   2.08401710   0.01197981
8846.00   2.07458049   0.01200698
8848.00   2.05698824   0.01208700
8850.00   2.03039241   0.01194181
8852.00   1.98389524   0.01156775
8854.00   1.94842231   0.01130909
8856.00   1.93138564   0.01092959
8858.00   1.92740709   0.01074246
8860.00   1.94098067   0.01176292
8862.00   1.98350322   0.01382703
8864.00   1.99634773   0.01504667
8866.00   1.99848312   0.01664759
8868.00   1.98808551   0.01701358
8870.00   1.95573789   0.01543921
8872.00   1.91831559   0.01290157
8874.00   1.90005046   0.01158906
8876.00   1.89248180   0.01091337
8878.00   1.90374470   0.01101921
8880.00   1.94362122   0.01235085
8882.00   1.95489150   0.01314163
8884.00   1.94313687   0.01372649
8886.00   1.91732103   0.01390609
8888.00   1.86965507   0.01340642
8890.00   1.81779891   0.01237057
8892.00   1.79914492   0.01183285
8894.00   1.79587817   0.01143432
8896.00   1.80349880   0.01135504
8898.00   1.83745629   0.01174610
8900.00   1.86198699   0.01208972
8902.00   1.86875224   0.01228506
8904.00   1.86131954   0.01236628
8906.00   1.82955110   0.01216042
8908.00   1.76046240   0.01144369
8910.00   1.73279446   0.01140030
8912.00   1.73023713   0.01174641
8914.00   1.73270005   0.01234700
8916.00   1.74926800   0.01345508
8918.00   1.76406091   0.01446953
8920.00   1.74030668   0.01447608
8922.00   1.68653923   0.01369078
8924.00   1.65543085   0.01302224
8926.00   1.62807304   0.01186296
8928.00   1.60782051   0.01111724
8930.00   1.60028952   0.01104327
8932.00   1.59563005   0.01122041
8934.00   1.58149284   0.01116883
8936.00   1.56089443   0.01115260
8938.00   1.55145657   0.01124745
8940.00   1.55208838   0.01135743
8942.00   1.55077153   0.01143901
8944.00   1.54903477   0.01158696
8946.00   1.54192644   0.01163898
8948.00   1.53719342   0.01151259
8950.00   1.53525490   0.01153254
8952.00   1.53588408   0.01199882
8954.00   1.55092758   0.01294350
8956.00   1.55388480   0.01333025
8958.00   1.54420447   0.01339202
8960.00   1.52573299   0.01323818
8962.00   1.51145738   0.01292102
8964.00   1.51358038   0.01252876
8966.00   1.52604872   0.01212688
8968.00   1.55140615   0.01159468
8970.00   1.55569863   0.01126358
8972.00   1.54262114   0.01088921
8974.00   1.54059690   0.01090987
8976.00   1.55473530   0.01142490
8978.00   1.56698346   0.01226868
8980.00   1.56885386   0.01335497
8982.00   1.55815649   0.01505942
8984.00   1.53425705   0.01526703
8986.00   1.48811641   0.01401585
8988.00   1.46663916   0.01323259
8990.00   1.46709126   0.01317012
8992.00   1.48176789   0.01333496
8994.00   1.50338206   0.01314792
8996.00   1.52629712   0.01279509
8998.00   1.50983652   0.01280055
9000.00   1.44575840   0.01312306
9002.00   1.42662585   0.01321328
9004.00   1.45219222   0.01319947
9006.00   1.47778520   0.01305198
9008.00   1.48086578   0.01261198
9010.00   1.47375157   0.01199315
9012.00   1.48017696   0.01173719
9014.00   1.49861312   0.01175512
9016.00   1.49603072   0.01172536
9018.00   1.48081982   0.01177578
9020.00   1.45292959   0.01177108
9022.00   1.40288338   0.01167754
9024.00   1.35659868   0.01150204
9026.00   1.33911550   0.01138346
9028.00   1.34667218   0.01142601
9030.00   1.34332380   0.01140131
9032.00   1.34304649   0.01134081
9034.00   1.32282093   0.01118489
9036.00   1.27878308   0.01097062
9038.00   1.23783177   0.01079048
9040.00   1.20990330   0.01055252
9042.00   1.18927258   0.01015653
9044.00   1.17641312   0.01012674
9046.00   1.17243749   0.01052421
9048.00   1.16152692   0.01067027
9050.00   1.14267427   0.01057042
9052.00   1.13108221   0.01034756
9054.00   1.12855521   0.01017609
9056.00   1.13398325   0.01011005
9058.00   1.13268173   0.01012769
9060.00   1.12614179   0.01023876
9062.00   1.11542895   0.01029872
9064.00   1.10342479   0.01033834
9066.00   1.08617416   0.01036319
9068.00   1.05354097   0.01041090
9070.00   1.01579824   0.01047113
9072.00   0.99778664   0.01045349
9074.00   0.99894252   0.01038234
9076.00   0.98159543   0.01032853
9078.00   0.95138904   0.01023219
9080.00   0.93311012   0.01022067
9082.00   0.92479333   0.01037097
9084.00   0.91315901   0.01050376
9086.00   0.91794667   0.01044726
9088.00   0.94121426   0.01019072
9090.00   0.94585440   0.01011749
9092.00   0.93836588   0.00994161
9094.00   0.93723732   0.01021357
9096.00   0.94722614   0.01128608
9098.00   0.95458755   0.01217722
9100.00   0.94099218   0.01198862
9102.00   0.90796366   0.01094234
9104.00   0.90122291   0.01037362
9106.00   0.91382441   0.00981562
9108.00   0.91811323   0.00949439
9110.00   0.91831550   0.00941059
9112.00   0.91632369   0.00961223
9114.00   0.90490237   0.00998664
9116.00   0.89327392   0.01015389
9118.00   0.89518502   0.01009069
9120.00   0.90494031   0.00999598
9122.00   0.91107088   0.00999630
9124.00   0.91876706   0.00999133
9126.00   0.92472622   0.01007763
9128.00   0.92538309   0.01032518
9130.00   0.92023867   0.01054029
9132.00   0.92360768   0.01062754
9134.00   0.93408000   0.01058382
9136.00   0.94084337   0.01062458
9138.00   0.95064145   0.01077221
9140.00   0.96399242   0.01084676
9142.00   0.97902617   0.01068237
9144.00   0.97939810   0.01049157
9146.00   0.97402316   0.01069525
9148.00   0.96518755   0.01122989
9150.00   0.95585459   0.01138276
9152.00   0.93812320   0.01110230
9154.00   0.93791398   0.01121618
9156.00   0.96196190   0.01203863
9158.00   0.98354933   0.01269239
9160.00   0.99018997   0.01235252
9162.00   0.99114132   0.01126720
9164.00   0.99043760   0.01063747
9166.00   0.98095402   0.00993713
9168.00   0.97056922   0.00961749
9170.00   0.94908160   0.00979049
9172.00   0.94768894   0.01005809
9174.00   0.97551575   0.01026376
9176.00   1.01263121   0.01046365
9178.00   1.03062350   0.01050031
9180.00   1.05084229   0.01015474
9182.00   1.05189937   0.01046274
9184.00   1.02593496   0.01133367
9186.00   1.00424168   0.01208620
9188.00   1.00164294   0.01278902
9190.00   1.01057634   0.01331079
9192.00   1.00466153   0.01290971
9194.00   0.99177897   0.01128262
9196.00   0.98674193   0.01050215
9198.00   0.97901890   0.01002332
9200.00   0.97757691   0.00982925
9202.00   0.98915899   0.01007960
9204.00   1.00869840   0.01048565
9206.00   1.02382472   0.01062102
9208.00   1.03306594   0.01061517
9210.00   1.02959284   0.01069005
9212.00   1.01227137   0.01081079
9214.00   1.00681695   0.01089579
9216.00   1.00891009   0.01091065
9218.00   1.01643911   0.01095457
9220.00   1.02776682   0.01110414
9222.00   1.04014736   0.01132025
9224.00   1.05173200   0.01148605
9226.00   1.06963664   0.01176838
9228.00   1.07320184   0.01172437
9230.00   1.06740445   0.01133471
9232.00   1.04681846   0.01088297
9234.00   1.00936148   0.01046293
9236.00   0.96833846   0.01004457
9238.00   0.94863391   0.00982469
9240.00   0.94606385   0.00976506
9242.00   0.93644026   0.00977700
9244.00   0.92205971   0.00993911
9246.00   0.92270857   0.01014293
9248.00   0.94833228   0.01037845
9250.00   0.97130087   0.01063764
9252.00   0.96847296   0.01067871
9254.00   0.94509733   0.01046525
9256.00   0.93210399   0.01069919
9258.00   0.91919863   0.01120686
9260.00   0.92196420   0.01142031
9262.00   0.94512257   0.01149025
9264.00   0.96375096   0.01151974
9266.00   0.96523491   0.01110157
9268.00   0.95515043   0.01046665
9270.00   0.95458215   0.01046118
9272.00   0.95721820   0.01089901
9274.00   0.95566082   0.01125904
9276.00   0.94968435   0.01166609
9278.00   0.94848561   0.01207981
9280.00   0.95098594   0.01255009
9282.00   0.94270614   0.01280509
9284.00   0.92664927   0.01278831
9286.00   0.91169229   0.01245630
9288.00   0.91570395   0.01240586
9290.00   0.94137552   0.01254529
9292.00   0.94522288   0.01260616
9294.00   0.92774379   0.01240745
9296.00   0.91209289   0.01248965
9298.00   0.90409786   0.01298087
9300.00   0.88361329   0.01336194
9302.00   0.87213239   0.01474108
9304.00   0.86304852   0.01662601
9306.00   0.87836140   0.01900826
9308.00   0.91448587   0.02194740
9310.00   0.96831027   0.02477074
9312.00   1.03152892   0.02710430
9314.00   1.08081874   0.02857925
9316.00   1.05671400   0.02831350
9318.00   0.96335685   0.02625016
9320.00   0.90303317   0.02539381
9322.00   0.83756500   0.02548118
9324.00   0.82376191   0.02559480
9326.00   0.89068294   0.02592851
9328.00   0.98332906   0.02661996
9330.00   0.98026744   0.02547433
9332.00   0.89519405   0.02114696
9334.00   0.86571512   0.01969247
9336.00   0.88132405   0.02183144
9338.00   0.88683578   0.02319679
9340.00   0.84498411   0.02231746
9342.00   0.79941100   0.02037281
9344.00   0.82080269   0.01922993
9346.00   0.91608870   0.01843102
9348.00   0.94209382   0.01775936
9350.00   0.92529571   0.01725890
9352.00   0.89844882   0.01696763
9354.00   0.86173522   0.01705991
9356.00   0.84804013   0.01723783
9358.00   0.88196513   0.01728321
9360.00   0.95127082   0.01724284
9362.00   0.97303474   0.01801771
9364.00   0.95310414   0.01859711
9366.00   0.98406687   0.02129252
9368.00   1.08220536   0.02598997
9370.00   1.18134302   0.03042107
9372.00   1.24284828   0.03413261
9374.00   1.27880576   0.03734681
9376.00   1.23452881   0.03750900
9378.00   1.06848815   0.03502468
9380.00   0.97641879   0.03203731
9382.00   0.93510425   0.02665975
9384.00   0.94085282   0.02162445
9386.00   0.97007263   0.01862165
9388.00   1.01775551   0.01730593
9390.00   1.02455413   0.01602414
9392.00   1.00816464   0.01537636
9394.00   1.01114687   0.01498131
9396.00   1.02050593   0.01524700
9398.00   1.02633160   0.01577820
9400.00   1.05134654   0.01640089
9402.00   1.07840827   0.01702751
9404.00   1.06387675   0.01727592
9406.00   1.01069972   0.01688551
9408.00   1.00826645   0.01747433
9410.00   1.03733703   0.01914543
9412.00   1.06677726   0.02006530
9414.00   1.10532790   0.01984655
9416.00   1.13369444   0.01923165
9418.00   1.14488482   0.01921832
9420.00   1.14584896   0.01934523
9422.00   1.09062019   0.01918632
9424.00   0.94688305   0.01879422
9426.00   0.89856842   0.01861899
9428.00   0.97073087   0.01841574
9430.00   1.03816536   0.01864109
9432.00   1.02849486   0.01913588
9434.00   0.99816298   0.02043526
9436.00   0.99023968   0.02347146
9438.00   0.96380675   0.02766034
9440.00   0.95146048   0.02930716
9442.00   0.95402515   0.02987153
9444.00   0.96864402   0.02959664
9446.00   0.98727909   0.02652430
9448.00   1.02588812   0.02142741
9450.00   1.05932537   0.01976833
9452.00   1.09130383   0.02054640
9454.00   1.09734035   0.02157135
9456.00   1.07584664   0.02452866
9458.00   1.05315986   0.02578620
9460.00   1.02415484   0.02437782
9462.00   1.02398473   0.02222615
9464.00   1.05771425   0.02142020
9466.00   1.09477687   0.02059487
9468.00   1.10285896   0.02142637
9470.00   1.10207880   0.02401228
9472.00   1.09091759   0.02531961
9474.00   1.04506621   0.02572626
9476.00   1.01501453   0.02589113
9478.00   1.01868516   0.02499790
9480.00   1.02960059   0.02311961
9482.00   1.03604612   0.02133268
9484.00   1.05646366   0.01862028
9486.00   1.05853450   0.01680033
9488.00   1.03864214   0.01588197
9490.00   1.00834668   0.01590680
9492.00   0.98695004   0.01715467
9494.00   0.96823016   0.01925836
9496.00   0.95716429   0.02079407
9498.00   0.97121868   0.02232174
9500.00   0.99207860   0.02307640
9502.00   1.02654207   0.02346896
9504.00   1.04506913   0.02338053
9506.00   1.06208369   0.02222607
9508.00   1.06657830   0.02046877
9510.00   1.04941070   0.01916136
9512.00   1.01602849   0.01725154
9514.00   0.99225438   0.01681822
9516.00   0.95916334   0.01774605
9518.00   0.94251394   0.01887243
9520.00   0.95079198   0.02037194
9522.00   0.97269848   0.02154817
9524.00   1.00090304   0.02188046
9526.00   1.06581834   0.02187621
9528.00   1.09620357   0.02145151
9530.00   1.10217795   0.02044175
9532.00   1.09227306   0.01957536
9534.00   1.06819218   0.01859023
9536.00   1.03460473   0.01758948
9538.00   1.00689125   0.01740586
9540.00   0.99772364   0.01780663
9542.00   1.00754061   0.01837086
9544.00   1.03513378   0.01946829
9546.00   1.05232719   0.02016907
9548.00   1.07158136   0.02054897
9550.00   1.08157071   0.02090180
9552.00   1.07277083   0.02148668
9554.00   1.05311865   0.02220512
9556.00   1.03379568   0.02225487
9558.00   1.01085782   0.02154978
9560.00   0.98865795   0.02144315
9562.00   0.94966108   0.02150654
9564.00   0.94610345   0.02190961
9566.00   1.00090906   0.02316147
9568.00   1.06343269   0.02437977
9570.00   1.09308040   0.02400034
9572.00   1.13206762   0.02240278
9574.00   1.12066212   0.02099952
9576.00   1.03974101   0.01862857
9578.00   0.99144924   0.01723146
9580.00   0.98955768   0.01740435
9582.00   1.01321957   0.01827857
9584.00   1.04896125   0.01946644
9586.00   1.09469965   0.02085747
9588.00   1.07979444   0.02082990
9590.00   1.00876874   0.01981433
9592.00   0.98999450   0.01932817
9594.00   1.01667327   0.01913631
9596.00   1.05098403   0.01884335
9598.00   1.09104833   0.01865798
9600.00   1.12698954   0.01860729
9602.00   1.13009119   0.01840968
9604.00   1.09433913   0.01801277
9606.00   1.08251473   0.01771564
9608.00   1.08893734   0.01742722
9610.00   1.09670460   0.01727861
9612.00   1.09006250   0.01727890
9614.00   1.08492255   0.01752335
9616.00   1.07482222   0.01791637
9618.00   1.04316381   0.01839867
9620.00   1.04076692   0.01886871
9622.00   1.06381342   0.01971288
9624.00   1.07571036   0.01994023
9626.00   1.07285178   0.01911712
9628.00   1.07304808   0.01791591
9630.00   1.06829309   0.01723513
9632.00   1.04018283   0.01671715
9634.00   1.02317533   0.01652750
9636.00   1.00855428   0.01663458
9638.00   1.01781535   0.01683237
9640.00   1.06122753   0.01734553
9642.00   1.08628070   0.01776120
9644.00   1.07272008   0.01772062
9646.00   1.05621770   0.01763595
9648.00   1.07662928   0.01804460
9650.00   1.12123007   0.01901348
9652.00   1.14094785   0.01932226
9654.00   1.14499959   0.01891449
9656.00   1.14742118   0.01853571
9658.00   1.14205441   0.01871527
9660.00   1.12645194   0.01913258
9662.00   1.10113734   0.01911935
9664.00   1.04833403   0.01842532
9666.00   1.03976610   0.01854300
9668.00   1.08157542   0.01925777
9670.00   1.10220617   0.02018542
9672.00   1.07956439   0.02149351
9674.00   1.03457355   0.02281231
9676.00   1.01333922   0.02244441
9678.00   1.01610795   0.01998884
9680.00   1.02756876   0.01889317
9682.00   1.05361849   0.01831774
9684.00   1.06684238   0.01792078
9686.00   1.07562059   0.01780457
9688.00   1.09190816   0.01798247
9690.00   1.08008480   0.01773401
9692.00   1.03845286   0.01703582
9694.00   1.02963325   0.01729363
9696.00   1.02972421   0.01835870
9698.00   1.02774289   0.01887173
9700.00   1.02713925   0.01881129
9702.00   1.04805392   0.01893178
9704.00   1.07142296   0.01945565
9706.00   1.08435193   0.02017078
9708.00   1.07212517   0.02005198
9710.00   1.02508017   0.01900014
9712.00   1.02204940   0.01867383
9714.00   1.05842420   0.01885097
9716.00   1.10151324   0.01925662
9718.00   1.14627632   0.01997160
9720.00   1.17325488   0.02076140
9722.00   1.16230500   0.02118177
9724.00   1.12239879   0.02162679
9726.00   1.13089687   0.02152119
9728.00   1.18551186   0.02064459
9730.00   1.19842377   0.02015817
9732.00   1.16336498   0.02020760
9734.00   1.10898104   0.02071188
9736.00   1.06267166   0.02157310
9738.00   1.05187380   0.02226030
9740.00   1.06636000   0.02202556
9742.00   1.10525042   0.02121472
9744.00   1.09979230   0.02044575
9746.00   1.04926935   0.01883874
9748.00   1.02893791   0.01767121
9750.00   1.06332433   0.01853666
9752.00   1.12617591   0.02073469
9754.00   1.14370254   0.02080288
9756.00   1.14626420   0.01932058
9758.00   1.13919747   0.01840202
9760.00   1.10395747   0.01784295
9762.00   1.07209700   0.01746477
9764.00   1.08453545   0.01735962
9766.00   1.12105146   0.01750463
9768.00   1.12689313   0.01761741
9770.00   1.11999550   0.01791805
9772.00   1.11765260   0.01807923
9774.00   1.11912870   0.01818092
9776.00   1.11467448   0.01819343
9778.00   1.09298742   0.01793914
9780.00   1.06657425   0.01769004
9782.00   1.05766994   0.01819436
9784.00   1.04498088   0.01930879
9786.00   1.06067139   0.02029629
9788.00   1.11049446   0.02154997
9790.00   1.13859922   0.02233816
9792.00   1.14049125   0.02256461
9794.00   1.14477304   0.02271476
9796.00   1.14418328   0.02326087
9798.00   1.12809691   0.02415054
9800.00   1.10913271   0.02396427
9802.00   1.09122750   0.02287597
9804.00   1.06828398   0.02199937
9806.00   1.03048751   0.02113728
9808.00   0.99106291   0.02034260
9810.00   0.96501622   0.02001202
9812.00   0.94080457   0.01984202
9814.00   0.92751908   0.01964066
9816.00   0.93548238   0.01981540
9818.00   0.93539435   0.01969833
9820.00   0.93227643   0.01921528
9822.00   0.91043496   0.01868282
9824.00   0.88825870   0.01836406
9826.00   0.87977660   0.01813227
9828.00   0.85997325   0.01786591
9830.00   0.84131849   0.01766652
9832.00   0.81660402   0.01735824
9834.00   0.77263716   0.01665625
9836.00   0.73838133   0.01652902
9838.00   0.74186535   0.01742882
9840.00   0.76059951   0.01854967
9842.00   0.75088261   0.01907573
9844.00   0.73211184   0.01946648
9846.00   0.71439059   0.01967017
9848.00   0.68446176   0.01967652
9850.00   0.66386376   0.01940609
9852.00   0.65881422   0.01878476
9854.00   0.66212568   0.01810013
9856.00   0.67113507   0.01751904
9858.00   0.68704185   0.01698185
9860.00   0.68314877   0.01710587
9862.00   0.67621005   0.01771664
9864.00   0.66772084   0.01873943
9866.00   0.64895236   0.02029607
9868.00   0.62019761   0.02179869
9870.00   0.61016530   0.02329336
9872.00   0.59976734   0.02458487
9874.00   0.59802166   0.02477648
9876.00   0.63655654   0.02426078
9878.00   0.64554486   0.02342828
9880.00   0.63186668   0.02169228
9882.00   0.59962994   0.02005478
9884.00   0.55373107   0.01894190
9886.00   0.49680428   0.01816489
9888.00   0.48641787   0.01810054
9890.00   0.52821085   0.01902958
9892.00   0.54263809   0.01962179
9894.00   0.55913016   0.02058828
9896.00   0.55792721   0.02088551
9898.00   0.52329476   0.02013453
9900.00   0.48334372   0.01902135
9902.00   0.48012587   0.01855276
9904.00   0.50827169   0.01836415
9906.00   0.52097423   0.01904138
9908.00   0.52790631   0.02055718
9910.00   0.52532612   0.02202698
9912.00   0.51180841   0.02394739
9914.00   0.50875477   0.02518228
9916.00   0.52184276   0.02522794
9918.00   0.54835877   0.02443184
9920.00   0.54299988   0.02330986
9922.00   0.49958356   0.02112012
9924.00   0.47156250   0.01985379
9926.00   0.44729804   0.01943330
9928.00   0.45196317   0.01941399
9930.00   0.47320144   0.01963290
9932.00   0.50085939   0.02020168
9934.00   0.51657133   0.02107905
9936.00   0.51945244   0.02172444
9938.00   0.51881629   0.02383061
9940.00   0.51071683   0.02746915
9942.00   0.50848250   0.03024207
9944.00   0.50658435   0.03210148
9946.00   0.51480234   0.03325909
9948.00   0.53069749   0.03319925
9950.00   0.54163907   0.03142647
9952.00   0.53036976   0.03111873
9954.00   0.49200819   0.03185098
9956.00   0.47932306   0.03209652
9958.00   0.49440831   0.03164417
9960.00   0.52221531   0.03082525
9962.00   0.53853329   0.02988650
9964.00   0.54084408   0.02855248
9966.00   0.53797109   0.02754111
9968.00   0.52281928   0.02662291
9970.00   0.52223067   0.02577754
9972.00   0.53591144   0.02490505
9974.00   0.55716404   0.02449613
9976.00   0.57460301   0.02447310
9978.00   0.57799311   0.02462770
9980.00   0.57369430   0.02456417
9982.00   0.56470363   0.02470291
9984.00   0.56739356   0.02430535
9986.00   0.57825084   0.02301843
9988.00   0.58566560   0.02194734
9990.00   0.59567766   0.02181007
9992.00   0.61088797   0.02229729
9994.00   0.62199205   0.02282390
9996.00   0.61738652   0.02357721
9998.00   0.63092344   0.02432471
10000.00   0.65871252   0.02483600
10002.00   0.69763993   0.02595610
10004.00   0.74928817   0.02760036
10006.00   0.78833070   0.02993922
10008.00   0.79215334   0.03320747
10010.00   0.77739565   0.03765862
10012.00   0.75590479   0.03901921
10014.00   0.70038934   0.03834484
10016.00   0.69140139   0.03741104
10018.00   0.75665388   0.03580540
10020.00   0.80053574   0.03436730
10022.00   0.79213625   0.03407109
10024.00   0.77584958   0.03475646
10026.00   0.80028915   0.03399294
10028.00   0.85954714   0.03196099
10030.00   0.87739971   0.03068733
10032.00   0.85358182   0.02986996
10034.00   0.83456054   0.02960352
10036.00   0.80883129   0.03053926
10038.00   0.80238596   0.03132284
10040.00   0.87601042   0.03096045
10042.00   1.00304297   0.03092527
10044.00   1.03957093   0.03093637
10046.00   1.01066560   0.03051717
10048.00   1.00759009   0.03017895
10050.00   0.99223056   0.03102859
10052.00   0.97956431   0.03145361
10054.00   1.01292452   0.03113333
10056.00   1.06404111   0.03121101
10058.00   1.07769114   0.03174928
10060.00   1.07036188   0.03274345
10062.00   1.08446938   0.03328448
10064.00   1.11836740   0.03362277
10066.00   1.13076973   0.03363170
10068.00   1.11274597   0.03310944
10070.00   1.06661120   0.03214090
10072.00   1.05758893   0.03286549
10074.00   1.07708740   0.03452630
10076.00   1.07937226   0.03712419
10078.00   1.03969795   0.04205121
10080.00   1.04760131   0.04451614
10082.00   1.13340935   0.04348953
10084.00   1.22373810   0.04131449
10086.00   1.21146759   0.03976170
10088.00   1.11658427   0.03736513
10090.00   1.09831288   0.03573262
10092.00   1.14832079   0.03475834
10094.00   1.17508665   0.03431856
10096.00   1.16064271   0.03471844
10098.00   1.14794350   0.03559730
10100.00   1.16143602   0.03621012
10102.00   1.19666857   0.03712006
10104.00   1.20165253   0.03751821
10106.00   1.17675295   0.03757917
10108.00   1.16098669   0.03737241
10110.00   1.16925541   0.03659739
10112.00   1.18897268   0.03591716
10114.00   1.20507067   0.03650148
10116.00   1.22285312   0.03778083
10118.00   1.23198569   0.04030136
10120.00   1.24345553   0.04499386
10122.00   1.26378566   0.04747508
10124.00   1.27593318   0.04772125
10126.00   1.27415517   0.04666327
10128.00   1.32574728   0.04535775
10130.00   1.42285824   0.04354746
10132.00   1.41125378   0.04236044
10134.00   1.30542150   0.04156989
10136.00   1.25475624   0.04081448
10138.00   1.24565473   0.03993809
10140.00   1.24356318   0.03923924
10142.00   1.25704610   0.03933556
10144.00   1.28795940   0.04022043
10146.00   1.30993482   0.04148005
10148.00   1.36768636   0.04364652
10150.00   1.38814563   0.04453727
10152.00   1.36720604   0.04425417
10154.00   1.32367557   0.04412650
10156.00   1.30802050   0.04441537
10158.00   1.30047023   0.04493959
10160.00   1.26786670   0.04637739
10162.00   1.20298234   0.04966643
10164.00   1.25707060   0.05117756
10166.00   1.44380996   0.05135159
10168.00   1.55620110   0.05200238
10170.00   1.58566868   0.05336887
10172.00   1.54336247   0.05547762
10174.00   1.42888188   0.05895758
10176.00   1.30717400   0.06355520
10178.00   1.37721673   0.06286847
10180.00   1.58128822   0.05694063
10182.00   1.66076607   0.05315374
10184.00   1.65558112   0.05153527
10186.00   1.69518271   0.05131089
10188.00   1.71929625   0.05164057
10190.00   1.71585184   0.05260030
10192.00   1.69064403   0.05266813
10194.00   1.60100374   0.05159690
10196.00   1.60382110   0.05144518
10198.00   1.72404701   0.05192622
10200.00   1.82402325   0.05339338
10202.00   1.84031790   0.05509774
10204.00   1.82711023   0.05699146
10206.00   1.81744856   0.06062915
10208.00   1.78105533   0.06836607
10210.00   1.76056069   0.06937352
10212.00   1.73716271   0.06391052
10214.00   1.72248358   0.05877870
10216.00   1.74629247   0.05687610
10218.00   1.79643613   0.05694665
10220.00   1.80119824   0.05795132
10222.00   1.77126801   0.06150399
10224.00   1.74609351   0.06221183
10226.00   1.71444583   0.06110935
10228.00   1.69811743   0.05978298
10230.00   1.67394519   0.05821229
10232.00   1.66993767   0.05683750
10234.00   1.73890030   0.05640502
10236.00   1.83018357   0.05608124
10238.00   1.83649087   0.05868036
10240.00   1.80456722   0.06688377
10242.00   1.76970482   0.06884676
10244.00   1.68579745   0.06299417
10246.00   1.62421161   0.05558135
10248.00   1.66453224   0.05380851
10250.00   1.75733924   0.05495805
10252.00   1.71772689   0.05503815
10254.00   1.58602694   0.05605658
10256.00   1.52926555   0.05654265
10258.00   1.52939263   0.05646198
10260.00   1.50582409   0.05639691
10262.00   1.45951295   0.05630191
10264.00   1.40783629   0.05654526
10266.00   1.36622024   0.05986938
10268.00   1.28545055   0.06856676
10270.00   1.30875370   0.07088049
10272.00   1.47011113   0.06845430
10274.00   1.55175394   0.06565534
10276.00   1.47431666   0.06318562
10278.00   1.35589427   0.06371851
10280.00   1.36118883   0.06964203
10282.00   1.47199914   0.08057521
10284.00   1.49648514   0.08564586
10286.00   1.49273086   0.08890898
10288.00   1.40663129   0.08876506
10290.00   1.18624911   0.08403007
10292.00   1.03923744   0.07908523
10294.00   1.01867777   0.07657695
10296.00   1.03331843   0.07519695
10298.00   1.06064624   0.07270767
10300.00   1.17282566   0.06910014
10302.00   1.21098426   0.06701962
10304.00   1.18080193   0.06624525
10306.00   1.08854502   0.06659158
10308.00   0.97647718   0.06859816
10310.00   0.93207929   0.07216073
10312.00   0.96809095   0.07220814
10314.00   1.03937933   0.06769316
10316.00   0.99559832   0.06419975
10318.00   0.84291059   0.06008677
10320.00   0.75924671   0.05835958
10322.00   0.72655356   0.05846188
10324.00   0.72589490   0.05970089
10326.00   0.77555722   0.06044260
10328.00   0.84598932   0.06177527
10330.00   0.84368822   0.06353779
10332.00   0.80275404   0.06566460
10334.00   0.79602888   0.06599761
10336.00   0.79153752   0.06526802
10338.00   0.77564138   0.06489006
10340.00   0.74020270   0.06440370
10342.00   0.69038412   0.06540126
10344.00   0.69784856   0.06575691
10346.00   0.70388687   0.06473780
10348.00   0.73720086   0.06463970
10350.00   0.85072616   0.06683985
10352.00   0.99169150   0.06863002
10354.00   1.02658477   0.06760960
10356.00   0.95065328   0.06477066
10358.00   0.89080554   0.06349014
10360.00   0.78001371   0.06181245
10362.00   0.77561337   0.06293134
10364.00   0.90072012   0.06759472
10366.00   1.05819263   0.07188248
10368.00   1.11562225   0.07390807
10370.00   0.95726171   0.07478327
10372.00   0.79743680   0.07623245
10374.00   0.65462452   0.07634016
10376.00   0.60420281   0.07404382
10378.00   0.60282683   0.06792612
10380.00   0.60088107   0.06551884
10382.00   0.66363019   0.06754573
10384.00   0.83142480   0.07056976
10386.00   0.90334791   0.06953450
10388.00   0.88550673   0.06586624
10390.00   0.85660712   0.06665817
10392.00   0.75270884   0.06982865
10394.00   0.69298169   0.07069695
10396.00   0.67529707   0.07087263
10398.00   0.75102490   0.07097220
10400.00   0.90079737   0.06887515
10402.00   1.04042345   0.06666005
10404.00   1.05149153   0.06567760
10406.00   0.99333623   0.06441262
10408.00   0.99278414   0.06465906
10410.00   0.99959716   0.06605812
10412.00   1.01007479   0.06904907
10414.00   1.11895892   0.07568945
10416.00   1.27553886   0.08525419
10418.00   1.25524005   0.08719599
10420.00   1.06362003   0.08021494
10422.00   0.97742912   0.07527908
10424.00   0.98090163   0.06920259
10426.00   0.96368131   0.06833070
10428.00   0.83110517   0.07269526
10430.00   0.61460537   0.07870568
10432.00   0.58341937   0.07807925
10434.00   0.83054578   0.07077879
10436.00   0.81566703   0.06705841
10438.00   0.60966350   0.06248988
10440.00   0.47948843   0.06147112
10442.00   0.47281212   0.06742931
10444.00   0.45932969   0.07463400
10446.00   0.47884928   0.07384840
10448.00   0.56484100   0.06603156
10450.00   0.60721135   0.06410037
10452.00   0.64958553   0.06498162
10454.00   0.70314036   0.06457986
10456.00   0.76416537   0.06257941
10458.00   0.78646031   0.06272549
10460.00   0.80271259   0.06449579
10462.00   0.82882065   0.06736119
10464.00   0.83088684   0.06821758
10466.00   0.78728136   0.06736383
10468.00   0.79130101   0.06683999
10470.00   0.86364341   0.06655295
10472.00   0.90446335   0.06618685
10474.00   0.88040054   0.06534563
10476.00   0.83269861   0.06443436
10478.00   0.80773997   0.06380673
10480.00   0.81760393   0.06333201
10482.00   0.80604284   0.06341795
10484.00   0.76376143   0.06388372
10486.00   0.70458126   0.06489303
10488.00   0.67925189   0.06733175
10490.00   0.72608234   0.06895648
10492.00   0.74506558   0.06759806
10494.00   0.71038948   0.06454206
10496.00   0.58991555   0.06492063
10498.00   0.33287673   0.06715718
10500.00   0.27003811   0.06722771
10502.00   0.43606198   0.06568585
10504.00   0.59330988   0.06639148
10506.00   0.68719976   0.06737372
10508.00   0.80389625   0.06833734
10510.00   0.74209923   0.06731682
10512.00   0.42558642   0.06282162
10514.00   0.33003718   0.06162494
10516.00   0.51627709   0.06507280
10518.00   0.68375690   0.06813353
10520.00   0.68760973   0.06822039
10522.00   0.60837395   0.06702360
10524.00   0.51095766   0.06923932
10526.00   0.35009144   0.07699346
10528.00   0.39723933   0.07829819
10530.00   0.70632783   0.07301731
10532.00   0.85131806   0.06683884
10534.00   0.78179330   0.06457173
10536.00   0.68791147   0.06502224
10538.00   0.70216508   0.06512808
10540.00   0.80622430   0.06630849
10542.00   0.79847576   0.06741853
10544.00   0.68928054   0.06886617
10546.00   0.58794534   0.06857836
10548.00   0.53244740   0.06693561
10550.00   0.55801164   0.06675947
10552.00   0.57213803   0.06658493
10554.00   0.53982283   0.06536476
10556.00   0.54806796   0.06492076
10558.00   0.58804077   0.06497894
10560.00   0.62015435   0.06524414
10562.00   0.65580866   0.06590557
10564.00   0.68073063   0.06634634
10566.00   0.65627858   0.06607734
10568.00   0.59164505   0.06553674
10570.00   0.49051817   0.06485780
10572.00   0.29537522   0.06320096
10574.00   0.26623485   0.06296398
10576.00   0.43080732   0.06407969
10578.00   0.58376527   0.06585845
10580.00   0.66326168   0.06823700
10582.00   0.68527412   0.07087971
10584.00   0.67005412   0.07250674
10586.00   0.60715550   0.07493857
10588.00   0.62724628   0.07468996
10590.00   0.74439195   0.07105953
10592.00   0.77520996   0.06747040
10594.00   0.69719827   0.06584220
10596.00   0.58932640   0.06528189
10598.00   0.49093354   0.06437505
10600.00   0.34270543   0.06311076
10602.00   0.35370408   0.06333068
10604.00   0.53406140   0.06535323
10606.00   0.62142467   0.06634930
10608.00   0.58711559   0.06581025
10610.00   0.54493256   0.06546049
10612.00   0.50642043   0.06494045
10614.00   0.37309444   0.06253650
10616.00   0.31141432   0.06393426
10618.00   0.30680773   0.06830275
10620.00   0.36529607   0.07072974
10622.00   0.51036716   0.07250248
10624.00   0.61622046   0.07420315
10626.00   0.60799840   0.07092361
10628.00   0.49703018   0.06203459
10630.00   0.49430655   0.05983753
10632.00   0.59779862   0.06339820
10634.00   0.61648329   0.06407992
10636.00   0.54909343   0.06288542
10638.00   0.48237658   0.06147752
10640.00   0.44074157   0.06048238
10642.00   0.43264735   0.05994663
10644.00   0.48460765   0.05965239
10646.00   0.56601748   0.05863476
10648.00   0.62149134   0.05944988
10650.00   0.67789683   0.06221684
10652.00   0.73320493   0.06461577
10654.00   0.77647911   0.06674856
10656.00   0.82222328   0.06835497
10658.00   0.81906071   0.06662047
10660.00   0.74359924   0.06011081
10662.00   0.63732080   0.05707160
10664.00   0.43649919   0.05573937
10666.00   0.35683849   0.05490770
10668.00   0.42976388   0.05462900
10670.00   0.53015603   0.05493024
10672.00   0.56994911   0.05497038
10674.00   0.60442916   0.05497650
10676.00   0.60089445   0.05442676
10678.00   0.52464837   0.05310184
10680.00   0.52438228   0.05302510
10682.00   0.61840415   0.05440264
10684.00   0.69533730   0.05533011
10686.00   0.75542974   0.05645395
10688.00   0.81509036   0.05733916
10690.00   0.77008671   0.05600645
10692.00   0.62883256   0.05189534
10694.00   0.53452586   0.05112888
10696.00   0.44121356   0.05360793
10698.00   0.36584371   0.05594090
10700.00   0.32977065   0.05717535
10702.00   0.33586334   0.05688097
10704.00   0.35470164   0.05481416
10706.00   0.40172759   0.04888383
10708.00   0.44968945   0.04615999
10710.00   0.51998925   0.04588807
10712.00   0.55079198   0.04600968
10714.00   0.52923365   0.04556781
10716.00   0.52042918   0.04487669
10718.00   0.55392699   0.04444861
10720.00   0.58009672   0.04351619
10722.00   0.56927359   0.04409902
10724.00   0.52418689   0.04673726
10726.00   0.51135971   0.04840762
10728.00   0.51660213   0.04940030
10730.00   0.56723730   0.04885388
10732.00   0.61846457   0.04696213
10734.00   0.63841794   0.04375556
10736.00   0.63636175   0.04169131
10738.00   0.58661920   0.04015901
10740.00   0.58299060   0.03964272
10742.00   0.63303559   0.04063004
10744.00   0.68541527   0.04122295
10746.00   0.69333021   0.04109490
10748.00   0.67504050   0.04057215
10750.00   0.64458542   0.03990959
10752.00   0.57520580   0.03850043
10754.00   0.57534055   0.03824549
10756.00   0.63742299   0.03920438
10758.00   0.68044792   0.03991258
10760.00   0.70807163   0.04005780
10762.00   0.74111438   0.03983085
10764.00   0.74034740   0.03887424
10766.00   0.70788948   0.03651286
10768.00   0.70972575   0.03573415
10770.00   0.72301695   0.03613127
10772.00   0.71923535   0.03679566
10774.00   0.70621571   0.03808673
10776.00   0.72284690   0.03836328
10778.00   0.73547319   0.03705410
10780.00   0.76406443   0.03456878
10782.00   0.68376684   0.03403278
10784.00   0.41398172   0.03553470
10786.00   0.32862356   0.03618590
10788.00   0.48021802   0.03626006
10790.00   0.64157471   0.03509326
10792.00   0.69274053   0.03335293
10794.00   0.72704950   0.03175642
10796.00   0.74330592   0.03198540
10798.00   0.69470331   0.03254141
10800.00   0.69495413   0.03370635
10802.00   0.75930634   0.03681349
10804.00   0.79125220   0.03915879
10806.00   0.73307896   0.03825072
10808.00   0.65819895   0.03543073
10810.00   0.64517854   0.03352633
10812.00   0.68395399   0.03072293
10814.00   0.69931756   0.02886276
10816.00   0.71890195   0.02770095
10818.00   0.71003115   0.02708484
10820.00   0.65753640   0.02663458
10822.00   0.59806004   0.02729003
10824.00   0.62916690   0.02943715
10826.00   0.74487364   0.03119570
10828.00   0.78518456   0.03162132
10830.00   0.79759026   0.03397974
