# File created by shivutils (I.Shivvers)
# wl(A)   flm    er(optional)
3432.00   0.04219449   0.34319377
3434.00   1.85771164   0.36219202
3436.00   1.20581925   0.36726523
3438.00   0.13401092   0.34903073
3440.00   -0.66658271   0.34809032
3442.00   0.11753377   0.34255731
3444.00   0.04748907   0.34566049
3446.00   1.21549837   0.35702673
3448.00   0.05273523   0.36247836
3450.00   -0.47056272   0.38276200
3452.00   -0.51846721   0.38620802
3454.00   -0.34632793   0.38006660
3456.00   -0.42083257   0.37952413
3458.00   1.12396695   0.38817098
3460.00   0.57974104   0.37185613
3462.00   0.14183921   0.36428496
3464.00   0.42600203   0.36533783
3466.00   1.06795549   0.36712351
3468.00   0.28665573   0.36107722
3470.00   0.35826743   0.35948523
3472.00   0.52866624   0.35426889
3474.00   0.49058655   0.35185505
3476.00   0.70635123   0.38234676
3478.00   0.68034331   0.40597810
3480.00   0.12281249   0.42002987
3482.00   0.19677943   0.40909667
3484.00   -0.15794205   0.39621802
3486.00   -0.56536119   0.39549727
3488.00   0.86456911   0.37993828
3490.00   0.47071504   0.37034455
3492.00   0.05855718   0.37551531
3494.00   0.19101682   0.36677096
3496.00   0.26120402   0.36033753
3498.00   0.47638214   0.36238024
3500.00   0.79971633   0.35815422
3502.00   0.45636085   0.35742577
3504.00   -0.45349310   0.35356663
3506.00   0.20930603   0.36111338
3508.00   0.80021101   0.36692726
3510.00   0.18668536   0.36099031
3512.00   0.22630950   0.34776689
3514.00   0.44956178   0.35265769
3516.00   0.10659670   0.35060559
3518.00   0.70759157   0.34649521
3520.00   0.50954794   0.35290883
3522.00   0.54700317   0.34068919
3524.00   0.67735882   0.34229659
3526.00   0.34829429   0.32643527
3528.00   0.37731018   0.33298229
3530.00   0.90450903   0.33549382
3532.00   1.12451784   0.34192456
3534.00   0.46964190   0.32765709
3536.00   0.58737163   0.34148006
3538.00   0.88041118   0.36163019
3540.00   0.60450402   0.38294863
3542.00   0.10595478   0.40115969
3544.00   -0.02120287   0.38748525
3546.00   0.03578465   0.37145124
3548.00   -0.12273173   0.36323643
3550.00   0.41908382   0.36395607
3552.00   0.65590743   0.36970660
3554.00   0.32792913   0.36134898
3556.00   0.46395427   0.37020616
3558.00   0.35750381   0.36259241
3560.00   1.00011733   0.34638474
3562.00   0.01813556   0.32647174
3564.00   -0.06926992   0.32913684
3566.00   0.97677224   0.34507019
3568.00   0.62971520   0.33120617
3570.00   0.98788791   0.33067851
3572.00   0.35252411   0.33481699
3574.00   0.14754235   0.33269021
3576.00   -0.23928155   0.32008532
3578.00   0.21124903   0.30566115
3580.00   0.24870715   0.31127566
3582.00   0.21932893   0.29574190
3584.00   0.32286625   0.28014158
3586.00   1.01727070   0.28475598
3588.00   0.08982280   0.29584550
3590.00   0.85017128   0.30140424
3592.00   0.34397337   0.27878609
3594.00   0.84993032   0.28695762
3596.00   0.30051245   0.26424835
3598.00   0.32924041   0.26769179
3600.00   0.11164994   0.27213668
3602.00   0.78397011   0.26099378
3604.00   0.81217164   0.26033079
3606.00   0.78686031   0.26396029
3608.00   0.61467821   0.25800142
3610.00   0.61954057   0.27987394
3612.00   0.40014493   0.29501518
3614.00   0.75693919   0.30012169
3616.00   1.03656774   0.28487496
3618.00   0.99581678   0.27874232
3620.00   0.78848094   0.26094499
3622.00   0.23889816   0.26737949
3624.00   0.58563235   0.26174596
3626.00   0.45389493   0.26795174
3628.00   0.69539920   0.28426476
3630.00   0.35238469   0.29403078
3632.00   0.42322941   0.28890351
3634.00   0.11121868   0.27219795
3636.00   0.61192817   0.27841758
3638.00   0.43142529   0.27451949
3640.00   1.25373959   0.30143937
3642.00   1.64505553   0.31525409
3644.00   0.78027882   0.30728051
3646.00   0.47164960   0.36192809
3648.00   0.70867599   0.48383310
3650.00   0.20888736   0.49199350
3652.00   0.67042683   0.42197479
3654.00   1.13898575   0.38604569
3656.00   0.35610011   0.31787058
3658.00   0.80539287   0.27986549
3660.00   0.32274091   0.32079570
3662.00   1.14824785   0.35308046
3664.00   0.76767498   0.30533459
3666.00   -0.12366866   0.23311058
3668.00   0.56840326   0.22365150
3670.00   0.40192248   0.21850060
3672.00   0.77222769   0.22382171
3674.00   0.54199911   0.20901460
3676.00   1.12973311   0.21399729
3678.00   1.35395447   0.21047351
3680.00   0.68977296   0.19779569
3682.00   0.36285733   0.19279349
3684.00   0.77423913   0.19468617
3686.00   0.47120234   0.18493585
3688.00   0.34361536   0.18812985
3690.00   0.73845824   0.19321914
3692.00   0.70560512   0.19768429
3694.00   0.81169003   0.18919024
3696.00   0.61334162   0.19033408
3698.00   0.56556532   0.19786256
3700.00   0.65719392   0.19895215
3702.00   0.50333178   0.19244711
3704.00   0.62896745   0.19489628
3706.00   0.55870166   0.18812129
3708.00   0.45421352   0.18277774
3710.00   0.42100954   0.17771525
3712.00   0.45992673   0.17701197
3714.00   0.56202373   0.17664437
3716.00   0.57403611   0.17649454
3718.00   0.32359017   0.17162281
3720.00   0.47628714   0.17820342
3722.00   0.32561011   0.17055014
3724.00   0.62857086   0.17095427
3726.00   0.81782558   0.18583550
3728.00   0.82219204   0.18796426
3730.00   0.88482114   0.18577387
3732.00   0.57559756   0.17972135
3734.00   0.54068849   0.17804780
3736.00   0.44716948   0.17766064
3738.00   -0.31576325   0.18314240
3740.00   0.29229372   0.18873200
3742.00   0.47717804   0.17748511
3744.00   0.51861323   0.17383254
3746.00   0.71651054   0.16982212
3748.00   0.40528782   0.16399997
3750.00   0.59459823   0.16551743
3752.00   0.59862346   0.16570541
3754.00   0.33235526   0.16173883
3756.00   0.80785559   0.16948182
3758.00   0.44181927   0.16108835
3760.00   0.74502835   0.16176610
3762.00   0.45564788   0.15197281
3764.00   0.56710012   0.15477178
3766.00   0.77582055   0.15701259
3768.00   0.45033305   0.15072840
3770.00   0.63865728   0.16094087
3772.00   0.55767546   0.15570086
3774.00   0.58191400   0.15607890
3776.00   0.70502229   0.15720517
3778.00   0.45505069   0.15203351
3780.00   1.03046191   0.15935608
3782.00   0.67884761   0.15735560
3784.00   0.48471062   0.15198790
3786.00   0.87646020   0.15995573
3788.00   0.60746602   0.15916677
3790.00   0.67664062   0.16071191
3792.00   0.65019223   0.15621307
3794.00   0.47728976   0.15009769
3796.00   0.76707281   0.15021488
3798.00   0.18626723   0.14223479
3800.00   0.59145259   0.15161648
3802.00   0.53806604   0.15518894
3804.00   0.70736936   0.15536624
3806.00   0.86935994   0.15032057
3808.00   0.72669257   0.14928472
3810.00   0.66451406   0.15045061
3812.00   0.43535974   0.14733410
3814.00   0.64364099   0.15419987
3816.00   0.75247837   0.15423593
3818.00   0.74338976   0.15339448
3820.00   0.59181615   0.15161384
3822.00   0.73537173   0.15364306
3824.00   0.80150733   0.15138796
3826.00   0.87981729   0.16078179
3828.00   0.65179063   0.16296627
3830.00   1.05614808   0.17059827
3832.00   0.68937213   0.15764635
3834.00   0.66731643   0.15526398
3836.00   0.88983386   0.15656329
3838.00   0.72579431   0.15391538
3840.00   0.45459836   0.15092136
3842.00   0.67230804   0.14996094
3844.00   0.51357502   0.14563437
3846.00   0.40718544   0.14190198
3848.00   0.64165446   0.14290936
3850.00   0.49527511   0.14401140
3852.00   0.51707474   0.14067384
3854.00   0.87050895   0.14660617
3856.00   0.62824593   0.13764680
3858.00   0.79431996   0.13910692
3860.00   0.67838064   0.14146783
3862.00   0.71937236   0.14237986
3864.00   0.54058548   0.13865678
3866.00   0.99549507   0.14262305
3868.00   0.51929823   0.13404489
3870.00   0.58623161   0.13780066
3872.00   0.65970386   0.14742425
3874.00   0.89585113   0.15594773
3876.00   0.68604563   0.14520058
3878.00   0.40127940   0.13418866
3880.00   0.56707632   0.13174430
3882.00   0.36141344   0.12618939
3884.00   0.50768280   0.12976047
3886.00   0.32859455   0.12743155
3888.00   0.73802917   0.12983943
3890.00   0.72456537   0.12867476
3892.00   0.54483883   0.13299060
3894.00   0.29324605   0.13349409
3896.00   0.76245182   0.14114175
3898.00   0.66742964   0.13754233
3900.00   0.28627182   0.13591811
3902.00   0.47120583   0.14315798
3904.00   0.31456713   0.16132263
3906.00   0.27552274   0.18661499
3908.00   0.50690378   0.19839271
3910.00   0.39365652   0.20073689
3912.00   0.95742342   0.19945806
3914.00   0.48290392   0.17599768
3916.00   0.64232292   0.16047828
3918.00   1.07952691   0.15678927
3920.00   0.44777730   0.14017088
3922.00   0.68274009   0.14086811
3924.00   0.35726786   0.13551397
3926.00   0.50229504   0.13440460
3928.00   0.33202106   0.13219608
3930.00   0.63009853   0.14380778
3932.00   0.36808170   0.15021755
3934.00   0.50204502   0.14463322
3936.00   0.45602395   0.12937655
3938.00   0.39857162   0.12982613
3940.00   0.38673682   0.13662993
3942.00   0.59369769   0.15430045
3944.00   0.70087539   0.15598117
3946.00   0.18680104   0.14044392
3948.00   0.66375624   0.14058540
3950.00   0.63111148   0.13594679
3952.00   0.50720552   0.13051207
3954.00   0.61935656   0.12985314
3956.00   0.23632605   0.12207811
3958.00   0.31244601   0.12877015
3960.00   0.45167073   0.14550360
3962.00   0.55279171   0.13982997
3964.00   0.61313987   0.12202327
3966.00   0.54847371   0.11767267
3968.00   0.58698513   0.11651571
3970.00   0.44255399   0.11474337
3972.00   0.38376894   0.11890376
3974.00   0.39156410   0.11704187
3976.00   0.73123702   0.11889948
3978.00   0.56594927   0.11933502
3980.00   0.41403926   0.11947968
3982.00   0.67334187   0.12112081
3984.00   0.59706401   0.11891763
3986.00   0.58987355   0.11957196
3988.00   0.72255695   0.12204902
3990.00   0.38725860   0.11819363
3992.00   0.57073761   0.12045799
3994.00   0.69201874   0.13768370
3996.00   0.91861741   0.14558493
3998.00   0.81252615   0.13591103
4000.00   0.71955021   0.12543549
4002.00   0.85058764   0.12263913
4004.00   0.92123608   0.12217358
4006.00   1.14334884   0.13114066
4008.00   0.80854303   0.13054027
4010.00   0.79483790   0.13128423
4012.00   0.62565368   0.12896679
4014.00   0.63480211   0.12309428
4016.00   0.77840233   0.13436540
4018.00   0.64428858   0.15877203
4020.00   0.97733228   0.17994861
4022.00   0.57006728   0.17756107
4024.00   0.82762871   0.16865763
4026.00   0.68909249   0.14790409
4028.00   0.69045526   0.14068958
4030.00   0.93131012   0.14167324
4032.00   0.93726140   0.13774731
4034.00   0.77558704   0.13123060
4036.00   0.51805282   0.12479920
4038.00   0.80819846   0.12533741
4040.00   1.09693849   0.13019471
4042.00   0.94914544   0.15607176
4044.00   1.01820634   0.27844426
4046.00   0.85271547   0.31949074
4048.00   0.80507022   0.24721908
4050.00   0.85500737   0.15168139
4052.00   1.03238718   0.14565845
4054.00   0.78632792   0.14498889
4056.00   0.69015822   0.13538794
4058.00   0.74505989   0.12441996
4060.00   0.83647733   0.12077814
4062.00   0.89480730   0.12216674
4064.00   0.64473431   0.12124647
4066.00   0.96535772   0.12285232
4068.00   0.93627229   0.12086266
4070.00   0.66272407   0.11523503
4072.00   0.87768681   0.11516532
4074.00   1.00991184   0.12886479
4076.00   0.78935767   0.15223776
4078.00   0.77035252   0.15462552
4080.00   1.05090663   0.14460279
4082.00   0.66828204   0.13710442
4084.00   0.79444846   0.13487423
4086.00   0.93126053   0.13020084
4088.00   1.00971644   0.12184039
4090.00   0.61935326   0.10542253
4092.00   0.78815546   0.10799530
4094.00   0.86234550   0.10909456
4096.00   0.62083509   0.10567234
4098.00   0.98250033   0.10835705
4100.00   1.02869156   0.10657072
4102.00   0.81081391   0.09943624
4104.00   0.66796096   0.09833967
4106.00   0.76920480   0.10226023
4108.00   0.92230673   0.10520051
4110.00   0.92211291   0.10620408
4112.00   0.98999070   0.10662558
4114.00   0.94430968   0.10539809
4116.00   0.87790296   0.10392921
4118.00   0.85916721   0.09964641
4120.00   0.85766738   0.09844492
4122.00   0.98572259   0.10041720
4124.00   1.15376983   0.10400027
4126.00   1.12550224   0.10474335
4128.00   1.17421473   0.10727765
4130.00   1.25003145   0.11286321
4132.00   1.09389573   0.11721607
4134.00   0.95652687   0.11330029
4136.00   1.08178881   0.10814080
4138.00   1.30712675   0.11622389
4140.00   1.47729723   0.11858057
4142.00   1.20062957   0.10967000
4144.00   0.97128327   0.09928491
4146.00   1.22808125   0.10324511
4148.00   1.27709508   0.10610645
4150.00   0.77970271   0.10947486
4152.00   0.87221157   0.11573280
4154.00   0.98627708   0.11010141
4156.00   0.83048789   0.10316587
4158.00   1.12647617   0.10588461
4160.00   0.75847328   0.10406484
4162.00   1.06934365   0.11564310
4164.00   0.91784530   0.12306685
4166.00   1.01223867   0.12085177
4168.00   1.14193748   0.11048439
4170.00   0.86553004   0.10330115
4172.00   0.69510002   0.09819811
4174.00   0.99558204   0.10064592
4176.00   0.96529599   0.10293127
4178.00   0.76146079   0.10330769
4180.00   0.88032971   0.10142272
4182.00   0.95965043   0.09817782
4184.00   0.87603696   0.09750316
4186.00   0.75345448   0.09669109
4188.00   0.76007843   0.09576596
4190.00   0.96357258   0.09849169
4192.00   0.81323876   0.09926660
4194.00   0.84643616   0.09815652
4196.00   0.81056473   0.09409109
4198.00   0.84164919   0.09462727
4200.00   0.95338964   0.09669401
4202.00   0.83647298   0.09570735
4204.00   0.77805070   0.09697674
4206.00   0.88193124   0.10010016
4208.00   0.79019332   0.10125752
4210.00   0.77250186   0.10415683
4212.00   0.90232548   0.10346276
4214.00   0.90592546   0.09931845
4216.00   0.81303067   0.09814311
4218.00   0.87479997   0.09948301
4220.00   0.77646654   0.09700257
4222.00   0.83629408   0.09758174
4224.00   0.91328997   0.09858132
4226.00   1.06949704   0.10130532
4228.00   0.90566162   0.09815234
4230.00   0.92849405   0.10086550
4232.00   0.81758380   0.10312019
4234.00   0.92732830   0.10414379
4236.00   0.97618970   0.10819290
4238.00   0.87339172   0.10615814
4240.00   0.95358403   0.10049881
4242.00   0.97397099   0.09938472
4244.00   0.79280677   0.11690333
4246.00   1.00386604   0.13192644
4248.00   1.02894291   0.12319980
4250.00   0.88103090   0.10319756
4252.00   0.72417798   0.09771722
4254.00   0.76327225   0.09937298
4256.00   1.06616406   0.10353046
4258.00   0.91045683   0.10031473
4260.00   0.91231303   0.09820529
4262.00   0.83757964   0.09584940
4264.00   0.84465881   0.09479714
4266.00   0.91339463   0.09612186
4268.00   0.84491755   0.09527386
4270.00   0.89220390   0.09794726
4272.00   0.89178337   0.09834774
4274.00   0.97090744   0.09948003
4276.00   1.02163305   0.10052861
4278.00   0.91611969   0.10130071
4280.00   0.86145722   0.10064330
4282.00   0.83824021   0.10113505
4284.00   0.92741201   0.09972920
4286.00   0.87645322   0.09838359
4288.00   1.09260629   0.09917591
4290.00   1.09732295   0.09842333
4292.00   0.73757183   0.09618541
4294.00   0.87797231   0.09835060
4296.00   0.93209988   0.09903292
4298.00   1.17613602   0.10086297
4300.00   0.96575196   0.09668295
4302.00   0.71101560   0.09572557
4304.00   0.87112290   0.09794957
4306.00   0.97734944   0.10180593
4308.00   1.00850706   0.10085159
4310.00   0.92409626   0.10541191
4312.00   1.03973399   0.11905147
4314.00   0.84183666   0.12085819
4316.00   0.90848787   0.11382252
4318.00   1.07892982   0.11481133
4320.00   1.13456462   0.11911636
4322.00   0.89050179   0.11653943
4324.00   0.68324535   0.11083974
4326.00   0.81292474   0.10852678
4328.00   1.29208009   0.10704765
4330.00   1.13655107   0.10390968
4332.00   1.11754691   0.10251574
4334.00   0.83557920   0.10084111
4336.00   0.91614452   0.10443849
4338.00   0.97547988   0.10740774
4340.00   1.03062813   0.10888949
4342.00   1.24381300   0.10982780
4344.00   1.08378185   0.11373352
4346.00   1.22335538   0.12108879
4348.00   1.02832676   0.11883080
4350.00   1.11969877   0.11434667
4352.00   0.93886504   0.11177634
4354.00   0.80097763   0.15010813
4356.00   1.31876002   0.27535506
4358.00   1.14965350   0.31762296
4360.00   0.77376301   0.25047880
4362.00   0.80857198   0.15736671
4364.00   0.92805396   0.12397787
4366.00   1.13622775   0.11823855
4368.00   1.00638140   0.11436715
4370.00   1.18812978   0.11439342
4372.00   1.05191478   0.11914747
4374.00   0.91364934   0.12048191
4376.00   0.90289413   0.11463982
4378.00   1.20877406   0.11066158
4380.00   0.88777288   0.10584944
4382.00   0.91813351   0.10523913
4384.00   1.07722258   0.10452822
4386.00   1.01343212   0.10297185
4388.00   1.22140043   0.10563015
4390.00   1.14016422   0.10574858
4392.00   1.16766363   0.10545380
4394.00   1.18773104   0.10347900
4396.00   1.25019998   0.10460844
4398.00   1.34163884   0.11202838
4400.00   1.22484547   0.11341730
4402.00   1.10325304   0.10958996
4404.00   1.47733489   0.10877286
4406.00   1.36353990   0.10845008
4408.00   1.17121537   0.10700665
4410.00   1.29187194   0.10831184
4412.00   1.20890318   0.10947635
4414.00   1.06598635   0.11186404
4416.00   1.20867290   0.11312466
4418.00   1.20177965   0.10851905
4420.00   1.06244780   0.10501467
4422.00   1.07101613   0.10622622
4424.00   0.97426749   0.10461259
4426.00   1.15612375   0.10492793
4428.00   1.09073855   0.10413332
4430.00   1.11957749   0.10493020
4432.00   1.22875837   0.10500555
4434.00   1.43867120   0.10591486
4436.00   1.33275029   0.10532160
4438.00   1.14161969   0.10370697
4440.00   1.02920345   0.10162931
4442.00   1.26793482   0.10270835
4444.00   1.26802020   0.10384334
4446.00   1.31136894   0.10459483
4448.00   1.21706562   0.10276044
4450.00   1.35000624   0.10346644
4452.00   1.40543523   0.10452102
4454.00   1.39616449   0.10361892
4456.00   1.31379771   0.10386290
4458.00   1.09600043   0.10160229
4460.00   1.12650853   0.10207717
4462.00   1.19077748   0.10221555
4464.00   1.05302144   0.10005532
4466.00   1.19519456   0.10119591
4468.00   0.97691164   0.09786247
4470.00   0.99114789   0.09761972
4472.00   1.04982924   0.09799401
4474.00   1.04658529   0.09924932
4476.00   0.95866171   0.09807415
4478.00   1.09854176   0.09848246
4480.00   1.06960320   0.09822378
4482.00   1.11127707   0.09917256
4484.00   0.97798870   0.09848774
4486.00   1.11418301   0.10028742
4488.00   1.00509082   0.09859879
4490.00   0.97784942   0.09930882
4492.00   1.15344069   0.10204160
4494.00   1.06797124   0.10147367
4496.00   0.92786276   0.09985391
4498.00   0.78897979   0.09851735
4500.00   0.95477108   0.10121322
4502.00   1.07442549   0.09911798
4504.00   1.00762914   0.09825306
4506.00   0.91221711   0.09706942
4508.00   0.87486169   0.09743304
4510.00   1.05129567   0.09810798
4512.00   0.73098342   0.09502741
4514.00   0.86794999   0.09627822
4516.00   0.75573006   0.09471781
4518.00   0.76016381   0.09464454
4520.00   1.10882917   0.09635315
4522.00   0.89976746   0.09421530
4524.00   0.71873926   0.09225465
4526.00   0.87331056   0.09370447
4528.00   0.81458142   0.09352878
4530.00   0.68736114   0.09206573
4532.00   0.84348875   0.09320273
4534.00   0.85553098   0.09350637
4536.00   0.75118798   0.09243249
4538.00   0.94727897   0.09245645
4540.00   1.01857966   0.09427329
4542.00   0.90217139   0.09498028
4544.00   0.97929327   0.09569290
4546.00   0.79381374   0.09291698
4548.00   0.91343774   0.09191204
4550.00   0.68226988   0.08876068
4552.00   0.94090369   0.09079644
4554.00   0.78170266   0.08947365
4556.00   0.78960260   0.09059833
4558.00   0.82238678   0.09040244
4560.00   0.83074612   0.08917948
4562.00   0.55852755   0.08651956
4564.00   0.83815442   0.08709745
4566.00   0.87248292   0.08728080
4568.00   0.95721837   0.08758353
4570.00   0.90056305   0.08693968
4572.00   0.87725294   0.08774125
4574.00   0.86955968   0.08874562
4576.00   0.81823436   0.08665074
4578.00   0.90676581   0.08653969
4580.00   0.71540048   0.08311052
4582.00   0.71450092   0.08224873
4584.00   0.81958690   0.08236790
4586.00   0.79173597   0.08247600
4588.00   0.86988443   0.08429335
4590.00   0.98950290   0.08527422
4592.00   0.95813889   0.08577739
4594.00   0.95129409   0.08605806
4596.00   0.76366735   0.08332249
4598.00   1.02557970   0.08506802
4600.00   0.92766682   0.08330076
4602.00   0.89460798   0.08308687
4604.00   1.02989085   0.08342094
4606.00   0.95782331   0.08362999
4608.00   0.85898139   0.08307271
4610.00   1.21009506   0.08694667
4612.00   0.86588385   0.08203280
4614.00   0.97121906   0.08174079
4616.00   1.00691728   0.08209902
4618.00   1.03708937   0.08115608
4620.00   1.09478643   0.08211645
4622.00   1.14888663   0.08301878
4624.00   1.07912077   0.08165623
4626.00   1.13807117   0.08191926
4628.00   1.12485639   0.08195260
4630.00   1.13994938   0.08086710
4632.00   1.13735185   0.08164696
4634.00   1.09233047   0.08074049
4636.00   1.17709772   0.08120030
4638.00   1.11944149   0.07954775
4640.00   1.42464986   0.08350151
4642.00   1.30976378   0.08263673
4644.00   1.18498904   0.08096606
4646.00   1.39160698   0.08345017
4648.00   1.26533727   0.08286452
4650.00   1.27355611   0.08314660
4652.00   1.36626412   0.08434591
4654.00   1.28048045   0.08407970
4656.00   1.43086699   0.08609946
4658.00   1.49242903   0.08791391
4660.00   1.30733458   0.08785909
4662.00   1.35755598   0.08995972
4664.00   1.58992834   0.09352499
4666.00   1.73583594   0.09758144
4668.00   1.57562835   0.09846122
4670.00   1.64811580   0.09843791
4672.00   1.63276464   0.09743258
4674.00   1.67334944   0.09523074
4676.00   1.65556901   0.09327977
4678.00   1.64580308   0.09128250
4680.00   1.62770490   0.09045671
4682.00   1.81012645   0.09079263
4684.00   1.75972230   0.08916468
4686.00   1.79657654   0.08817272
4688.00   1.78474778   0.08805890
4690.00   1.84082086   0.08812602
4692.00   1.92261633   0.08882309
4694.00   1.84300174   0.08739411
4696.00   1.91271186   0.08673945
4698.00   1.68522706   0.08415444
4700.00   2.01668361   0.08693446
4702.00   2.01868186   0.08728810
4704.00   1.98619009   0.08745828
4706.00   2.12105479   0.09070313
4708.00   2.05001437   0.09124539
4710.00   1.87013139   0.09056810
4712.00   1.96133876   0.09071262
4714.00   2.17507649   0.09076847
4716.00   1.92598330   0.08709454
4718.00   2.09630596   0.08875726
4720.00   2.11572959   0.08898531
4722.00   2.03189514   0.08819207
4724.00   2.30900955   0.08997056
4726.00   2.21779268   0.09353913
4728.00   2.47735182   0.10183612
4730.00   2.22591010   0.10110591
4732.00   2.49486083   0.10287254
4734.00   2.43445559   0.10413212
4736.00   2.17537825   0.10510939
4738.00   2.41194260   0.10915772
4740.00   2.36709510   0.11166133
4742.00   2.27501606   0.11536343
4744.00   2.28229493   0.11068255
4746.00   2.14117156   0.10000529
4748.00   2.32489116   0.09394285
4750.00   2.26788148   0.09286464
4752.00   2.20482966   0.09388141
4754.00   2.21679349   0.09227497
4756.00   2.21979101   0.08814188
4758.00   2.31034226   0.08686015
4760.00   2.37314793   0.08603900
4762.00   2.29887310   0.08381460
4764.00   2.23096445   0.08362887
4766.00   2.41136921   0.08385844
4768.00   2.26193487   0.08258466
4770.00   2.32166283   0.08226490
4772.00   2.11103525   0.08041374
4774.00   2.19820035   0.08132976
4776.00   2.15204743   0.08419653
4778.00   2.19545254   0.08765940
4780.00   2.22041894   0.08829358
4782.00   2.07655330   0.08379380
4784.00   2.15150776   0.08224286
4786.00   2.09407989   0.08055446
4788.00   2.01495662   0.08022106
4790.00   2.04403435   0.08151900
4792.00   1.99795643   0.08086042
4794.00   2.01508955   0.07940472
4796.00   1.95298523   0.07806198
4798.00   1.90447471   0.07796635
4800.00   1.86493405   0.07713099
4802.00   1.90563141   0.07765131
4804.00   1.83070660   0.07725985
4806.00   1.88051575   0.07780940
4808.00   1.77825940   0.07775397
4810.00   1.97840476   0.07953723
4812.00   1.65525865   0.07614070
4814.00   1.69012401   0.07662304
4816.00   1.70822024   0.07733294
4818.00   1.86579251   0.07875931
4820.00   1.92150225   0.08024816
4822.00   1.67637060   0.07909630
4824.00   1.60386584   0.07937329
4826.00   1.57806261   0.07931294
4828.00   1.69656118   0.08097233
4830.00   1.69859689   0.08118785
4832.00   1.71638111   0.08272387
4834.00   1.60820090   0.08078925
4836.00   1.57634801   0.08044950
4838.00   1.77806541   0.08531490
4840.00   1.75435720   0.08627100
4842.00   1.70603803   0.08368626
4844.00   1.60175362   0.08035971
4846.00   1.58362356   0.08073376
4848.00   1.81730552   0.08305364
4850.00   1.75198192   0.08305952
4852.00   1.51517320   0.08094430
4854.00   1.63862482   0.08024816
4856.00   1.48929094   0.07715339
4858.00   1.51211942   0.07735636
4860.00   1.42715562   0.07758101
4862.00   1.44324084   0.07905312
4864.00   1.37204174   0.07980624
4866.00   1.42246450   0.07910982
4868.00   1.41969497   0.07794481
4870.00   1.21524668   0.07593331
4872.00   1.29531379   0.07646155
4874.00   1.18157523   0.07557063
4876.00   1.34917580   0.07799330
4878.00   1.24029301   0.07773407
4880.00   1.20406103   0.07796054
4882.00   1.25913502   0.07731035
4884.00   1.14014764   0.07500924
4886.00   1.12347032   0.07404698
4888.00   0.94417328   0.07172219
4890.00   1.02627559   0.07195412
4892.00   0.95486082   0.07252745
4894.00   1.09280175   0.07445051
4896.00   1.03237072   0.07360035
4898.00   1.26652272   0.07423837
4900.00   1.03544171   0.07173790
4902.00   0.97361764   0.07048797
4904.00   1.08823643   0.07206465
4906.00   0.89897923   0.07094650
4908.00   1.12321858   0.07448350
4910.00   1.03528890   0.07398763
4912.00   0.94805905   0.07262696
4914.00   0.96684006   0.07263529
4916.00   0.91187420   0.07266060
4918.00   1.05704762   0.07370954
4920.00   0.97380193   0.07334496
4922.00   0.84848846   0.07182215
4924.00   0.95127442   0.07217111
4926.00   1.15143663   0.07253729
4928.00   1.04351801   0.07075217
4930.00   1.03116414   0.06992304
4932.00   1.03443238   0.07034712
4934.00   0.97829131   0.07121602
4936.00   1.01424538   0.07163244
4938.00   0.98293417   0.07153214
4940.00   0.98978325   0.07228139
4942.00   1.14006644   0.07326320
4944.00   1.15173828   0.07239105
4946.00   1.06255171   0.07112610
4948.00   0.98726329   0.06939261
4950.00   1.13683921   0.07196045
4952.00   1.18115932   0.07495314
4954.00   1.22385358   0.07605283
4956.00   1.21186511   0.07545531
4958.00   1.10063898   0.07293829
4960.00   1.23574831   0.07367260
4962.00   1.15070685   0.07307245
4964.00   1.18240362   0.07442620
4966.00   1.08336640   0.07414526
4968.00   1.31263797   0.07667395
4970.00   1.12082667   0.07773350
4972.00   1.34719231   0.08405728
4974.00   1.38030202   0.08667741
4976.00   1.35475845   0.09032477
4978.00   1.28420845   0.09629820
4980.00   1.25830953   0.10055777
4982.00   1.32336781   0.10445041
4984.00   1.29996172   0.10503693
4986.00   1.40639803   0.10139433
4988.00   1.43125534   0.09697344
4990.00   1.44895957   0.09374912
4992.00   1.19963956   0.08838215
4994.00   1.12933344   0.08393568
4996.00   1.30115890   0.08145890
4998.00   1.36016838   0.07911746
5000.00   1.27203339   0.07644590
5002.00   1.31908428   0.07547627
5004.00   1.28630176   0.07446530
5006.00   1.47018846   0.07579346
5008.00   1.28375755   0.07312224
5010.00   1.36512828   0.07354944
5012.00   1.32992371   0.07213656
5014.00   1.25691967   0.07196328
5016.00   1.37188525   0.07374831
5018.00   1.31337298   0.07519507
5020.00   1.39588832   0.07690769
5022.00   1.41013096   0.07664245
5024.00   1.47603708   0.07480980
5026.00   1.41446905   0.07299498
5028.00   1.46127746   0.07501061
5030.00   1.55309781   0.07763048
5032.00   1.51041085   0.07710440
5034.00   1.55207327   0.07569372
5036.00   1.56811715   0.07447382
5038.00   1.39780469   0.07264397
5040.00   1.54305276   0.07288128
5042.00   1.56868834   0.07381969
5044.00   1.67731619   0.07540620
5046.00   1.64139267   0.07542608
5048.00   1.55141462   0.07468992
5050.00   1.65394600   0.07449180
5052.00   1.65055168   0.07522166
5054.00   1.62450731   0.07440757
5056.00   1.51915528   0.07403077
5058.00   1.72743791   0.07587676
5060.00   1.81352863   0.07660344
5062.00   1.76033983   0.07941483
5064.00   1.61503691   0.08120063
5066.00   1.59923124   0.08215809
5068.00   1.71720230   0.08747960
5070.00   1.47327376   0.08747432
5072.00   1.57641479   0.08487498
5074.00   1.50409382   0.08206894
5076.00   1.59042721   0.08189705
5078.00   1.53560655   0.08203186
5080.00   1.47475279   0.09290489
5082.00   1.59402798   0.10546172
5084.00   1.43448165   0.11346367
5086.00   1.45237467   0.11304597
5088.00   1.49488043   0.10722781
5090.00   1.73404127   0.09731061
5092.00   1.33454166   0.08539557
5094.00   1.41428016   0.08209518
5096.00   1.66183260   0.08498491
5098.00   1.75929542   0.09054777
5100.00   1.62236831   0.09108939
5102.00   1.64549303   0.08756710
5104.00   1.71815071   0.08262589
5106.00   1.62085574   0.07956009
5108.00   1.64138333   0.07806661
5110.00   1.61740936   0.07815981
5112.00   1.54831025   0.07787828
5114.00   1.64917841   0.08019928
5116.00   1.59013021   0.08092226
5118.00   1.84435701   0.08138616
5120.00   1.76361278   0.07897193
5122.00   1.56595382   0.07616490
5124.00   1.68685354   0.07594364
5126.00   1.69553708   0.07653216
5128.00   1.64303657   0.07565542
5130.00   1.62348706   0.07585528
5132.00   1.56816953   0.07637231
5134.00   1.59182209   0.07594264
5136.00   1.58373011   0.07581776
5138.00   1.64607700   0.07629053
5140.00   1.57693619   0.07598692
5142.00   1.61374845   0.07649724
5144.00   1.62833724   0.07662107
5146.00   1.48995656   0.07722044
5148.00   1.40802549   0.07916950
5150.00   1.52119138   0.08250307
5152.00   1.36151413   0.08515257
5154.00   1.18870861   0.08496166
5156.00   0.97591827   0.08179307
5158.00   1.28070482   0.08097216
5160.00   1.15432162   0.07794671
5162.00   1.22183230   0.07645859
5164.00   1.13803378   0.07380011
5166.00   1.29500925   0.07424435
5168.00   1.30195124   0.07342511
5170.00   0.92884740   0.06960480
5172.00   0.96942341   0.07003770
5174.00   1.01142350   0.07140448
5176.00   1.05845088   0.07182823
5178.00   1.09826439   0.07289620
5180.00   1.06763836   0.07153333
5182.00   0.99273296   0.07030648
5184.00   1.01234742   0.07085522
5186.00   1.04713900   0.07190196
5188.00   0.95894142   0.07203831
5190.00   1.01993051   0.07288714
5192.00   1.02927141   0.07289366
5194.00   1.07506157   0.07404624
5196.00   0.98603908   0.07441466
5198.00   0.99853733   0.07735894
5200.00   1.13635780   0.07922611
5202.00   0.99455393   0.07611920
5204.00   1.10938728   0.07661210
5206.00   1.16737697   0.07608185
5208.00   1.19296700   0.07830289
5210.00   1.19634427   0.08117452
5212.00   1.16037811   0.08074078
5214.00   1.09990662   0.07796813
5216.00   1.09111448   0.07762525
5218.00   1.00138208   0.07919207
5220.00   1.12841324   0.08132489
5222.00   1.18299017   0.08018652
5224.00   1.20680380   0.07898122
5226.00   1.18954558   0.07728650
5228.00   1.21729771   0.07763088
5230.00   1.12675062   0.07779114
5232.00   1.25210729   0.07918714
5234.00   1.39107076   0.08051167
5236.00   1.26285054   0.07937594
5238.00   1.04252827   0.07768194
5240.00   1.21473557   0.07980294
5242.00   1.32521500   0.08072383
5244.00   1.29446883   0.07956744
5246.00   1.37216440   0.07955270
5248.00   1.26941268   0.07848282
5250.00   1.28670115   0.07976603
5252.00   1.31474395   0.07954756
5254.00   1.53971154   0.08181608
5256.00   1.47348070   0.08511097
5258.00   1.50927295   0.08631199
5260.00   1.38136138   0.08506453
5262.00   1.56282517   0.08545298
5264.00   1.58784772   0.08467329
5266.00   1.50891750   0.08286754
5268.00   1.61042882   0.08303453
5270.00   1.51818085   0.08278725
5272.00   1.46735201   0.08331133
5274.00   1.53372178   0.08383241
5276.00   1.49354727   0.08359939
5278.00   1.46816420   0.08360551
5280.00   1.44878479   0.08389443
5282.00   1.43859312   0.08449581
5284.00   1.54249920   0.08745753
5286.00   1.55378337   0.08783933
5288.00   1.57526679   0.08774845
5290.00   1.54607518   0.08687404
5292.00   1.46013271   0.08551362
5294.00   1.31717296   0.08430705
5296.00   1.65885186   0.08823622
5298.00   1.56671160   0.08740639
5300.00   1.38924490   0.08623561
5302.00   1.31105403   0.09094446
5304.00   1.44055957   0.08760980
5306.00   1.36768612   0.08725190
5308.00   1.52739354   0.08854771
5310.00   1.54638555   0.08909368
5312.00   1.51229895   0.08934031
5314.00   1.47647065   0.08899321
5316.00   1.40544598   0.08824356
5318.00   1.45672094   0.08909773
5320.00   1.40184124   0.08877050
5322.00   1.57936841   0.09044104
5324.00   1.45546936   0.09061027
5326.00   1.37967754   0.08893810
5328.00   1.39552816   0.09069006
5330.00   1.42334472   0.09122514
5332.00   1.44053490   0.09237702
5334.00   1.40232843   0.09224492
5336.00   1.39269402   0.09357436
5338.00   1.47623727   0.09516042
5340.00   1.45397468   0.09804840
5342.00   1.53126496   0.09965224
5344.00   1.57872520   0.09963775
5346.00   1.72390795   0.10151645
5348.00   1.49963351   0.10449870
5350.00   1.49372530   0.10764511
5352.00   1.68807093   0.10738987
5354.00   1.70852783   0.10944900
5356.00   1.67467778   0.11099447
5358.00   1.49273652   0.10623795
5360.00   1.45616444   0.10215028
5362.00   1.42363791   0.09887272
5364.00   1.58942156   0.09975311
5366.00   1.43763509   0.09683360
5368.00   1.61762145   0.09925045
5370.00   1.56792494   0.09811017
5372.00   1.66085884   0.10135298
5374.00   1.29917573   0.10234584
5376.00   1.63684224   0.10583980
5378.00   1.64339540   0.10597876
5380.00   1.83574512   0.10686231
5382.00   2.00456147   0.10803478
5384.00   1.86513526   0.10691634
5386.00   1.89125253   0.10637465
5388.00   1.68813147   0.10659525
5390.00   1.54583606   0.10885866
5392.00   1.66913083   0.11397336
5394.00   1.58469393   0.11130091
5396.00   1.60271563   0.11111582
5398.00   1.59702387   0.11030286
5400.00   1.59920254   0.11157204
5402.00   1.59650545   0.11275477
5404.00   1.99604191   0.11464834
5406.00   1.79837247   0.11409139
5408.00   1.60224296   0.11547516
5410.00   1.35020690   0.11418597
5412.00   1.58594728   0.11972331
5414.00   1.67054280   0.12531490
5416.00   1.67202889   0.12941394
5418.00   1.57631426   0.12839895
5420.00   1.99856407   0.13322403
5422.00   1.90038909   0.13436183
5424.00   1.70265880   0.13246259
5426.00   1.68110145   0.13143691
5428.00   1.58921807   0.13086175
5430.00   1.65295698   0.12959162
5432.00   1.67138201   0.04189804
5434.00   1.70616722   0.04174723
5436.00   1.71896338   0.04347094
5438.00   1.72733265   0.04372353
5440.00   1.72755080   0.04260847
5442.00   1.72103173   0.04145295
5444.00   1.70621973   0.04061085
5446.00   1.68446881   0.03996686
5448.00   1.67335767   0.04182479
5450.00   1.61042166   0.04287354
5452.00   1.68318051   0.05034181
5454.00   1.94023204   0.06406892
5456.00   2.11505795   0.07312407
5458.00   2.11707824   0.07673338
5460.00   2.03123277   0.07780087
5462.00   1.95176846   0.07828377
5464.00   1.81247002   0.07895275
5466.00   1.73689979   0.07386167
5468.00   1.68564689   0.05812326
5470.00   1.66350538   0.04473302
5472.00   1.68262476   0.04005553
5474.00   1.72167104   0.04037984
5476.00   1.75064951   0.04048949
5478.00   1.79034197   0.04328112
5480.00   1.78929597   0.04445002
5482.00   1.74888855   0.04637680
5484.00   1.71515852   0.04607470
5486.00   1.67914748   0.04238552
5488.00   1.64858234   0.03821467
5490.00   1.63893926   0.03694862
5492.00   1.64624077   0.03747067
5494.00   1.61894184   0.03711941
5496.00   1.54406190   0.03664834
5498.00   1.51916540   0.03651923
5500.00   1.53579050   0.03683118
5502.00   1.56333441   0.03709469
5504.00   1.59182364   0.03706472
5506.00   1.62634438   0.03690115
5508.00   1.65248626   0.03680651
5510.00   1.69377732   0.03658260
5512.00   1.68829411   0.03665201
5514.00   1.63646221   0.03704878
5516.00   1.58576095   0.03733957
5518.00   1.53450775   0.03748164
5520.00   1.49246347   0.03748918
5522.00   1.50894886   0.03718791
5524.00   1.58966160   0.03654290
5526.00   1.62582695   0.03596389
5528.00   1.63995022   0.03466697
5530.00   1.66413736   0.03456240
5532.00   1.71017158   0.03665277
5534.00   1.75181168   0.03866302
5536.00   1.75492346   0.03797885
5538.00   1.72584891   0.03507396
5540.00   1.72353482   0.03423898
5542.00   1.74647456   0.03491722
5544.00   1.74028105   0.03478633
5546.00   1.69609904   0.03381384
5548.00   1.65305752   0.03281059
5550.00   1.63811624   0.03231221
5552.00   1.63792026   0.03207445
5554.00   1.64446408   0.03206932
5556.00   1.66404927   0.03250414
5558.00   1.68516678   0.03273766
5560.00   1.73161763   0.03264186
5562.00   1.74877959   0.03293320
5564.00   1.71212107   0.03293568
5566.00   1.63853168   0.03355209
5568.00   1.54396027   0.03938059
5570.00   1.39251196   0.04907697
5572.00   1.28900146   0.05559376
5574.00   1.13833040   0.06343911
5576.00   1.11921024   0.06724342
5578.00   1.34603077   0.06632145
5580.00   1.64025944   0.06244310
5582.00   1.67217249   0.05717814
5584.00   1.50800306   0.04702872
5586.00   1.45845175   0.04102742
5588.00   1.44553071   0.03902447
5590.00   1.41354835   0.03639887
5592.00   1.35297835   0.03258301
5594.00   1.29176402   0.02905541
5596.00   1.25445098   0.02768646
5598.00   1.22862953   0.02840287
5600.00   1.22742999   0.02822998
5602.00   1.26089716   0.02819761
5604.00   1.28401548   0.02813856
5606.00   1.30337965   0.02804771
5608.00   1.32115769   0.02800446
5610.00   1.33981210   0.02809169
5612.00   1.35808766   0.02826644
5614.00   1.35462052   0.02824120
5616.00   1.31271869   0.02804472
5618.00   1.31179208   0.02790977
5620.00   1.35335439   0.02776203
5622.00   1.38112265   0.02764407
5624.00   1.37268913   0.02758061
5626.00   1.34645462   0.02755010
5628.00   1.32467008   0.02750404
5630.00   1.27562708   0.02734210
5632.00   1.28647679   0.02750405
5634.00   1.35366565   0.02803344
5636.00   1.41312504   0.02841637
5638.00   1.45775104   0.02857201
5640.00   1.49713635   0.02863533
5642.00   1.53369576   0.02861742
5644.00   1.57432342   0.02811787
5646.00   1.57703012   0.02922641
5648.00   1.52771306   0.03256187
5650.00   1.50872988   0.03381356
5652.00   1.52407205   0.03274100
5654.00   1.54873550   0.03109271
5656.00   1.56507832   0.03035201
5658.00   1.58107460   0.02982225
5660.00   1.59723002   0.03012198
5662.00   1.61986864   0.03130235
5664.00   1.62840444   0.03246252
5666.00   1.62487620   0.03390548
5668.00   1.61374712   0.03523636
5670.00   1.58920640   0.03609369
5672.00   1.55603182   0.03674564
5674.00   1.56682348   0.03826168
5676.00   1.65498805   0.04037821
5678.00   1.64730096   0.04243288
5680.00   1.57121474   0.04472078
5682.00   1.47822779   0.04685913
5684.00   1.35902834   0.04911509
5686.00   1.23570675   0.05106688
5688.00   1.21350944   0.05129196
5690.00   1.32274610   0.05009713
5692.00   1.28296775   0.04859371
5694.00   1.11010069   0.04600286
5696.00   1.00350371   0.04326979
5698.00   1.00254053   0.04012331
5700.00   1.03043258   0.03696525
5702.00   1.00668266   0.03499467
5704.00   0.95989379   0.03412428
5706.00   0.92037597   0.03313079
5708.00   0.87471822   0.03260242
5710.00   0.83433947   0.03206167
5712.00   0.79672101   0.03161010
5714.00   0.76461881   0.03115390
5716.00   0.74579534   0.03053170
5718.00   0.73939693   0.02978796
5720.00   0.69986606   0.02931544
5722.00   0.60868362   0.02911159
5724.00   0.57469597   0.02879523
5726.00   0.60174954   0.02854450
5728.00   0.62276572   0.02810852
5730.00   0.60272065   0.02719148
5732.00   0.56417474   0.02598433
5734.00   0.54142229   0.02551246
5736.00   0.50800382   0.02571044
5738.00   0.51162142   0.02567850
5740.00   0.56374618   0.02562081
5742.00   0.59563357   0.02568712
5744.00   0.58261329   0.02596601
5746.00   0.55362654   0.02633277
5748.00   0.55162010   0.02654750
5750.00   0.56672660   0.02669352
5752.00   0.56951076   0.02682336
5754.00   0.57050693   0.02656918
5756.00   0.56536281   0.02696228
5758.00   0.55257434   0.02796880
5760.00   0.53539541   0.02947760
5762.00   0.51419367   0.03161854
5764.00   0.48165113   0.03443923
5766.00   0.48854424   0.03617830
5768.00   0.53489789   0.03798778
5770.00   0.56985605   0.03841576
5772.00   0.61092985   0.03720449
5774.00   0.63410658   0.03547534
5776.00   0.60340020   0.03378497
5778.00   0.53205456   0.03172229
5780.00   0.55205092   0.03188939
5782.00   0.70051047   0.03439540
5784.00   0.70994660   0.03592699
5786.00   0.59221804   0.03744031
5788.00   0.47530714   0.03852444
5790.00   0.39815371   0.03913903
5792.00   0.34048422   0.03929166
5794.00   0.34853314   0.03831797
5796.00   0.45458578   0.03535063
5798.00   0.48699026   0.03388049
5800.00   0.49195586   0.03299954
5802.00   0.48263560   0.03261967
5804.00   0.45482926   0.03295414
5806.00   0.41709144   0.03365207
5808.00   0.39302309   0.03394834
5810.00   0.37691861   0.03421171
5812.00   0.35150295   0.03415677
5814.00   0.29725221   0.03377098
5816.00   0.28802693   0.03334571
5818.00   0.35122789   0.03280871
5820.00   0.41998446   0.03227847
5822.00   0.41825326   0.03190389
5824.00   0.36910483   0.03157859
5826.00   0.36258452   0.03168110
5828.00   0.38317768   0.03237242
5830.00   0.38709976   0.03274609
5832.00   0.36929710   0.03276931
5834.00   0.35937250   0.03289522
5836.00   0.37587036   0.03334924
5838.00   0.40908486   0.03400223
5840.00   0.45014946   0.03505838
5842.00   0.54485326   0.03736953
5844.00   0.55267085   0.03775763
5846.00   0.46570706   0.03606613
5848.00   0.39661498   0.03486282
5850.00   0.39362414   0.03522981
5852.00   0.41624254   0.03637784
5854.00   0.40299563   0.03765841
5856.00   0.35859707   0.04019506
5858.00   0.35073008   0.04052630
5860.00   0.35471255   0.03870898
5862.00   0.38288602   0.03762735
5864.00   0.45451419   0.03798664
5866.00   0.53532420   0.03879634
5868.00   0.56385195   0.03912081
5870.00   0.55598074   0.03947236
5872.00   0.56005383   0.03917420
5874.00   0.56698954   0.03692220
5876.00   0.55830646   0.03723206
5878.00   0.52757818   0.03818315
5880.00   0.49235266   0.04277272
5882.00   0.47442222   0.05269648
5884.00   0.46959403   0.06454348
5886.00   0.41411601   0.07799130
5888.00   0.24143531   0.09579714
5890.00   0.23008589   0.10627929
5892.00   0.36057235   0.11555635
5894.00   0.55233678   0.11869902
5896.00   0.82695913   0.11091937
5898.00   1.16186190   0.09344367
5900.00   1.15594780   0.08014869
5902.00   0.75593451   0.06309686
5904.00   0.61025947   0.04983070
5906.00   0.58513592   0.04320828
5908.00   0.57274449   0.03906358
5910.00   0.54996768   0.03696843
5912.00   0.53256798   0.03761894
5914.00   0.50542432   0.03714044
5916.00   0.45705791   0.03717185
5918.00   0.45635639   0.03709093
5920.00   0.50927509   0.03707241
5922.00   0.53839844   0.03715949
5924.00   0.52943999   0.03741859
5926.00   0.51021817   0.03771904
5928.00   0.50840054   0.03789630
5930.00   0.51245332   0.03809762
5932.00   0.52283655   0.03785628
5934.00   0.53731306   0.03630591
5936.00   0.56226298   0.03651783
5938.00   0.61475942   0.03948664
5940.00   0.65435007   0.04189704
5942.00   0.63923788   0.04131823
5944.00   0.58481559   0.03876681
5946.00   0.56418145   0.03692023
5948.00   0.55947435   0.03389991
5950.00   0.54899266   0.03268442
5952.00   0.54018620   0.03357555
5954.00   0.52562529   0.03463732
5956.00   0.48620741   0.03517753
5958.00   0.43876764   0.03557101
5960.00   0.47692995   0.03514211
5962.00   0.62303811   0.03326736
5964.00   0.68860948   0.03275585
5966.00   0.72376803   0.03323507
5968.00   0.73909891   0.03362789
5970.00   0.72667223   0.03382261
5972.00   0.70050490   0.03384493
5974.00   0.70101237   0.03321604
5976.00   0.71404660   0.03170362
5978.00   0.73259780   0.03094563
5980.00   0.75337905   0.03054426
5982.00   0.79240319   0.03028016
5984.00   0.86927587   0.03023208
5986.00   0.94321814   0.03026472
5988.00   0.95598638   0.03014334
5990.00   0.91978672   0.02994194
5992.00   0.92462632   0.02983928
5994.00   0.96147972   0.02985039
5996.00   0.96837276   0.02975251
5998.00   0.93323958   0.02951792
6000.00   0.90426126   0.02927972
6002.00   0.92104265   0.02915276
6004.00   0.96595380   0.02908883
6006.00   0.98340660   0.02888508
6008.00   0.99116918   0.02854110
6010.00   0.99320233   0.02827555
6012.00   0.97710556   0.02796308
6014.00   0.97236747   0.02780020
6016.00   0.99776337   0.02790565
6018.00   1.03799480   0.02818635
6020.00   1.05407554   0.02845115
6022.00   1.04576313   0.02902861
6024.00   1.06330436   0.02901613
6026.00   1.11247724   0.02833133
6028.00   1.13569593   0.02794077
6030.00   1.10578501   0.02824467
6032.00   1.06296682   0.02868832
6034.00   1.07847875   0.02841215
6036.00   1.15190107   0.02753575
6038.00   1.15150946   0.02703767
6040.00   1.09139216   0.02659499
6042.00   1.05113339   0.02628437
6044.00   1.03771842   0.02613589
6046.00   1.02669930   0.02608812
6048.00   0.99565676   0.02609520
6050.00   0.94941843   0.02620784
6052.00   0.93030134   0.02616728
6054.00   0.93632427   0.02607495
6056.00   0.93032074   0.02587651
6058.00   0.91671097   0.02547749
6060.00   0.89968386   0.02511556
6062.00   0.87994435   0.02497590
6064.00   0.85693470   0.02496815
6066.00   0.83380353   0.02489817
6068.00   0.79768044   0.02483751
6070.00   0.78741336   0.02477248
6072.00   0.81597161   0.02457676
6074.00   0.82375044   0.02459244
6076.00   0.77759483   0.02499375
6078.00   0.70863104   0.02560710
6080.00   0.68649966   0.02613031
6082.00   0.70190075   0.02710101
6084.00   0.69342804   0.02693143
6086.00   0.67631635   0.02537817
6088.00   0.65953884   0.02439881
6090.00   0.63674960   0.02447624
6092.00   0.62002417   0.02498750
6094.00   0.63649166   0.02533813
6096.00   0.68493038   0.02571746
6098.00   0.71437344   0.02637370
6100.00   0.75727385   0.02720035
6102.00   0.76408941   0.02821410
6104.00   0.72083786   0.02945770
6106.00   0.66767493   0.03076869
6108.00   0.64164868   0.03211481
6110.00   0.62691367   0.03360518
6112.00   0.61301193   0.03414439
6114.00   0.59427157   0.03407270
6116.00   0.59960079   0.03361199
6118.00   0.63669190   0.03228500
6120.00   0.67361805   0.03107233
6122.00   0.69516760   0.03078337
6124.00   0.70935100   0.03098551
6126.00   0.70361686   0.03046081
6128.00   0.66157311   0.02951071
6130.00   0.65251309   0.02847356
6132.00   0.66965604   0.02682155
6134.00   0.68141127   0.02562830
6136.00   0.67663127   0.02547903
6138.00   0.66592491   0.02587202
6140.00   0.66324908   0.02589910
6142.00   0.66637462   0.02586814
6144.00   0.66318238   0.02592626
6146.00   0.66545266   0.02598275
6148.00   0.64985326   0.02616868
6150.00   0.60755607   0.02653435
6152.00   0.55551401   0.02697254
6154.00   0.51087214   0.02731962
6156.00   0.45253253   0.02755583
6158.00   0.46370476   0.02822243
6160.00   0.56681794   0.02997747
6162.00   0.61259544   0.03019969
6164.00   0.59936443   0.02850374
6166.00   0.56926078   0.02635260
6168.00   0.54486555   0.02513706
6170.00   0.51304126   0.02431243
6172.00   0.51245275   0.02351215
6174.00   0.54492426   0.02299653
6176.00   0.56277704   0.02240534
6178.00   0.57824916   0.02167077
6180.00   0.58553201   0.02115756
6182.00   0.57801837   0.02115853
6184.00   0.56067705   0.02148153
6186.00   0.55208266   0.02149573
6188.00   0.54595920   0.02138185
6190.00   0.54098654   0.02129347
6192.00   0.53495806   0.02111399
6194.00   0.53503188   0.02104104
6196.00   0.54647368   0.02115819
6198.00   0.56217915   0.02136348
6200.00   0.56622124   0.02149338
6202.00   0.55968428   0.02161160
6204.00   0.56431073   0.02171792
6206.00   0.57256371   0.02182463
6208.00   0.58698303   0.02189713
6210.00   0.61598065   0.02195410
6212.00   0.64246517   0.02195949
6214.00   0.63839406   0.02186064
6216.00   0.60411933   0.02168086
6218.00   0.62062252   0.02141123
6220.00   0.68990675   0.02092028
6222.00   0.72505844   0.02060570
6224.00   0.72938523   0.02038210
6226.00   0.72304675   0.02033724
6228.00   0.71397799   0.02057934
6230.00   0.69726232   0.02105398
6232.00   0.69827166   0.02156754
6234.00   0.72045669   0.02242377
6236.00   0.72458062   0.02281378
6238.00   0.71136987   0.02287626
6240.00   0.70156214   0.02277899
6242.00   0.69992116   0.02255585
6244.00   0.70520625   0.02219291
6246.00   0.73583621   0.02180695
6248.00   0.80801833   0.02104118
6250.00   0.84240487   0.02096574
6252.00   0.85839078   0.02150446
6254.00   0.86736515   0.02199705
6256.00   0.87216365   0.02245782
6258.00   0.86944947   0.02280512
6260.00   0.85338011   0.02261145
6262.00   0.81176478   0.02184170
6264.00   0.81273544   0.02141449
6266.00   0.85667396   0.02101792
6268.00   0.87974435   0.02074724
6270.00   0.87217945   0.02061765
6272.00   0.86230117   0.02059868
6274.00   0.88027540   0.02068454
6276.00   0.92012680   0.02090985
6278.00   0.92021221   0.02099059
6280.00   0.88220957   0.02069459
6282.00   0.86395377   0.02104306
6284.00   0.85836580   0.02237764
6286.00   0.86003572   0.02336480
6288.00   0.86656880   0.02293180
6290.00   0.87909129   0.02160969
6292.00   0.90452221   0.02245717
6294.00   0.95321646   0.02504353
6296.00   0.98323181   0.02677408
6298.00   1.02581191   0.02860408
6300.00   1.02620602   0.02984200
6302.00   0.93733105   0.03049164
6304.00   0.80855894   0.03053370
6306.00   0.78480157   0.02906987
6308.00   0.84946710   0.02485385
6310.00   0.86506903   0.02258237
6312.00   0.86982128   0.02143149
6314.00   0.87218893   0.02054742
6316.00   0.87130746   0.01988069
6318.00   0.86925915   0.01955075
6320.00   0.87449792   0.01945503
6322.00   0.89311132   0.01967138
6324.00   0.87532109   0.02005563
6326.00   0.80197254   0.02108947
6328.00   0.77772042   0.02140239
6330.00   0.81836987   0.02082043
6332.00   0.86988795   0.02001705
6334.00   0.88490096   0.01961323
6336.00   0.88279074   0.01934843
6338.00   0.88757527   0.01913095
6340.00   0.89244321   0.01907247
6342.00   0.89370975   0.01892943
6344.00   0.89205661   0.01865061
6346.00   0.88768983   0.01846910
6348.00   0.87696403   0.01849831
6350.00   0.86236727   0.01867985
6352.00   0.86841723   0.01911077
6354.00   0.89684427   0.01977679
6356.00   0.91321555   0.02053829
6358.00   0.92387792   0.02149083
6360.00   0.93637800   0.02242025
6362.00   0.96046793   0.02364100
6364.00   0.98356059   0.02465308
6366.00   0.96716279   0.02382570
6368.00   0.88916224   0.02035152
6370.00   0.89451340   0.01914690
6372.00   0.97771001   0.01969372
6374.00   1.02823889   0.01983269
6376.00   1.02446294   0.01920493
6378.00   1.00768864   0.01848171
6380.00   1.02268606   0.01841333
6382.00   1.05904025   0.01888233
6384.00   1.06812114   0.01881379
6386.00   1.06376523   0.01839365
6388.00   1.05094957   0.01808717
6390.00   1.01334816   0.01777192
6392.00   0.98651460   0.01761419
6394.00   1.01176834   0.01787637
6396.00   1.07585639   0.01847289
6398.00   1.08347934   0.01864849
6400.00   1.05767918   0.01859368
6402.00   1.02727503   0.01853701
6404.00   0.97718015   0.01842730
6406.00   0.93044084   0.01827371
6408.00   0.90094125   0.01808151
6410.00   0.87977907   0.01784669
6412.00   0.85189795   0.01758294
6414.00   0.81938958   0.01724462
6416.00   0.79334310   0.01696012
6418.00   0.77178195   0.01669079
6420.00   0.75149235   0.01644702
6422.00   0.73141322   0.01622834
6424.00   0.71274993   0.01603983
6426.00   0.69689602   0.01589969
6428.00   0.68077296   0.01581473
6430.00   0.67543247   0.01573370
6432.00   0.68208241   0.01562783
6434.00   0.68727401   0.01562850
6436.00   0.69393826   0.01580597
6438.00   0.69701967   0.01600862
6440.00   0.68650723   0.01605929
6442.00   0.66462722   0.01603835
6444.00   0.64539310   0.01592487
6446.00   0.61378682   0.01556944
6448.00   0.60227817   0.01544535
6450.00   0.61705813   0.01557549
6452.00   0.63331720   0.01576305
6454.00   0.63394982   0.01589264
6456.00   0.62738562   0.01602363
6458.00   0.61301881   0.01610052
6460.00   0.57431379   0.01612083
6462.00   0.56572104   0.01615678
6464.00   0.58733007   0.01624243
6466.00   0.60691291   0.01624800
6468.00   0.61243552   0.01611118
6470.00   0.61132994   0.01587355
6472.00   0.60244894   0.01559347
6474.00   0.57989091   0.01516078
6476.00   0.56569877   0.01486408
6478.00   0.55006298   0.01461729
6480.00   0.54203865   0.01443553
6482.00   0.53959149   0.01428872
6484.00   0.54734617   0.01423514
6486.00   0.58209318   0.01441606
6488.00   0.65725192   0.01483353
6490.00   0.67833275   0.01517641
6492.00   0.65952358   0.01557824
6494.00   0.64573187   0.01592216
6496.00   0.63343793   0.01603003
6498.00   0.62444246   0.01629959
6500.00   0.62866336   0.01733171
6502.00   0.64511031   0.01901721
6504.00   0.64570361   0.01922529
6506.00   0.62481833   0.01834719
6508.00   0.62880388   0.01748158
6510.00   0.66348076   0.01609659
6512.00   0.69691691   0.01490967
6514.00   0.70808122   0.01476269
6516.00   0.70777926   0.01531581
6518.00   0.71085232   0.01540747
6520.00   0.70503491   0.01534956
6522.00   0.71372014   0.01544443
6524.00   0.73841217   0.01564669
6526.00   0.76006991   0.01587299
6528.00   0.76803020   0.01613802
6530.00   0.77225554   0.01640531
6532.00   0.79575226   0.01647573
6534.00   0.84529972   0.01638293
6536.00   0.86432195   0.01628618
6538.00   0.86146969   0.01602713
6540.00   0.86022994   0.01591442
6542.00   0.86132747   0.01604507
6544.00   0.86487550   0.01626403
6546.00   0.87768838   0.01637692
6548.00   0.89773342   0.01646095
6550.00   0.92102918   0.01653058
6552.00   0.95771423   0.01658777
6554.00   0.98106617   0.01661419
6556.00   0.98770550   0.01658958
6558.00   0.99006945   0.01656101
6560.00   0.99843431   0.01659141
6562.00   1.00833714   0.01666932
6564.00   1.01713020   0.01661330
6566.00   1.02524233   0.01638371
6568.00   1.03407067   0.01629269
6570.00   1.04330096   0.01630644
6572.00   1.05322307   0.01637122
6574.00   1.06237155   0.01649510
6576.00   1.07184035   0.01666745
6578.00   1.09270477   0.01668075
6580.00   1.13437301   0.01656621
6582.00   1.15253890   0.01646418
6584.00   1.15654141   0.01630279
6586.00   1.15301996   0.01617303
6588.00   1.13793755   0.01610398
6590.00   1.11819887   0.01607333
6592.00   1.12040663   0.01606591
6594.00   1.14567727   0.01604168
6596.00   1.14964181   0.01618280
6598.00   1.14173615   0.01619539
6600.00   1.13353372   0.01675147
6602.00   1.12237686   0.01842172
6604.00   1.11319077   0.01989910
6606.00   1.11710703   0.01951640
6608.00   1.13143945   0.01745954
6610.00   1.14508885   0.01657058
6612.00   1.16915172   0.01612701
6614.00   1.18055058   0.01579257
6616.00   1.17639035   0.01567083
6618.00   1.16893876   0.01565053
6620.00   1.16824090   0.01560103
6622.00   1.17012578   0.01558559
6624.00   1.16740096   0.01558544
6626.00   1.15588069   0.01554826
6628.00   1.15668023   0.01566198
6630.00   1.17175335   0.01605263
6632.00   1.18542224   0.01629382
6634.00   1.19311309   0.01614142
6636.00   1.19660044   0.01575600
6638.00   1.17958134   0.01549869
6640.00   1.12887394   0.01517109
6642.00   1.10838366   0.01500613
6644.00   1.10092092   0.01497195
6646.00   1.10411459   0.01498888
6648.00   1.12731999   0.01496229
6650.00   1.15547740   0.01502760
6652.00   1.14553022   0.01554378
6654.00   1.09220994   0.01672519
6656.00   1.08918083   0.01690019
6658.00   1.12814444   0.01627200
6660.00   1.14954537   0.01580887
6662.00   1.14488661   0.01555775
6664.00   1.13439959   0.01540726
6666.00   1.13739306   0.01538203
6668.00   1.14835340   0.01550798
6670.00   1.14835292   0.01554808
6672.00   1.14350522   0.01560273
6674.00   1.13378495   0.01559804
6676.00   1.11761898   0.01553694
6678.00   1.09867638   0.01543541
6680.00   1.08142281   0.01529451
6682.00   1.06417698   0.01510966
6684.00   1.03174183   0.01494248
6686.00   0.97440308   0.01472229
6688.00   0.94056097   0.01461011
6690.00   0.92423889   0.01458435
6692.00   0.91265595   0.01461269
6694.00   0.90327325   0.01467104
6696.00   0.89660519   0.01477965
6698.00   0.88086492   0.01500674
6700.00   0.86347017   0.01542537
6702.00   0.83367360   0.01567584
6704.00   0.78236017   0.01590782
6706.00   0.74366939   0.01601376
6708.00   0.73249441   0.01598459
6710.00   0.72771516   0.01582756
6712.00   0.69233477   0.01549604
6714.00   0.62554577   0.01487868
6716.00   0.59900779   0.01451355
6718.00   0.60581565   0.01427687
6720.00   0.60064444   0.01407226
6722.00   0.58336505   0.01392100
6724.00   0.55953887   0.01379528
6726.00   0.52663574   0.01363488
6728.00   0.48029898   0.01344625
6730.00   0.46520996   0.01339051
6732.00   0.48367389   0.01347640
6734.00   0.48287092   0.01351724
6736.00   0.46326968   0.01357685
6738.00   0.44398731   0.01357435
6740.00   0.43781079   0.01342198
6742.00   0.43821679   0.01315926
6744.00   0.42738268   0.01300191
6746.00   0.40819108   0.01288954
6748.00   0.39148347   0.01278150
6750.00   0.37383199   0.01270190
6752.00   0.35719487   0.01261535
6754.00   0.33902250   0.01247231
6756.00   0.32297163   0.01232718
6758.00   0.32615638   0.01237415
6760.00   0.35758537   0.01264721
6762.00   0.36080509   0.01275264
6764.00   0.34672868   0.01286531
6766.00   0.33230580   0.01282891
6768.00   0.31680304   0.01253451
6770.00   0.30253433   0.01215733
6772.00   0.29945342   0.01201903
6774.00   0.30704977   0.01203051
6776.00   0.30718137   0.01201642
6778.00   0.30869830   0.01207155
6780.00   0.30209328   0.01207705
6782.00   0.28291801   0.01196026
6784.00   0.26267967   0.01190051
6786.00   0.25148668   0.01209370
6788.00   0.24390209   0.01246367
6790.00   0.24871980   0.01277196
6792.00   0.28022990   0.01338429
6794.00   0.28392275   0.01338795
6796.00   0.25263974   0.01253364
6798.00   0.22844038   0.01178552
6800.00   0.23999831   0.01195681
6802.00   0.27076492   0.01260088
6804.00   0.27650559   0.01257156
6806.00   0.26534519   0.01200848
6808.00   0.26196609   0.01178272
6810.00   0.25847568   0.01169324
6812.00   0.25851138   0.01168626
6814.00   0.26782560   0.01172692
6816.00   0.27898820   0.01185586
6818.00   0.27003147   0.01216769
6820.00   0.24073087   0.01258702
6822.00   0.22462994   0.01320366
6824.00   0.20337623   0.01411629
6826.00   0.20050835   0.01486157
6828.00   0.23057332   0.01553356
6830.00   0.26605280   0.01601133
6832.00   0.26568526   0.01600736
6834.00   0.24010068   0.01560651
6836.00   0.22724668   0.01506020
6838.00   0.20843284   0.01397753
6840.00   0.20387109   0.01316601
6842.00   0.22065528   0.01267021
6844.00   0.23772178   0.01230382
6846.00   0.23642038   0.01192360
6848.00   0.22464284   0.01158941
6850.00   0.21634964   0.01152556
6852.00   0.20743085   0.01150798
6854.00   0.19603513   0.01202991
6856.00   0.17644256   0.01314325
6858.00   0.16384468   0.01424355
6860.00   0.16890038   0.01512916
6862.00   0.18450122   0.01594765
6864.00   0.19057768   0.01668254
6866.00   0.19488283   0.01789757
6868.00   0.19543286   0.01777334
6870.00   0.19708215   0.01622724
6872.00   0.18808182   0.01472983
6874.00   0.15718088   0.01372492
6876.00   0.12006474   0.01295854
6878.00   0.11385299   0.01252936
6880.00   0.13378023   0.01255497
6882.00   0.13928655   0.01259967
6884.00   0.14181884   0.01296631
6886.00   0.14422661   0.01315340
6888.00   0.14644613   0.01312542
6890.00   0.14842228   0.01299530
6892.00   0.15032154   0.01281576
6894.00   0.15144982   0.01250972
6896.00   0.15614706   0.01242131
6898.00   0.17000727   0.01252521
6900.00   0.17143490   0.01256877
6902.00   0.15473139   0.01253478
6904.00   0.13992020   0.01254346
6906.00   0.14319469   0.01270353
6908.00   0.15731692   0.01296819
6910.00   0.16533973   0.01307355
6912.00   0.17302225   0.01294537
6914.00   0.18036649   0.01312504
6916.00   0.19390816   0.01373328
6918.00   0.19695215   0.01410996
6920.00   0.17707103   0.01395245
6922.00   0.14461930   0.01349175
6924.00   0.13115928   0.01315892
6926.00   0.12560092   0.01276173
6928.00   0.12668966   0.01240910
6930.00   0.14137097   0.01197258
6932.00   0.15137551   0.01172378
6934.00   0.15086024   0.01175608
6936.00   0.14758871   0.01196463
6938.00   0.15234975   0.01221434
6940.00   0.16279772   0.01254310
6942.00   0.16992941   0.01298223
6944.00   0.18236540   0.01361570
6946.00   0.18286059   0.01412020
6948.00   0.16013023   0.01472364
6950.00   0.13971531   0.01501736
6952.00   0.15408012   0.01436098
6954.00   0.19569455   0.01269859
6956.00   0.20921278   0.01188875
6958.00   0.20588497   0.01150033
6960.00   0.20700790   0.01125707
6962.00   0.21314105   0.01128689
6964.00   0.21489860   0.01143345
6966.00   0.20288730   0.01157815
6968.00   0.18165946   0.01177945
6970.00   0.18221243   0.01203866
6972.00   0.20879461   0.01247733
6974.00   0.21220742   0.01267631
6976.00   0.19513953   0.01275544
6978.00   0.18224955   0.01269438
6980.00   0.18209274   0.01240918
6982.00   0.18862352   0.01198549
6984.00   0.19959036   0.01179831
6986.00   0.22715888   0.01179712
6988.00   0.22979725   0.01168889
6990.00   0.20945594   0.01151456
6992.00   0.19573546   0.01140366
6994.00   0.19260392   0.01137138
6996.00   0.19482185   0.01140336
6998.00   0.20178954   0.01151856
7000.00   0.21754761   0.01175260
7002.00   0.22246051   0.01186526
7004.00   0.21808122   0.01194503
7006.00   0.21823356   0.01195881
7008.00   0.22418750   0.01190449
7010.00   0.23079602   0.01179289
7012.00   0.23464609   0.01162298
7014.00   0.23798946   0.01138303
7016.00   0.23327983   0.01116037
7018.00   0.21823215   0.01081026
7020.00   0.20800163   0.01069621
7022.00   0.19652786   0.01078108
7024.00   0.19183598   0.01100693
7026.00   0.20051279   0.01139267
7028.00   0.21877017   0.01190198
7030.00   0.23573980   0.01221805
7032.00   0.26577561   0.01261461
7034.00   0.27389491   0.01258755
7036.00   0.26615432   0.01201242
7038.00   0.25091135   0.01155374
7040.00   0.22400813   0.01147374
7042.00   0.19298622   0.01157297
7044.00   0.18793470   0.01165925
7046.00   0.20514771   0.01186257
7048.00   0.21443737   0.01195062
7050.00   0.22902537   0.01200308
7052.00   0.23721588   0.01199747
7054.00   0.23573432   0.01190430
7056.00   0.23060423   0.01177765
7058.00   0.22931609   0.01169655
7060.00   0.22934594   0.01160695
7062.00   0.22751272   0.01163763
7064.00   0.22168230   0.01180518
7066.00   0.22142230   0.01193129
7068.00   0.22948305   0.01207130
7070.00   0.23731877   0.01214666
7072.00   0.23654366   0.01203585
7074.00   0.23005036   0.01176441
7076.00   0.23249535   0.01174518
7078.00   0.23893754   0.01181081
7080.00   0.24952003   0.01205697
7082.00   0.27137482   0.01267113
7084.00   0.28631750   0.01308998
7086.00   0.28215447   0.01301705
7088.00   0.26711142   0.01265645
7090.00   0.26283547   0.01241722
7092.00   0.26249804   0.01213140
7094.00   0.26302153   0.01186456
7096.00   0.26987617   0.01157330
7098.00   0.27060995   0.01132578
7100.00   0.25726847   0.01112277
7102.00   0.24019674   0.01098129
7104.00   0.24209861   0.01098566
7106.00   0.26526123   0.01116286
7108.00   0.26281849   0.01126290
7110.00   0.23201954   0.01133399
7112.00   0.22272994   0.01145882
7114.00   0.24667099   0.01167619
7116.00   0.27787016   0.01189793
7118.00   0.28767382   0.01202291
7120.00   0.28616007   0.01209743
7122.00   0.28797013   0.01212155
7124.00   0.29013807   0.01206807
7126.00   0.28726761   0.01202236
7128.00   0.27525556   0.01198916
7130.00   0.26521969   0.01193069
7132.00   0.26720348   0.01179237
7134.00   0.27691510   0.01158748
7136.00   0.27959959   0.01158161
7138.00   0.27244532   0.01172545
7140.00   0.28085298   0.01188707
7142.00   0.31120862   0.01223030
7144.00   0.33251336   0.01240241
7146.00   0.32780842   0.01217341
7148.00   0.30977285   0.01172045
7150.00   0.30411468   0.01158887
7152.00   0.30178665   0.01170206
7154.00   0.30161102   0.01166895
7156.00   0.30867395   0.01158028
7158.00   0.30986798   0.01150422
7160.00   0.30056451   0.01140500
7162.00   0.28694023   0.01135112
7164.00   0.27743423   0.01152891
7166.00   0.26601899   0.01189527
7168.00   0.26525912   0.01226503
7170.00   0.27453819   0.01285775
7172.00   0.28413877   0.01316833
7174.00   0.29295915   0.01311880
7176.00   0.30452444   0.01296992
7178.00   0.32371469   0.01299496
7180.00   0.35164537   0.01310858
7182.00   0.36142331   0.01302833
7184.00   0.35719529   0.01271127
7186.00   0.35344112   0.01257020
7188.00   0.33972795   0.01243352
7190.00   0.33539844   0.01256415
7192.00   0.36330321   0.01336373
7194.00   0.41251479   0.01455100
7196.00   0.40946570   0.01449455
7198.00   0.35235979   0.01314402
7200.00   0.33058935   0.01250279
7202.00   0.31722619   0.01220149
7204.00   0.32553817   0.01205034
7206.00   0.37483273   0.01201538
7208.00   0.44368659   0.01211370
7210.00   0.45899911   0.01226480
7212.00   0.42018633   0.01265016
7214.00   0.42839853   0.01270123
7216.00   0.47265483   0.01245736
7218.00   0.49853264   0.01229424
7220.00   0.49305135   0.01217792
7222.00   0.47584207   0.01220304
7224.00   0.46740852   0.01261750
7226.00   0.45429279   0.01314969
7228.00   0.46295038   0.01447645
7230.00   0.49535042   0.01643658
7232.00   0.52074037   0.01825574
7234.00   0.53440338   0.02004457
7236.00   0.55183840   0.02175769
7238.00   0.58938053   0.02350544
7240.00   0.64311537   0.02543768
7242.00   0.67640415   0.02558946
7244.00   0.70443302   0.02410792
7246.00   0.71755686   0.02271520
7248.00   0.70609626   0.02081088
7250.00   0.69779333   0.01887964
7252.00   0.71119335   0.01738406
7254.00   0.73583555   0.01617532
7256.00   0.75179935   0.01534001
7258.00   0.76307997   0.01512799
7260.00   0.77970278   0.01493047
7262.00   0.80260342   0.01404980
7264.00   0.82206750   0.01481958
7266.00   0.83681867   0.01831537
7268.00   0.84678948   0.02220221
7270.00   0.84474304   0.02380713
7272.00   0.82137716   0.02446249
7274.00   0.82412907   0.02470126
7276.00   0.83854717   0.02421360
7278.00   0.86484107   0.02350629
7280.00   0.91454980   0.02247655
7282.00   0.96600294   0.02125250
7284.00   0.98335761   0.02024002
7286.00   0.97971073   0.01929236
7288.00   0.96515712   0.01836132
7290.00   0.90936255   0.01727018
7292.00   0.89487219   0.01663076
7294.00   0.92763504   0.01653735
7296.00   0.97421753   0.01675564
7298.00   1.01631749   0.01719205
7300.00   1.06662995   0.01792780
7302.00   1.06711376   0.01810291
7304.00   1.00513443   0.01757978
7306.00   0.98352608   0.01776757
7308.00   0.98909745   0.01849897
7310.00   1.00261039   0.01940578
7312.00   1.02042079   0.02056632
7314.00   1.04318696   0.02181869
7316.00   1.04659027   0.02187459
7318.00   1.01733741   0.02075175
7320.00   1.02936834   0.02000216
7322.00   1.08157480   0.01895715
7324.00   1.12009257   0.01820802
7326.00   1.12864208   0.01799871
7328.00   1.12414348   0.01813582
7330.00   1.12448478   0.01835965
7332.00   1.11810064   0.01869301
7334.00   1.12462187   0.01941754
7336.00   1.15266597   0.02088857
7338.00   1.15962505   0.02166979
7340.00   1.13445753   0.02181299
7342.00   1.10126799   0.02144345
7344.00   1.08722347   0.02032206
7346.00   1.08241761   0.01805414
7348.00   1.07582915   0.01692648
7350.00   1.07087344   0.01642217
7352.00   1.06791407   0.01628977
7354.00   1.06268865   0.01675690
7356.00   1.06508154   0.01738787
7358.00   1.08715117   0.01784494
7360.00   1.12463194   0.01829329
7362.00   1.13852459   0.01881272
7364.00   1.14469862   0.01961668
7366.00   1.13469189   0.01990743
7368.00   1.09801024   0.01989991
7370.00   1.06652296   0.01955140
7372.00   1.05464518   0.01867225
7374.00   1.05278170   0.01736872
7376.00   1.05282295   0.01647783
7378.00   1.06636107   0.01565632
7380.00   1.06366497   0.01515452
7382.00   1.04608101   0.01489198
7384.00   1.03427982   0.01499652
7386.00   1.03490382   0.01567485
7388.00   1.03925014   0.01653691
7390.00   1.03430098   0.01684879
7392.00   1.01808006   0.01667258
7394.00   1.02352419   0.01718051
7396.00   1.04843301   0.01823602
7398.00   1.06910938   0.01904311
7400.00   1.08165538   0.01988547
7402.00   1.09690726   0.02032818
7404.00   1.12872791   0.01963268
7406.00   1.17734897   0.01778139
7408.00   1.19200778   0.01673352
7410.00   1.17598468   0.01579924
7412.00   1.17074561   0.01531091
7414.00   1.16741133   0.01553742
7416.00   1.17141449   0.01582746
7418.00   1.18834960   0.01565757
7420.00   1.21539259   0.01527936
7422.00   1.25082487   0.01555681
7424.00   1.31190526   0.01649490
7426.00   1.34393680   0.01701230
7428.00   1.35013485   0.01739280
7430.00   1.35698313   0.01763268
7432.00   1.37653315   0.01769089
7434.00   1.39883697   0.01762268
7436.00   1.40691614   0.01761814
7438.00   1.40772700   0.01774247
7440.00   1.39873654   0.01750115
7442.00   1.36600775   0.01684575
7444.00   1.35101658   0.01628196
7446.00   1.36656356   0.01587620
7448.00   1.39250803   0.01557682
7450.00   1.40311158   0.01544167
7452.00   1.41176528   0.01548688
7454.00   1.40287566   0.01554521
7456.00   1.36373574   0.01564960
7458.00   1.34716266   0.01585500
7460.00   1.36005807   0.01617318
7462.00   1.37816644   0.01655557
7464.00   1.38184726   0.01696611
7466.00   1.38064450   0.01742414
7468.00   1.36770409   0.01785510
7470.00   1.32878071   0.01835834
7472.00   1.31612378   0.01869827
7474.00   1.33761251   0.01896334
7476.00   1.35089374   0.01906503
7478.00   1.33017480   0.01888173
7480.00   1.28984100   0.01848187
7482.00   1.25035495   0.01832583
7484.00   1.18522400   0.01849038
7486.00   1.15850544   0.01819666
7488.00   1.16650176   0.01744975
7490.00   1.17423719   0.01671483
7492.00   1.17154837   0.01612693
7494.00   1.16629463   0.01561302
7496.00   1.16091609   0.01524274
7498.00   1.15322977   0.01470000
7500.00   1.14823800   0.01517717
7502.00   1.15402186   0.01675953
7504.00   1.14302611   0.01790179
7506.00   1.10295743   0.01877793
7508.00   1.05693358   0.01923811
7510.00   1.03873646   0.01853508
7512.00   1.04182929   0.01616746
7514.00   1.02277231   0.01617426
7516.00   0.98748881   0.01801151
7518.00   0.95994443   0.01940864
7520.00   0.93674108   0.02098016
7522.00   0.91967410   0.02199992
7524.00   0.91584256   0.02164104
7526.00   0.92455456   0.02017992
7528.00   0.90826333   0.01912650
7530.00   0.86495027   0.01775572
7532.00   0.84141350   0.01667445
7534.00   0.82965323   0.01581811
7536.00   0.82591689   0.01517529
7538.00   0.83135468   0.01482560
7540.00   0.84460720   0.01474029
7542.00   0.85253072   0.01452626
7544.00   0.86623150   0.01388359
7546.00   0.86421436   0.01429042
7548.00   0.84024432   0.01576497
7550.00   0.82753584   0.01689432
7552.00   0.83882496   0.01756110
7554.00   0.85985428   0.01791527
7556.00   0.86932471   0.01761774
7558.00   0.87988943   0.01629266
7560.00   0.87288326   0.01593994
7562.00   0.83624798   0.01603977
7564.00   0.82168257   0.01642768
7566.00   0.84022903   0.01729934
7568.00   0.86765733   0.01819272
7570.00   0.87999547   0.01855459
7572.00   0.89061093   0.01869125
7574.00   0.87799573   0.01835325
7576.00   0.83509898   0.01718587
7578.00   0.80499300   0.01640816
7580.00   0.77816683   0.01590372
7582.00   0.76330042   0.01567147
7584.00   0.77153051   0.01576538
7586.00   0.79816636   0.01615388
7588.00   0.82611224   0.01694246
7590.00   0.86360875   0.01721557
7592.00   0.90279067   0.01957078
7594.00   0.95173040   0.02285802
7596.00   0.99418235   0.02690302
7598.00   1.02775237   0.03236884
7600.00   1.05189985   0.03782839
7602.00   1.04112124   0.03941883
7604.00   0.96045583   0.03826413
7606.00   0.96115631   0.03734786
7608.00   1.02659515   0.03548205
7610.00   1.07892162   0.03326903
7612.00   1.10751194   0.03039379
7614.00   1.12093884   0.02721062
7616.00   1.10692096   0.02542867
7618.00   1.05925196   0.02477580
7620.00   1.02902788   0.02471822
7622.00   1.00389183   0.02630637
7624.00   0.97354251   0.02694204
7626.00   0.93117505   0.02654083
7628.00   0.89221561   0.02566753
7630.00   0.87383038   0.02463538
7632.00   0.86821806   0.02314371
7634.00   0.87791795   0.02208196
7636.00   0.91670820   0.02115807
7638.00   0.93894365   0.02048892
7640.00   0.95734784   0.02026564
7642.00   0.95881873   0.02007600
7644.00   0.92643818   0.01956946
7646.00   0.86813962   0.01890143
7648.00   0.83288732   0.01856031
7650.00   0.79629719   0.01837927
7652.00   0.78293166   0.01840222
7654.00   0.80012000   0.01883464
7656.00   0.81310597   0.01910324
7658.00   0.81082079   0.01896105
7660.00   0.80015281   0.01860814
7662.00   0.77636370   0.01836485
7664.00   0.72984314   0.01817429
7666.00   0.70186597   0.01781308
7668.00   0.67648798   0.01730947
7670.00   0.66387016   0.01674040
7672.00   0.66902527   0.01601802
7674.00   0.68380940   0.01527823
7676.00   0.69497901   0.01485251
7678.00   0.70576233   0.01457853
7680.00   0.72675541   0.01474656
7682.00   0.76947138   0.01555686
7684.00   0.78944972   0.01608027
7686.00   0.78018147   0.01629358
7688.00   0.76342350   0.01646413
7690.00   0.75821167   0.01675084
7692.00   0.75664821   0.01705185
7694.00   0.75113052   0.01763575
7696.00   0.75462300   0.01886049
7698.00   0.73408666   0.01922465
7700.00   0.68027958   0.01849546
7702.00   0.63024196   0.01797528
7704.00   0.60653621   0.01836664
7706.00   0.59681255   0.01928296
7708.00   0.58683860   0.02112974
7710.00   0.57888535   0.02446239
7712.00   0.58194456   0.02609977
7714.00   0.61121330   0.02733080
7716.00   0.61988449   0.02754812
7718.00   0.58199334   0.02620405
7720.00   0.52514642   0.02377782
7722.00   0.50955854   0.02200189
7724.00   0.53132334   0.02005562
7726.00   0.51716936   0.01863015
7728.00   0.46684712   0.01785263
7730.00   0.44456024   0.01712608
7732.00   0.46567312   0.01629585
7734.00   0.50211956   0.01565705
7736.00   0.52343807   0.01553333
7738.00   0.54639652   0.01568280
7740.00   0.54725975   0.01683525
7742.00   0.52567345   0.01872588
7744.00   0.50553876   0.02082049
7746.00   0.48378560   0.02355980
7748.00   0.46178035   0.02582878
7750.00   0.44146405   0.02696941
7752.00   0.42111185   0.02752561
7754.00   0.41094725   0.02702537
7756.00   0.41861694   0.02493910
7758.00   0.40872061   0.02318116
7760.00   0.38174139   0.02110824
7762.00   0.35426337   0.01926843
7764.00   0.33700743   0.01826563
7766.00   0.32285374   0.01789881
7768.00   0.29132579   0.01736942
7770.00   0.21463373   0.01684421
7772.00   0.21054517   0.01677923
7774.00   0.27855891   0.01735908
7776.00   0.33036248   0.01774271
7778.00   0.33563051   0.01763290
7780.00   0.32695436   0.01738193
7782.00   0.34930229   0.01752528
7784.00   0.39523104   0.01765032
7786.00   0.42353186   0.01859430
7788.00   0.44292787   0.02041976
7790.00   0.46465039   0.02184456
7792.00   0.49613151   0.02295612
7794.00   0.52233961   0.02381901
7796.00   0.52229863   0.02441284
7798.00   0.50131379   0.02499455
7800.00   0.48268090   0.02409841
7802.00   0.44395424   0.02069539
7804.00   0.43126754   0.01869920
7806.00   0.45024447   0.01843273
7808.00   0.47381817   0.01882734
7810.00   0.48535120   0.01909029
7812.00   0.49381563   0.01954722
7814.00   0.48030081   0.02122194
7816.00   0.42698181   0.02480424
7818.00   0.41249254   0.02608519
7820.00   0.42127931   0.02589945
7822.00   0.44800387   0.02519144
7824.00   0.50270960   0.02423017
7826.00   0.57442343   0.02280115
7828.00   0.60046762   0.02112698
7830.00   0.58534017   0.01805366
7832.00   0.59128356   0.01675624
7834.00   0.60540259   0.01702002
7836.00   0.61245367   0.01764509
7838.00   0.60710359   0.01820987
7840.00   0.59640056   0.01921157
7842.00   0.59054837   0.02132512
7844.00   0.58421367   0.02459298
7846.00   0.58391449   0.02623003
7848.00   0.59402364   0.02706359
7850.00   0.59562895   0.02784487
7852.00   0.58848691   0.02858681
7854.00   0.57505926   0.02919650
7856.00   0.54936701   0.02973907
7858.00   0.50258632   0.03034122
7860.00   0.52480580   0.02987060
7862.00   0.62528378   0.02811164
7864.00   0.68368194   0.02669760
7866.00   0.70729247   0.02518182
7868.00   0.72307780   0.02406704
7870.00   0.74988818   0.02412372
7872.00   0.77873203   0.02503373
7874.00   0.76593775   0.02470858
7876.00   0.68429017   0.02314116
7878.00   0.67239594   0.02260848
7880.00   0.71903941   0.02278905
7882.00   0.76593158   0.02319919
7884.00   0.79422846   0.02380811
7886.00   0.81598818   0.02454258
7888.00   0.82846075   0.02479316
7890.00   0.83128631   0.02511083
7892.00   0.82973152   0.02436519
7894.00   0.81369367   0.02210239
7896.00   0.80715141   0.02015177
7898.00   0.81779361   0.01863375
7900.00   0.83375746   0.01780743
7902.00   0.84044731   0.01882741
7904.00   0.84960690   0.02123086
7906.00   0.83132514   0.02388381
7908.00   0.77137542   0.02786043
7910.00   0.74046585   0.03022571
7912.00   0.75578564   0.03149664
7914.00   0.76827216   0.03189759
7916.00   0.72888002   0.03117411
7918.00   0.65476429   0.02920363
7920.00   0.59499550   0.02765495
7922.00   0.51683474   0.02569911
7924.00   0.47263069   0.02408801
7926.00   0.45881240   0.02275483
7928.00   0.46106195   0.02170403
7930.00   0.47990334   0.02106919
7932.00   0.51431043   0.02082937
7934.00   0.51257446   0.02032880
7936.00   0.47659183   0.01980317
7938.00   0.46016459   0.01921702
7940.00   0.45241196   0.01836084
7942.00   0.44477634   0.01779834
7944.00   0.43288840   0.01786983
7946.00   0.42148350   0.01825689
7948.00   0.42161892   0.01829773
7950.00   0.44094300   0.01809463
7952.00   0.43343237   0.01822282
7954.00   0.39087000   0.01794334
7956.00   0.37664293   0.01886158
7958.00   0.40900393   0.02145587
7960.00   0.45460077   0.02420979
7962.00   0.47483353   0.02586124
7964.00   0.49296024   0.02739405
7966.00   0.46687727   0.02724063
7968.00   0.37265293   0.02494547
7970.00   0.32359388   0.02327655
7972.00   0.32914901   0.02212166
7974.00   0.34142035   0.02131812
7976.00   0.32354786   0.02102157
7978.00   0.29161778   0.02125292
7980.00   0.26206681   0.02129148
7982.00   0.22046913   0.02106830
7984.00   0.19535538   0.02157367
7986.00   0.18251225   0.02275740
7988.00   0.17815553   0.02409078
7990.00   0.18036804   0.02568288
7992.00   0.19060220   0.02732882
7994.00   0.21316051   0.02715641
7996.00   0.25911951   0.02527698
7998.00   0.28609055   0.02347563
8000.00   0.30477977   0.02039229
8002.00   0.31829466   0.01776239
8004.00   0.32807913   0.01656101
8006.00   0.33255942   0.01638693
8008.00   0.32837328   0.01662501
8010.00   0.31411669   0.01741301
8012.00   0.30088414   0.01901646
8014.00   0.28194028   0.02168643
8016.00   0.26702151   0.02374439
8018.00   0.25649064   0.02548902
8020.00   0.24931043   0.02674706
8022.00   0.24453723   0.02700719
8024.00   0.24023077   0.02644339
8026.00   0.25125130   0.02573575
8028.00   0.28354180   0.02451843
8030.00   0.30414173   0.02308053
8032.00   0.32107577   0.02109427
8034.00   0.32582596   0.01897745
8036.00   0.30204003   0.01709163
8038.00   0.25446180   0.01523571
8040.00   0.25245090   0.01494345
8042.00   0.29300041   0.01674977
8044.00   0.30962224   0.01755739
8046.00   0.31619626   0.01814316
8048.00   0.31478901   0.01841434
8050.00   0.29978217   0.01803517
8052.00   0.27707738   0.01731531
8054.00   0.27894789   0.01785148
8056.00   0.31239119   0.01978653
8058.00   0.31392144   0.02041032
8060.00   0.29076315   0.02064309
8062.00   0.27479700   0.02034859
8064.00   0.27417569   0.01923064
8066.00   0.27921593   0.01761092
8068.00   0.28083429   0.01646160
8070.00   0.28577517   0.01536110
8072.00   0.27968350   0.01468215
8074.00   0.25795649   0.01452276
8076.00   0.24727266   0.01446050
8078.00   0.24975443   0.01453079
8080.00   0.25823985   0.01470815
8082.00   0.26785763   0.01485710
8084.00   0.28130440   0.01495660
8086.00   0.29388988   0.01560750
8088.00   0.31367308   0.01683212
8090.00   0.32032062   0.01775397
8092.00   0.31211367   0.01870234
8094.00   0.30046077   0.01929366
8096.00   0.29271466   0.01915975
8098.00   0.28513224   0.01848136
8100.00   0.27492504   0.01812455
8102.00   0.26124082   0.01773172
8104.00   0.25007951   0.01750608
8106.00   0.23423414   0.01746443
8108.00   0.22856265   0.01745496
8110.00   0.24862865   0.01757065
8112.00   0.27844017   0.01766372
8114.00   0.26438893   0.01693507
8116.00   0.20155189   0.01482079
8118.00   0.17910466   0.01400016
8120.00   0.17561945   0.01409851
8122.00   0.17645961   0.01429151
8124.00   0.18177019   0.01448724
8126.00   0.19029865   0.01477809
8128.00   0.19488748   0.01510293
8130.00   0.19776291   0.01550535
8132.00   0.20189569   0.01586120
8134.00   0.20796328   0.01616740
8136.00   0.21118063   0.01655174
8138.00   0.21345854   0.01707035
8140.00   0.21150935   0.01756538
8142.00   0.19686563   0.01794324
8144.00   0.16803145   0.01830879
8146.00   0.17650668   0.01812716
8148.00   0.22359493   0.01711460
8150.00   0.25154404   0.01666482
8152.00   0.26978482   0.01666709
8154.00   0.28044392   0.01686628
8156.00   0.28041069   0.01719432
8158.00   0.27146322   0.01767099
8160.00   0.27165922   0.01798081
8162.00   0.27655685   0.01802157
8164.00   0.28002346   0.01851324
8166.00   0.28802682   0.01915118
8168.00   0.28873636   0.02016390
8170.00   0.27108472   0.02127386
8172.00   0.24814484   0.02280319
8174.00   0.25698817   0.02589939
8176.00   0.30481339   0.03055463
8178.00   0.30977660   0.03328088
8180.00   0.27738751   0.03535004
8182.00   0.26260477   0.03702222
8184.00   0.27959369   0.03836241
8186.00   0.30290908   0.03938717
8188.00   0.30078760   0.04010485
8190.00   0.28001840   0.04047543
8192.00   0.27618654   0.04086316
8194.00   0.26403822   0.04176444
8196.00   0.28608765   0.04133574
8198.00   0.37907273   0.03939536
8200.00   0.45087355   0.03652730
8202.00   0.40472084   0.03282974
8204.00   0.27417763   0.02749180
8206.00   0.21811309   0.02419196
8208.00   0.17372333   0.02309237
8210.00   0.17177960   0.02174788
8212.00   0.23748240   0.02077185
8214.00   0.29280169   0.02010736
8216.00   0.29105875   0.01972045
8218.00   0.26106063   0.01964744
8220.00   0.25452409   0.01951867
8222.00   0.25680773   0.01966307
8224.00   0.25532111   0.01942695
8226.00   0.25463006   0.01894897
8228.00   0.25186977   0.01830886
8230.00   0.24447961   0.01735803
8232.00   0.23566946   0.01627466
8234.00   0.23305877   0.01578187
8236.00   0.23313601   0.01577476
8238.00   0.23838180   0.01575511
8240.00   0.24772140   0.01596115
8242.00   0.26212396   0.01614582
8244.00   0.28924723   0.01633631
8246.00   0.31371576   0.01648963
8248.00   0.31219651   0.01650652
8250.00   0.29078621   0.01643514
8252.00   0.27479278   0.01624349
8254.00   0.24700434   0.01583076
8256.00   0.23531793   0.01551813
8258.00   0.24147102   0.01526102
8260.00   0.25331095   0.01507754
8262.00   0.26613612   0.01499577
8264.00   0.28375182   0.01500296
8266.00   0.27456492   0.01516281
8268.00   0.24088569   0.01475857
8270.00   0.20988375   0.01601037
8272.00   0.15540285   0.01856730
8274.00   0.12905637   0.02113863
8276.00   0.17297387   0.02346906
8278.00   0.25272052   0.02574114
8280.00   0.25394949   0.02769725
8282.00   0.19290076   0.02998921
8284.00   0.15499128   0.03097027
8286.00   0.08538977   0.03069936
8288.00   0.06600495   0.03069633
8290.00   0.14067186   0.03143411
8292.00   0.24716571   0.03229212
8294.00   0.27102847   0.03254719
8296.00   0.23975426   0.03273126
8298.00   0.23244190   0.03177155
8300.00   0.21469002   0.02924921
8302.00   0.21591944   0.02694927
8304.00   0.24861722   0.02476703
8306.00   0.28375745   0.02285297
8308.00   0.28594892   0.02196568
8310.00   0.26439472   0.02223104
8312.00   0.26734895   0.02134301
8314.00   0.28988436   0.01956740
8316.00   0.29848473   0.01811804
8318.00   0.29678066   0.01682065
8320.00   0.28829004   0.01576984
8322.00   0.26860788   0.01520574
8324.00   0.23916820   0.01509729
8326.00   0.24337517   0.01484974
8328.00   0.29250178   0.01410521
8330.00   0.30067398   0.01472195
8332.00   0.28417149   0.01305436
8334.00   0.25445034   0.01721903
8336.00   0.20242040   0.02784596
8338.00   0.14092905   0.03784938
8340.00   0.13503116   0.04205953
8342.00   0.18018544   0.04489914
8344.00   0.20656987   0.04476285
8346.00   0.24686440   0.04064644
8348.00   0.26773661   0.03646049
8350.00   0.25824018   0.03273082
8352.00   0.23513167   0.02901705
8354.00   0.21984476   0.02618055
8356.00   0.19709186   0.02441672
8358.00   0.20055723   0.02264988
8360.00   0.23411871   0.02162096
8362.00   0.25460575   0.02055437
8364.00   0.26628879   0.01949671
8366.00   0.26725101   0.01849832
8368.00   0.24571843   0.01738253
8370.00   0.20068422   0.01603900
8372.00   0.19333187   0.01622685
8374.00   0.21459869   0.01791230
8376.00   0.22941635   0.01923848
8378.00   0.25598857   0.02101046
8380.00   0.26515038   0.02206284
8382.00   0.22229882   0.02134296
8384.00   0.14747617   0.01940981
8386.00   0.15751694   0.01991597
8388.00   0.25499801   0.02157685
8390.00   0.29586817   0.02405110
8392.00   0.31220509   0.02807179
8394.00   0.31829025   0.03094578
8396.00   0.31705016   0.03258187
8398.00   0.30688496   0.03330640
8400.00   0.29088203   0.03208796
8402.00   0.27497159   0.02787282
8404.00   0.23144324   0.02510953
8406.00   0.13158308   0.02195625
8408.00   0.08144938   0.02000735
8410.00   0.11050357   0.02052282
8412.00   0.16594598   0.02187873
8414.00   0.18317483   0.02173219
8416.00   0.18711327   0.02060460
8418.00   0.18710667   0.02103030
8420.00   0.16294356   0.02175236
8422.00   0.16696193   0.02394209
8424.00   0.21589849   0.02817354
8426.00   0.26057047   0.03174451
8428.00   0.25591671   0.03331233
8430.00   0.22020702   0.03398939
8432.00   0.18899368   0.03257822
8434.00   0.12826330   0.02757519
8436.00   0.10877475   0.02360092
8438.00   0.12943218   0.01929190
8440.00   0.15789902   0.01586436
8442.00   0.18070369   0.01552671
8444.00   0.20492341   0.01760760
8446.00   0.22092801   0.01886229
8448.00   0.24219562   0.02098461
8450.00   0.23510511   0.02187208
8452.00   0.18980529   0.02162787
8454.00   0.15827381   0.02187688
8456.00   0.15737502   0.02300731
8458.00   0.17005647   0.02456355
8460.00   0.17710194   0.02638783
8462.00   0.19589343   0.02933574
8464.00   0.18447424   0.02973848
8466.00   0.13498178   0.02841023
8468.00   0.10748754   0.02649999
8470.00   0.11269641   0.02338731
8472.00   0.12737247   0.01957812
8474.00   0.12787775   0.01687744
8476.00   0.12248306   0.01484153
8478.00   0.12244518   0.01380730
8480.00   0.13195438   0.01427652
8482.00   0.12696810   0.01531679
8484.00   0.10244397   0.01753365
8486.00   0.07727395   0.01933081
8488.00   0.06630921   0.01963253
8490.00   0.06289268   0.01904305
8492.00   0.05644070   0.01927176
8494.00   0.05470727   0.01966314
8496.00   0.04416563   0.02042162
8498.00   0.01330092   0.02184232
8500.00   -0.00079745   0.02291075
8502.00   0.02233632   0.02334735
8504.00   0.06813727   0.02336561
8506.00   0.10880557   0.02265676
8508.00   0.17142370   0.02060605
8510.00   0.19829552   0.01933577
8512.00   0.20353542   0.01834020
8514.00   0.19505850   0.01743067
8516.00   0.16465930   0.01663249
8518.00   0.12705932   0.01591564
8520.00   0.12103077   0.01503815
8522.00   0.14083346   0.01388921
8524.00   0.14318901   0.01332606
8526.00   0.13214234   0.01317812
8528.00   0.13525372   0.01335833
8530.00   0.16184706   0.01398428
8532.00   0.18986437   0.01475932
8534.00   0.19214860   0.01534817
8536.00   0.17429989   0.01588091
8538.00   0.18501373   0.01654488
8540.00   0.21759376   0.01736003
8542.00   0.24354076   0.01803529
8544.00   0.27657147   0.01878986
8546.00   0.29458441   0.01924193
8548.00   0.27152398   0.01909105
8550.00   0.21925774   0.01848507
8552.00   0.21531074   0.01782436
8554.00   0.25823653   0.01677087
8556.00   0.26531041   0.01585538
8558.00   0.24574400   0.01462415
8560.00   0.22743820   0.01392188
8562.00   0.21584892   0.01443128
8564.00   0.20945054   0.01554188
8566.00   0.22870387   0.01590516
8568.00   0.29646742   0.01617024
8570.00   0.30325378   0.01590296
8572.00   0.25788325   0.01475869
8574.00   0.22745777   0.01395183
8576.00   0.22203052   0.01374635
8578.00   0.22886328   0.01392217
8580.00   0.24473831   0.01441249
8582.00   0.27623121   0.01525873
8584.00   0.29721105   0.01616854
8586.00   0.31893981   0.01770143
8588.00   0.33213688   0.01834134
8590.00   0.33540604   0.01791640
8592.00   0.33333062   0.01721856
8594.00   0.32904604   0.01704859
8596.00   0.32016024   0.01712213
8598.00   0.31587473   0.01682766
8600.00   0.30806898   0.01607803
8602.00   0.31280892   0.01573675
8604.00   0.33667812   0.01557282
8606.00   0.35679685   0.01583050
8608.00   0.35581888   0.01666460
8610.00   0.34341100   0.01790819
8612.00   0.35028154   0.01940145
8614.00   0.37737097   0.02130838
8616.00   0.38598482   0.02295197
8618.00   0.37493929   0.02433123
8620.00   0.37399445   0.02598455
8622.00   0.39185447   0.02841781
8624.00   0.42215987   0.03084008
8626.00   0.46491110   0.03149085
8628.00   0.52767664   0.03077806
8630.00   0.58128598   0.03021863
8632.00   0.64066875   0.02918233
8634.00   0.68835169   0.02807638
8636.00   0.72289488   0.02675197
8638.00   0.74634692   0.02546421
8640.00   0.75445503   0.02483745
8642.00   0.73536199   0.02463668
8644.00   0.76632243   0.02506318
8646.00   0.86094952   0.02631063
8648.00   0.90376613   0.02746592
8650.00   0.88759941   0.02874206
8652.00   0.85442254   0.02986600
8654.00   0.83371264   0.03057472
8656.00   0.81107256   0.03103596
8658.00   0.79459128   0.03113859
8660.00   0.77148199   0.03084692
8662.00   0.77403876   0.03041149
8664.00   0.80614129   0.02969943
8666.00   0.84200034   0.02888040
8668.00   0.87029153   0.02799874
8670.00   0.89702418   0.02703174
8672.00   0.91514969   0.02633105
8674.00   0.91818118   0.02601891
8676.00   0.93633279   0.02533217
8678.00   0.96349910   0.02433552
8680.00   0.99335694   0.02336014
8682.00   1.02194294   0.02245458
8684.00   1.05420762   0.02162173
8686.00   1.10231102   0.02108127
8688.00   1.17464304   0.02086378
8690.00   1.21697074   0.02060895
8692.00   1.24556994   0.02033422
8694.00   1.26127762   0.02032141
8696.00   1.25759530   0.02078684
8698.00   1.24720520   0.02128426
8700.00   1.24941915   0.02122942
8702.00   1.25797737   0.02080849
8704.00   1.26061726   0.02042575
8706.00   1.26729262   0.01982399
8708.00   1.25949794   0.01936780
8710.00   1.23374605   0.01907738
8712.00   1.20343405   0.01882455
8714.00   1.17956114   0.01849442
8716.00   1.15735859   0.01812753
8718.00   1.12550122   0.01798389
8720.00   1.08148748   0.01808878
8722.00   1.04583389   0.01809326
8724.00   1.01087403   0.01808976
8726.00   0.98461506   0.01803721
8728.00   0.97668809   0.01778117
8730.00   0.97873911   0.01746841
8732.00   0.95693988   0.01787454
8734.00   0.91555896   0.01921611
8736.00   0.88163620   0.01967313
8738.00   0.84087533   0.01990561
8740.00   0.81055668   0.01967409
8742.00   0.80068016   0.01845485
8744.00   0.79711169   0.01693495
8746.00   0.77346629   0.01707624
8748.00   0.73758498   0.01804387
8750.00   0.70111862   0.02012627
8752.00   0.64707676   0.02290715
8754.00   0.61483252   0.02618039
8756.00   0.60682416   0.03027470
8758.00   0.61448944   0.03402065
8760.00   0.63394764   0.03658850
8762.00   0.66973713   0.03876362
8764.00   0.70041761   0.03946570
8766.00   0.73242506   0.03842401
8768.00   0.76731405   0.03789683
8770.00   0.80874339   0.03769101
8772.00   0.84780982   0.03747617
8774.00   0.88429865   0.03725793
8776.00   0.91924885   0.03705611
8778.00   0.90389702   0.03571130
8780.00   0.81270975   0.03287467
8782.00   0.78416240   0.03048816
8784.00   0.79178861   0.02761668
8786.00   0.81828356   0.02542916
8788.00   0.86806461   0.02509677
8790.00   0.93295076   0.02583744
8792.00   0.96287221   0.02525005
8794.00   0.95738867   0.02395966
8796.00   0.98422369   0.02270975
8798.00   1.03620917   0.02074025
8800.00   1.07674366   0.01939062
8802.00   1.09588677   0.01930602
8804.00   1.10821629   0.01976929
8806.00   1.13302994   0.01968845
8808.00   1.17085350   0.01923632
8810.00   1.18001652   0.01973004
8812.00   1.15520346   0.01949515
8814.00   1.15132678   0.02212847
8816.00   1.17309612   0.02702667
8818.00   1.20148700   0.03243801
8820.00   1.22768897   0.03802498
8822.00   1.26318681   0.04418921
8824.00   1.23539603   0.04713283
8826.00   1.09520224   0.04888642
8828.00   1.07294852   0.04887244
8830.00   1.18669933   0.04652156
8832.00   1.29475176   0.04331048
8834.00   1.31222653   0.04001025
8836.00   1.28466475   0.03604355
8838.00   1.26202440   0.03289763
8840.00   1.21242660   0.03016579
8842.00   1.18371874   0.02804205
8844.00   1.16674697   0.02696137
8846.00   1.15278077   0.02622316
8848.00   1.13763905   0.02573137
8850.00   1.12573719   0.02550673
8852.00   1.12639344   0.02489915
8854.00   1.13795614   0.02345748
8856.00   1.15327865   0.02378999
8858.00   1.19872701   0.02542989
8860.00   1.20514685   0.02726620
8862.00   1.15715247   0.02983977
8864.00   1.08164132   0.03197806
8866.00   1.00447223   0.03178417
8868.00   0.90276572   0.02966186
8870.00   0.84563088   0.02796071
8872.00   0.84599209   0.02426321
8874.00   0.79832983   0.02329282
8876.00   0.68269533   0.02518367
8878.00   0.56706795   0.02880067
8880.00   0.49893937   0.03385790
8882.00   0.44981597   0.04002547
8884.00   0.50325957   0.04327188
8886.00   0.73564622   0.04730221
8888.00   0.81381154   0.04635148
8890.00   0.74623233   0.03773941
8892.00   0.67581615   0.02804959
8894.00   0.67828646   0.02500726
8896.00   0.70822912   0.02667189
8898.00   0.70120463   0.02887273
8900.00   0.66870999   0.03569879
8902.00   0.64889833   0.03659790
8904.00   0.62867200   0.03297726
8906.00   0.61482686   0.02966616
8908.00   0.61965409   0.02707460
8910.00   0.62598485   0.02611033
8912.00   0.58475226   0.03239146
8914.00   0.47111943   0.04488557
8916.00   0.46599387   0.04816839
8918.00   0.56089255   0.04784527
8920.00   0.62025425   0.04579836
8922.00   0.63448888   0.04059994
8924.00   0.62661657   0.03353700
8926.00   0.60289285   0.02876530
8928.00   0.55286801   0.02517759
8930.00   0.52752249   0.02271058
8932.00   0.51232406   0.02174812
8934.00   0.50171410   0.02310042
8936.00   0.49588393   0.02769312
8938.00   0.49579066   0.03172178
8940.00   0.50332955   0.03346782
8942.00   0.51825535   0.03424912
8944.00   0.52881132   0.03383324
8946.00   0.54201066   0.02964983
8948.00   0.54804964   0.03004798
8950.00   0.54841653   0.03420204
8952.00   0.54465181   0.03879369
8954.00   0.53486574   0.04390538
8956.00   0.52136272   0.04887238
8958.00   0.51889090   0.04872978
8960.00   0.52678706   0.04350859
8962.00   0.52923124   0.03933352
8964.00   0.53938293   0.03271349
8966.00   0.53373548   0.02664035
8968.00   0.49949755   0.02310920
8970.00   0.45461978   0.02152446
8972.00   0.43221325   0.02032265
8974.00   0.42127748   0.02082613
8976.00   0.41294503   0.02113135
8978.00   0.40766531   0.02097215
8980.00   0.41220145   0.02279257
8982.00   0.44055472   0.02746746
8984.00   0.46330059   0.03151957
8986.00   0.43875031   0.03231713
8988.00   0.37480809   0.03100070
8990.00   0.34806375   0.03111560
8992.00   0.34269319   0.03084465
8994.00   0.33066998   0.03224483
8996.00   0.30788635   0.03601503
8998.00   0.29376479   0.03907095
9000.00   0.30420935   0.04006704
9002.00   0.33171389   0.03996529
9004.00   0.34730041   0.03770596
9006.00   0.36858712   0.03094089
9008.00   0.37060918   0.02630774
9010.00   0.34228912   0.02243913
9012.00   0.32777056   0.02019327
9014.00   0.35427052   0.02128790
9016.00   0.39780703   0.02423296
9018.00   0.39845067   0.02468192
9020.00   0.36811651   0.02412107
9022.00   0.34314951   0.02333689
9024.00   0.29507139   0.02121085
9026.00   0.27339512   0.01995979
9028.00   0.29605533   0.02040731
9030.00   0.33569759   0.02159577
9032.00   0.35408339   0.02245597
9034.00   0.37119515   0.02342489
9036.00   0.36399996   0.02438452
9038.00   0.33646743   0.02533814
9040.00   0.29819649   0.02637126
9042.00   0.23547667   0.02761203
9044.00   0.17619597   0.02874129
9046.00   0.15044849   0.02957927
9048.00   0.14309193   0.03037146
9050.00   0.16981373   0.02984260
9052.00   0.25673817   0.02780785
9054.00   0.30518989   0.02589811
9056.00   0.32819460   0.02329529
9058.00   0.33604793   0.02107694
9060.00   0.32712470   0.02054727
9062.00   0.30247249   0.02123726
9064.00   0.29582572   0.02134192
9066.00   0.30454658   0.02177995
9068.00   0.29847623   0.02159259
9070.00   0.27886507   0.02069300
9072.00   0.26281273   0.01990434
9074.00   0.25833093   0.01958083
9076.00   0.25766318   0.01946156
9078.00   0.24644057   0.01920974
9080.00   0.22846854   0.01856840
9082.00   0.20993185   0.01900438
9084.00   0.18187685   0.02044095
9086.00   0.16455232   0.02163955
9088.00   0.16239864   0.02264001
9090.00   0.16759340   0.02343485
9092.00   0.17224533   0.02363716
9094.00   0.18145343   0.02298493
9096.00   0.18486748   0.02397886
9098.00   0.17135639   0.02638320
9100.00   0.18458460   0.02806158
9102.00   0.24476395   0.02970022
9104.00   0.29727802   0.03049808
9106.00   0.28635867   0.02937607
9108.00   0.23153483   0.02648191
9110.00   0.21551450   0.02417575
9112.00   0.21923199   0.02076122
9114.00   0.21529558   0.01878006
9116.00   0.20793033   0.01878755
9118.00   0.20032080   0.01918760
9120.00   0.19204680   0.01912416
9122.00   0.18365277   0.01909406
9124.00   0.18426798   0.01947729
9126.00   0.19136562   0.02027056
9128.00   0.20259357   0.02095344
9130.00   0.22188435   0.02199100
9132.00   0.24031710   0.02249472
9134.00   0.25832223   0.02211548
9136.00   0.27348141   0.02126026
9138.00   0.27344267   0.02067006
9140.00   0.25151191   0.01976433
9142.00   0.25517123   0.01977116
9144.00   0.28252347   0.02024942
9146.00   0.29709305   0.02138192
9148.00   0.29375492   0.02344987
9150.00   0.28339942   0.02556246
9152.00   0.27357189   0.02688565
9154.00   0.25613922   0.02807899
9156.00   0.26350676   0.02788539
9158.00   0.30503170   0.02573083
9160.00   0.31998423   0.02449548
9162.00   0.31212828   0.02399953
9164.00   0.29076044   0.02408367
9166.00   0.25305125   0.02514778
9168.00   0.19724398   0.02705878
9170.00   0.18316376   0.02652774
9172.00   0.19637822   0.02318368
9174.00   0.21801271   0.02136755
9176.00   0.28006978   0.02054273
9178.00   0.31185907   0.02023028
9180.00   0.26026379   0.02053041
9182.00   0.16659519   0.02126463
9184.00   0.15913701   0.02096326
9186.00   0.22864762   0.01961709
9188.00   0.24954411   0.01894541
9190.00   0.25082024   0.01829163
9192.00   0.25416119   0.01814837
9194.00   0.27046272   0.01898322
9196.00   0.28468509   0.02005164
9198.00   0.26772204   0.01995439
9200.00   0.21509627   0.01875662
9202.00   0.19810874   0.01864707
9204.00   0.19629487   0.01852677
9206.00   0.20509643   0.01967126
9208.00   0.23195221   0.02280416
9210.00   0.26225132   0.02556463
9212.00   0.27265651   0.02587116
9214.00   0.26593187   0.02440189
9216.00   0.29551363   0.02465385
9218.00   0.38488775   0.02627958
9220.00   0.40725113   0.02674639
9222.00   0.34792045   0.02612745
9224.00   0.28597527   0.02522815
9226.00   0.27598963   0.02455121
9228.00   0.29118542   0.02384579
9230.00   0.29539309   0.02302049
9232.00   0.29874673   0.02165603
9234.00   0.30877710   0.02117310
9236.00   0.33091988   0.02165735
9238.00   0.34642784   0.02212941
9240.00   0.34893675   0.02227400
9242.00   0.34216128   0.02229783
9244.00   0.32302424   0.02213971
9246.00   0.27574690   0.02164846
9248.00   0.26094249   0.02142793
9250.00   0.27579841   0.02140238
9252.00   0.27751292   0.02129160
9254.00   0.24776157   0.02096101
9256.00   0.21498398   0.02061443
9258.00   0.22697456   0.02062104
9260.00   0.28386751   0.02097815
9262.00   0.29050629   0.02097921
9264.00   0.25998161   0.02072724
9266.00   0.24191146   0.02057248
9268.00   0.24157830   0.02042109
9270.00   0.24014547   0.02042580
9272.00   0.21512964   0.02073342
9274.00   0.16743433   0.02119778
9276.00   0.18270150   0.02243375
9278.00   0.27113798   0.02464840
9280.00   0.31177476   0.02614219
9282.00   0.32232237   0.02709044
9284.00   0.31088461   0.02801514
9286.00   0.26989457   0.02919875
9288.00   0.20382877   0.03046653
9290.00   0.17518650   0.03144753
9292.00   0.13524800   0.03045083
9294.00   0.17298459   0.03354270
9296.00   0.29620008   0.03674680
9298.00   0.42377516   0.04426302
9300.00   0.54492871   0.05469934
9302.00   0.65859561   0.06682172
9304.00   0.70022319   0.08201391
9306.00   0.68892100   0.09969098
9308.00   0.64411291   0.11393057
9310.00   0.53795564   0.12811910
9312.00   0.43303081   0.14000705
9314.00   0.33402491   0.15326618
9316.00   0.23486381   0.16213998
9318.00   0.13219316   0.15606412
9320.00   0.00042594   0.13296707
9322.00   -0.01035297   0.12099302
9324.00   0.11961936   0.11376219
9326.00   0.18661570   0.10725306
9328.00   0.19826134   0.10275202
9330.00   0.18307586   0.09912536
9332.00   0.11794876   0.09381769
9334.00   -0.01478025   0.08714071
9336.00   0.13937271   0.08834945
9338.00   0.67416331   0.10248060
9340.00   0.91321465   0.10285592
9342.00   0.94672033   0.08883823
9344.00   0.87902802   0.07267270
9346.00   0.71766222   0.06457267
9348.00   0.46674094   0.06117438
9350.00   0.33390154   0.05990749
9352.00   0.24266857   0.06509368
9354.00   0.20240241   0.06639906
9356.00   0.27264154   0.06560905
9358.00   0.28532355   0.06582085
9360.00   0.14526951   0.06231000
9362.00   -0.03278312   0.06275638
9364.00   -0.00893876   0.08670456
9366.00   0.17192685   0.11450464
9368.00   0.31653675   0.14893872
9370.00   0.53727401   0.19791213
9372.00   0.67920280   0.22342691
9374.00   0.68581752   0.23153828
9376.00   0.67232823   0.22857208
9378.00   0.80754477   0.21313138
9380.00   1.09287176   0.17728443
9382.00   1.06608784   0.14921305
9384.00   0.72096550   0.11446253
9386.00   0.53103887   0.08342605
9388.00   0.49010564   0.06587338
9390.00   0.47674146   0.05685511
9392.00   0.41240640   0.04745592
9394.00   0.33110783   0.04588342
9396.00   0.30428368   0.04557792
9398.00   0.32859565   0.05245908
9400.00   0.33676369   0.05500197
9402.00   0.35187544   0.05560873
9404.00   0.35264632   0.05535145
9406.00   0.32073216   0.05335416
9408.00   0.27026444   0.05049806
9410.00   0.24643279   0.05398045
9412.00   0.26405326   0.06058207
9414.00   0.21777829   0.06944121
9416.00   0.09972899   0.08319683
9418.00   0.01683861   0.09189436
9420.00   -0.02503612   0.09547262
9422.00   -0.02168654   0.09582835
9424.00   0.08756293   0.09242222
9426.00   0.31664262   0.08253576
9428.00   0.49626938   0.07668262
9430.00   0.73555747   0.06560935
9432.00   0.86731854   0.06791497
9434.00   0.88668454   0.08984828
9436.00   0.81815547   0.10895867
9438.00   0.64412889   0.11259321
9440.00   0.32581543   0.10836035
9442.00   0.21352820   0.10236272
9444.00   0.23546722   0.08513386
9446.00   0.26126865   0.07564017
9448.00   0.33034950   0.07378266
9450.00   0.39633733   0.07870304
9452.00   0.41755043   0.09156047
9454.00   0.41417304   0.10900753
9456.00   0.41047473   0.11563876
9458.00   0.42662039   0.11855506
9460.00   0.36979181   0.11716212
9462.00   0.16903841   0.10840750
9464.00   0.06482695   0.09951395
9466.00   0.18485449   0.09260937
9468.00   0.42521188   0.08751708
9470.00   0.57619520   0.09247082
9472.00   0.75099742   0.10974971
9474.00   0.81897849   0.11610715
9476.00   0.81416407   0.12168750
9478.00   0.75067768   0.12021609
9480.00   0.58187917   0.10599165
9482.00   0.38954128   0.08412627
9484.00   0.35350977   0.07379003
9486.00   0.44827658   0.07262301
9488.00   0.44509429   0.07062537
9490.00   0.38403964   0.07040917
9492.00   0.35864377   0.07445209
9494.00   0.36578591   0.08452499
9496.00   0.39785703   0.09413281
9498.00   0.47045128   0.09887413
9500.00   0.59463683   0.10175147
9502.00   0.60326125   0.10039669
9504.00   0.48808053   0.09454979
9506.00   0.44828850   0.08667262
9508.00   0.45789556   0.07163636
9510.00   0.49581075   0.05630108
9512.00   0.56733952   0.05128176
9514.00   0.66927785   0.05452417
9516.00   0.71905226   0.05563496
9518.00   0.76307091   0.05904430
9520.00   0.74299529   0.06165033
9522.00   0.62887645   0.06518585
9524.00   0.54040472   0.06713974
9526.00   0.51173404   0.06666695
9528.00   0.51887906   0.06461981
9530.00   0.57181987   0.06200229
9532.00   0.72301951   0.05624322
9534.00   0.75971514   0.05495091
9536.00   0.72377518   0.05749717
9538.00   0.67820887   0.05972258
9540.00   0.60909180   0.05955698
9542.00   0.54515153   0.06086435
9544.00   0.56483670   0.06957188
9546.00   0.68459859   0.08404480
9548.00   0.63737588   0.08915605
9550.00   0.31979615   0.09012138
9552.00   0.29986744   0.08949927
9554.00   0.71047032   0.08412427
9556.00   1.13531554   0.08007507
9558.00   1.19823545   0.08537643
9560.00   1.05152389   0.09637939
9562.00   0.96476325   0.10153542
9564.00   0.78442389   0.10805524
9566.00   0.71348938   0.10675651
9568.00   0.79567605   0.09437047
9570.00   0.82446617   0.08105735
9572.00   0.64238980   0.07609843
9574.00   0.35110815   0.07569124
9576.00   0.30800247   0.07076189
9578.00   0.48060676   0.06111540
9580.00   0.55391550   0.05639295
9582.00   0.62985572   0.05629562
9584.00   0.66620567   0.05681798
9586.00   0.63236183   0.05749679
9588.00   0.56630634   0.05829883
9590.00   0.55350871   0.05672798
9592.00   0.56618881   0.05168215
9594.00   0.58435485   0.05089933
9596.00   0.61722250   0.05147968
9598.00   0.65598620   0.05533126
9600.00   0.70988983   0.06466064
9602.00   0.75977409   0.07284001
9604.00   0.77980722   0.07337550
9606.00   0.78884903   0.06874489
9608.00   0.73826061   0.06461552
9610.00   0.57545872   0.05530458
9612.00   0.50940756   0.05111530
9614.00   0.56780711   0.05386579
9616.00   0.62846428   0.05855344
9618.00   0.59956521   0.06292288
9620.00   0.52337231   0.06824149
9622.00   0.43042157   0.06775518
9624.00   0.23434927   0.06107441
9626.00   0.18057977   0.05647794
9628.00   0.26961752   0.05194365
9630.00   0.36640927   0.04831945
9632.00   0.40859871   0.04655091
9634.00   0.43548632   0.04635020
9636.00   0.48027523   0.04679317
9638.00   0.55462548   0.04912692
9640.00   0.57864377   0.05013701
9642.00   0.56786902   0.05091973
9644.00   0.54371347   0.05113694
9646.00   0.49805251   0.05027283
9648.00   0.44736274   0.04909245
9650.00   0.44317344   0.04948723
9652.00   0.48882492   0.05118115
9654.00   0.47927779   0.05204243
9656.00   0.42623484   0.05221249
9658.00   0.39049256   0.05324717
9660.00   0.37618950   0.05524596
9662.00   0.36981650   0.05769789
9664.00   0.36029683   0.06049427
9666.00   0.34767674   0.06407239
9668.00   0.36626370   0.06502321
9670.00   0.41411650   0.06336571
9672.00   0.46285014   0.06282943
9674.00   0.53679185   0.06324372
9676.00   0.58822931   0.06374593
9678.00   0.56900862   0.06388189
9680.00   0.50070480   0.06387538
9682.00   0.48969144   0.06387767
9684.00   0.48495065   0.06295665
9686.00   0.53390205   0.06398707
9688.00   0.65967071   0.06624906
9690.00   0.77304518   0.06958562
9692.00   0.83860606   0.07462954
9694.00   0.88061103   0.08019764
9696.00   0.91500825   0.08256263
9698.00   0.96611592   0.08421731
9700.00   0.92702481   0.08215209
9702.00   0.75884640   0.07383726
9704.00   0.65974426   0.06755423
9706.00   0.67403460   0.06558340
9708.00   0.74178731   0.06636765
9710.00   0.82180759   0.06932114
9712.00   1.01682967   0.07511118
9714.00   0.90297318   0.07983221
9716.00   0.41463067   0.08592956
9718.00   0.14193586   0.08961051
9720.00   0.10163677   0.09210772
9722.00   0.16997970   0.09208366
9724.00   0.30955504   0.08640071
9726.00   0.58382073   0.07376582
9728.00   0.56260356   0.06838891
9730.00   0.24567472   0.06638592
9732.00   0.07871139   0.06849542
9734.00   -0.03388898   0.07816061
9736.00   -0.04555249   0.08507473
9738.00   0.12905570   0.08406331
9740.00   0.44308353   0.07833176
9742.00   0.58278781   0.07407901
9744.00   0.69577810   0.06756451
9746.00   0.65560451   0.06331518
9748.00   0.36111270   0.06147191
9750.00   0.16610257   0.05954140
9752.00   0.23212037   0.05653089
9754.00   0.41065079   0.05311373
9756.00   0.44154161   0.04996603
9758.00   0.39955439   0.04637890
9760.00   0.36970575   0.04414327
9762.00   0.30676399   0.04330270
9764.00   0.26676212   0.04278179
9766.00   0.25713503   0.04253315
9768.00   0.26607729   0.04262869
9770.00   0.29206889   0.04288141
9772.00   0.35592678   0.04328428
9774.00   0.34508778   0.04427000
9776.00   0.24370949   0.04496208
9778.00   0.20750158   0.04746107
9780.00   0.25657083   0.04997283
9782.00   0.31259757   0.05527509
9784.00   0.30486260   0.06648090
9786.00   0.25840291   0.08079558
9788.00   0.26480782   0.08589605
9790.00   0.29463006   0.08594266
9792.00   0.34452589   0.08574804
9794.00   0.45841071   0.08424159
9796.00   0.52919060   0.08173614
9798.00   0.47828609   0.07798178
9800.00   0.35454993   0.07300225
9802.00   0.30270645   0.07020657
9804.00   0.23593123   0.06876936
9806.00   0.27332237   0.06810480
9808.00   0.47049239   0.06923206
9810.00   0.58855569   0.06993481
9812.00   0.52160357   0.06971247
9814.00   0.38678381   0.06895241
9816.00   0.39270070   0.06739756
9818.00   0.48265539   0.06355691
9820.00   0.56396721   0.06363951
9822.00   0.75142622   0.06878387
9824.00   0.79428253   0.07013703
9826.00   0.59692836   0.06595568
9828.00   0.35168545   0.05968765
9830.00   0.31110381   0.05597360
9832.00   0.40207763   0.05285229
9834.00   0.41837907   0.05206401
9836.00   0.44833440   0.05292171
9838.00   0.42329951   0.05619082
9840.00   0.30576143   0.06156604
9842.00   0.20051572   0.06820972
9844.00   0.20052376   0.07693315
9846.00   0.26602959   0.08725679
9848.00   0.30430900   0.08817009
9850.00   0.38375652   0.08052411
9852.00   0.38510735   0.07490226
9854.00   0.26999210   0.06728533
9856.00   0.19982406   0.06170865
9858.00   0.25917257   0.06021371
9860.00   0.39230709   0.06263062
9862.00   0.51598394   0.07317673
9864.00   0.78602335   0.09023595
9866.00   0.77682397   0.10364558
9868.00   0.45166761   0.12236033
9870.00   0.25320857   0.13062543
9872.00   0.34055330   0.12470308
9874.00   0.51494759   0.11090450
9876.00   0.47347833   0.10084923
9878.00   0.25834905   0.08772781
9880.00   0.20811410   0.08022923
9882.00   0.24553806   0.07817678
9884.00   0.29088078   0.07831315
9886.00   0.37298726   0.08150335
9888.00   0.43983528   0.08603039
9890.00   0.39677888   0.08983635
9892.00   0.25399696   0.09438457
9894.00   0.24123748   0.09534821
9896.00   0.31081109   0.09367790
9898.00   0.37933311   0.09112433
9900.00   0.49466272   0.08454523
9902.00   0.57367915   0.08019444
9904.00   0.53497867   0.08332591
9906.00   0.41567208   0.09099202
9908.00   0.36497006   0.10348690
9910.00   0.29595998   0.12643402
9912.00   0.32512976   0.13448818
9914.00   0.53187022   0.13439433
9916.00   0.63976398   0.12983010
9918.00   0.48472594   0.11958181
9920.00   0.20529322   0.10370814
9922.00   0.13180253   0.09343815
9924.00   0.21315078   0.08555851
9926.00   0.20054357   0.08047625
9928.00   0.13481914   0.07778334
9930.00   0.10893903   0.08060915
9932.00   0.17866955   0.08895126
9934.00   0.25576178   0.10087142
9936.00   0.17983165   0.11485120
9938.00   -0.03075630   0.13044565
9940.00   -0.15339503   0.14684486
9942.00   -0.31936806   0.17035985
9944.00   -0.34415825   0.18150481
9946.00   -0.15639698   0.17658919
9948.00   0.06471729   0.17104033
9950.00   0.12045552   0.18380126
9952.00   0.07286094   0.20843413
9954.00   0.16481213   0.20874552
9956.00   0.44355504   0.18782868
9958.00   0.50944376   0.17381823
9960.00   0.29735532   0.16419963
9962.00   0.12933000   0.15547074
9964.00   0.25205053   0.14614917
9966.00   0.53362921   0.13705629
9968.00   0.51999345   0.12921540
9970.00   0.19297697   0.12254128
9972.00   0.13478826   0.11711669
9974.00   0.30393177   0.11445264
9976.00   0.41929394   0.11128605
9978.00   0.35755563   0.10562813
9980.00   0.23030204   0.09908860
9982.00   0.22638367   0.09592131
9984.00   0.27926778   0.09502330
9986.00   0.37254869   0.09572233
9988.00   0.58728829   0.09958377
9990.00   0.70697531   0.10253791
9992.00   0.68742946   0.10427402
9994.00   0.60182963   0.10542875
9996.00   0.51325531   0.10506802
9998.00   0.35703982   0.09967701
10000.00   0.34690428   0.11017537
10002.00   0.46206813   0.13213507
10004.00   0.56101301   0.14943422
10006.00   0.69079994   0.16581096
10008.00   0.77909811   0.17910763
10010.00   0.74188512   0.18732648
10012.00   0.61600612   0.19267242
10014.00   0.42133794   0.19130210
10016.00   0.01599094   0.18002236
10018.00   -0.16870046   0.17247419
10020.00   -0.21420032   0.16686954
10022.00   -0.12648474   0.16165430
10024.00   0.16992110   0.15635408
10026.00   0.61741377   0.15124284
10028.00   0.76637259   0.14588556
10030.00   0.70504627   0.14100220
10032.00   0.67031342   0.13462557
10034.00   0.58710851   0.12542540
10036.00   0.48364448   0.11774835
10038.00   0.33290134   0.11337845
10040.00   0.18010079   0.11139108
10042.00   0.18474399   0.11122155
10044.00   0.38029830   0.11531769
10046.00   0.38208021   0.11471332
10048.00   0.20559820   0.10920354
10050.00   0.14478072   0.10708608
10052.00   0.25004433   0.10962806
10054.00   0.41741544   0.11439648
10056.00   0.55034463   0.11984828
10058.00   0.69902200   0.12717781
10060.00   0.80194718   0.13153182
10062.00   0.90192151   0.13573710
10064.00   0.92822942   0.13656267
10066.00   0.87984183   0.13184542
10068.00   0.77813971   0.12737911
10070.00   0.62547775   0.12716891
10072.00   0.41484194   0.12882929
10074.00   0.25359310   0.14201709
10076.00   0.07217167   0.17106697
10078.00   -0.02199674   0.18250852
10080.00   -0.03003929   0.18479626
10082.00   -0.00810460   0.18128030
10084.00   0.03161042   0.17020820
10086.00   0.09253773   0.15190997
10088.00   0.11129354   0.14101055
10090.00   0.06019409   0.13243550
10092.00   0.10989049   0.12876108
10094.00   0.28298742   0.13215567
10096.00   0.38031754   0.13605657
10098.00   0.30132576   0.13988318
10100.00   0.18183945   0.14367057
10102.00   0.28234380   0.14503467
10104.00   0.61050954   0.14552829
10106.00   0.68195400   0.14268801
10108.00   0.56458458   0.13194671
10110.00   0.49706527   0.12809188
10112.00   0.47196864   0.13236133
10114.00   0.48551785   0.14167679
10116.00   0.60146594   0.15442214
10118.00   0.85836607   0.17043115
10120.00   0.77354655   0.18676210
10122.00   0.30609144   0.21258063
10124.00   0.06825431   0.22098868
10126.00   0.01881090   0.21368978
10128.00   0.04349934   0.19969384
10130.00   0.11356520   0.18214894
10132.00   0.24970011   0.15661610
10134.00   0.25175220   0.14389616
10136.00   0.04929512   0.14343247
10138.00   0.09565390   0.14233667
10140.00   0.41806667   0.14425605
10142.00   0.67063506   0.14789912
10144.00   0.72008494   0.15319763
10146.00   0.65676720   0.15962919
10148.00   0.51903753   0.16400399
10150.00   0.13365416   0.16790087
10152.00   0.06286202   0.17029226
10154.00   0.19704071   0.17097058
10156.00   0.37489330   0.17160050
10158.00   0.63422032   0.16989163
10160.00   0.89532176   0.16995756
10162.00   0.94023988   0.18116669
10164.00   0.85912147   0.20105992
10166.00   0.63904148   0.21558286
10168.00   0.07045084   0.23227563
10170.00   -0.21093870   0.24255515
10172.00   -0.19837232   0.24809252
10174.00   0.00271246   0.24848932
10176.00   0.42106126   0.24073930
10178.00   1.14699256   0.22348915
10180.00   1.25753981   0.21380210
10182.00   0.85113445   0.20498250
10184.00   0.57051092   0.20193764
10186.00   0.25977929   0.20765857
10188.00   0.03248607   0.21337823
10190.00   -0.00027367   0.21415110
10192.00   0.10260019   0.21268467
10194.00   0.19879641   0.20931206
10196.00   0.43098516   0.19548027
10198.00   0.49157977   0.19852483
10200.00   0.42324153   0.21626877
10202.00   0.32003735   0.23370500
10204.00   0.14405404   0.24869259
10206.00   -0.03638282   0.26236252
10208.00   0.10698599   0.26954658
10210.00   0.67599073   0.27394592
10212.00   0.82207027   0.27136948
10214.00   0.68832865   0.25959198
10216.00   0.59389460   0.24757591
10218.00   0.56561762   0.23346287
10220.00   0.56701861   0.22090170
10222.00   0.62275571   0.22191949
10224.00   0.75445503   0.23703244
10226.00   0.79100877   0.23787609
10228.00   0.80881238   0.23134473
10230.00   0.73987110   0.22388609
10232.00   0.52484409   0.21357657
10234.00   0.30916715   0.20263557
10236.00   0.22819278   0.19444863
10238.00   0.21931759   0.18781939
10240.00   0.28812392   0.18179268
10242.00   0.52666167   0.17614055
10244.00   0.63564248   0.17310538
10246.00   0.56187938   0.17194718
10248.00   0.58011352   0.17384277
10250.00   0.92285955   0.18120979
10252.00   1.43893233   0.19171996
10254.00   1.50008097   0.19345237
10256.00   1.20740403   0.18543410
10258.00   0.96580634   0.18583478
10260.00   0.55058978   0.19062700
10262.00   0.27005636   0.19717362
10264.00   0.26067658   0.20717558
10266.00   0.37580428   0.21722645
10268.00   0.36347026   0.21703753
10270.00   0.30551408   0.20339424
10272.00   0.26333848   0.20589529
10274.00   0.17335831   0.20971130
10276.00   0.16437694   0.23046449
10278.00   0.22952461   0.26799201
10280.00   0.38203667   0.30995065
10282.00   0.69825009   0.35098516
10284.00   1.23169634   0.40001515
10286.00   1.45073017   0.41361702
10288.00   1.56009990   0.40463301
10290.00   1.45284596   0.38753552
10292.00   0.97056699   0.34955717
10294.00   0.50428320   0.30849376
10296.00   0.38849320   0.29028981
10298.00   0.46967858   0.28806495
10300.00   0.61415292   0.27964589
10302.00   1.01875357   0.27544141
10304.00   1.19510433   0.26664817
10306.00   1.23749295   0.25216129
10308.00   1.16946352   0.23821764
10310.00   0.95721146   0.22852737
10312.00   0.63574114   0.22130658
10314.00   0.43029732   0.21452600
10316.00   0.23289119   0.20616837
10318.00   0.13477111   0.20618603
10320.00   0.15634296   0.21518110
10322.00   0.16825537   0.22335484
10324.00   0.13806009   0.23160586
10326.00   0.10040241   0.23752601
10328.00   0.07713190   0.23052606
10330.00   0.01763395   0.20459233
10332.00   0.10492177   0.19999371
10334.00   0.37010086   0.21104079
10336.00   0.55697976   0.22042057
10338.00   0.65796061   0.22731948
10340.00   0.70840685   0.23519496
10342.00   0.71307737   0.24639766
10344.00   0.66558602   0.26045005
10346.00   0.59335309   0.27050991
10348.00   0.38691640   0.28285280
10350.00   0.35861875   0.28582316
10352.00   0.59213213   0.27751553
10354.00   0.78522794   0.26666705
10356.00   0.65538262   0.25872479
10358.00   0.32448764   0.25081400
10360.00   0.44107951   0.25115067
10362.00   1.07741907   0.25445219
10364.00   1.27410814   0.26867413
10366.00   1.13301277   0.29789080
10368.00   0.96811143   0.32119020
10370.00   0.88495076   0.33405482
10372.00   0.81806125   0.34103209
10374.00   0.79405096   0.33948497
10376.00   0.86513448   0.32344246
10378.00   0.81569195   0.31708633
10380.00   0.62419719   0.31366051
10382.00   0.52942857   0.31257965
10384.00   0.53490779   0.31519977
10386.00   0.65839088   0.31918782
10388.00   1.06798276   0.31930331
10390.00   1.97073644   0.31600152
10392.00   2.03591979   0.31743236
10394.00   1.30254018   0.32921557
10396.00   0.88891548   0.32687540
10398.00   0.86666918   0.30269665
10400.00   0.92630880   0.27315379
10402.00   0.86078613   0.25982561
10404.00   0.78486644   0.25537890
10406.00   0.49998641   0.25833825
10408.00   -0.15261842   0.26934024
10410.00   -0.46976718   0.28666537
10412.00   -0.52413647   0.31620245
10414.00   -0.42541902   0.34012035
10416.00   -0.17812023   0.35141686
10418.00   0.22001591   0.35560106
10420.00   0.47239970   0.34578696
10422.00   0.76658668   0.31246436
10424.00   0.82407382   0.28907798
10426.00   0.58173616   0.26488158
10428.00   0.39215352   0.24721440
10430.00   0.36294705   0.24450386
10432.00   0.41991970   0.25009074
10434.00   0.57540515   0.24346295
10436.00   0.88816190   0.22376479
10438.00   1.12187223   0.22090414
10440.00   1.54250962   0.23147999
10442.00   1.59546626   0.24062935
10444.00   1.07825756   0.24788966
10446.00   0.33949552   0.25397997
10448.00   -0.17072082   0.25725866
10450.00   -0.74623783   0.26043361
10452.00   -0.78426522   0.25309299
10454.00   -0.25962931   0.22845255
10456.00   0.17691933   0.21322616
10458.00   0.61925429   0.20625260
10460.00   0.99666330   0.20879098
10462.00   1.18090302   0.22667943
10464.00   1.22826457   0.25686730
10466.00   1.17414592   0.26786570
10468.00   0.94067479   0.27421273
10470.00   0.73838471   0.26866847
10472.00   0.38872029   0.24072218
10474.00   0.23154368   0.21497894
10476.00   0.53118579   0.21286689
10478.00   1.12513900   0.22449410
10480.00   1.50942993   0.23337467
10482.00   2.10569131   0.25036706
10484.00   2.10166353   0.25702861
10486.00   1.45755544   0.25863862
10488.00   0.87228194   0.25605009
10490.00   0.50954892   0.24754364
10492.00   0.25055503   0.23504700
10494.00   0.15367892   0.22625545
10496.00   0.20967756   0.21609259
10498.00   0.36990557   0.21400389
10500.00   0.76215845   0.22061513
10502.00   1.05919167   0.22642865
10504.00   1.26709661   0.22997865
10506.00   1.38057543   0.23439136
10508.00   1.30616687   0.24381455
10510.00   1.02218510   0.25965413
10512.00   0.90681832   0.25966441
10514.00   0.83444950   0.24247191
10516.00   0.81963047   0.23398245
10518.00   0.94260663   0.23488060
10520.00   1.01745215   0.23816529
10522.00   0.83731985   0.24109796
10524.00   0.47304583   0.24571341
10526.00   0.40152788   0.23910542
10528.00   0.56806734   0.21502019
10530.00   0.63046829   0.20433365
10532.00   0.66911544   0.20655843
10534.00   0.66592306   0.20984124
10536.00   0.59406641   0.20955789
10538.00   0.47342882   0.20838661
10540.00   0.37592062   0.20510883
10542.00   0.22011728   0.19687836
10544.00   0.19382483   0.19434032
10546.00   0.27178521   0.19649249
10548.00   0.37407756   0.19806206
10550.00   0.51286802   0.19786625
10552.00   0.65791631   0.19709057
10554.00   0.69634750   0.19632593
10556.00   0.65670159   0.19488008
10558.00   0.60694060   0.19478115
10560.00   0.48769197   0.19538004
10562.00   0.41154063   0.19675238
10564.00   0.39242847   0.19910178
10566.00   0.39426994   0.20195335
10568.00   0.38442661   0.20479825
10570.00   0.37405400   0.20799604
10572.00   0.38458382   0.21046604
10574.00   0.42940678   0.20756855
10576.00   0.44520256   0.21483616
10578.00   0.46401902   0.23562938
10580.00   0.43324561   0.25346785
10582.00   0.26027764   0.26011929
10584.00   -0.02122261   0.26100356
10586.00   0.02023315   0.25496217
10588.00   0.45963857   0.23079684
10590.00   0.57087668   0.22371201
10592.00   0.44223019   0.23268407
10594.00   0.28176941   0.24150317
10596.00   0.11312631   0.24527789
10598.00   -0.05173579   0.24723342
10600.00   0.05764018   0.24571573
10602.00   0.53028188   0.23831315
10604.00   0.70471348   0.23537378
10606.00   0.76647152   0.23392787
10608.00   0.74592328   0.23391194
10610.00   0.59110197   0.23631874
10612.00   0.39591908   0.23937244
10614.00   0.37433305   0.23936658
10616.00   0.47784463   0.23734113
10618.00   0.52947229   0.23543284
10620.00   0.57934509   0.23157112
10622.00   0.64226244   0.22987005
10624.00   0.70023590   0.23116840
10626.00   0.78949851   0.23320522
10628.00   0.99293119   0.23340111
10630.00   1.33042985   0.23218452
10632.00   1.29652727   0.23602949
10634.00   0.92324880   0.24611710
10636.00   0.63112521   0.25137719
10638.00   0.25226729   0.25421197
10640.00   0.01917549   0.25391989
10642.00   0.13389096   0.24834073
10644.00   0.49068454   0.23830616
10646.00   0.78753203   0.23378509
10648.00   1.33605915   0.23249281
10650.00   1.45497793   0.23120252
10652.00   1.19118249   0.22884955
10654.00   0.87337837   0.23044278
10656.00   0.55814268   0.24126930
10658.00   0.23316678   0.25451414
10660.00   0.11425442   0.25238244
10662.00   0.12834227   0.23592407
10664.00   0.25057467   0.22543160
10666.00   0.59751920   0.21228741
10668.00   0.85848019   0.20346786
10670.00   0.99441856   0.20234403
10672.00   1.06479520   0.20444328
10674.00   1.09822595   0.20331185
10676.00   1.09735098   0.20163877
10678.00   0.98772844   0.19901219
10680.00   0.69092447   0.19469284
10682.00   0.51372579   0.19112934
10684.00   0.42958996   0.18771518
10686.00   0.43598625   0.18538602
10688.00   0.59622040   0.18532592
10690.00   0.91870444   0.18701305
10692.00   0.98229571   0.19041038
10694.00   0.86566946   0.19782772
10696.00   0.76328526   0.20152156
10698.00   0.58233161   0.20393759
10700.00   0.46112003   0.20305555
10702.00   0.54601967   0.19622177
10704.00   0.74188435   0.18461093
10706.00   0.60008113   0.17713782
10708.00   0.04728748   0.16867180
10710.00   -0.14319113   0.16662014
10712.00   -0.15443021   0.17206542
10714.00   -0.05563435   0.17715991
10716.00   0.18351319   0.18158346
10718.00   0.50628928   0.18466573
10720.00   0.70831162   0.17980715
10722.00   0.90861335   0.16506138
10724.00   0.94043258   0.15585541
10726.00   0.78068268   0.14736230
10728.00   0.64219269   0.14069410
10730.00   0.49350062   0.13680226
10732.00   0.39354424   0.13459060
10734.00   0.50502960   0.13208824
10736.00   0.84674028   0.12963524
10738.00   0.88679913   0.13054078
10740.00   0.68947960   0.13536535
10742.00   0.57719271   0.13892027
10744.00   0.50649123   0.14357270
10746.00   0.49027044   0.14552498
10748.00   0.59249892   0.14017924
10750.00   0.80139712   0.12840876
10752.00   0.80548199   0.12149454
10754.00   0.65391636   0.11600084
10756.00   0.52595099   0.11178710
10758.00   0.30052110   0.10872353
10760.00   0.19015373   0.10784879
10762.00   0.35743135   0.11109619
10764.00   0.68111145   0.11652313
10766.00   0.78036119   0.11558675
10768.00   0.77662757   0.10840248
10770.00   0.72288733   0.10461864
10772.00   0.45958327   0.10023228
10774.00   0.37988998   0.09886875
10776.00   0.69595210   0.10380194
10778.00   1.12559932   0.11006658
10780.00   1.12088317   0.10825427
10782.00   0.74257571   0.09918272
10784.00   0.65843901   0.09439132
10786.00   0.72246465   0.09054530
10788.00   0.76066756   0.08756245
10790.00   0.78527540   0.08592313
10792.00   0.78306836   0.08491197
10794.00   0.70188771   0.08332051
10796.00   0.54434317   0.08135842
10798.00   0.45656222   0.08125772
10800.00   0.38060191   0.08440187
10802.00   0.34953310   0.08428242
10804.00   0.37602609   0.08033426
10806.00   0.41893014   0.07579618
10808.00   0.45799619   0.07295106
10810.00   0.50542777   0.07075808
10812.00   0.48915893   0.07066303
10814.00   0.40710959   0.07128637
10816.00   0.34634287   0.07553970
10818.00   0.27386274   0.08502342
10820.00   0.22327762   0.09197195
10822.00   0.19592428   0.09390057
10824.00   0.19773167   0.09343136
10826.00   0.29879658   0.09410716
10828.00   0.62176219   0.09694476
10830.00   0.64564162   0.09385190
10832.00   0.39332393   0.08351517
10834.00   0.23299295   0.07410066
10836.00   0.21093691   0.06642216
10838.00   0.28389062   0.06164127
10840.00   0.51494236   0.06701885
10842.00   1.03206074   0.08374664
10844.00   1.09982139   0.08512762
10846.00   0.78219385   0.07594195
10848.00   0.56961076   0.06834848
10850.00   0.44568637   0.06249807
10852.00   0.37768842   0.05750121
10854.00   0.40096078   0.05423541
10856.00   0.40096078   0.05423541
