# File created by shivutils (I.Shivvers)
# 
# wl(A)   flm    er(optional)
3440.00   0.58987141   0.05551588
3442.00   0.55544776   0.05340509
3444.00   0.51666451   0.05397680
3446.00   0.40728402   0.05267127
3448.00   0.42926332   0.05347967
3450.00   0.47248927   0.05474535
3452.00   0.42975995   0.05656566
3454.00   0.40654767   0.05700601
3456.00   0.43221128   0.05634193
3458.00   0.45656210   0.05666443
3460.00   0.45105743   0.05474096
3462.00   0.39619061   0.05384649
3464.00   0.47698483   0.05450545
3466.00   0.41630393   0.05374154
3468.00   0.44660893   0.05352553
3470.00   0.37321877   0.05281283
3472.00   0.45737830   0.05353327
3474.00   0.39822480   0.05144006
3476.00   0.41976970   0.05210960
3478.00   0.33860612   0.05350887
3480.00   0.39592710   0.05744498
3482.00   0.45638320   0.05840197
3484.00   0.41789865   0.05737805
3486.00   0.45418769   0.05716355
3488.00   0.38532302   0.05343302
3490.00   0.47985291   0.05558973
3492.00   0.40766957   0.05311226
3494.00   0.34281260   0.05098628
3496.00   0.46246868   0.05287081
3498.00   0.41554585   0.05173961
3500.00   0.36930129   0.04980320
3502.00   0.46406305   0.05095138
3504.00   0.45219100   0.05059371
3506.00   0.36122337   0.04892671
3508.00   0.46481571   0.05037924
3510.00   0.36417246   0.04992633
3512.00   0.39366812   0.04946129
3514.00   0.42613935   0.04892330
3516.00   0.38025984   0.04905977
3518.00   0.36958918   0.04806827
3520.00   0.30410606   0.04594064
3522.00   0.29216456   0.04532495
3524.00   0.26191574   0.04442260
3526.00   0.39122570   0.04650154
3528.00   0.48878196   0.04872400
3530.00   0.44358486   0.04795675
3532.00   0.45418632   0.04724501
3534.00   0.46384057   0.04739653
3536.00   0.38394144   0.04627344
3538.00   0.41743970   0.04686092
3540.00   0.40397662   0.04811229
3542.00   0.47392637   0.05123407
3544.00   0.35077733   0.05104385
3546.00   0.29132989   0.04978059
3548.00   0.36114413   0.04966724
3550.00   0.40703282   0.04989121
3552.00   0.30932537   0.04714381
3554.00   0.41474873   0.04990781
3556.00   0.45803463   0.05095511
3558.00   0.43197772   0.04925022
3560.00   0.44388887   0.04886734
3562.00   0.34402391   0.04596872
3564.00   0.38566536   0.04530140
3566.00   0.35252354   0.04441832
3568.00   0.37735620   0.04500134
3570.00   0.34093407   0.04371397
3572.00   0.40706053   0.04513286
3574.00   0.48939699   0.04656778
3576.00   0.42935106   0.04414134
3578.00   0.40856433   0.04312903
3580.00   0.45630863   0.04356698
3582.00   0.45635304   0.04246858
3584.00   0.31969652   0.04001331
3586.00   0.42903486   0.04078674
3588.00   0.41152182   0.04050366
3590.00   0.37759075   0.04113080
3592.00   0.38908505   0.04170159
3594.00   0.42700824   0.04049402
3596.00   0.35353738   0.03941256
3598.00   0.44680730   0.04071688
3600.00   0.37284392   0.03908106
3602.00   0.36438555   0.03840975
3604.00   0.44234613   0.03934239
3606.00   0.34969917   0.03751241
3608.00   0.41538793   0.03789468
3610.00   0.42738646   0.03790713
3612.00   0.48409829   0.03960954
3614.00   0.43174976   0.04068741
3616.00   0.39670590   0.04053971
3618.00   0.46464071   0.04064427
3620.00   0.44856450   0.03905255
3622.00   0.45957333   0.03895585
3624.00   0.40264365   0.03834428
3626.00   0.43267614   0.03877799
3628.00   0.41030693   0.03850577
3630.00   0.42653659   0.03969040
3632.00   0.41833141   0.04042125
3634.00   0.48950681   0.04053083
3636.00   0.50609487   0.04035839
3638.00   0.47784093   0.03954734
3640.00   0.45850384   0.03943757
3642.00   0.43794334   0.03988148
3644.00   0.35724938   0.03986161
3646.00   0.34843260   0.04000611
3648.00   0.43592435   0.04818318
3650.00   0.41040629   0.05713975
3652.00   0.31952044   0.05566247
3654.00   0.47000754   0.05109049
3656.00   0.46045864   0.04799143
3658.00   0.35708442   0.04044131
3660.00   0.41221929   0.03920624
3662.00   0.42026946   0.04310732
3664.00   0.38730714   0.04362778
3666.00   0.43453559   0.03956042
3668.00   0.35016900   0.03404068
3670.00   0.34524810   0.03304761
3672.00   0.43152896   0.03341239
3674.00   0.32233483   0.03158156
3676.00   0.39305842   0.03248729
3678.00   0.43462721   0.03214613
3680.00   0.40090975   0.03124360
3682.00   0.38028654   0.03037809
3684.00   0.49923587   0.03216727
3686.00   0.43630373   0.03121225
3688.00   0.37841973   0.02982889
3690.00   0.41797772   0.03079758
3692.00   0.38088423   0.03038864
3694.00   0.44159371   0.03146873
3696.00   0.41416058   0.03040439
3698.00   0.46227115   0.03172640
3700.00   0.41589311   0.03156001
3702.00   0.36632964   0.03093165
3704.00   0.51764399   0.03288104
3706.00   0.38339645   0.03148168
3708.00   0.40635109   0.03105834
3710.00   0.42468002   0.03061515
3712.00   0.41243649   0.02943311
3714.00   0.45539054   0.03034488
3716.00   0.43149957   0.02977186
3718.00   0.41394806   0.02925080
3720.00   0.44909599   0.02979999
3722.00   0.49594530   0.03023320
3724.00   0.39516324   0.02901254
3726.00   0.43112656   0.02942512
3728.00   0.50425935   0.03074872
3730.00   0.42143211   0.02961577
3732.00   0.44343662   0.03002206
3734.00   0.40467092   0.02940153
3736.00   0.39131248   0.02934599
3738.00   0.43315172   0.03007133
3740.00   0.41538942   0.03020902
3742.00   0.44596088   0.03028203
3744.00   0.42500031   0.02977750
3746.00   0.45921487   0.02951941
3748.00   0.36322859   0.02819826
3750.00   0.40556747   0.02848000
3752.00   0.48761186   0.02960601
3754.00   1.40198362   0.04040243
3756.00   2.89486670   0.05291133
3758.00   3.54066920   0.05699386
3760.00   2.37837625   0.04836311
3762.00   0.72043008   0.03185172
3764.00   0.46662050   0.02815314
3766.00   0.34534022   0.02652054
3768.00   0.41648522   0.02724455
3770.00   0.43051201   0.02736047
3772.00   0.43129838   0.02813281
3774.00   0.42441404   0.02763616
3776.00   0.32329026   0.02590852
3778.00   0.42261797   0.02716934
3780.00   0.37238789   0.02603128
3782.00   0.38766664   0.02632194
3784.00   0.41803628   0.02686946
3786.00   0.44565472   0.02708222
3788.00   0.39107355   0.02648561
3790.00   0.43077326   0.02732141
3792.00   0.41657037   0.02728415
3794.00   0.42839900   0.02725336
3796.00   0.46067840   0.02694692
3798.00   0.40564403   0.02623724
3800.00   0.37491268   0.02528988
3802.00   0.42793211   0.02642775
3804.00   0.34463730   0.02540833
3806.00   0.38077897   0.02577076
3808.00   0.43110457   0.02599478
3810.00   0.41316098   0.02586455
3812.00   0.46277544   0.02655130
3814.00   0.44217557   0.02668013
3816.00   0.43734422   0.02673640
3818.00   0.44753814   0.02644879
3820.00   0.41449019   0.02604683
3822.00   0.36148125   0.02524319
3824.00   0.36271808   0.02524487
3826.00   0.39074573   0.02578309
3828.00   0.34947935   0.02599323
3830.00   0.33721441   0.02683179
3832.00   0.35825759   0.02687019
3834.00   0.46221018   0.02758120
3836.00   0.45985791   0.02712522
3838.00   0.42258033   0.02665496
3840.00   0.42284387   0.02652895
3842.00   0.44839358   0.02670374
3844.00   0.41943330   0.02699472
3846.00   0.47045714   0.02646578
3848.00   0.49736980   0.02635809
3850.00   0.44511265   0.02544809
3852.00   0.42788368   0.02532331
3854.00   0.46510485   0.02554182
3856.00   0.41651008   0.02473010
3858.00   0.37689453   0.02381983
3860.00   0.41113764   0.02413681
3862.00   0.37609279   0.02442396
3864.00   0.39850706   0.02429675
3866.00   0.41123354   0.02415314
3868.00   0.44349489   0.02445020
3870.00   0.35664272   0.02292419
3872.00   0.45108953   0.02432011
3874.00   0.44826207   0.02531647
3876.00   0.50930154   0.02600460
3878.00   0.48000413   0.02496496
3880.00   0.51558691   0.02484572
3882.00   0.49896577   0.02446702
3884.00   0.47475380   0.02400898
3886.00   0.52832550   0.02497211
3888.00   0.47043043   0.02419080
3890.00   0.45825315   0.02397221
3892.00   0.46385232   0.02374447
3894.00   0.51785523   0.02484934
3896.00   0.53877044   0.02519509
3898.00   0.72390646   0.02713190
3900.00   0.88504082   0.02867881
3902.00   0.65052897   0.02644744
3904.00   0.50303799   0.02564475
3906.00   0.48855376   0.02756686
3908.00   0.49120361   0.02910293
3910.00   0.47027364   0.02928757
3912.00   0.47035649   0.02917614
3914.00   0.41490576   0.02778322
3916.00   0.47087213   0.02622572
3918.00   0.53881103   0.02595589
3920.00   0.66201514   0.02686946
3922.00   0.48838079   0.02439786
3924.00   0.43106383   0.02339824
3926.00   0.45380676   0.02346633
3928.00   0.49575508   0.02358313
3930.00   0.48832706   0.02345697
3932.00   0.46087494   0.02402955
3934.00   0.52290279   0.02498573
3936.00   0.50272202   0.02390351
3938.00   0.54726094   0.02397463
3940.00   0.50998461   0.02344078
3942.00   0.48406616   0.02441144
3944.00   0.52636099   0.02541145
3946.00   0.56388271   0.02549886
3948.00   0.57422572   0.02462376
3950.00   0.52102453   0.02396770
3952.00   0.51783079   0.02362894
3954.00   0.52352852   0.02344968
3956.00   0.49812639   0.02299798
3958.00   0.48503712   0.02286570
3960.00   0.50064158   0.02408326
3962.00   0.43244886   0.02374930
3964.00   0.36446515   0.02178265
3966.00   0.39686054   0.02131585
3968.00   0.43458602   0.02198469
3970.00   0.49029356   0.02208722
3972.00   0.49529582   0.02219176
3974.00   0.51963365   0.02290255
3976.00   0.51154763   0.02256156
3978.00   0.50078845   0.02238465
3980.00   0.52897328   0.02285030
3982.00   0.47712466   0.02228058
3984.00   0.46908265   0.02193462
3986.00   0.49041554   0.02212093
3988.00   0.49703500   0.02242793
3990.00   0.52887952   0.02291353
3992.00   0.50290889   0.02250952
3994.00   0.46564689   0.02221248
3996.00   0.45119482   0.02295773
3998.00   0.52174169   0.02391672
4000.00   0.58145392   0.02375929
4002.00   0.65210760   0.02378149
4004.00   0.50721097   0.02214473
4006.00   0.47792777   0.02191872
4008.00   0.54556412   0.02318769
4010.00   0.54553533   0.02355567
4012.00   0.55490047   0.02340830
4014.00   0.60022676   0.02380104
4016.00   0.57233185   0.02317217
4018.00   0.65643972   0.02551110
4020.00   0.70262372   0.02798813
4022.00   0.63536227   0.02855207
4024.00   0.61047399   0.02803003
4026.00   0.64485729   0.02693408
4028.00   0.66884387   0.02554320
4030.00   0.63863760   0.02505400
4032.00   0.62993622   0.02501525
4034.00   0.67909378   0.02495107
4036.00   0.67372411   0.02478542
4038.00   0.69261408   0.02486617
4040.00   0.68694669   0.02458660
4042.00   0.67183095   0.02505744
4044.00   0.67589378   0.03255524
4046.00   0.64306813   0.04435495
4048.00   0.64473283   0.04395054
4050.00   0.61880767   0.03140516
4052.00   0.60517079   0.02576091
4054.00   0.64619952   0.02586487
4056.00   0.65054315   0.02580325
4058.00   0.64914465   0.02455118
4060.00   0.63721794   0.02378529
4062.00   0.59769815   0.02364372
4064.00   0.62197506   0.02374542
4066.00   0.59179282   0.02361557
4068.00   0.62381613   0.02342486
4070.00   0.61280352   0.02314461
4072.00   0.64434195   0.02308578
4074.00   0.58900166   0.02266771
4076.00   0.59260184   0.02522892
4078.00   0.61023790   0.02694691
4080.00   0.63805211   0.02616979
4082.00   0.60029393   0.02471461
4084.00   0.62100101   0.02444109
4086.00   0.62106103   0.02408568
4088.00   0.62238103   0.02355565
4090.00   0.62626493   0.02258727
4092.00   0.58383226   0.02178229
4094.00   0.55589533   0.02148004
4096.00   0.59242374   0.02171662
4098.00   0.63186967   0.02197745
4100.00   0.63985670   0.02212349
4102.00   0.60496068   0.02137448
4104.00   0.63983458   0.02137213
4106.00   0.59308738   0.02096345
4108.00   0.66397297   0.02171458
4110.00   0.61243820   0.02131504
4112.00   0.64893532   0.02159587
4114.00   0.62651503   0.02153156
4116.00   0.61366045   0.02128906
4118.00   0.60674441   0.02091392
4120.00   0.63264638   0.02093451
4122.00   0.63194293   0.02099713
4124.00   0.64795876   0.02123942
4126.00   0.64558923   0.02126022
4128.00   0.66016620   0.02138756
4130.00   0.55334181   0.02051819
4132.00   0.68420064   0.02246339
4134.00   0.88952672   0.02434095
4136.00   0.72044897   0.02234140
4138.00   0.64378101   0.02162554
4140.00   0.62007213   0.02177279
4142.00   0.65528321   0.02188797
4144.00   0.66446817   0.02123552
4146.00   0.65606773   0.02088238
4148.00   0.63946766   0.02080201
4150.00   0.66947770   0.02159894
4152.00   0.65465963   0.02209060
4154.00   0.71060669   0.02240142
4156.00   0.66099203   0.02135674
4158.00   0.69282079   0.02141718
4160.00   0.67353570   0.02140551
4162.00   0.67387140   0.02167668
4164.00   0.66918695   0.02265544
4166.00   0.66229188   0.02296915
4168.00   0.66624123   0.02182353
4170.00   0.65926057   0.02125592
4172.00   0.69167310   0.02120021
4174.00   0.66018647   0.02065537
4176.00   0.66131544   0.02061036
4178.00   0.65908933   0.02087296
4180.00   0.68005151   0.02107835
4182.00   0.64373374   0.02024877
4184.00   0.64632994   0.02018212
4186.00   0.66125226   0.02022224
4188.00   0.66158521   0.02030850
4190.00   0.64521873   0.02013506
4192.00   0.63466489   0.01988340
4194.00   0.60010487   0.01977874
4196.00   0.59821230   0.01945319
4198.00   0.61929536   0.01940896
4200.00   0.62416869   0.01940268
4202.00   0.59993649   0.01925309
4204.00   0.57233077   0.01908580
4206.00   0.61495644   0.01961467
4208.00   0.63664597   0.01994688
4210.00   0.58462250   0.01976676
4212.00   0.53962159   0.01929284
4214.00   0.55686396   0.01927284
4216.00   0.54375756   0.01898505
4218.00   0.56160277   0.01906240
4220.00   0.57402581   0.01919855
4222.00   0.57257700   0.01907959
4224.00   0.60573065   0.01937577
4226.00   0.60646898   0.01920740
4228.00   0.62354338   0.01934317
4230.00   0.59393656   0.01942520
4232.00   0.60648102   0.01977306
4234.00   0.62780643   0.01986224
4236.00   0.62011951   0.02001074
4238.00   0.65475076   0.02055477
4240.00   0.63857144   0.01997215
4242.00   0.64542639   0.01938827
4244.00   0.63357288   0.02021197
4246.00   0.68930411   0.02282913
4248.00   0.64160913   0.02265913
4250.00   0.61565632   0.02034482
4252.00   0.65512455   0.01969954
4254.00   0.67710799   0.01979661
4256.00   0.65873426   0.01980110
4258.00   0.64341927   0.01968720
4260.00   0.60823321   0.01923404
4262.00   0.65499812   0.01948631
4264.00   0.66300631   0.01919988
4266.00   0.62706572   0.01906619
4268.00   0.63526803   0.01910254
4270.00   0.63460463   0.01920651
4272.00   0.63719851   0.01920946
4274.00   0.61807513   0.01895404
4276.00   0.60759598   0.01896597
4278.00   0.63090897   0.01921299
4280.00   0.59623659   0.01890719
4282.00   0.59785396   0.01905411
4284.00   0.60925364   0.01916078
4286.00   0.61233622   0.01899348
4288.00   0.63449585   0.01891597
4290.00   0.64099556   0.01883091
4292.00   0.65577161   0.01910156
4294.00   0.57805896   0.01857222
4296.00   0.62557650   0.01897257
4298.00   0.63751203   0.01900129
4300.00   0.60993153   0.01858435
4302.00   0.60976452   0.01850190
4304.00   0.63530624   0.01880200
4306.00   0.61727929   0.01889747
4308.00   0.61532813   0.01875124
4310.00   0.60648012   0.01887048
4312.00   0.62006187   0.01992565
4314.00   0.61837655   0.02090084
4316.00   0.57723200   0.01991467
4318.00   0.56717873   0.01932064
4320.00   0.56071377   0.01972008
4322.00   0.55551726   0.01982826
4324.00   0.51705885   0.01922089
4326.00   0.58976442   0.01952082
4328.00   0.53762412   0.01851559
4330.00   0.54192495   0.01812704
4332.00   0.53559124   0.01791242
4334.00   0.54073608   0.01812590
4336.00   0.52850920   0.01817621
4338.00   0.51515502   0.01847911
4340.00   0.53148496   0.01869319
4342.00   0.56558806   0.01893247
4344.00   0.52211547   0.01887564
4346.00   0.57558793   0.02024190
4348.00   0.56364042   0.02054437
4350.00   0.56796163   0.01997083
4352.00   0.54550385   0.01930574
4354.00   0.56994379   0.02067013
4356.00   0.60590827   0.03474671
4358.00   0.62408787   0.04587400
4360.00   0.37703729   0.04142969
4362.00   0.42856061   0.02669822
4364.00   0.50183046   0.02086494
4366.00   0.51640916   0.01991672
4368.00   0.51183492   0.01937965
4370.00   0.48598105   0.01904503
4372.00   0.68668509   0.02068710
4374.00   1.09680414   0.02417031
4376.00   0.98693162   0.02308769
4378.00   0.55206168   0.01919209
4380.00   0.44067535   0.01795284
4382.00   0.51454020   0.01827974
4384.00   0.50603580   0.01816840
4386.00   0.46160981   0.01759954
4388.00   0.44952789   0.01752776
4390.00   0.48239854   0.01792615
4392.00   0.47777835   0.01787554
4394.00   0.50319147   0.01795312
4396.00   0.48433298   0.01776445
4398.00   0.54954207   0.01875638
4400.00   0.50477958   0.01889173
4402.00   0.49246591   0.01862868
4404.00   0.51334435   0.01818778
4406.00   0.43884605   0.01759523
4408.00   0.44890144   0.01768816
4410.00   0.45900932   0.01783190
4412.00   0.50981486   0.01825875
4414.00   0.53121763   0.01879784
4416.00   0.50052118   0.01875442
4418.00   0.46986237   0.01809180
4420.00   0.45886970   0.01783445
4422.00   0.49184608   0.01790131
4424.00   0.50650972   0.01792018
4426.00   0.49015817   0.01778816
4428.00   0.52328062   0.01788109
4430.00   0.51646346   0.01779430
4432.00   0.53445840   0.01800158
4434.00   0.58287877   0.01829947
4436.00   0.56386888   0.01804538
4438.00   0.58397001   0.01828328
4440.00   0.57707191   0.01820999
4442.00   0.55680871   0.01808177
4444.00   0.54128081   0.01788413
4446.00   0.62460792   0.01849844
4448.00   0.61888212   0.01831532
4450.00   0.58916682   0.01801817
4452.00   0.59550035   0.01795823
4454.00   0.64122486   0.01827793
4456.00   0.63206863   0.01824082
4458.00   0.62459379   0.01818880
4460.00   0.62621540   0.01825028
4462.00   0.62301123   0.01821707
4464.00   0.63944894   0.01824459
4466.00   0.65192670   0.01832339
4468.00   0.62216663   0.01790701
4470.00   0.67046565   0.01847853
4472.00   0.67559928   0.01835747
4474.00   0.64269483   0.01812740
4476.00   0.66274923   0.01822795
4478.00   0.60604119   0.01781294
4480.00   0.65708166   0.01811264
4482.00   0.70548201   0.01846492
4484.00   0.67849040   0.01829671
4486.00   0.67443359   0.01832671
4488.00   0.64156973   0.01806625
4490.00   0.65817666   0.01819970
4492.00   0.67640120   0.01846657
4494.00   0.64908862   0.01842523
4496.00   0.67189723   0.01848277
4498.00   0.64553094   0.01833803
4500.00   0.68188125   0.01849863
4502.00   0.62933630   0.01786411
4504.00   0.68311840   0.01828338
4506.00   0.71572614   0.01851005
4508.00   0.70976692   0.01834233
4510.00   0.62966889   0.01769899
4512.00   0.71033692   0.01825732
4514.00   0.68853813   0.01810385
4516.00   0.61560524   0.01757200
4518.00   0.65344816   0.01779493
4520.00   0.64014894   0.01757214
4522.00   0.67355418   0.01782831
4524.00   0.59832549   0.01717601
4526.00   0.65291363   0.01746058
4528.00   0.62635219   0.01724038
4530.00   0.65213722   0.01759103
4532.00   0.66600430   0.01774802
4534.00   0.66141492   0.01763032
4536.00   0.64716142   0.01741396
4538.00   0.65902686   0.01740539
4540.00   0.67446178   0.01753942
4542.00   0.63522828   0.01750051
4544.00   0.63521266   0.01769779
4546.00   0.65001893   0.01759437
4548.00   0.64206111   0.01731548
4550.00   0.65929586   0.01732276
4552.00   0.63602310   0.01710245
4554.00   0.64066339   0.01710662
4556.00   0.64145482   0.01714441
4558.00   0.63856721   0.01716572
4560.00   0.63137084   0.01698491
4562.00   0.65531230   0.01699840
4564.00   0.68868273   0.01716877
4566.00   0.65236771   0.01684389
4568.00   0.66009754   0.01694886
4570.00   0.64678860   0.01677108
4572.00   0.62853360   0.01680181
4574.00   0.64575469   0.01707149
4576.00   0.67690647   0.01715863
4578.00   0.68533176   0.01707565
4580.00   0.67852426   0.01700067
4582.00   0.67352104   0.01681454
4584.00   0.68430537   0.01682120
4586.00   0.68293124   0.01680166
4588.00   0.70133930   0.01703641
4590.00   0.67240095   0.01672387
4592.00   0.67129451   0.01681979
4594.00   0.65689433   0.01671826
4596.00   0.68491960   0.01698904
4598.00   0.67978632   0.01677391
4600.00   0.66123760   0.01659284
4602.00   0.68140280   0.01672653
4604.00   0.64296287   0.01654587
4606.00   0.67599505   0.01665104
4608.00   0.67355824   0.01668176
4610.00   0.65595126   0.01674936
4612.00   0.64243364   0.01648276
4614.00   0.63707095   0.01623949
4616.00   0.62001902   0.01606761
4618.00   0.62630594   0.01602441
4620.00   0.61415452   0.01604305
4622.00   0.62837803   0.01607811
4624.00   0.62424636   0.01602323
4626.00   0.58900779   0.01578871
4628.00   0.61125499   0.01599292
4630.00   0.59295481   0.01585155
4632.00   0.58397579   0.01587144
4634.00   0.57053959   0.01561646
4636.00   0.54315203   0.01538820
4638.00   0.53082091   0.01532528
4640.00   0.54287243   0.01557046
4642.00   0.56247109   0.01562146
4644.00   0.57378268   0.01563065
4646.00   0.57457650   0.01560938
4648.00   0.56232494   0.01547144
4650.00   0.54264414   0.01546214
4652.00   0.56585264   0.01571147
4654.00   0.55450881   0.01574283
4656.00   0.55166358   0.01588297
4658.00   0.57376456   0.01606320
4660.00   0.55593759   0.01625454
4662.00   0.55194443   0.01639051
4664.00   0.55672324   0.01661452
4666.00   0.56984776   0.01703321
4668.00   0.57900977   0.01737145
4670.00   0.55127162   0.01732232
4672.00   0.55666178   0.01728522
4674.00   0.58162802   0.01706570
4676.00   0.55700177   0.01668525
4678.00   0.57121700   0.01649846
4680.00   0.57247287   0.01632312
4682.00   0.56464821   0.01620204
4684.00   0.58520633   0.01606299
4686.00   0.58367819   0.01598046
4688.00   0.56589514   0.01580799
4690.00   0.57884073   0.01582494
4692.00   0.57903785   0.01578961
4694.00   0.57306218   0.01573007
4696.00   0.59705538   0.01573778
4698.00   0.56425357   0.01537318
4700.00   0.57239538   0.01530581
4702.00   0.54199225   0.01519126
4704.00   0.51632595   0.01515559
4706.00   0.51657659   0.01524442
4708.00   0.52342439   0.01551141
4710.00   0.49804786   0.01524000
4712.00   0.52579457   0.01535481
4714.00   0.54455954   0.01541417
4716.00   0.50487542   0.01486515
4718.00   0.50127047   0.01481115
4720.00   0.49775669   0.01462299
4722.00   0.50631917   0.01481673
4724.00   0.50506026   0.01475822
4726.00   0.50866848   0.01500723
4728.00   0.50064844   0.01579722
4730.00   0.51649231   0.01610569
4732.00   0.54735732   0.01614457
4734.00   0.55301678   0.01633364
4736.00   0.55424774   0.01670119
4738.00   0.54630750   0.01689187
4740.00   0.61947101   0.01766285
4742.00   0.62231100   0.01820663
4744.00   0.58302057   0.01763064
4746.00   0.56444156   0.01640836
4748.00   0.62461877   0.01591230
4750.00   0.65844119   0.01615196
4752.00   0.62443292   0.01622051
4754.00   0.65171534   0.01634092
4756.00   0.65081829   0.01575451
4758.00   0.66529250   0.01549420
4760.00   0.62125719   0.01503284
4762.00   0.64668012   0.01517796
4764.00   0.64693326   0.01508296
4766.00   0.63673872   0.01496129
4768.00   0.65782166   0.01504647
4770.00   0.67096132   0.01515611
4772.00   0.68946779   0.01518740
4774.00   0.66527265   0.01507105
4776.00   0.71350926   0.01561456
4778.00   0.69385862   0.01588906
4780.00   0.67092395   0.01576965
4782.00   0.68646419   0.01553245
4784.00   0.70829147   0.01539203
4786.00   0.68433106   0.01521127
4788.00   0.68203807   0.01518224
4790.00   0.70765728   0.01538586
4792.00   0.69837451   0.01541206
4794.00   0.66511232   0.01499203
4796.00   0.68078339   0.01502724
4798.00   0.66794437   0.01485328
4800.00   0.67099828   0.01486675
4802.00   0.66838145   0.01484251
4804.00   0.64631855   0.01471371
4806.00   0.64610678   0.01475302
4808.00   0.65808219   0.01484571
4810.00   0.61444795   0.01449158
4812.00   0.65098226   0.01482496
4814.00   0.62917000   0.01471907
4816.00   0.63813066   0.01477681
4818.00   0.65957969   0.01495873
4820.00   0.62065756   0.01473004
4822.00   0.60786355   0.01466495
4824.00   0.59991395   0.01470116
4826.00   0.63889879   0.01506063
4828.00   0.57811701   0.01463329
4830.00   0.56582266   0.01456273
4832.00   0.59185964   0.01474285
4834.00   0.56897211   0.01463583
4836.00   0.59732205   0.01474648
4838.00   0.59982431   0.01498158
4840.00   0.56915277   0.01509834
4842.00   0.56191891   0.01486920
4844.00   0.57262975   0.01444802
4846.00   0.57106870   0.01454469
4848.00   0.57221156   0.01460021
4850.00   0.56087500   0.01448215
4852.00   0.55517817   0.01448434
4854.00   0.56312317   0.01442678
4856.00   0.53956634   0.01420894
4858.00   0.56268239   0.01425193
4860.00   0.57165301   0.01434036
4862.00   0.58523142   0.01459518
4864.00   0.56053716   0.01441456
4866.00   0.58111387   0.01452215
4868.00   0.55999726   0.01431182
4870.00   0.56142962   0.01432021
4872.00   0.55732858   0.01428047
4874.00   0.56178242   0.01434040
4876.00   0.58282077   0.01449703
4878.00   0.55570692   0.01445778
4880.00   0.55973756   0.01450240
4882.00   0.56809378   0.01441114
4884.00   0.55921406   0.01425834
4886.00   0.52427411   0.01391647
4888.00   0.53665072   0.01398548
4890.00   0.53552926   0.01399987
4892.00   0.52903640   0.01400131
4894.00   0.47629628   0.01361219
4896.00   0.59288865   0.01433824
4898.00   1.34712923   0.02003956
4900.00   1.69953740   0.02520579
4902.00   1.10241830   0.01834043
4904.00   0.66347569   0.01473478
4906.00   0.52227294   0.01374107
4908.00   0.50037563   0.01367837
4910.00   0.49545130   0.01376451
4912.00   0.52779365   0.01393125
4914.00   0.52714121   0.01393617
4916.00   0.51793510   0.01389524
4918.00   0.51856279   0.01381493
4920.00   0.55530727   0.01409577
4922.00   0.53960472   0.01395826
4924.00   0.50529319   0.01366897
4926.00   0.49813884   0.01350675
4928.00   0.50959909   0.01338587
4930.00   0.52670270   0.01345051
4932.00   0.54039448   0.01367962
4934.00   0.54818851   0.01381067
4936.00   0.54885507   0.01383549
4938.00   0.51574397   0.01360925
4940.00   0.53952491   0.01388078
4942.00   0.55432522   0.01386615
4944.00   0.55333459   0.01373231
4946.00   0.57133079   0.01379301
4948.00   0.52768356   0.01351015
4950.00   0.54610407   0.01356878
4952.00   0.53761458   0.01386566
4954.00   0.55681610   0.01420387
4956.00   0.53781080   0.01394704
4958.00   0.57120121   0.01391640
4960.00   0.56784755   0.01392196
4962.00   0.57078719   0.01406480
4964.00   0.57143879   0.01413124
4966.00   0.54321665   0.01407980
4968.00   0.59367657   0.01454790
4970.00   0.57912904   0.01466678
4972.00   0.60006672   0.01521534
4974.00   0.62786263   0.01579687
4976.00   0.59910989   0.01605542
4978.00   0.60399771   0.01680479
4980.00   0.63279927   0.01763178
4982.00   0.60474467   0.01790670
4984.00   0.61158043   0.01786599
4986.00   0.63226002   0.01750121
4988.00   0.63461828   0.01694007
4990.00   0.64445996   0.01648876
4992.00   0.66476864   0.01616226
4994.00   0.70460683   0.01606074
4996.00   1.32586789   0.01910085
4998.00   1.55637491   0.03189246
5000.00   1.30672669   0.02111568
5002.00   0.92937428   0.01637187
5004.00   0.71550322   0.01493749
5006.00   0.69131362   0.01464135
5008.00   0.63753903   0.01415538
5010.00   0.65563238   0.01420185
5012.00   0.69276935   0.01444436
5014.00   0.69704926   0.01444744
5016.00   0.71850538   0.01465789
5018.00   0.72101694   0.01482027
5020.00   0.67327094   0.01456503
5022.00   0.72939265   0.01481661
5024.00   0.72264844   0.01460616
5026.00   0.72340715   0.01450984
5028.00   0.75094110   0.01479527
5030.00   0.72869706   0.01484920
5032.00   0.70012891   0.01463520
5034.00   0.70783329   0.01452386
5036.00   0.73589152   0.01458765
5038.00   0.72514206   0.01446722
5040.00   0.72462201   0.01471759
5042.00   0.81909961   0.01710049
5044.00   2.22856927   0.02692904
5046.00   3.04240251   0.06191516
5048.00   2.73795915   0.03716002
5050.00   1.59090471   0.01951398
5052.00   0.98704422   0.01624848
5054.00   0.79628450   0.01494352
5056.00   0.75067979   0.01461267
5058.00   0.72082406   0.01445528
5060.00   0.74790645   0.01463224
5062.00   0.72244686   0.01473750
5064.00   0.74321413   0.01513055
5066.00   0.72702736   0.01520361
5068.00   0.75153077   0.01560518
5070.00   0.75049168   0.01580908
5072.00   0.75600564   0.01550988
5074.00   0.73768276   0.01518007
5076.00   0.73231721   0.01502886
5078.00   0.76565689   0.01540751
5080.00   0.73866242   0.01612400
5082.00   0.76975501   0.01744820
5084.00   0.72915173   0.01797868
5086.00   0.72631115   0.01801968
5088.00   0.71729505   0.01718652
5090.00   0.74631000   0.01634479
5092.00   0.72175092   0.01533127
5094.00   0.73158741   0.01510292
5096.00   0.74509752   0.01552027
5098.00   0.70444041   0.01565314
5100.00   0.71745098   0.01586041
5102.00   0.72227484   0.01555784
5104.00   0.71527833   0.01500836
5106.00   0.75123686   0.01498650
5108.00   0.70068997   0.01462064
5110.00   0.70430505   0.01468052
5112.00   0.70924437   0.01479275
5114.00   0.72626603   0.01501671
5116.00   0.71140754   0.01507310
5118.00   0.69428074   0.01481933
5120.00   0.66393834   0.01438744
5122.00   0.67323565   0.01433747
5124.00   0.67016846   0.01428005
5126.00   0.68848532   0.01444674
5128.00   0.67779136   0.01436656
5130.00   0.66862577   0.01440813
5132.00   0.69474834   0.01462597
5134.00   0.68259329   0.01461778
5136.00   0.66707057   0.01464112
5138.00   0.66948998   0.01456215
5140.00   0.67897379   0.01458420
5142.00   0.65887034   0.01445240
5144.00   0.65566176   0.01452343
5146.00   0.66350871   0.01474622
5148.00   0.64610052   0.01497513
5150.00   0.66844708   0.01548262
5152.00   0.63184685   0.01564540
5154.00   0.66610473   0.01610946
5156.00   0.64057589   0.01572598
5158.00   0.62719607   0.01523378
5160.00   0.64356917   0.01492460
5162.00   0.65147507   0.01479648
5164.00   0.66071612   0.01471401
5166.00   0.60684949   0.01425599
5168.00   0.61600411   0.01420063
5170.00   0.63782591   0.01436772
5172.00   0.63525397   0.01437694
5174.00   0.62065738   0.01428562
5176.00   0.63934207   0.01453356
5178.00   0.63562381   0.01463107
5180.00   0.64025766   0.01452646
5182.00   0.63833845   0.01444094
5184.00   0.60621828   0.01422681
5186.00   0.64676994   0.01465883
5188.00   0.64481890   0.01476219
5190.00   0.63136488   0.01470852
5192.00   0.62621146   0.01468789
5194.00   0.67648143   0.01504964
5196.00   0.65520597   0.01498851
5198.00   0.61729467   0.01492146
5200.00   0.66290259   0.01534014
5202.00   0.65446550   0.01519526
5204.00   0.66141188   0.01517763
5206.00   0.63196731   0.01489237
5208.00   0.61760443   0.01497096
5210.00   0.60796666   0.01512274
5212.00   0.64484286   0.01535853
5214.00   0.63325602   0.01502579
5216.00   0.63245988   0.01504098
5218.00   0.63524544   0.01525560
5220.00   0.63330388   0.01537831
5222.00   0.65009999   0.01548247
5224.00   0.62665969   0.01521103
5226.00   0.59240079   0.01480977
5228.00   0.62679464   0.01502638
5230.00   0.59637415   0.01487435
5232.00   0.59287292   0.01498238
5234.00   0.63302529   0.01521446
5236.00   0.62245387   0.01523401
5238.00   0.64665037   0.01566617
5240.00   0.62693012   0.01551915
5242.00   0.65961838   0.01562143
5244.00   0.61887097   0.01513833
5246.00   0.60596758   0.01501868
5248.00   0.60719246   0.01511839
5250.00   0.60440379   0.01515074
5252.00   0.61590207   0.01531672
5254.00   0.60323250   0.01542682
5256.00   0.61862773   0.01582546
5258.00   0.63814068   0.01612232
5260.00   0.64699709   0.01600135
5262.00   0.64905548   0.01586403
5264.00   0.66100901   0.01580863
5266.00   0.61434096   0.01547113
5268.00   0.58645272   0.01517560
5270.00   0.61523789   0.01556269
5272.00   0.61140269   0.01562317
5274.00   0.60495347   0.01575866
5276.00   0.62955630   0.01601213
5278.00   0.61149728   0.01585395
5280.00   0.63252795   0.01603261
5282.00   0.63966829   0.01605492
5284.00   0.58306980   0.01575683
5286.00   0.60956788   0.01620988
5288.00   0.60973704   0.01610220
5290.00   0.60899574   0.01620640
5292.00   0.60439807   0.01640054
5294.00   0.62296194   0.01619833
5296.00   0.61224824   0.01615361
5298.00   0.63596106   0.01644810
5300.00   0.62971783   0.01647495
5302.00   0.61957896   0.01646117
5304.00   0.58310235   0.01611451
5306.00   0.61236376   0.01636575
5308.00   0.59922910   0.01622008
5310.00   0.58855981   0.01627545
5312.00   0.60318536   0.01648680
5314.00   0.61447865   0.01653039
5316.00   0.60428739   0.01649119
5318.00   0.61325479   0.01658986
5320.00   0.61766464   0.01668283
5322.00   0.63723415   0.01684555
5324.00   0.62987971   0.01689186
5326.00   0.61996084   0.01688001
5328.00   0.62004918   0.01695239
5330.00   0.64057690   0.01726264
5332.00   0.60441279   0.01709496
5334.00   0.58862036   0.01691660
5336.00   0.65651149   0.01751453
5338.00   0.65171355   0.01762490
5340.00   0.63448912   0.01767247
5342.00   0.61033368   0.01773865
5344.00   0.62591088   0.01782995
5346.00   0.57762492   0.01753748
5348.00   0.64846396   0.01848278
5350.00   0.65530455   0.01884353
5352.00   0.65703130   0.01872963
5354.00   0.64863807   0.01893870
5356.00   0.65436846   0.01911251
5358.00   0.61107504   0.01852119
5360.00   0.63642210   0.01832373
5362.00   0.64109129   0.01811837
5364.00   0.62449068   0.01782368
5366.00   0.63984132   0.01802040
5368.00   0.63644356   0.01815008
5370.00   0.64085495   0.01817532
5372.00   0.61527497   0.01815475
5374.00   0.63776559   0.01870119
5376.00   0.64617640   0.01905399
5378.00   0.62948257   0.01880900
5380.00   0.65953338   0.01890671
5382.00   0.62768173   0.01871715
5384.00   0.64924383   0.01894072
5386.00   0.62504226   0.01874181
5388.00   0.59832835   0.01871795
5390.00   0.63470757   0.01945281
5392.00   0.67242599   0.02009846
5394.00   0.63988173   0.01983999
5396.00   0.64053994   0.01966990
5398.00   0.70091677   0.02019062
5400.00   0.65498841   0.01989171
5402.00   0.59125710   0.01937968
5404.00   0.66607881   0.02022314
5406.00   0.62588042   0.02011017
5408.00   0.66512144   0.02051086
5410.00   0.65516657   0.02073683
5412.00   0.69172972   0.02136511
5414.00   0.64875770   0.02150375
5416.00   0.66111201   0.02190816
5418.00   0.61164707   0.02181983
5420.00   0.66216946   0.02240238
5422.00   0.62749124   0.02217382
5424.00   0.65783888   0.02235845
5426.00   0.69381082   0.02261029
5428.00   0.64462912   0.02222150
5430.00   0.69895273   0.02269062
5432.00   0.70013660   0.02284101
5434.00   0.66360432   0.02254152
5436.00   0.70119727   0.02287110
5438.00   0.69376463   0.02296735
5440.00   0.65278649   0.02267294
5442.00   0.66468716   0.02295714
5444.00   0.62617993   0.02287145
5446.00   0.63746250   0.02317471
5448.00   0.68016231   0.02357301
5450.00   0.69088984   0.02364990
5452.00   0.63070560   0.02316291
5454.00   0.65449852   0.01082296
5456.00   0.64804721   0.01189365
5458.00   0.62725735   0.01345856
5460.00   0.62358552   0.01354374
5462.00   0.63090050   0.01220413
5464.00   0.64042473   0.01092043
5466.00   0.65344226   0.01009770
5468.00   0.66676021   0.00944959
5470.00   0.66935921   0.00893182
5472.00   0.66264552   0.00866851
5474.00   0.66023904   0.00836887
5476.00   0.65670878   0.00812030
5478.00   0.65563810   0.00796147
5480.00   0.65788001   0.00792406
5482.00   0.66124845   0.00795172
5484.00   0.66334045   0.00799222
5486.00   0.66482550   0.00808942
5488.00   0.66886288   0.00806657
5490.00   0.67878520   0.00795780
5492.00   0.68094075   0.00783401
5494.00   0.67176479   0.00764251
5496.00   0.66498286   0.00747614
5498.00   0.67207670   0.00739382
5500.00   0.68732488   0.00736821
5502.00   0.68782067   0.00748645
5504.00   0.67267019   0.00761072
5506.00   0.67087364   0.00806706
5508.00   0.67920989   0.00910503
5510.00   0.68734562   0.00968913
5512.00   0.69487172   0.00944650
5514.00   0.70033622   0.00876010
5516.00   0.68886214   0.00844503
5518.00   0.64965934   0.00821768
5520.00   0.64311177   0.00806322
5522.00   0.66002673   0.00801725
5524.00   0.67517525   0.00801218
5526.00   0.68789285   0.00808583
5528.00   0.69798136   0.00816493
5530.00   0.69683093   0.00809296
5532.00   0.68227094   0.00790384
5534.00   0.68431312   0.00773949
5536.00   0.70036262   0.00749676
5538.00   0.70979112   0.00734519
5540.00   0.71271014   0.00731866
5542.00   0.71290064   0.00732337
5544.00   0.71186727   0.00724198
5546.00   0.70851552   0.00708891
5548.00   0.70737416   0.00728347
5550.00   0.70796752   0.00800585
5552.00   0.70703071   0.00816726
5554.00   0.70327240   0.00778890
5556.00   0.70139343   0.00736605
5558.00   0.70517123   0.00717670
5560.00   0.71225864   0.00708530
5562.00   0.71387023   0.00712595
5564.00   0.71015662   0.00717965
5566.00   0.71096009   0.00759199
5568.00   0.70745283   0.00817032
5570.00   0.71626055   0.00901960
5572.00   0.75240237   0.01032244
5574.00   0.79676169   0.01163046
5576.00   0.80107963   0.01215804
5578.00   0.77403426   0.01237116
5580.00   0.75483495   0.01206051
5582.00   0.72399282   0.01083981
5584.00   0.70337075   0.00978879
5586.00   0.69574088   0.00911382
5588.00   0.69537830   0.00858278
5590.00   0.69880134   0.00801257
5592.00   0.71002173   0.00745554
5594.00   0.71312743   0.00714691
5596.00   0.71278989   0.00719095
5598.00   0.71027702   0.00715067
5600.00   0.70412397   0.00704849
5602.00   0.69731510   0.00695358
5604.00   0.69242489   0.00690345
5606.00   0.68821818   0.00688436
5608.00   0.68468511   0.00683958
5610.00   0.67954654   0.00676475
5612.00   0.68016779   0.00673511
5614.00   0.68862617   0.00675372
5616.00   0.69562334   0.00677295
5618.00   0.69763190   0.00677634
5620.00   0.69655186   0.00677234
5622.00   0.68948710   0.00674094
5624.00   0.67030728   0.00666498
5626.00   0.66328645   0.00662545
5628.00   0.66272086   0.00659626
5630.00   0.66479480   0.00658513
5632.00   0.67108184   0.00660331
5634.00   0.67850351   0.00663345
5636.00   0.67789507   0.00663726
5638.00   0.67129517   0.00662678
5640.00   0.66564220   0.00661539
5642.00   0.65501428   0.00658594
5644.00   0.65054500   0.00657666
5646.00   0.65458995   0.00658957
5648.00   0.66127867   0.00661705
5650.00   0.66531742   0.00665039
5652.00   0.66999221   0.00668516
5654.00   0.66774201   0.00678225
5656.00   0.65676981   0.00699970
5658.00   0.65032393   0.00708632
5660.00   0.64707303   0.00702052
5662.00   0.64539623   0.00695245
5664.00   0.64539081   0.00698145
5666.00   0.64710605   0.00705754
5668.00   0.64527774   0.00715039
5670.00   0.63969141   0.00726455
5672.00   0.63698381   0.00741380
5674.00   0.63491994   0.00758306
5676.00   0.63517469   0.00779531
5678.00   0.63947600   0.00804714
5680.00   0.64606643   0.00833967
5682.00   0.64947021   0.00871237
5684.00   0.65586072   0.00922919
5686.00   0.65019858   0.00956288
5688.00   0.62981951   0.00997199
5690.00   0.61487663   0.01004131
5692.00   0.60756177   0.00958160
5694.00   0.60546398   0.00886156
5696.00   0.61120933   0.00839027
5698.00   0.62968546   0.00796439
5700.00   0.63057184   0.00765865
5702.00   0.61631507   0.00741690
5704.00   0.60806203   0.00739626
5706.00   0.60694432   0.00780245
5708.00   0.60686296   0.00814707
5710.00   0.60341561   0.00789358
5712.00   0.59848082   0.00713370
5714.00   0.59320199   0.00710420
5716.00   0.59011734   0.00788902
5718.00   0.57999861   0.00795268
5720.00   0.55764937   0.00714759
5722.00   0.53985381   0.00646517
5724.00   0.54080993   0.00679391
5726.00   0.55218244   0.00761794
5728.00   0.54015356   0.00786335
5730.00   0.50723094   0.00803929
5732.00   0.48452881   0.00781699
5734.00   0.46084243   0.00692595
5736.00   0.44419816   0.00614660
5738.00   0.44023892   0.00591512
5740.00   0.44251448   0.00596725
5742.00   0.43566427   0.00591990
5744.00   0.42226690   0.00583749
5746.00   0.41505122   0.00604058
5748.00   0.40813982   0.00648881
5750.00   0.40734446   0.00693810
5752.00   0.41596624   0.00750281
5754.00   0.42773411   0.00795644
5756.00   0.43319026   0.00789751
5758.00   0.43415469   0.00729805
5760.00   0.44314349   0.00735651
5762.00   0.46450183   0.00795252
5764.00   0.47282529   0.00825871
5766.00   0.46797109   0.00839756
5768.00   0.45673594   0.00836349
5770.00   0.44132051   0.00802479
5772.00   0.41942108   0.00736278
5774.00   0.41052613   0.00702938
5776.00   0.40859577   0.00687227
5778.00   0.41198498   0.00676338
5780.00   0.42405152   0.00675992
5782.00   0.43719548   0.00679923
5784.00   0.45013729   0.00684575
5786.00   0.46277392   0.00692058
5788.00   0.46085021   0.00704055
5790.00   0.43763542   0.00727902
5792.00   0.43303597   0.00735843
5794.00   0.43656427   0.00734377
5796.00   0.44567028   0.00728499
5798.00   0.46239597   0.00719188
5800.00   0.48313487   0.00705297
5802.00   0.49700442   0.00681671
5804.00   0.50322419   0.00608744
5806.00   0.52362806   0.00661504
5808.00   0.56314945   0.00852863
5810.00   0.58767021   0.00926807
5812.00   0.59343779   0.00873353
5814.00   0.59048665   0.00779009
5816.00   0.58490968   0.00748554
5818.00   0.57008386   0.00748414
5820.00   0.57485306   0.00732722
5822.00   0.59717238   0.00715726
5824.00   0.61445642   0.00699034
5826.00   0.62932795   0.00677673
5828.00   0.64326888   0.00662679
5830.00   0.65624738   0.00665713
5832.00   0.66827273   0.00681782
5834.00   0.67957532   0.00687953
5836.00   0.68959051   0.00682474
5838.00   0.69990295   0.00696949
5840.00   0.71337068   0.00725637
5842.00   0.72162879   0.00760997
5844.00   0.71479142   0.00811646
5846.00   0.70280576   0.00863618
5848.00   0.72239202   0.00860606
5850.00   0.78340137   0.00793776
5852.00   0.80325669   0.00768113
5854.00   0.79571956   0.00754334
5856.00   0.79103696   0.00751363
5858.00   0.79498208   0.00757079
5860.00   0.80026346   0.00774976
5862.00   0.80116850   0.00815286
5864.00   0.79673785   0.00891235
5866.00   0.80290049   0.00901411
5868.00   0.82282633   0.00840343
5870.00   0.83222598   0.00824249
5872.00   0.82277822   0.00881261
5874.00   0.81587398   0.00934014
5876.00   0.83691931   0.00906570
5878.00   0.88036340   0.00807772
5880.00   0.89212888   0.00843670
5882.00   0.87876809   0.00931606
5884.00   0.87566572   0.01084520
5886.00   0.88163561   0.01328074
5888.00   0.88469088   0.01516379
5890.00   0.87886053   0.01610482
5892.00   0.86730170   0.01657216
5894.00   0.84888327   0.01639629
5896.00   0.81437409   0.01533902
5898.00   0.79563624   0.01428627
5900.00   0.77967083   0.01268089
5902.00   0.77923036   0.01110238
5904.00   0.80555612   0.00982294
5906.00   0.84577835   0.00878475
5908.00   0.86495733   0.00822299
5910.00   0.87003797   0.00842974
5912.00   0.88476622   0.00846819
5914.00   0.90572089   0.00858029
5916.00   0.92220068   0.00887816
5918.00   0.93577296   0.00953384
5920.00   0.94324696   0.01015751
5922.00   0.93541676   0.01023540
5924.00   0.91150242   0.00997758
5926.00   0.89745897   0.00953451
5928.00   0.88697070   0.00842205
5930.00   0.87424344   0.00776946
5932.00   0.85657758   0.00779748
5934.00   0.84133381   0.00799175
5936.00   0.83589721   0.00795633
5938.00   0.83761281   0.00786900
5940.00   0.83572972   0.00782569
5942.00   0.83158576   0.00777040
5944.00   0.83241069   0.00778071
5946.00   0.83971572   0.00792792
5948.00   0.84609360   0.00799300
5950.00   0.84758633   0.00780134
5952.00   0.84658110   0.00746338
5954.00   0.84576207   0.00744680
5956.00   0.84427279   0.00770976
5958.00   0.84177762   0.00784292
5960.00   0.83808178   0.00805455
5962.00   0.83397186   0.00809246
5964.00   0.82843834   0.00779021
5966.00   0.82317120   0.00734430
5968.00   0.82334661   0.00725881
5970.00   0.82896185   0.00745872
5972.00   0.83157629   0.00749391
5974.00   0.83836204   0.00755106
5976.00   0.83594382   0.00748945
5978.00   0.81736463   0.00718308
5980.00   0.79716587   0.00686965
5982.00   0.79472136   0.00694304
5984.00   0.80491173   0.00732877
5986.00   0.80644971   0.00738802
5988.00   0.80658543   0.00727921
5990.00   0.80409324   0.00716293
5992.00   0.79791927   0.00697701
5994.00   0.79089212   0.00680858
5996.00   0.78484541   0.00675719
5998.00   0.77878416   0.00678347
6000.00   0.77511990   0.00674234
6002.00   0.77590102   0.00667030
6004.00   0.77180284   0.00660760
6006.00   0.76176012   0.00654216
6008.00   0.75394988   0.00648156
6010.00   0.75334376   0.00643146
6012.00   0.75595766   0.00638770
6014.00   0.75174636   0.00633957
6016.00   0.73996639   0.00628238
6018.00   0.73589277   0.00624591
6020.00   0.73935276   0.00622937
6022.00   0.73822469   0.00621134
6024.00   0.72861505   0.00613082
6026.00   0.71584380   0.00608883
6028.00   0.70667940   0.00633301
6030.00   0.69597292   0.00693252
6032.00   0.69546556   0.00697419
6034.00   0.70912743   0.00655508
6036.00   0.71433580   0.00624938
6038.00   0.70958263   0.00607363
6040.00   0.70095962   0.00595424
6042.00   0.69171572   0.00587620
6044.00   0.67878306   0.00585000
6046.00   0.67620397   0.00587103
6048.00   0.68739122   0.00583959
6050.00   0.68721414   0.00607030
6052.00   0.67216116   0.00669079
6054.00   0.66065699   0.00717205
6056.00   0.66656601   0.00726067
6058.00   0.68269408   0.00712482
6060.00   0.68619567   0.00685468
6062.00   0.68558514   0.00614360
6064.00   0.67894679   0.00578222
6066.00   0.65912908   0.00568082
6068.00   0.64628893   0.00566369
6070.00   0.65080827   0.00571353
6072.00   0.66297823   0.00581793
6074.00   0.66299975   0.00579406
6076.00   0.65178448   0.00564040
6078.00   0.65365952   0.00561618
6080.00   0.66894180   0.00566226
6082.00   0.67594206   0.00572785
6084.00   0.66907698   0.00585006
6086.00   0.65768218   0.00595584
6088.00   0.65290499   0.00589458
6090.00   0.65075576   0.00566337
6092.00   0.64819986   0.00559636
6094.00   0.64445323   0.00560372
6096.00   0.64477915   0.00564827
6098.00   0.65055400   0.00573187
6100.00   0.65764070   0.00585446
6102.00   0.66384155   0.00602380
6104.00   0.67138571   0.00624155
6106.00   0.66570306   0.00638698
6108.00   0.64322805   0.00639419
6110.00   0.63078743   0.00661204
6112.00   0.62203288   0.00721337
6114.00   0.61983490   0.00754208
6116.00   0.63056362   0.00719848
6118.00   0.64960599   0.00639556
6120.00   0.64897209   0.00603325
6122.00   0.62649781   0.00590870
6124.00   0.62259293   0.00576784
6126.00   0.63307357   0.00571155
6128.00   0.63928628   0.00567450
6130.00   0.63509625   0.00563887
6132.00   0.62657911   0.00561987
6134.00   0.62062252   0.00562301
6136.00   0.61090231   0.00566464
6138.00   0.61265117   0.00566859
6140.00   0.62808275   0.00561975
6142.00   0.63730758   0.00562937
6144.00   0.63721025   0.00571727
6146.00   0.63449562   0.00583831
6148.00   0.63574409   0.00596302
6150.00   0.63922572   0.00613477
6152.00   0.63820165   0.00614613
6154.00   0.63135290   0.00596643
6156.00   0.62937355   0.00589693
6158.00   0.63374805   0.00597063
6160.00   0.63794231   0.00602936
6162.00   0.63664889   0.00595150
6164.00   0.63214529   0.00578646
6166.00   0.63049477   0.00566963
6168.00   0.62899578   0.00551466
6170.00   0.62973952   0.00545344
6172.00   0.63503116   0.00548879
6174.00   0.63781172   0.00554648
6176.00   0.63429022   0.00562238
6178.00   0.62713003   0.00570652
6180.00   0.62098885   0.00565396
6182.00   0.61164242   0.00543691
6184.00   0.60772389   0.00531648
6186.00   0.60973734   0.00520965
6188.00   0.60923350   0.00513863
6190.00   0.60284138   0.00511584
6192.00   0.59512031   0.00512650
6194.00   0.59340918   0.00514559
6196.00   0.59602422   0.00519584
6198.00   0.59745580   0.00521667
6200.00   0.60099310   0.00523603
6202.00   0.60195494   0.00522731
6204.00   0.59877038   0.00512777
6206.00   0.59519982   0.00506882
6208.00   0.59541601   0.00524817
6210.00   0.59794182   0.00562276
6212.00   0.59998298   0.00571472
6214.00   0.60547656   0.00565700
6216.00   0.60496587   0.00555293
6218.00   0.59649354   0.00531669
6220.00   0.58826470   0.00509625
6222.00   0.58467734   0.00501114
6224.00   0.58340949   0.00500898
6226.00   0.59022540   0.00509661
6228.00   0.61223078   0.00534892
6230.00   0.61955154   0.00549097
6232.00   0.61761516   0.00561218
6234.00   0.61134911   0.00566649
6236.00   0.59975076   0.00561581
6238.00   0.58496845   0.00549838
6240.00   0.57961172   0.00542594
6242.00   0.58258581   0.00534537
6244.00   0.58074987   0.00530094
6246.00   0.57758033   0.00526146
6248.00   0.57437092   0.00528024
6250.00   0.57074124   0.00540850
6252.00   0.56745660   0.00555194
6254.00   0.56683010   0.00555244
6256.00   0.57012689   0.00543398
6258.00   0.56582540   0.00541332
6260.00   0.55189627   0.00525901
6262.00   0.54533362   0.00546397
6264.00   0.54981440   0.00629044
6266.00   0.55414313   0.00691532
6268.00   0.54750717   0.00666058
6270.00   0.53377807   0.00567394
6272.00   0.52440882   0.00542370
6274.00   0.51118904   0.00559945
6276.00   0.50813144   0.00581481
6278.00   0.52120477   0.00635760
6280.00   0.52932113   0.00664628
6282.00   0.51836497   0.00627293
6284.00   0.49657872   0.00542237
6286.00   0.48309770   0.00511828
6288.00   0.46870366   0.00516070
6290.00   0.46164560   0.00520686
6292.00   0.46429598   0.00539464
6294.00   0.46433252   0.00558987
6296.00   0.45839012   0.00576766
6298.00   0.44914326   0.00594230
6300.00   0.43702501   0.00608642
6302.00   0.41919056   0.00627776
6304.00   0.40640986   0.00625548
6306.00   0.38888878   0.00579587
6308.00   0.38544583   0.00576261
6310.00   0.40818313   0.00656784
6312.00   0.43357056   0.00730244
6314.00   0.42483225   0.00692837
6316.00   0.38515043   0.00519927
6318.00   0.38927522   0.00562809
6320.00   0.44195592   0.00816787
6322.00   0.45565835   0.00878741
6324.00   0.42282209   0.00759103
6326.00   0.38425487   0.00594979
6328.00   0.36969090   0.00565697
6330.00   0.36538380   0.00617576
6332.00   0.36336285   0.00610196
6334.00   0.37186503   0.00585791
6336.00   0.37300941   0.00558505
6338.00   0.36645499   0.00504564
6340.00   0.36270607   0.00471583
6342.00   0.36659855   0.00498198
6344.00   0.37511933   0.00555697
6346.00   0.38603538   0.00589969
6348.00   0.39533761   0.00580529
6350.00   0.41928935   0.00664701
6352.00   0.47885928   0.00858816
6354.00   0.50336862   0.00940761
6356.00   0.46106419   0.00866922
6358.00   0.39364988   0.00710867
6360.00   0.37314752   0.00640896
6362.00   0.37824681   0.00609453
6364.00   0.37882721   0.00598070
6366.00   0.39144453   0.00644274
6368.00   0.39471629   0.00660713
6370.00   0.38458547   0.00642378
6372.00   0.37118492   0.00609783
6374.00   0.36217093   0.00566913
6376.00   0.35002971   0.00482138
6378.00   0.36630270   0.00545986
6380.00   0.42791632   0.00779360
6382.00   0.45039135   0.00829730
6384.00   0.42492273   0.00693029
6386.00   0.40206388   0.00541355
6388.00   0.42059422   0.00613247
6390.00   0.46218684   0.00782819
6392.00   0.47066739   0.00763190
6394.00   0.45179689   0.00545033
6396.00   0.44987267   0.00436195
6398.00   0.45431012   0.00446152
6400.00   0.46522087   0.00467750
6402.00   0.48845553   0.00464291
6404.00   0.51714224   0.00459780
6406.00   0.52242440   0.00453125
6408.00   0.49981758   0.00438710
6410.00   0.50362402   0.00437753
6412.00   0.52741975   0.00447574
6414.00   0.54373527   0.00458006
6416.00   0.54463941   0.00467746
6418.00   0.54196185   0.00478293
6420.00   0.55184889   0.00491211
6422.00   0.57355392   0.00512772
6424.00   0.57818884   0.00507290
6426.00   0.56678885   0.00470019
6428.00   0.56331503   0.00445516
6430.00   0.56965244   0.00434786
6432.00   0.57777315   0.00432778
6434.00   0.58203000   0.00438898
6436.00   0.58552068   0.00453677
6438.00   0.58279586   0.00471139
6440.00   0.56552130   0.00506656
6442.00   0.56571853   0.00515502
6444.00   0.58788657   0.00488435
6446.00   0.60712051   0.00469159
6448.00   0.60745609   0.00494073
6450.00   0.59774047   0.00539835
6452.00   0.59472483   0.00547304
6454.00   0.58793586   0.00528757
6456.00   0.59265131   0.00517065
6458.00   0.61060876   0.00493497
6460.00   0.62648505   0.00484458
6462.00   0.63614529   0.00508083
6464.00   0.64253396   0.00542820
6466.00   0.64483160   0.00546447
6468.00   0.64119267   0.00522039
6470.00   0.64005607   0.00523327
6472.00   0.63780355   0.00549075
6474.00   0.63749230   0.00555709
6476.00   0.64097798   0.00527191
6478.00   0.64477330   0.00492293
6480.00   0.64327890   0.00500270
6482.00   0.63687485   0.00542670
6484.00   0.63691032   0.00548000
6486.00   0.64079565   0.00535827
6488.00   0.64543337   0.00517813
6490.00   0.65451115   0.00472738
6492.00   0.66051900   0.00441045
6494.00   0.65546566   0.00473214
6496.00   0.64239544   0.00543019
6498.00   0.63200194   0.00599055
6500.00   0.61525369   0.00697658
6502.00   0.60961723   0.00709521
6504.00   0.61992896   0.00624975
6506.00   0.62499940   0.00533747
6508.00   0.61097980   0.00507597
6510.00   0.58728755   0.00514199
6512.00   0.57893294   0.00498019
6514.00   0.58384275   0.00465748
6516.00   0.57887542   0.00459985
6518.00   0.56721115   0.00487261
6520.00   0.55814165   0.00498169
6522.00   0.55487937   0.00473598
6524.00   0.55374944   0.00435467
6526.00   0.54946023   0.00430091
6528.00   0.54285312   0.00450406
6530.00   0.53914434   0.00455337
6532.00   0.53835475   0.00457408
6534.00   0.53573918   0.00457278
6536.00   0.52995634   0.00451441
6538.00   0.52401543   0.00446844
6540.00   0.52092892   0.00453525
6542.00   0.51880002   0.00467646
6544.00   0.52191162   0.00483535
6546.00   0.53432333   0.00511010
6548.00   0.53917879   0.00523693
6550.00   0.53623217   0.00521692
6552.00   0.53162557   0.00515696
6554.00   0.52835315   0.00511026
6556.00   0.52472889   0.00504628
6558.00   0.52696908   0.00507985
6560.00   0.53716189   0.00530222
6562.00   0.54158020   0.00528294
6564.00   0.54296356   0.00502565
6566.00   0.54243743   0.00476123
6568.00   0.53919160   0.00458263
6570.00   0.53431702   0.00444348
6572.00   0.53379375   0.00439074
6574.00   0.53536630   0.00447972
6576.00   0.53927577   0.00447101
6578.00   0.54880983   0.00437575
6580.00   0.55457729   0.00436076
6582.00   0.55357671   0.00447750
6584.00   0.55008972   0.00464820
6586.00   0.54941463   0.00479303
6588.00   0.54689556   0.00500526
6590.00   0.55492800   0.00498397
6592.00   0.57441580   0.00469921
6594.00   0.59115845   0.00450805
6596.00   0.60433680   0.00436345
6598.00   0.61773425   0.00433900
6600.00   0.61791843   0.00447724
6602.00   0.58902478   0.00464555
6604.00   0.72929913   0.00566456
6606.00   1.02002931   0.00682043
6608.00   1.31526387   0.00847417
6610.00   1.72979999   0.01082799
6612.00   2.04652238   0.01255137
6614.00   2.11341000   0.01342284
6616.00   2.01121926   0.01384320
6618.00   1.83934379   0.01307899
6620.00   1.46774101   0.01004982
6622.00   1.21179557   0.00794851
6624.00   0.96592772   0.00614570
6626.00   0.79652089   0.00468998
6628.00   0.74479091   0.00426549
6630.00   0.76887304   0.00478695
6632.00   0.77703148   0.00479012
6634.00   0.82531863   0.00480590
6636.00   0.83078003   0.00488760
6638.00   0.80796099   0.00503778
6640.00   0.78669071   0.00519192
6642.00   0.76586872   0.00541706
6644.00   0.74843669   0.00558347
6646.00   0.74833238   0.00542894
6648.00   0.76597148   0.00487313
6650.00   0.76696789   0.00485757
6652.00   0.75697947   0.00520922
6654.00   0.75184196   0.00555593
6656.00   0.75386429   0.00587388
6658.00   0.75435174   0.00628269
6660.00   0.74377507   0.00693785
6662.00   0.72444642   0.00777341
6664.00   0.72392577   0.00793167
6666.00   0.73506403   0.00766783
6668.00   0.75128520   0.00722364
6670.00   0.78774905   0.00594370
6672.00   0.80990762   0.00505028
6674.00   0.79041529   0.00602946
6676.00   0.74758536   0.00766489
6678.00   0.74401051   0.00785550
6680.00   0.77314997   0.00695575
6682.00   0.78227419   0.00671999
6684.00   0.78636557   0.00662861
6686.00   0.78458261   0.00683926
6688.00   0.76908880   0.00767262
6690.00   0.75171256   0.00852094
6692.00   0.76620537   0.00820508
6694.00   0.81715000   0.00652004
6696.00   0.83077908   0.00580304
6698.00   0.82115781   0.00568640
6700.00   0.81299096   0.00561965
6702.00   0.80549175   0.00566182
6704.00   0.79913515   0.00572601
6706.00   0.79969293   0.00556195
6708.00   0.80669618   0.00520330
6710.00   0.80689919   0.00504200
6712.00   0.79981470   0.00491914
6714.00   0.80007553   0.00497083
6716.00   0.81164074   0.00519134
6718.00   0.82085907   0.00552544
6720.00   0.81557947   0.00601955
6722.00   0.80089146   0.00663763
6724.00   0.79724568   0.00670570
6726.00   0.79866612   0.00631170
6728.00   0.80197203   0.00598278
6730.00   0.81354642   0.00548295
6732.00   0.81884050   0.00506515
6734.00   0.80835295   0.00492825
6736.00   0.78963488   0.00497103
6738.00   0.78242111   0.00497216
6740.00   0.78175038   0.00504311
6742.00   0.77999556   0.00507660
6744.00   0.78120351   0.00513511
6746.00   0.78040010   0.00513369
6748.00   0.77605164   0.00503916
6750.00   0.77018768   0.00489410
6752.00   0.76511806   0.00475910
6754.00   0.75791770   0.00454710
6756.00   0.75805432   0.00454813
6758.00   0.75591856   0.00471760
6760.00   0.77129018   0.00491897
6762.00   0.81228244   0.00516044
6764.00   0.85949582   0.00542636
6766.00   0.89471823   0.00572348
6768.00   0.92934632   0.00609309
6770.00   0.93502921   0.00611811
6772.00   0.90882128   0.00584810
6774.00   0.88898838   0.00557015
6776.00   0.86628062   0.00509735
6778.00   0.84790182   0.00472025
6780.00   0.84184796   0.00478546
6782.00   0.84404224   0.00513076
6784.00   0.83991420   0.00516599
6786.00   0.84073871   0.00504730
6788.00   0.82602191   0.00494865
6790.00   0.79395276   0.00479163
6792.00   0.76275170   0.00466183
6794.00   0.73685813   0.00460484
6796.00   0.71406800   0.00458640
6798.00   0.70131499   0.00454768
6800.00   0.70082730   0.00451188
6802.00   0.69465762   0.00447428
6804.00   0.68744230   0.00443840
6806.00   0.68131238   0.00439822
6808.00   0.67637956   0.00433744
6810.00   0.67254394   0.00428494
6812.00   0.67022192   0.00429765
6814.00   0.66938519   0.00436992
6816.00   0.66927516   0.00440689
6818.00   0.67292982   0.00436636
6820.00   0.67190200   0.00446654
6822.00   0.66561919   0.00472497
6824.00   0.65705401   0.00502521
6826.00   0.64768678   0.00532240
6828.00   0.63617820   0.00566264
6830.00   0.63016367   0.00571456
6832.00   0.62838709   0.00551785
6834.00   0.62676662   0.00532584
6836.00   0.62575459   0.00498649
6838.00   0.62616205   0.00473126
6840.00   0.62912583   0.00479101
6842.00   0.63383150   0.00502944
6844.00   0.63492495   0.00500214
6846.00   0.63388354   0.00478668
6848.00   0.63209820   0.00464185
6850.00   0.62765968   0.00434549
6852.00   0.62470156   0.00430575
6854.00   0.62478304   0.00475041
6856.00   0.62631023   0.00534312
6858.00   0.62724096   0.00560941
6860.00   0.63104582   0.00572828
6862.00   0.62671232   0.00585675
6864.00   0.61497176   0.00595706
6866.00   0.60341656   0.00601220
6868.00   0.59128100   0.00607326
6870.00   0.57988214   0.00604392
6872.00   0.57269520   0.00573229
6874.00   0.56847912   0.00506574
6876.00   0.56583804   0.00471347
6878.00   0.56844842   0.00452944
6880.00   0.56639665   0.00442393
6882.00   0.55959725   0.00446600
6884.00   0.55107594   0.00454248
6886.00   0.54218209   0.00452442
6888.00   0.53201252   0.00445885
6890.00   0.52544874   0.00463673
6892.00   0.52456874   0.00518449
6894.00   0.51731771   0.00530248
6896.00   0.49950901   0.00467657
6898.00   0.48848659   0.00458595
6900.00   0.49745360   0.00594978
6902.00   0.51592010   0.00756300
6904.00   0.50978023   0.00782523
6906.00   0.48215550   0.00724674
6908.00   0.46422029   0.00670151
6910.00   0.44243985   0.00546140
6912.00   0.42887563   0.00444241
6914.00   0.42920598   0.00432647
6916.00   0.43561471   0.00465218
6918.00   0.43489796   0.00462869
6920.00   0.43356490   0.00447583
6922.00   0.42552859   0.00459762
6924.00   0.40679252   0.00507374
6926.00   0.39469755   0.00524805
6928.00   0.39018551   0.00501087
6930.00   0.38956645   0.00469291
6932.00   0.39108485   0.00469254
6934.00   0.39631230   0.00487283
6936.00   0.39892101   0.00500442
6938.00   0.39880902   0.00528366
6940.00   0.40271777   0.00532117
6942.00   0.41071230   0.00496357
6944.00   0.42015672   0.00470852
6946.00   0.43058622   0.00506504
6948.00   0.44236386   0.00572966
6950.00   0.44708529   0.00577156
6952.00   0.44342655   0.00526248
6954.00   0.44523627   0.00507686
6956.00   0.44906959   0.00506504
6958.00   0.45515329   0.00510744
6960.00   0.46472913   0.00516096
6962.00   0.47634995   0.00525705
6964.00   0.48468745   0.00543625
6966.00   0.49418262   0.00585694
6968.00   0.49581471   0.00585309
6970.00   0.48662582   0.00544177
6972.00   0.48257792   0.00512397
6974.00   0.48719883   0.00495125
6976.00   0.49524066   0.00491906
6978.00   0.50146914   0.00521903
6980.00   0.50865126   0.00596123
6982.00   0.51339561   0.00593581
6984.00   0.51211584   0.00511161
6986.00   0.51878035   0.00467853
6988.00   0.53687710   0.00485019
6990.00   0.55631810   0.00513531
6992.00   0.56805682   0.00520256
6994.00   0.57622737   0.00522358
6996.00   0.58057469   0.00504753
6998.00   0.57781881   0.00446769
7000.00   0.57862389   0.00420614
7002.00   0.58000273   0.00429090
7004.00   0.58447653   0.00442984
7006.00   0.59491044   0.00449494
7008.00   0.60955751   0.00455518
7010.00   0.62042934   0.00453807
7012.00   0.62970543   0.00430412
7014.00   0.63948333   0.00439954
7016.00   0.65034264   0.00481415
7018.00   0.65923125   0.00512914
7020.00   0.66595393   0.00528429
7022.00   0.67023158   0.00534300
7024.00   0.66884965   0.00523749
7026.00   0.65766603   0.00487307
7028.00   0.65803909   0.00468219
7030.00   0.66689938   0.00455088
7032.00   0.67442858   0.00445403
7034.00   0.68024123   0.00437042
7036.00   0.68510783   0.00434662
7038.00   0.68778783   0.00446621
7040.00   0.68756658   0.00473786
7042.00   0.69188809   0.00484094
7044.00   0.69972843   0.00489222
7046.00   0.70696700   0.00486780
7048.00   0.71497750   0.00459426
7050.00   0.72173703   0.00445883
7052.00   0.72480774   0.00494058
7054.00   0.72510344   0.00577216
7056.00   0.72664475   0.00590880
7058.00   0.72765505   0.00552137
7060.00   0.72949433   0.00534434
7062.00   0.73306108   0.00526230
7064.00   0.73536068   0.00519658
7066.00   0.73422635   0.00513073
7068.00   0.73124379   0.00507181
7070.00   0.73132086   0.00497045
7072.00   0.73305434   0.00477749
7074.00   0.73523068   0.00471034
7076.00   0.73936391   0.00467655
7078.00   0.74225706   0.00476888
7080.00   0.74351335   0.00507483
7082.00   0.74331355   0.00543157
7084.00   0.74047828   0.00556137
7086.00   0.73390383   0.00561339
7088.00   0.73048717   0.00547534
7090.00   0.73068815   0.00492377
7092.00   0.72692496   0.00464658
7094.00   0.71692657   0.00485682
7096.00   0.70591486   0.00514486
7098.00   0.69939756   0.00511954
7100.00   0.69469041   0.00491387
7102.00   0.69405669   0.00481873
7104.00   0.69829905   0.00471513
7106.00   0.70264691   0.00468500
7108.00   0.70991552   0.00478703
7110.00   0.71514010   0.00485657
7112.00   0.71379983   0.00474962
7114.00   0.70800984   0.00452425
7116.00   0.70388478   0.00447698
7118.00   0.69669509   0.00448848
7120.00   0.69503844   0.00462951
7122.00   0.70168370   0.00502391
7124.00   0.70416725   0.00526207
7126.00   0.69597673   0.00518279
7128.00   0.68241435   0.00492617
7130.00   0.67401439   0.00474315
7132.00   0.66683888   0.00444232
7134.00   0.66113400   0.00436710
7136.00   0.65741992   0.00452955
7138.00   0.65403092   0.00463281
7140.00   0.65082353   0.00461795
7142.00   0.64790803   0.00457260
7144.00   0.64514107   0.00458837
7146.00   0.64336932   0.00465365
7148.00   0.63865846   0.00464251
7150.00   0.63166273   0.00454920
7152.00   0.62410164   0.00450708
7154.00   0.61477846   0.00453535
7156.00   0.60598063   0.00457408
7158.00   0.60060388   0.00457605
7160.00   0.59763998   0.00456584
7162.00   0.59428656   0.00451216
7164.00   0.59165025   0.00435988
7166.00   0.58915138   0.00430930
7168.00   0.58712250   0.00435277
7170.00   0.58500355   0.00442885
7172.00   0.58284855   0.00452925
7174.00   0.58059102   0.00465391
7176.00   0.57532018   0.00465171
7178.00   0.56377572   0.00444607
7180.00   0.56013983   0.00446684
7182.00   0.56181419   0.00470913
7184.00   0.56590486   0.00487650
7186.00   0.57259530   0.00489723
7188.00   0.58111203   0.00483456
7190.00   0.58715522   0.00468875
7192.00   0.59539157   0.00425815
7194.00   0.59397072   0.00427961
7196.00   0.58304667   0.00474621
7198.00   0.57243484   0.00501622
7200.00   0.56074530   0.00507287
7202.00   0.55076265   0.00500700
7204.00   0.54974407   0.00479817
7206.00   0.55615783   0.00434037
7208.00   0.56155127   0.00414921
7210.00   0.57121909   0.00413586
7212.00   0.57721567   0.00414278
7214.00   0.57878476   0.00420330
7216.00   0.57953060   0.00427995
7218.00   0.58211941   0.00433322
7220.00   0.58529574   0.00438507
7222.00   0.58910704   0.00439290
7224.00   0.59709984   0.00427947
7226.00   0.59785521   0.00433902
7228.00   0.58809990   0.00447122
7230.00   0.58186603   0.00475686
7232.00   0.58715159   0.00526737
7234.00   0.59890342   0.00588031
7236.00   0.60844254   0.00629283
7238.00   0.62553781   0.00673692
7240.00   0.62776363   0.00689275
7242.00   0.61602843   0.00681790
7244.00   0.60513544   0.00665737
7246.00   0.59739965   0.00641335
7248.00   0.59149122   0.00608709
7250.00   0.59137684   0.00577570
7252.00   0.59802729   0.00538556
7254.00   0.60071850   0.00513435
7256.00   0.60301042   0.00501150
7258.00   0.60410798   0.00490536
7260.00   0.60149634   0.00480802
7262.00   0.60026252   0.00474578
7264.00   0.60797524   0.00471906
7266.00   0.62302989   0.00469476
7268.00   0.63411111   0.00490604
7270.00   0.64962238   0.00521825
7272.00   0.65485841   0.00572493
7274.00   0.64706820   0.00656522
7276.00   0.63740444   0.00722685
7278.00   0.63405442   0.00747547
7280.00   0.63313138   0.00749888
7282.00   0.63007241   0.00718978
7284.00   0.62464803   0.00609814
7286.00   0.62267262   0.00556689
7288.00   0.62189704   0.00557794
7290.00   0.62468624   0.00564665
7292.00   0.63438386   0.00558318
7294.00   0.64768577   0.00551077
7296.00   0.65161240   0.00548195
7298.00   0.64693630   0.00545284
7300.00   0.64752072   0.00551208
7302.00   0.64982206   0.00574398
7304.00   0.65225035   0.00583021
7306.00   0.65445697   0.00562651
7308.00   0.65687841   0.00534603
7310.00   0.66053921   0.00539713
7312.00   0.66858935   0.00567178
7314.00   0.66391450   0.00590063
7316.00   0.64463329   0.00627368
7318.00   0.63218582   0.00645487
7320.00   0.62429887   0.00643156
7322.00   0.62283379   0.00630941
7324.00   0.63506460   0.00614422
7326.00   0.66153991   0.00586752
7328.00   0.66881365   0.00580063
7330.00   0.66122979   0.00596558
7332.00   0.65959758   0.00598039
7334.00   0.66054314   0.00580708
7336.00   0.66375053   0.00569018
7338.00   0.67363316   0.00577845
7340.00   0.68780613   0.00599083
7342.00   0.67717206   0.00632341
7344.00   0.63775074   0.00699223
7346.00   0.61611164   0.00720203
7348.00   0.59449798   0.00716114
7350.00   0.58867729   0.00693392
7352.00   0.61310303   0.00635968
7354.00   0.65166271   0.00556520
7356.00   0.65871114   0.00545902
7358.00   0.63922632   0.00610278
7360.00   0.63902241   0.00614379
7362.00   0.64914006   0.00577751
7364.00   0.65582120   0.00561944
7366.00   0.65815520   0.00588730
7368.00   0.65733337   0.00621291
7370.00   0.65124542   0.00616076
7372.00   0.63791662   0.00582395
7374.00   0.63304561   0.00567496
7376.00   0.63394284   0.00558907
7378.00   0.63373190   0.00550678
7380.00   0.63217020   0.00540676
7382.00   0.63129616   0.00535061
7384.00   0.63405204   0.00541020
7386.00   0.64039660   0.00556399
7388.00   0.63379222   0.00563780
7390.00   0.61048901   0.00575852
7392.00   0.60006499   0.00571101
7394.00   0.60003358   0.00539390
7396.00   0.60214746   0.00514075
7398.00   0.60357547   0.00521672
7400.00   0.60570383   0.00545962
7402.00   0.60357428   0.00545612
7404.00   0.59759068   0.00532689
7406.00   0.59229720   0.00516045
7408.00   0.58456022   0.00485216
7410.00   0.57947296   0.00458764
7412.00   0.57933158   0.00441832
7414.00   0.58150721   0.00432590
7416.00   0.58144915   0.00435548
7418.00   0.58155400   0.00451121
7420.00   0.57910097   0.00469616
7422.00   0.57326770   0.00505084
7424.00   0.56885779   0.00522234
7426.00   0.56482798   0.00514994
7428.00   0.56305730   0.00500005
7430.00   0.56858951   0.00496524
7432.00   0.58292925   0.00497855
7434.00   0.58215117   0.00495554
7436.00   0.56827277   0.00488100
7438.00   0.55873257   0.00488460
7440.00   0.55139637   0.00498723
7442.00   0.54593277   0.00509881
7444.00   0.54330552   0.00519254
7446.00   0.54313910   0.00529502
7448.00   0.54334432   0.00511409
7450.00   0.54539967   0.00444930
7452.00   0.54681307   0.00415385
7454.00   0.54924083   0.00418781
7456.00   0.54986072   0.00429701
7458.00   0.54657167   0.00439514
7460.00   0.54107630   0.00452718
7462.00   0.53844321   0.00463792
7464.00   0.53621465   0.00475415
7466.00   0.53651118   0.00485338
7468.00   0.54197484   0.00491885
7470.00   0.54353726   0.00501833
7472.00   0.53742254   0.00519017
7474.00   0.52889365   0.00536999
7476.00   0.52658850   0.00545656
7478.00   0.52862167   0.00551596
7480.00   0.52793777   0.00544728
7482.00   0.52568394   0.00518763
7484.00   0.52493721   0.00499558
7486.00   0.52652520   0.00490865
7488.00   0.52836812   0.00483749
7490.00   0.52806413   0.00469159
7492.00   0.52617902   0.00448583
7494.00   0.52673584   0.00438459
7496.00   0.53002775   0.00437972
7498.00   0.53102851   0.00434709
7500.00   0.53030127   0.00429797
7502.00   0.52842873   0.00425264
7504.00   0.52522945   0.00421859
7506.00   0.52077389   0.00419219
7508.00   0.51794803   0.00418504
7510.00   0.51530635   0.00416026
7512.00   0.51431811   0.00422628
7514.00   0.51447111   0.00433484
7516.00   0.51615787   0.00452972
7518.00   0.52057773   0.00487012
7520.00   0.52626753   0.00525442
7522.00   0.52795929   0.00543136
7524.00   0.52864444   0.00540989
7526.00   0.52448404   0.00557412
7528.00   0.50812501   0.00579483
7530.00   0.50366259   0.00608551
7532.00   0.52134550   0.00665276
7534.00   0.54387784   0.00708053
7536.00   0.54470456   0.00664387
7538.00   0.52902377   0.00507132
7540.00   0.52644163   0.00452883
7542.00   0.53248167   0.00496372
7544.00   0.53255963   0.00504711
7546.00   0.52373260   0.00474161
7548.00   0.51529282   0.00439405
7550.00   0.51646107   0.00431496
7552.00   0.52425343   0.00440068
7554.00   0.52476883   0.00442828
7556.00   0.51979977   0.00449705
7558.00   0.51831752   0.00452515
7560.00   0.52077425   0.00446835
7562.00   0.52187651   0.00447528
7564.00   0.51879865   0.00461048
7566.00   0.51313472   0.00483198
7568.00   0.50605875   0.00520393
7570.00   0.49184579   0.00602194
7572.00   0.48821431   0.00610511
7574.00   0.49657074   0.00554452
7576.00   0.50021994   0.00498828
7578.00   0.49122426   0.00465037
7580.00   0.47833821   0.00442352
7582.00   0.47835907   0.00439149
7584.00   0.48966348   0.00449999
7586.00   0.49290892   0.00486994
7588.00   0.49146357   0.00530402
7590.00   0.49259633   0.00607300
7592.00   0.49930865   0.00698927
7594.00   0.50565046   0.00813273
7596.00   0.50359666   0.00978357
7598.00   0.49531406   0.01196540
7600.00   0.48828059   0.01246352
7602.00   0.47485900   0.01192279
7604.00   0.47113174   0.01119205
7606.00   0.47874644   0.00980565
7608.00   0.48947200   0.00825804
7610.00   0.49821150   0.00742053
7612.00   0.50779700   0.00712648
7614.00   0.51121140   0.00667092
7616.00   0.50982302   0.00621502
7618.00   0.50686878   0.00609937
7620.00   0.49992386   0.00640982
7622.00   0.49337801   0.00677410
7624.00   0.48951685   0.00710880
7626.00   0.48685256   0.00743834
7628.00   0.48365960   0.00745006
7630.00   0.48174435   0.00714855
7632.00   0.47709963   0.00691337
7634.00   0.46773192   0.00659743
7636.00   0.46236834   0.00627655
7638.00   0.46389627   0.00594383
7640.00   0.46875146   0.00562086
7642.00   0.47219563   0.00541503
7644.00   0.47692871   0.00532295
7646.00   0.47912669   0.00523898
7648.00   0.47986743   0.00522537
7650.00   0.47945270   0.00520455
7652.00   0.47730932   0.00516427
7654.00   0.47458684   0.00513685
7656.00   0.47292125   0.00516331
7658.00   0.47187087   0.00524467
7660.00   0.46936461   0.00523225
7662.00   0.46463114   0.00515520
7664.00   0.46217021   0.00507151
7666.00   0.46128854   0.00493369
7668.00   0.46200123   0.00482939
7670.00   0.46529275   0.00485933
7672.00   0.47077852   0.00497757
7674.00   0.47215560   0.00493152
7676.00   0.46943274   0.00474550
7678.00   0.46968982   0.00461344
7680.00   0.47147822   0.00446081
7682.00   0.47413620   0.00436226
7684.00   0.47793719   0.00436844
7686.00   0.48244151   0.00443863
7688.00   0.48532328   0.00448016
7690.00   0.48756525   0.00452835
7692.00   0.48871502   0.00457825
7694.00   0.48946989   0.00464942
7696.00   0.48824596   0.00469040
7698.00   0.48359507   0.00465159
7700.00   0.47797954   0.00461883
7702.00   0.47548890   0.00473656
7704.00   0.47354627   0.00490782
7706.00   0.47691351   0.00528102
7708.00   0.49234205   0.00570500
7710.00   0.49510843   0.00635932
7712.00   0.48088822   0.00740537
7714.00   0.46331975   0.00826273
7716.00   0.45470995   0.00856433
7718.00   0.45001003   0.00858135
7720.00   0.44390768   0.00817388
7722.00   0.43817240   0.00684855
7724.00   0.43275902   0.00593556
7726.00   0.42518854   0.00542127
7728.00   0.42154351   0.00508058
7730.00   0.42679662   0.00483005
7732.00   0.43804830   0.00474705
7734.00   0.44487098   0.00463785
7736.00   0.44973296   0.00455149
7738.00   0.45659947   0.00456718
7740.00   0.46366099   0.00438903
7742.00   0.47295904   0.00475327
7744.00   0.48905918   0.00600605
7746.00   0.50583738   0.00731430
7748.00   0.50471473   0.00770107
7750.00   0.48791343   0.00761169
7752.00   0.47440258   0.00742187
7754.00   0.45139733   0.00679928
7756.00   0.43913344   0.00627704
7758.00   0.44310972   0.00595353
7760.00   0.45289493   0.00572436
7762.00   0.45612675   0.00553624
7764.00   0.45776549   0.00545096
7766.00   0.45884693   0.00529436
7768.00   0.46048909   0.00508042
7770.00   0.45827475   0.00492833
7772.00   0.45058703   0.00475112
7774.00   0.44220096   0.00472817
7776.00   0.43644026   0.00510734
7778.00   0.43138477   0.00575816
7780.00   0.43240675   0.00590934
7782.00   0.44022754   0.00571331
7784.00   0.44672158   0.00562172
7786.00   0.45524544   0.00547238
7788.00   0.46160409   0.00543910
7790.00   0.46370888   0.00568358
7792.00   0.46277061   0.00606357
7794.00   0.45865664   0.00617107
7796.00   0.44431415   0.00615752
7798.00   0.44367951   0.00604667
7800.00   0.45228758   0.00571985
7802.00   0.46358562   0.00545229
7804.00   0.47977433   0.00533084
7806.00   0.49639270   0.00528850
7808.00   0.49858123   0.00527548
7810.00   0.48727518   0.00530467
7812.00   0.48359042   0.00540710
7814.00   0.48330128   0.00543405
7816.00   0.47976729   0.00577737
7818.00   0.47126117   0.00663893
7820.00   0.46176293   0.00739179
7822.00   0.45548400   0.00750384
7824.00   0.45054722   0.00724147
7826.00   0.44742551   0.00678311
7828.00   0.44609049   0.00557691
7830.00   0.44615579   0.00480541
7832.00   0.44743145   0.00462908
7834.00   0.45049316   0.00471145
7836.00   0.45753780   0.00482526
7838.00   0.46789581   0.00507362
7840.00   0.46647277   0.00543838
7842.00   0.45005232   0.00588807
7844.00   0.44599745   0.00643428
7846.00   0.45177186   0.00722391
7848.00   0.45736945   0.00778004
7850.00   0.45989683   0.00798433
7852.00   0.46087715   0.00798067
7854.00   0.45698103   0.00784652
7856.00   0.44656557   0.00737851
7858.00   0.43978646   0.00715230
7860.00   0.43208334   0.00704438
7862.00   0.42776811   0.00695092
7864.00   0.42543155   0.00686654
7866.00   0.42791894   0.00679194
7868.00   0.44403410   0.00668728
7870.00   0.47831967   0.00654738
7872.00   0.49107650   0.00647125
7874.00   0.49101272   0.00647074
7876.00   0.48911402   0.00642386
7878.00   0.48057765   0.00628605
7880.00   0.47396889   0.00616658
7882.00   0.48231015   0.00619307
7884.00   0.50288290   0.00632636
7886.00   0.50664091   0.00640117
7888.00   0.50259906   0.00657801
7890.00   0.49245244   0.00652298
7892.00   0.46901613   0.00621728
7894.00   0.44899401   0.00581408
7896.00   0.44376257   0.00532879
7898.00   0.44719580   0.00471968
7900.00   0.45033544   0.00461237
7902.00   0.45805606   0.00488140
7904.00   0.46457666   0.00532652
7906.00   0.47190341   0.00597590
7908.00   0.47866374   0.00669150
7910.00   0.48570430   0.00749322
7912.00   0.49157155   0.00829524
7914.00   0.49036139   0.00887895
7916.00   0.48694283   0.00968572
7918.00   0.47108567   0.00949518
7920.00   0.43379274   0.00796097
7922.00   0.40962175   0.00683184
7924.00   0.40290675   0.00687527
7926.00   0.40630987   0.00723759
7928.00   0.41676283   0.00690521
7930.00   0.43959272   0.00607971
7932.00   0.45165458   0.00567485
7934.00   0.46109429   0.00556933
7936.00   0.46544936   0.00539679
7938.00   0.46184963   0.00508177
7940.00   0.45726725   0.00486637
7942.00   0.45816958   0.00500137
7944.00   0.46171752   0.00538073
7946.00   0.46538880   0.00570762
7948.00   0.47368756   0.00634859
7950.00   0.47489730   0.00641286
7952.00   0.46789789   0.00571740
7954.00   0.46138504   0.00513900
7956.00   0.46058238   0.00528583
7958.00   0.46214986   0.00582977
7960.00   0.45879361   0.00657072
7962.00   0.45207620   0.00802349
7964.00   0.44548115   0.00833321
7966.00   0.43280008   0.00787225
7968.00   0.42828321   0.00732571
7970.00   0.44047716   0.00676852
7972.00   0.45840955   0.00618534
7974.00   0.45923269   0.00606181
7976.00   0.44690707   0.00649243
7978.00   0.44198194   0.00643084
7980.00   0.43639344   0.00601067
7982.00   0.43530825   0.00574641
7984.00   0.44060352   0.00565235
7986.00   0.44826868   0.00572235
7988.00   0.45395547   0.00607447
7990.00   0.46032587   0.00672273
7992.00   0.46185437   0.00692484
7994.00   0.46163175   0.00697663
7996.00   0.45560750   0.00679516
7998.00   0.43947661   0.00620500
8000.00   0.42450196   0.00552816
8002.00   0.41931140   0.00508904
8004.00   0.41973007   0.00476654
8006.00   0.42392969   0.00472430
8008.00   0.43940216   0.00500290
8010.00   0.44382605   0.00532296
8012.00   0.43363675   0.00588890
8014.00   0.43104625   0.00626431
8016.00   0.45001468   0.00623112
8018.00   0.47919288   0.00600324
8020.00   0.48897332   0.00614443
8022.00   0.48815763   0.00662877
8024.00   0.48363858   0.00678280
8026.00   0.47012115   0.00686323
8028.00   0.45666397   0.00674869
8030.00   0.44330323   0.00627362
8032.00   0.43094668   0.00563223
8034.00   0.42476022   0.00540055
8036.00   0.42256033   0.00553050
8038.00   0.42500606   0.00537875
8040.00   0.43552172   0.00501645
8042.00   0.44332796   0.00478863
8044.00   0.44898030   0.00472947
8046.00   0.45271420   0.00476551
8048.00   0.45320091   0.00485850
8050.00   0.45056450   0.00503522
8052.00   0.44881380   0.00516759
8054.00   0.44583932   0.00530483
8056.00   0.44414285   0.00542496
8058.00   0.44525197   0.00555603
8060.00   0.44449925   0.00564229
8062.00   0.43710998   0.00563857
8064.00   0.42556208   0.00556970
8066.00   0.42418647   0.00552271
8068.00   0.43077841   0.00548999
8070.00   0.43619305   0.00539567
8072.00   0.44694698   0.00524525
8074.00   0.45189750   0.00506393
8076.00   0.44325337   0.00481931
8078.00   0.42908439   0.00454854
8080.00   0.43016765   0.00445797
8082.00   0.44317755   0.00452899
8084.00   0.45146558   0.00458539
8086.00   0.46334735   0.00472200
8088.00   0.46940544   0.00481332
8090.00   0.46625653   0.00482259
8092.00   0.45973235   0.00481841
8094.00   0.45795953   0.00489636
8096.00   0.45843542   0.00504123
8098.00   0.45672002   0.00510874
8100.00   0.45795307   0.00516933
8102.00   0.45083255   0.00515371
8104.00   0.42930937   0.00498928
8106.00   0.40909901   0.00484384
8108.00   0.40571985   0.00493263
8110.00   0.41315803   0.00518979
8112.00   0.41750175   0.00515638
8114.00   0.42549333   0.00480003
8116.00   0.43040907   0.00469799
8118.00   0.43327940   0.00480400
8120.00   0.43478152   0.00497758
8122.00   0.43500200   0.00522314
8124.00   0.43392104   0.00551019
8126.00   0.43228680   0.00544889
8128.00   0.42938349   0.00493836
8130.00   0.42671859   0.00474595
8132.00   0.42279878   0.00472842
8134.00   0.42054641   0.00475502
8136.00   0.42104000   0.00481572
8138.00   0.42315921   0.00490188
8140.00   0.42544761   0.00492254
8142.00   0.42972618   0.00490136
8144.00   0.43077171   0.00488765
8146.00   0.43095019   0.00487741
8148.00   0.42801902   0.00483832
8150.00   0.42026541   0.00475383
8152.00   0.41112125   0.00465443
8154.00   0.40494522   0.00457775
8156.00   0.39928398   0.00449804
8158.00   0.39811236   0.00448362
8160.00   0.40222707   0.00455251
8162.00   0.40526035   0.00458398
8164.00   0.40747300   0.00456532
8166.00   0.41013673   0.00456241
8168.00   0.41451833   0.00461835
8170.00   0.42027429   0.00470955
8172.00   0.42177352   0.00485753
8174.00   0.41914359   0.00508359
8176.00   0.41815150   0.00527345
8178.00   0.41797307   0.00543924
8180.00   0.41747105   0.00561829
8182.00   0.41638067   0.00583324
8184.00   0.41479942   0.00606170
8186.00   0.41191754   0.00624453
8188.00   0.40550292   0.00645835
8190.00   0.40415344   0.00652728
8192.00   0.40802714   0.00639765
8194.00   0.40965804   0.00637406
8196.00   0.40648168   0.00660707
8198.00   0.40184912   0.00687313
8200.00   0.40017611   0.00681731
8202.00   0.39754120   0.00651847
8204.00   0.40401796   0.00624254
8206.00   0.42376992   0.00578753
8208.00   0.43527561   0.00546272
8210.00   0.43758786   0.00534726
8212.00   0.43500853   0.00530328
8214.00   0.42851070   0.00517588
8216.00   0.41527674   0.00500357
8218.00   0.41455096   0.00500585
8220.00   0.42676070   0.00522980
8222.00   0.43097198   0.00530441
8224.00   0.42746186   0.00523452
8226.00   0.42344901   0.00515757
8228.00   0.42309541   0.00518634
8230.00   0.42428049   0.00526568
8232.00   0.42571509   0.00514415
8234.00   0.43275151   0.00471420
8236.00   0.42927223   0.00456942
8238.00   0.41297579   0.00464046
8240.00   0.40025604   0.00477154
8242.00   0.39754340   0.00497798
8244.00   0.39991710   0.00520135
8246.00   0.40245414   0.00512717
8248.00   0.40936226   0.00467363
8250.00   0.41186923   0.00453541
8252.00   0.41199979   0.00459383
8254.00   0.41145629   0.00463725
8256.00   0.41102931   0.00465724
8258.00   0.40939492   0.00465748
8260.00   0.40399107   0.00457226
8262.00   0.39346698   0.00436511
8264.00   0.39034590   0.00434406
8266.00   0.39456213   0.00435549
8268.00   0.39447179   0.00457562
8270.00   0.38949651   0.00491222
8272.00   0.38309824   0.00544447
8274.00   0.37628457   0.00630731
8276.00   0.36713275   0.00738803
8278.00   0.37154168   0.00788891
8280.00   0.39325020   0.00802913
8282.00   0.40365893   0.00825942
8284.00   0.40070382   0.00852250
8286.00   0.40257946   0.00875403
8288.00   0.42389864   0.00899051
8290.00   0.45565903   0.00920292
8292.00   0.46163020   0.00901143
8294.00   0.44815546   0.00815983
8296.00   0.43664953   0.00785346
8298.00   0.41751376   0.00794739
8300.00   0.40111127   0.00805830
8302.00   0.38776511   0.00820462
8304.00   0.37893495   0.00829310
8306.00   0.38674051   0.00778103
8308.00   0.42049864   0.00630410
8310.00   0.42421326   0.00559954
8312.00   0.40453130   0.00551583
8314.00   0.39135593   0.00541835
8316.00   0.38700870   0.00527175
8318.00   0.38669246   0.00514872
8320.00   0.38997799   0.00502463
8322.00   0.39977714   0.00492279
8324.00   0.39928013   0.00476868
8326.00   0.38731331   0.00448048
8328.00   0.38389266   0.00436656
8330.00   0.38952675   0.00429122
8332.00   0.39763054   0.00450632
8334.00   0.40472060   0.00516709
8336.00   0.41289538   0.00605064
8338.00   0.41466516   0.00712889
8340.00   0.41147384   0.00868698
8342.00   0.40681267   0.00948273
8344.00   0.39722624   0.00998905
8346.00   0.38958678   0.01010067
8348.00   0.38804555   0.00961269
8350.00   0.38973936   0.00862967
8352.00   0.38871688   0.00796840
8354.00   0.38753405   0.00730773
8356.00   0.38479242   0.00679303
8358.00   0.37900490   0.00649688
8360.00   0.37538233   0.00622051
8362.00   0.37573814   0.00591326
8364.00   0.37784553   0.00562638
8366.00   0.37833342   0.00538963
8368.00   0.37705868   0.00519695
8370.00   0.38052738   0.00506355
8372.00   0.38968161   0.00491234
8374.00   0.39585242   0.00497735
8376.00   0.39953184   0.00535489
8378.00   0.40046856   0.00577671
8380.00   0.39647406   0.00600937
8382.00   0.38732585   0.00618210
8384.00   0.38184494   0.00622364
8386.00   0.37582695   0.00600491
8388.00   0.37344950   0.00601119
8390.00   0.37558568   0.00606392
8392.00   0.37869859   0.00640530
8394.00   0.38195217   0.00730195
8396.00   0.38602629   0.00847141
8398.00   0.37889636   0.00894735
8400.00   0.35795462   0.00934829
8402.00   0.34525490   0.00905595
8404.00   0.33106291   0.00753613
8406.00   0.32704619   0.00613122
8408.00   0.34398466   0.00603958
8410.00   0.37123388   0.00663070
8412.00   0.37520471   0.00672641
8414.00   0.36141330   0.00681488
8416.00   0.35450906   0.00671745
8418.00   0.34095660   0.00617873
8420.00   0.33814567   0.00603306
8422.00   0.35666710   0.00653481
8424.00   0.37915811   0.00726536
8426.00   0.37526321   0.00785838
8428.00   0.35021237   0.00854296
8430.00   0.33911258   0.00890749
8432.00   0.33151150   0.00936636
8434.00   0.32580885   0.00917505
8436.00   0.32103077   0.00789861
8438.00   0.31953835   0.00618509
8440.00   0.32441628   0.00524495
8442.00   0.33514291   0.00482838
8444.00   0.34310779   0.00481138
8446.00   0.35556796   0.00563320
8448.00   0.35856256   0.00606495
8450.00   0.34741846   0.00637420
8452.00   0.33962458   0.00655380
8454.00   0.34771332   0.00644814
8456.00   0.36461946   0.00615383
8458.00   0.37084022   0.00658277
8460.00   0.37565011   0.00769602
8462.00   0.37095472   0.00824524
8464.00   0.35383144   0.00879868
8466.00   0.33775732   0.00888496
8468.00   0.32481119   0.00816714
8470.00   0.31460428   0.00687647
8472.00   0.31522962   0.00601887
8474.00   0.32746992   0.00523673
8476.00   0.33628750   0.00467271
8478.00   0.34950492   0.00450776
8480.00   0.35772908   0.00442472
8482.00   0.35755056   0.00434834
8484.00   0.35535210   0.00442818
8486.00   0.35979053   0.00484082
8488.00   0.36848193   0.00555228
8490.00   0.37437522   0.00590886
8492.00   0.38049930   0.00614917
8494.00   0.38445413   0.00630287
8496.00   0.38421646   0.00628991
8498.00   0.38492769   0.00630294
8500.00   0.39200577   0.00655729
8502.00   0.40357488   0.00696299
8504.00   0.40951201   0.00706789
8506.00   0.41415322   0.00704117
8508.00   0.41448975   0.00686409
8510.00   0.40657464   0.00637146
8512.00   0.40189290   0.00592455
8514.00   0.40777242   0.00580194
8516.00   0.41930062   0.00585756
8518.00   0.42469966   0.00576736
8520.00   0.43168423   0.00571048
8522.00   0.42846987   0.00546485
8524.00   0.41328782   0.00486667
8526.00   0.40014952   0.00443618
8528.00   0.39145645   0.00443853
8530.00   0.38552594   0.00465509
8532.00   0.38482741   0.00478284
8534.00   0.39016789   0.00493626
8536.00   0.39391053   0.00511325
8538.00   0.40123290   0.00531761
8540.00   0.40384579   0.00552883
8542.00   0.39862353   0.00577264
8544.00   0.39241242   0.00599507
8546.00   0.39400271   0.00614607
8548.00   0.40152118   0.00628508
8550.00   0.40151775   0.00618666
8552.00   0.39582458   0.00580069
8554.00   0.39222324   0.00546337
8556.00   0.38989547   0.00509177
8558.00   0.38817239   0.00476423
8560.00   0.38714665   0.00460041
8562.00   0.38682666   0.00456909
8564.00   0.38548484   0.00450043
8566.00   0.38232642   0.00444162
8568.00   0.38186634   0.00443321
8570.00   0.38474095   0.00450088
8572.00   0.38659969   0.00455408
8574.00   0.38564613   0.00453891
8576.00   0.38310999   0.00450118
8578.00   0.37986442   0.00455496
8580.00   0.37256822   0.00458409
8582.00   0.37186784   0.00484002
8584.00   0.37924764   0.00538962
8586.00   0.38171068   0.00573910
8588.00   0.37338236   0.00584771
8590.00   0.36318511   0.00582269
8592.00   0.36626190   0.00569968
8594.00   0.38144514   0.00537436
8596.00   0.38505116   0.00523798
8598.00   0.38197425   0.00524954
8600.00   0.37962586   0.00519272
8602.00   0.37640539   0.00501796
8604.00   0.37463439   0.00485254
8606.00   0.37862024   0.00481015
8608.00   0.38763282   0.00482056
8610.00   0.39082986   0.00509832
8612.00   0.39296058   0.00546754
8614.00   0.39028338   0.00612153
8616.00   0.37786525   0.00725455
8618.00   0.36918011   0.00805535
8620.00   0.37486619   0.00816155
8622.00   0.38919273   0.00786699
8624.00   0.39383855   0.00776315
8626.00   0.39380315   0.00761378
8628.00   0.39367497   0.00751483
8630.00   0.39058545   0.00746860
8632.00   0.38903359   0.00740806
8634.00   0.39213678   0.00728692
8636.00   0.39655089   0.00715259
8638.00   0.39362401   0.00713640
8640.00   0.37989983   0.00729734
8642.00   0.38100591   0.00722591
8644.00   0.39273229   0.00686773
8646.00   0.40504727   0.00671211
8648.00   0.41831526   0.00684216
8650.00   0.43156660   0.00713444
8652.00   0.44104797   0.00754836
8654.00   0.44934493   0.00821479
8656.00   0.45058712   0.00833654
8658.00   0.44341007   0.00800841
8660.00   0.43758649   0.00777311
8662.00   0.43276995   0.00760665
8664.00   0.42751539   0.00745059
8666.00   0.42099392   0.00729698
8668.00   0.41339049   0.00715229
8670.00   0.40733188   0.00698761
8672.00   0.40093428   0.00680730
8674.00   0.39741433   0.00662429
8676.00   0.39656830   0.00640516
8678.00   0.39730880   0.00622449
8680.00   0.39970359   0.00615826
8682.00   0.40355316   0.00616006
8684.00   0.40533209   0.00602292
8686.00   0.40499982   0.00572857
8688.00   0.40689969   0.00556007
8690.00   0.40909332   0.00545617
8692.00   0.41356111   0.00538725
8694.00   0.42244038   0.00535958
8696.00   0.43277523   0.00536112
8698.00   0.43756035   0.00534032
8700.00   0.44006035   0.00531260
8702.00   0.43786150   0.00529621
8704.00   0.42837813   0.00531273
8706.00   0.42128628   0.00528332
8708.00   0.41745073   0.00518789
8710.00   0.41471997   0.00506589
8712.00   0.41147262   0.00494512
8714.00   0.40781841   0.00476929
8716.00   0.40763786   0.00483013
8718.00   0.41328132   0.00522053
8720.00   0.41365185   0.00534029
8722.00   0.40931651   0.00508120
8724.00   0.40239397   0.00490161
8726.00   0.39251292   0.00523295
8728.00   0.37933674   0.00583955
8730.00   0.37538552   0.00610489
8732.00   0.37620613   0.00636273
8734.00   0.38242620   0.00630163
8736.00   0.39900982   0.00578232
8738.00   0.41285017   0.00527932
8740.00   0.41778019   0.00503224
8742.00   0.41800678   0.00494542
8744.00   0.41812330   0.00513065
8746.00   0.41556484   0.00565571
8748.00   0.41341966   0.00603778
8750.00   0.41227224   0.00633644
8752.00   0.40795630   0.00678268
8754.00   0.39687553   0.00734265
8756.00   0.38464645   0.00802389
8758.00   0.38270995   0.00896498
8760.00   0.39011154   0.01026270
8762.00   0.39006570   0.01084004
8764.00   0.38596243   0.01098870
8766.00   0.38319910   0.01112224
8768.00   0.37858024   0.01122420
8770.00   0.37813273   0.01128367
8772.00   0.39289504   0.01137271
8774.00   0.42304596   0.01151740
8776.00   0.42597988   0.01122638
8778.00   0.40562376   0.01043009
8780.00   0.39332280   0.00972603
8782.00   0.38042286   0.00896892
8784.00   0.37537846   0.00825793
8786.00   0.38836280   0.00771798
8788.00   0.41421098   0.00732616
8790.00   0.42578587   0.00710733
8792.00   0.43206379   0.00730265
8794.00   0.43447390   0.00717286
8796.00   0.43122652   0.00682707
8798.00   0.42610002   0.00642281
8800.00   0.41906506   0.00593806
8802.00   0.41092959   0.00540762
8804.00   0.40812483   0.00524121
8806.00   0.41220874   0.00551031
8808.00   0.40841407   0.00551484
8810.00   0.39393228   0.00535475
8812.00   0.38932458   0.00534348
8814.00   0.40117520   0.00527433
8816.00   0.41842467   0.00554250
8818.00   0.42719939   0.00673528
8820.00   0.43556982   0.00817403
8822.00   0.43046802   0.01019306
8824.00   0.41142455   0.01330666
8826.00   0.39228845   0.01470331
8828.00   0.37035999   0.01488463
8830.00   0.34873462   0.01438226
8832.00   0.32944390   0.01321488
8834.00   0.30949545   0.01092241
8836.00   0.31286812   0.00961579
8838.00   0.34207714   0.00912247
8840.00   0.36372814   0.00846433
8842.00   0.38417304   0.00776510
8844.00   0.40352035   0.00723109
8846.00   0.42347798   0.00705796
8848.00   0.44252855   0.00717087
8850.00   0.44434446   0.00709646
8852.00   0.42149830   0.00695939
8854.00   0.41810840   0.00689886
8856.00   0.42564756   0.00682734
8858.00   0.43467480   0.00688296
8860.00   0.44572943   0.00711779
8862.00   0.45642748   0.00745954
8864.00   0.45461825   0.00783099
8866.00   0.44497135   0.00847603
8868.00   0.42734557   0.00847306
8870.00   0.38874200   0.00782874
8872.00   0.36693022   0.00732039
8874.00   0.36400872   0.00676540
8876.00   0.37495837   0.00657383
8878.00   0.40368310   0.00763529
8880.00   0.45967707   0.00952854
8882.00   0.47207755   0.01044083
8884.00   0.45033339   0.01130834
8886.00   0.43509018   0.01152028
8888.00   0.42356327   0.01099920
8890.00   0.41047305   0.01013407
8892.00   0.39182252   0.00907107
8894.00   0.36852551   0.00749909
8896.00   0.36043534   0.00716262
8898.00   0.36699688   0.00829492
8900.00   0.36827934   0.00867203
8902.00   0.36818704   0.00878967
8904.00   0.36783862   0.00873885
8906.00   0.36618036   0.00839658
8908.00   0.36439493   0.00786311
8910.00   0.36977363   0.00793009
8912.00   0.38612255   0.00814264
8914.00   0.39161366   0.00903904
8916.00   0.39156884   0.01071521
8918.00   0.38904095   0.01191567
8920.00   0.38382691   0.01283729
8922.00   0.37665114   0.01332705
8924.00   0.36992529   0.01244547
8926.00   0.35932276   0.00936176
8928.00   0.36026409   0.00790615
8930.00   0.37200728   0.00783873
8932.00   0.38267505   0.00765870
8934.00   0.39045253   0.00707006
8936.00   0.40029702   0.00682910
8938.00   0.42040670   0.00790040
8940.00   0.45355693   0.00986269
8942.00   0.44971699   0.01020629
8944.00   0.40675718   0.00945101
8946.00   0.38213292   0.00900533
8948.00   0.36508390   0.00846307
8950.00   0.35993177   0.00831284
8952.00   0.37914640   0.00913723
8954.00   0.41718897   0.01049143
8956.00   0.41711810   0.01110727
8958.00   0.38662708   0.01177908
8960.00   0.36491364   0.01160410
8962.00   0.33590871   0.01036136
8964.00   0.31676173   0.00896296
8966.00   0.31676504   0.00777871
8968.00   0.32792577   0.00662425
8970.00   0.33456999   0.00598647
8972.00   0.34107965   0.00603164
8974.00   0.35261732   0.00618301
8976.00   0.37415788   0.00681135
8978.00   0.38729632   0.00727166
8980.00   0.38802326   0.00746928
8982.00   0.38230893   0.00761497
8984.00   0.37571409   0.00793592
8986.00   0.36387610   0.00842851
8988.00   0.35777470   0.00856740
8990.00   0.35197347   0.00824338
8992.00   0.35245252   0.00832460
8994.00   0.36101657   0.00869487
8996.00   0.37266278   0.00939046
8998.00   0.38474113   0.01064421
9000.00   0.40053451   0.01232408
9002.00   0.39813584   0.01281281
9004.00   0.37610477   0.01281324
9006.00   0.36199510   0.01221387
9008.00   0.34979278   0.01040122
9010.00   0.34180865   0.00832919
9012.00   0.34108797   0.00698954
9014.00   0.34580588   0.00614762
9016.00   0.34905189   0.00581880
9018.00   0.35500136   0.00674676
9020.00   0.35784969   0.00687894
9022.00   0.35910633   0.00669307
9024.00   0.35886922   0.00642570
9026.00   0.35500294   0.00602594
9028.00   0.35059845   0.00557894
9030.00   0.35577944   0.00563144
9032.00   0.37256509   0.00611922
9034.00   0.37759444   0.00646502
9036.00   0.37581530   0.00692049
9038.00   0.37339148   0.00724108
9040.00   0.36834505   0.00736206
9042.00   0.36444977   0.00745274
9044.00   0.37080014   0.00773708
9046.00   0.38924417   0.00818086
9048.00   0.38562098   0.00833971
9050.00   0.36386734   0.00844668
9052.00   0.34523404   0.00826299
9054.00   0.32253867   0.00761321
9056.00   0.30642006   0.00684499
9058.00   0.31036234   0.00634270
9060.00   0.32965007   0.00596442
9062.00   0.33621922   0.00573909
9064.00   0.33970913   0.00579426
9066.00   0.33952302   0.00577829
9068.00   0.33195987   0.00577030
9070.00   0.32669544   0.00575936
9072.00   0.32999372   0.00573305
9074.00   0.33745924   0.00569903
9076.00   0.33802813   0.00566551
9078.00   0.33583564   0.00557042
9080.00   0.33034095   0.00561308
9082.00   0.31567469   0.00575392
9084.00   0.30838901   0.00593470
9086.00   0.31496292   0.00616122
9088.00   0.32731751   0.00640755
9090.00   0.33285919   0.00659608
9092.00   0.33706129   0.00672579
9094.00   0.33738041   0.00695062
9096.00   0.32748196   0.00731511
9098.00   0.32826501   0.00752855
9100.00   0.34574533   0.00757370
9102.00   0.36599430   0.00753770
9104.00   0.37385526   0.00749568
9106.00   0.37553093   0.00742960
9108.00   0.37354732   0.00722486
9110.00   0.36418524   0.00681145
9112.00   0.35645807   0.00647383
9114.00   0.34748513   0.00618569
9116.00   0.34091148   0.00592885
9118.00   0.34008464   0.00568726
9120.00   0.34338912   0.00546974
9122.00   0.34815302   0.00543774
9124.00   0.36153594   0.00563260
9126.00   0.36313978   0.00575197
9128.00   0.34956262   0.00585236
9130.00   0.34217009   0.00597323
9132.00   0.34753790   0.00614559
9134.00   0.36203080   0.00633391
9136.00   0.39212245   0.00643162
9138.00   0.45935863   0.00647704
9140.00   0.47821888   0.00648766
9142.00   0.46457523   0.00639200
9144.00   0.44539398   0.00637686
9146.00   0.42060751   0.00649682
9148.00   0.39260024   0.00666822
9150.00   0.37435651   0.00679364
9152.00   0.35940227   0.00691902
9154.00   0.35411623   0.00701359
9156.00   0.36416051   0.00710098
9158.00   0.36664444   0.00714340
9160.00   0.35934147   0.00712343
9162.00   0.35068506   0.00708610
9164.00   0.34778816   0.00707879
9166.00   0.34794942   0.00708320
9168.00   0.34640369   0.00707112
9170.00   0.34279940   0.00712184
9172.00   0.34320235   0.00701412
9174.00   0.35105717   0.00669136
9176.00   0.35538238   0.00635576
9178.00   0.34575015   0.00613547
9180.00   0.32813019   0.00597329
9182.00   0.33199650   0.00591582
9184.00   0.36050990   0.00607214
9186.00   0.36899823   0.00604135
9188.00   0.36434537   0.00584336
9190.00   0.35917509   0.00569492
9192.00   0.35617691   0.00568751
9194.00   0.35390031   0.00574487
9196.00   0.35612953   0.00576377
9198.00   0.36493263   0.00578221
9200.00   0.36672238   0.00580350
9202.00   0.36355126   0.00571475
9204.00   0.36130345   0.00583665
9206.00   0.36003330   0.00631016
9208.00   0.35973048   0.00680884
9210.00   0.36174503   0.00696500
9212.00   0.36566183   0.00691799
9214.00   0.37065658   0.00689918
9216.00   0.37631455   0.00651957
9218.00   0.38469344   0.00673736
9220.00   0.39872506   0.00783437
9222.00   0.41135040   0.00871265
9224.00   0.41626644   0.00868109
9226.00   0.41637766   0.00806948
9228.00   0.41250291   0.00772533
9230.00   0.39942208   0.00731718
9232.00   0.39299101   0.00698442
9234.00   0.39162561   0.00671445
9236.00   0.39119428   0.00649486
9238.00   0.39011577   0.00631837
9240.00   0.38925946   0.00619795
9242.00   0.38786522   0.00617302
9244.00   0.38764930   0.00630807
9246.00   0.38375315   0.00634532
9248.00   0.37425953   0.00635197
9250.00   0.36815226   0.00634521
9252.00   0.36926949   0.00626390
9254.00   0.37298918   0.00620549
9256.00   0.37134415   0.00646241
9258.00   0.36589330   0.00710688
9260.00   0.36314958   0.00722239
9262.00   0.36201891   0.00692482
9264.00   0.35986322   0.00675052
9266.00   0.35680830   0.00672334
9268.00   0.35275805   0.00678345
9270.00   0.34604067   0.00694876
9272.00   0.33494937   0.00723133
9274.00   0.33634815   0.00743387
9276.00   0.35052964   0.00765009
9278.00   0.35976288   0.00779333
9280.00   0.36566275   0.00789207
9282.00   0.37022212   0.00791876
9284.00   0.37339658   0.00781046
9286.00   0.37501776   0.00758253
9288.00   0.38057792   0.00756254
9290.00   0.39369088   0.00770037
9292.00   0.39649302   0.00779998
9294.00   0.37751910   0.00710419
9296.00   0.37693173   0.00769680
9298.00   0.41908836   0.01016744
9300.00   0.48413596   0.01306043
9302.00   0.52395511   0.01544864
9304.00   0.57350087   0.01818183
9306.00   0.57192153   0.01985844
9308.00   0.51789498   0.02087137
9310.00   0.46551877   0.02194815
9312.00   0.42346177   0.02345975
9314.00   0.38229170   0.02477728
9316.00   0.33915332   0.02491416
9318.00   0.28696290   0.02402284
9320.00   0.26533088   0.02348229
9322.00   0.26364481   0.02299713
9324.00   0.27679735   0.02214059
9326.00   0.31410697   0.02062968
9328.00   0.35658336   0.01893348
9330.00   0.38300624   0.01767352
9332.00   0.40411931   0.01659582
9334.00   0.40822881   0.01611907
9336.00   0.39535064   0.01685878
9338.00   0.37748912   0.01665654
9340.00   0.33961955   0.01541531
9342.00   0.31307328   0.01407944
9344.00   0.32411247   0.01335591
9346.00   0.35881209   0.01296207
9348.00   0.37027118   0.01272256
9350.00   0.38142505   0.01315079
9352.00   0.37043694   0.01281883
9354.00   0.32288030   0.01162821
9356.00   0.29163730   0.01060755
9358.00   0.30182564   0.01028036
9360.00   0.33007967   0.01035449
9362.00   0.33344585   0.01045081
9364.00   0.32624382   0.00927571
9366.00   0.31506401   0.01209640
9368.00   0.29586771   0.01522683
9370.00   0.27451098   0.02037986
9372.00   0.24632019   0.02826901
9374.00   0.22016186   0.03458442
9376.00   0.21427555   0.03598854
9378.00   0.22637136   0.03475000
9380.00   0.22775868   0.03198106
9382.00   0.21491848   0.02381676
9384.00   0.22596823   0.01676171
9386.00   0.27536985   0.01296213
9388.00   0.32275784   0.01108136
9390.00   0.32831934   0.00924073
9392.00   0.30663928   0.00933989
9394.00   0.30658710   0.00908658
9396.00   0.31485233   0.00940030
9398.00   0.32187730   0.00995835
9400.00   0.33207539   0.01109889
9402.00   0.33913925   0.01194401
9404.00   0.33921689   0.01214832
9406.00   0.33458859   0.01199173
9408.00   0.32787862   0.01167621
9410.00   0.31074280   0.01034696
9412.00   0.30801249   0.01052200
9414.00   0.31401256   0.01185051
9416.00   0.32550204   0.01318143
9418.00   0.34687695   0.01449912
9420.00   0.37093097   0.01571058
9422.00   0.37460321   0.01623407
9424.00   0.35425937   0.01647593
9426.00   0.36195865   0.01601174
9428.00   0.39334664   0.01365907
9430.00   0.41486856   0.01291724
9432.00   0.43019906   0.01369319
9434.00   0.43336990   0.01623882
9436.00   0.40583476   0.02153806
9438.00   0.34558046   0.02876527
9440.00   0.31763795   0.03006312
9442.00   0.29846260   0.02759662
9444.00   0.29625306   0.02519913
9446.00   0.32646039   0.02152049
9448.00   0.35101390   0.01776589
9450.00   0.33313775   0.01632592
9452.00   0.28791097   0.01679355
9454.00   0.27932215   0.01764100
9456.00   0.29667002   0.02055861
9458.00   0.30418533   0.02121617
9460.00   0.30063745   0.02030685
9462.00   0.30957633   0.01887208
9464.00   0.35027516   0.01691796
9466.00   0.40624839   0.01433792
9468.00   0.42086557   0.01363293
9470.00   0.39528838   0.01417764
9472.00   0.39601323   0.01585034
9474.00   0.41708550   0.01942232
9476.00   0.42047644   0.02158497
9478.00   0.39224854   0.02246279
9480.00   0.35134897   0.02239011
9482.00   0.32551622   0.02059393
9484.00   0.30149740   0.01548544
9486.00   0.29013422   0.01271787
9488.00   0.29313877   0.01182194
9490.00   0.29549041   0.01125226
9492.00   0.29959726   0.01102588
9494.00   0.30218729   0.01147481
9496.00   0.29497120   0.01279802
9498.00   0.27763593   0.01489869
9500.00   0.28283229   0.01574448
9502.00   0.30781555   0.01618499
9504.00   0.32781664   0.01612058
9506.00   0.34962490   0.01521523
9508.00   0.36654916   0.01423806
9510.00   0.37335560   0.01377245
9512.00   0.37275210   0.01356474
9514.00   0.36384302   0.01382359
9516.00   0.33291376   0.01481647
9518.00   0.32609773   0.01532766
9520.00   0.33643839   0.01584114
9522.00   0.35222691   0.01593954
9524.00   0.37520599   0.01532350
9526.00   0.40093440   0.01423338
9528.00   0.40213877   0.01346997
9530.00   0.37127924   0.01268375
9532.00   0.37391067   0.01211163
9534.00   0.40837634   0.01181083
9536.00   0.42366090   0.01151655
9538.00   0.40493140   0.01110781
9540.00   0.37641025   0.01078559
9542.00   0.36803243   0.01083661
9544.00   0.36522025   0.01103751
9546.00   0.38089919   0.01193843
9548.00   0.43345279   0.01370117
9550.00   0.45520937   0.01484518
9552.00   0.44562116   0.01573137
9554.00   0.41923821   0.01615742
9556.00   0.37646925   0.01537445
9558.00   0.30931121   0.01309803
9560.00   0.30588001   0.01467824
9562.00   0.36432037   0.01948421
9564.00   0.39750531   0.02168296
9566.00   0.43197438   0.02305405
9568.00   0.44291118   0.02333263
9570.00   0.40470919   0.02184934
9572.00   0.33361548   0.01874242
9574.00   0.29694510   0.01660483
9576.00   0.27038535   0.01436048
9578.00   0.25573477   0.01272960
9580.00   0.25327036   0.01206289
9582.00   0.26093346   0.01167460
9584.00   0.28128129   0.01146108
9586.00   0.31017175   0.01147102
9588.00   0.33464700   0.01129972
9590.00   0.36689559   0.01109123
9592.00   0.37744114   0.01087665
9594.00   0.35925287   0.01059306
9596.00   0.35858348   0.01039022
9598.00   0.37536025   0.00988632
9600.00   0.40889582   0.00983088
9602.00   0.47475681   0.01152229
9604.00   0.58716279   0.01439012
9606.00   0.61616760   0.01548050
9608.00   0.59178108   0.01605407
9610.00   0.54937285   0.01600376
9612.00   0.46145326   0.01488003
9614.00   0.38080370   0.01362370
9616.00   0.36006454   0.01327672
9618.00   0.37725890   0.01344720
9620.00   0.37106964   0.01367121
9622.00   0.36248010   0.01450693
9624.00   0.35065827   0.01461046
9626.00   0.33128923   0.01422612
9628.00   0.31579691   0.01347891
9630.00   0.30967164   0.01208809
9632.00   0.30943677   0.01008188
9634.00   0.31239027   0.00934965
9636.00   0.32165563   0.01008583
9638.00   0.32996005   0.01012637
9640.00   0.34211901   0.01012163
9642.00   0.35071877   0.01003343
9644.00   0.35410380   0.00968328
9646.00   0.35400435   0.00934197
9648.00   0.35112253   0.00971811
9650.00   0.34288669   0.01063426
9652.00   0.33966881   0.01138814
9654.00   0.33223003   0.01256739
9656.00   0.33835670   0.01303057
9658.00   0.36901668   0.01245613
9660.00   0.39996710   0.01172421
9662.00   0.39983609   0.01198579
9664.00   0.37608510   0.01283192
9666.00   0.37639034   0.01342566
9668.00   0.39827600   0.01420716
9670.00   0.40117559   0.01464021
9672.00   0.37748760   0.01464933
9674.00   0.35988796   0.01468003
9676.00   0.37654871   0.01506525
9678.00   0.41421008   0.01562623
9680.00   0.41394559   0.01592559
9682.00   0.38083893   0.01622009
9684.00   0.36472228   0.01619599
9686.00   0.35027838   0.01576957
9688.00   0.34618127   0.01534444
9690.00   0.35818717   0.01490195
9692.00   0.38117602   0.01455642
9694.00   0.40384480   0.01524811
9696.00   0.44696066   0.01738564
9698.00   0.45030826   0.01782306
9700.00   0.42118531   0.01723926
9702.00   0.38971516   0.01660970
9704.00   0.35354829   0.01595849
9706.00   0.31903955   0.01531041
9708.00   0.30874795   0.01506851
9710.00   0.31994715   0.01509507
9712.00   0.32010823   0.01538000
9714.00   0.31748581   0.01602574
9716.00   0.31790200   0.01666765
9718.00   0.32409793   0.01753991
9720.00   0.32913309   0.01818386
9722.00   0.32322434   0.01810823
9724.00   0.30731145   0.01750319
9726.00   0.31712037   0.01681023
9728.00   0.35346135   0.01532698
9730.00   0.37638706   0.01464897
9732.00   0.39976174   0.01483668
9734.00   0.40742326   0.01524394
9736.00   0.38215727   0.01559916
9738.00   0.33427441   0.01603482
9740.00   0.31170413   0.01622612
9742.00   0.29509681   0.01653580
9744.00   0.29281542   0.01616256
9746.00   0.31591809   0.01480488
9748.00   0.32886493   0.01363821
9750.00   0.31472120   0.01331192
9752.00   0.29105517   0.01333391
9754.00   0.29108155   0.01283152
9756.00   0.30751804   0.01189488
9758.00   0.31949168   0.01132170
9760.00   0.34156874   0.01093492
9762.00   0.35004714   0.01063817
9764.00   0.33984157   0.01044787
9766.00   0.32061490   0.01035280
9768.00   0.29973295   0.01027351
9770.00   0.26519725   0.01015528
9772.00   0.27036807   0.01052764
9774.00   0.31538334   0.01148232
9776.00   0.34797946   0.01207609
9778.00   0.37090793   0.01212618
9780.00   0.39140150   0.01239677
9782.00   0.41635188   0.01339548
9784.00   0.44510886   0.01474234
9786.00   0.43663529   0.01658395
9788.00   0.37496069   0.01918671
9790.00   0.35580784   0.02093210
9792.00   0.37755507   0.02260921
9794.00   0.39391583   0.02349906
9796.00   0.37958315   0.02311941
9798.00   0.35132101   0.02184406
9800.00   0.34177729   0.02091208
9802.00   0.34170678   0.01974158
9804.00   0.34280530   0.01871883
9806.00   0.34839427   0.01734198
9808.00   0.35589507   0.01670666
9810.00   0.36803252   0.01770677
9812.00   0.38007346   0.01910144
9814.00   0.37887239   0.01868864
9816.00   0.36942193   0.01668278
9818.00   0.35219580   0.01561344
9820.00   0.31554919   0.01478197
9822.00   0.29319233   0.01412007
9824.00   0.28733420   0.01369962
9826.00   0.29101524   0.01345473
9828.00   0.30224025   0.01327927
9830.00   0.32600749   0.01326654
9832.00   0.33231345   0.01312631
9834.00   0.33317342   0.01272951
9836.00   0.32142335   0.01276254
9838.00   0.28264999   0.01317120
9840.00   0.25306025   0.01381986
9842.00   0.26603249   0.01459823
9844.00   0.30660677   0.01551575
9846.00   0.31284961   0.01681813
9848.00   0.29307982   0.01913114
9850.00   0.28939477   0.01983654
9852.00   0.28850168   0.01942559
9854.00   0.29931742   0.01857619
9856.00   0.33136570   0.01722437
9858.00   0.37542087   0.01540200
9860.00   0.40055463   0.01471793
9862.00   0.41479990   0.01427496
9864.00   0.42989951   0.01562385
9866.00   0.44352198   0.01860017
9868.00   0.45240939   0.02116768
9870.00   0.46147022   0.02369781
9872.00   0.46185014   0.02572051
9874.00   0.43182391   0.02597145
9876.00   0.36683595   0.02482234
9878.00   0.33219171   0.02353514
9880.00   0.30385110   0.02082293
9882.00   0.29272959   0.01881818
9884.00   0.30195850   0.01766003
9886.00   0.32318771   0.01730348
9888.00   0.35359818   0.01802196
9890.00   0.40111062   0.01978717
9892.00   0.40324244   0.02080330
9894.00   0.36342141   0.02209999
9896.00   0.33564118   0.02240590
9898.00   0.30749163   0.02151457
9900.00   0.28627348   0.02051439
9902.00   0.28028980   0.02000795
9904.00   0.28496736   0.01971360
9906.00   0.28437883   0.02034287
9908.00   0.27976492   0.02163356
9910.00   0.28543991   0.02334397
9912.00   0.30818993   0.02603527
9914.00   0.32012987   0.02797493
9916.00   0.30657461   0.02900472
9918.00   0.28240708   0.02936369
9920.00   0.27863279   0.02846918
9922.00   0.28732318   0.02571675
9924.00   0.29414213   0.02368421
9926.00   0.30966076   0.02118087
9928.00   0.31601790   0.01927922
9930.00   0.30371675   0.01812071
9932.00   0.29019022   0.01797163
9934.00   0.30237526   0.01924101
9936.00   0.33562690   0.02126505
9938.00   0.35314772   0.02522778
9940.00   0.37492952   0.03146007
9942.00   0.37567413   0.03527236
9944.00   0.34959510   0.03734139
9946.00   0.31553537   0.03892453
9948.00   0.29165795   0.04074705
9950.00   0.27156582   0.04253458
9952.00   0.22652173   0.04359853
9954.00   0.13184018   0.04480059
9956.00   0.09735852   0.04430792
9958.00   0.11597414   0.04151382
9960.00   0.15008162   0.03853842
9962.00   0.19237472   0.03677509
9964.00   0.24416648   0.03553479
9966.00   0.24786334   0.03400641
9968.00   0.18891764   0.03254448
9970.00   0.18516824   0.03092571
9972.00   0.21970813   0.02908778
9974.00   0.24845453   0.02729522
9976.00   0.26128486   0.02562354
9978.00   0.26700589   0.02404431
9980.00   0.26608559   0.02260085
9982.00   0.24595363   0.02122932
9984.00   0.25931874   0.02031177
9986.00   0.30404460   0.01992093
9988.00   0.33928183   0.01972714
9990.00   0.36500287   0.01968636
9992.00   0.38341174   0.01991732
9994.00   0.39042306   0.02057025
9996.00   0.38697904   0.02166926
9998.00   0.37854439   0.02232617
10000.00   0.35364407   0.02190265
10002.00   0.34228852   0.02331735
10004.00   0.33798400   0.02589966
10006.00   0.34627447   0.02941239
10008.00   0.37875032   0.03428479
10010.00   0.43160775   0.03988279
10012.00   0.45449844   0.04208668
10014.00   0.48049033   0.04274048
10016.00   0.45788389   0.04216157
10018.00   0.37299368   0.03925856
10020.00   0.29130703   0.03630791
10022.00   0.23182392   0.03457333
10024.00   0.18598928   0.03339542
10026.00   0.19075198   0.03231464
10028.00   0.26624012   0.03213213
10030.00   0.29564267   0.03079361
10032.00   0.31110626   0.02812612
10034.00   0.31953356   0.02590510
10036.00   0.32374144   0.02470337
10038.00   0.31965727   0.02414016
10040.00   0.29950726   0.02397428
10042.00   0.25821331   0.02467115
10044.00   0.23467198   0.02457396
10046.00   0.20789978   0.02392917
10048.00   0.20431609   0.02351611
10050.00   0.23355512   0.02309162
10052.00   0.27186933   0.02309133
10054.00   0.29493371   0.02421570
10056.00   0.31341577   0.02620297
10058.00   0.32819879   0.02755318
10060.00   0.34799114   0.02897764
10062.00   0.34454709   0.02988730
10064.00   0.30866724   0.03040818
10066.00   0.27375674   0.03059835
10068.00   0.26108786   0.03031098
10070.00   0.25955671   0.02961378
10072.00   0.26104757   0.02971458
10074.00   0.27441674   0.02941548
10076.00   0.27975377   0.03125622
10078.00   0.28150982   0.03574434
10080.00   0.28116548   0.03883211
10082.00   0.27777609   0.03978868
10084.00   0.27282047   0.03955206
10086.00   0.27247745   0.03827481
10088.00   0.27127001   0.03473156
10090.00   0.28115675   0.03264994
10092.00   0.28721049   0.03037424
10094.00   0.32166916   0.02973843
10096.00   0.41033900   0.03086917
10098.00   0.50700146   0.03361221
10100.00   0.53904903   0.03832369
10102.00   0.53872830   0.04511841
10104.00   0.49177721   0.04847420
10106.00   0.33456090   0.05101195
10108.00   0.27310997   0.05170790
10110.00   0.33054918   0.05008733
10112.00   0.41212484   0.04748645
10114.00   0.44326350   0.04491105
10116.00   0.45785969   0.04150037
10118.00   0.46281633   0.04079913
10120.00   0.46318689   0.04306354
10122.00   0.43552569   0.04411505
10124.00   0.36440745   0.04521830
10126.00   0.29941371   0.04534273
10128.00   0.26373461   0.04353666
10130.00   0.24494947   0.04021691
10132.00   0.25735867   0.03744303
10134.00   0.32719380   0.03315704
10136.00   0.34972039   0.03157754
10138.00   0.34730604   0.03258692
10140.00   0.33729684   0.03420601
10142.00   0.31521818   0.03639380
10144.00   0.29063576   0.03873115
10146.00   0.30142221   0.03936698
10148.00   0.34814855   0.03802312
10150.00   0.36852422   0.03918567
10152.00   0.38063827   0.04305513
10154.00   0.38713574   0.04463452
10156.00   0.38554236   0.04296805
10158.00   0.38063544   0.04043045
10160.00   0.38132477   0.03992081
10162.00   0.38754457   0.04003661
10164.00   0.37533894   0.04238871
10166.00   0.35349983   0.04728249
10168.00   0.31861368   0.05100291
10170.00   0.26223102   0.05507175
10172.00   0.20475970   0.05748752
10174.00   0.15791759   0.05618132
10176.00   0.11407544   0.05184269
10178.00   0.11404257   0.04951543
10180.00   0.17557947   0.04712078
10182.00   0.19638634   0.04610196
10184.00   0.18654937   0.04665071
10186.00   0.17792465   0.04769277
10188.00   0.17485890   0.04893763
10190.00   0.17825060   0.05045791
10192.00   0.23293039   0.05142171
10194.00   0.36483806   0.05210136
10196.00   0.43023252   0.05267775
10198.00   0.48407230   0.05270571
10200.00   0.49169689   0.05329438
10202.00   0.41107059   0.05479785
10204.00   0.30800998   0.05667403
10206.00   0.32586828   0.05829180
10208.00   0.45007437   0.06026670
10210.00   0.48794165   0.06092536
10212.00   0.50573486   0.06133879
10214.00   0.48390511   0.05999468
10216.00   0.38198170   0.05519518
10218.00   0.28613609   0.04989794
10220.00   0.31910431   0.04896544
10222.00   0.46160716   0.05104567
10224.00   0.43528888   0.05276454
10226.00   0.22590037   0.05619445
10228.00   0.16158625   0.05796488
10230.00   0.24824750   0.05920167
10232.00   0.34797275   0.05880968
10234.00   0.38018563   0.05509867
10236.00   0.38612935   0.04821806
10238.00   0.37747511   0.04430892
10240.00   0.34335834   0.04194625
10242.00   0.30622062   0.04022841
10244.00   0.24976969   0.04026907
10246.00   0.20232201   0.04019855
10248.00   0.16435325   0.03914224
10250.00   0.14113139   0.03777337
10252.00   0.18175498   0.03721391
10254.00   0.32773390   0.03729754
10256.00   0.35912338   0.03722301
10258.00   0.31942230   0.03669154
10260.00   0.27192298   0.03723107
10262.00   0.20393875   0.03908422
10264.00   0.14216478   0.04167553
10266.00   0.16011932   0.04480859
10268.00   0.25451839   0.04947975
10270.00   0.28622481   0.05004750
10272.00   0.28005680   0.04530966
10274.00   0.29294303   0.04461706
10276.00   0.33245102   0.04761611
10278.00   0.37126458   0.05312431
10280.00   0.39233866   0.06098759
10282.00   0.40889147   0.07052109
10284.00   0.36155376   0.07816872
10286.00   0.24840447   0.08698542
10288.00   0.13804410   0.09195882
10290.00   -0.04337606   0.09605488
10292.00   -0.14565690   0.09584057
10294.00   -0.04424510   0.08671327
10296.00   0.18490817   0.06893875
10298.00   0.26914471   0.06066955
10300.00   0.28128016   0.06189973
10302.00   0.29900804   0.05911495
10304.00   0.29318342   0.05485376
10306.00   0.28607234   0.05194417
10308.00   0.28907600   0.05211389
10310.00   0.28972280   0.05378315
10312.00   0.26215214   0.05387371
10314.00   0.19156955   0.05401086
10316.00   0.17713976   0.05237205
10318.00   0.21546908   0.04776708
10320.00   0.22938952   0.04456375
10322.00   0.20304504   0.04381682
10324.00   0.16796975   0.04420422
10326.00   0.15734084   0.04447620
10328.00   0.15780990   0.04510726
10330.00   0.16614965   0.04632544
10332.00   0.17317711   0.04832512
10334.00   0.21015994   0.05009999
10336.00   0.27975631   0.05127961
10338.00   0.36740947   0.05302205
10340.00   0.48494440   0.05675106
10342.00   0.63871258   0.06178869
10344.00   0.61899936   0.06257019
10346.00   0.40295056   0.05932754
10348.00   0.29243031   0.05793226
10350.00   0.22706537   0.05783586
10352.00   0.19652911   0.05740329
10354.00   0.21025613   0.05549769
10356.00   0.25887313   0.05287628
10358.00   0.28700835   0.05247851
10360.00   0.32285070   0.05326764
10362.00   0.33850360   0.05533975
10364.00   0.33375409   0.05852187
10366.00   0.33151743   0.06263629
10368.00   0.32955244   0.06882144
10370.00   0.33463389   0.07465861
10372.00   0.38027993   0.07550630
10374.00   0.50650167   0.07194923
10376.00   0.47595993   0.07085351
10378.00   0.28412706   0.07113471
10380.00   0.15958811   0.06983109
10382.00   0.10187574   0.06620388
10384.00   0.09179000   0.06158642
10386.00   0.15413879   0.05723175
10388.00   0.30914479   0.05176108
10390.00   0.32265949   0.05093801
10392.00   0.21901435   0.05568203
10394.00   0.15894717   0.05792748
10396.00   0.11908875   0.05902834
10398.00   0.09749725   0.05909323
10400.00   0.09891246   0.05720756
10402.00   0.12076584   0.05354960
10404.00   0.17137209   0.05354416
10406.00   0.23831993   0.05499339
10408.00   0.35286823   0.05901211
10410.00   0.59082937   0.06716074
10412.00   0.73519093   0.07292748
10414.00   0.66674680   0.07486428
10416.00   0.48688224   0.07467496
10418.00   0.41179341   0.07295100
10420.00   0.36397687   0.06814407
10422.00   0.33584005   0.06431305
10424.00   0.35095176   0.05969527
10426.00   0.34937909   0.05559323
10428.00   0.31557813   0.05225977
10430.00   0.27241257   0.04973489
10432.00   0.24869128   0.04853294
10434.00   0.24276958   0.04906154
10436.00   0.20444912   0.04898001
10438.00   0.12288930   0.04913864
10440.00   0.07762523   0.04919018
10442.00   0.06643431   0.04897305
10444.00   0.08072025   0.04889340
10446.00   0.12697861   0.04949327
10448.00   0.21115191   0.05067815
10450.00   0.24497379   0.05077869
10452.00   0.25295416   0.05006159
10454.00   0.24969357   0.04944352
10456.00   0.22677615   0.04771442
10458.00   0.19834822   0.04740845
10460.00   0.16454037   0.05054457
10462.00   0.12632827   0.05554848
10464.00   0.14406404   0.05892226
10466.00   0.23055093   0.06400860
10468.00   0.27302557   0.06415720
10470.00   0.29810128   0.05873397
10472.00   0.31372708   0.05387426
10474.00   0.31642509   0.05230943
10476.00   0.31232539   0.05226446
10478.00   0.32722464   0.05211842
10480.00   0.37312940   0.05344820
10482.00   0.36468506   0.05248801
10484.00   0.29432037   0.04914147
10486.00   0.25793529   0.04659724
10488.00   0.28231987   0.04549209
10490.00   0.31739011   0.04501525
10492.00   0.29840347   0.04449222
10494.00   0.23725478   0.04418290
10496.00   0.22178121   0.04427526
10498.00   0.23784563   0.04471139
10500.00   0.24343097   0.04547486
10502.00   0.24469490   0.04678905
10504.00   0.23830548   0.04809139
10506.00   0.21146327   0.04895334
10508.00   0.16568543   0.04961425
10510.00   0.16875164   0.04986132
10512.00   0.22476390   0.04754771
10514.00   0.24746363   0.04981517
10516.00   0.24508786   0.05656725
10518.00   0.24170642   0.06264913
10520.00   0.24888253   0.06746191
10522.00   0.25931373   0.07140700
10524.00   0.26258662   0.06968300
10526.00   0.26351637   0.05944227
10528.00   0.25844011   0.05441587
10530.00   0.23837495   0.05162654
10532.00   0.23075651   0.05016069
10534.00   0.24927096   0.05042268
10536.00   0.27638537   0.05176965
10538.00   0.27913463   0.05201438
10540.00   0.26392454   0.05193742
10542.00   0.25833189   0.05185996
10544.00   0.24057521   0.05089678
10546.00   0.24961905   0.05134803
10548.00   0.31451777   0.05420451
10550.00   0.37405780   0.05706842
10552.00   0.34345141   0.05740441
10554.00   0.24042705   0.05611521
10556.00   0.19764397   0.05519717
10558.00   0.16591810   0.05304297
10560.00   0.16485687   0.05256310
10562.00   0.22208920   0.05421805
10564.00   0.26655591   0.05598721
10566.00   0.23370029   0.05647230
10568.00   0.15220805   0.05636516
10570.00   0.13259085   0.05713497
10572.00   0.14503780   0.05866247
10574.00   0.16350868   0.05962332
10576.00   0.20066477   0.06019070
10578.00   0.23937517   0.06075753
10580.00   0.27918088   0.06156946
10582.00   0.31699044   0.06240403
10584.00   0.31794855   0.06265384
10586.00   0.28261003   0.06246412
10588.00   0.25400376   0.06213528
10590.00   0.19725457   0.06123602
10592.00   0.17414543   0.06070478
10594.00   0.21133958   0.06082115
10596.00   0.26850533   0.06120900
10598.00   0.28181222   0.06142206
10600.00   0.27298215   0.06171696
10602.00   0.26005074   0.06170883
10604.00   0.21733396   0.06135558
10606.00   0.20463386   0.06113973
10608.00   0.23495647   0.06099796
10610.00   0.27193272   0.06099717
10612.00   0.28141695   0.06137952
10614.00   0.27831089   0.06218268
10616.00   0.26563618   0.06201994
10618.00   0.22883682   0.06084402
10620.00   0.21061693   0.06021778
10622.00   0.19784749   0.05988435
10624.00   0.20455191   0.05984418
10626.00   0.25469404   0.06032981
10628.00   0.33491606   0.06119939
10630.00   0.34247133   0.06113246
10632.00   0.28696284   0.06035307
10634.00   0.25512642   0.05963800
10636.00   0.20140450   0.05832290
10638.00   0.18778455   0.05761871
10640.00   0.26765236   0.05848122
10642.00   0.38063905   0.05985490
10644.00   0.35895976   0.05907896
10646.00   0.18856461   0.05579976
10648.00   0.16414499   0.05496598
10650.00   0.24920748   0.05613611
10652.00   0.29428703   0.05648939
10654.00   0.27190560   0.05551381
10656.00   0.22915280   0.05407868
10658.00   0.21098609   0.05308380
10660.00   0.20061231   0.05221063
10662.00   0.18863906   0.05121698
10664.00   0.17219254   0.04999088
10666.00   0.16900942   0.04909162
10668.00   0.18140620   0.04862886
10670.00   0.20019706   0.04827887
10672.00   0.22107311   0.04775220
10674.00   0.24828915   0.04716405
10676.00   0.25234526   0.04674064
10678.00   0.24049483   0.04665376
10680.00   0.22107035   0.04612491
10682.00   0.17613424   0.04501992
10684.00   0.14630996   0.04401383
10686.00   0.15833080   0.04353330
10688.00   0.19521067   0.04333681
10690.00   0.21772702   0.04296125
10692.00   0.25610980   0.04283049
10694.00   0.25577477   0.04207173
10696.00   0.21226794   0.04041877
10698.00   0.17909554   0.03915028
10700.00   0.16696993   0.03866218
10702.00   0.16808146   0.03866280
10704.00   0.19041787   0.03908171
10706.00   0.24818829   0.04079199
10708.00   0.26854059   0.04014992
10710.00   0.26752323   0.03654114
10712.00   0.26328978   0.03463763
10714.00   0.26128954   0.03528940
10716.00   0.24986307   0.03709579
10718.00   0.21116368   0.03942365
10720.00   0.14219154   0.04331664
10722.00   0.11409237   0.04243662
10724.00   0.10514674   0.03592249
10726.00   0.11176617   0.03158632
10728.00   0.14583428   0.02983935
10730.00   0.18098374   0.02899549
10732.00   0.19471915   0.02790277
10734.00   0.19740754   0.02712692
10736.00   0.20511530   0.02776848
10738.00   0.21949692   0.03005769
10740.00   0.21743254   0.03171707
10742.00   0.20230693   0.03380099
10744.00   0.17879714   0.03496319
10746.00   0.14660795   0.03421726
10748.00   0.10685559   0.03243100
10750.00   0.07002135   0.03272847
10752.00   -0.00254484   0.03629771
10754.00   0.00951990   0.03501758
10756.00   0.11631935   0.02821925
10758.00   0.19066004   0.02225594
10760.00   0.20187664   0.02106030
10762.00   0.18774386   0.02211910
10764.00   0.18471181   0.02165487
10766.00   0.17811482   0.02098144
10768.00   0.16920754   0.02087988
10770.00   0.15502045   0.02130900
10772.00   0.14320680   0.02169159
10774.00   0.11992496   0.02194707
10776.00   0.11323237   0.02231943
10778.00   0.16881564   0.02310582
10780.00   0.28458875   0.02427681
10782.00   0.30742705   0.02466145
10784.00   0.26055792   0.02497198
10786.00   0.22812425   0.02427344
10788.00   0.18649016   0.02185867
10790.00   0.15925258   0.01930757
10792.00   0.17153899   0.01812613
10794.00   0.21049145   0.01780258
10796.00   0.22410259   0.01789011
10798.00   0.23502524   0.01942126
10800.00   0.22806111   0.01947815
10802.00   0.19636609   0.01844192
10804.00   0.16799393   0.01719455
10806.00   0.14884087   0.01583611
10808.00   0.13676751   0.01435889
10810.00   0.14779757   0.01391218
10812.00   0.19452302   0.01455926
10814.00   0.20750777   0.01485719
10816.00   0.21073727   0.01499640
10818.00   0.19530770   0.01564649
10820.00   0.14765367   0.01731714
10822.00   0.09219628   0.01885642
10824.00   0.07096434   0.01876277
10826.00   0.06906776   0.01735551
10828.00   0.07451760   0.01644145
10830.00   0.10193603   0.01465888
10832.00   0.11858493   0.01432492
10834.00   0.12080438   0.01649628
10836.00   0.12335785   0.01826123
10838.00   0.13710175   0.01739961
10840.00   0.15634912   0.01443920
10842.00   0.18917498   0.01352005
10844.00   0.25179133   0.01426518
10846.00   0.28402033   0.01418611
10848.00   0.29206547   0.01341244
10850.00   0.28915426   0.01276122
10852.00   0.28411391   0.01285634
10854.00   0.27127686   0.01333177
10856.00   0.22915669   0.01307825
10858.00   0.12207092   0.01190378
10860.00   0.09467852   0.01165737
