# File created by shivutils (I.Shivvers)
# 
# wl(A)   flm    er(optional)
3450.00   0.19802852   0.04206617
3452.00   0.25370145   0.04463153
3454.00   0.19178054   0.04181788
3456.00   0.20361049   0.04253690
3458.00   0.15916874   0.04157760
3460.00   0.13283540   0.04015238
3462.00   0.10372335   0.03990558
3464.00   0.21785593   0.04103632
3466.00   0.22534865   0.04161765
3468.00   0.15585008   0.03969887
3470.00   0.21153857   0.04015434
3472.00   0.18134840   0.04044184
3474.00   0.14772469   0.03902997
3476.00   0.15992048   0.03929562
3478.00   0.12061460   0.03938469
3480.00   0.08125891   0.04270237
3482.00   0.26215822   0.04559198
3484.00   0.21306318   0.04419862
3486.00   0.15539338   0.04241530
3488.00   0.23190694   0.04355893
3490.00   0.18498263   0.04246975
3492.00   0.20678179   0.04222261
3494.00   0.15140986   0.04076723
3496.00   0.15628344   0.03998417
3498.00   0.23130149   0.04153464
3500.00   0.21465318   0.04258798
3502.00   0.18937884   0.03927321
3504.00   0.23499401   0.04188705
3506.00   0.19830477   0.04105013
3508.00   0.23217106   0.04167430
3510.00   0.22594644   0.04219983
3512.00   0.21711905   0.04091730
3514.00   0.15542944   0.03872554
3516.00   0.10871352   0.03793368
3518.00   0.17426544   0.04013280
3520.00   0.22473644   0.03927003
3522.00   0.19391455   0.03860085
3524.00   0.20472126   0.03996178
3526.00   0.22630788   0.03872554
3528.00   0.14690466   0.03777901
3530.00   0.21842918   0.04022557
3532.00   0.19954556   0.03898028
3534.00   0.32047525   0.04061165
3536.00   0.20244525   0.03880854
3538.00   0.18397592   0.03859853
3540.00   0.19451414   0.03973255
3542.00   0.22287184   0.04248864
3544.00   0.27479413   0.04436893
3546.00   0.23150228   0.04261309
3548.00   0.19404489   0.04125247
3550.00   0.20986819   0.04049136
3552.00   0.21524666   0.04052198
3554.00   0.28336778   0.04150328
3556.00   0.20386665   0.03933647
3558.00   0.17510544   0.03843072
3560.00   0.27043524   0.03987312
3562.00   0.18960401   0.03784642
3564.00   0.17847812   0.03808735
3566.00   0.14255822   0.03526584
3568.00   0.19610268   0.03489845
3570.00   0.18234394   0.03376016
3572.00   0.20389879   0.03510205
3574.00   0.14964463   0.03377130
3576.00   0.22427733   0.03421039
3578.00   0.21736519   0.03403175
3580.00   0.18160360   0.03300051
3582.00   0.21985564   0.03382815
3584.00   0.22016250   0.03138413
3586.00   0.20584787   0.02994018
3588.00   0.15333095   0.02874706
3590.00   0.21531489   0.03116933
3592.00   0.23852901   0.03081955
3594.00   0.20950162   0.03022887
3596.00   0.24379329   0.03059345
3598.00   0.19141465   0.02825806
3600.00   0.20160607   0.02819134
3602.00   0.22534801   0.02841467
3604.00   0.17822146   0.02703949
3606.00   0.20831203   0.02744532
3608.00   0.19901615   0.02720444
3610.00   0.22070803   0.02735204
3612.00   0.23487675   0.02846020
3614.00   0.26598093   0.02964516
3616.00   0.26681432   0.03013042
3618.00   0.22280945   0.02865057
3620.00   0.24685311   0.02840430
3622.00   0.25911549   0.02877306
3624.00   0.28629518   0.02906329
3626.00   0.22361152   0.02739651
3628.00   0.25625530   0.02805707
3630.00   0.27636227   0.02922071
3632.00   0.19637468   0.02844586
3634.00   0.23762657   0.02835553
3636.00   0.26795200   0.02809868
3638.00   0.21095857   0.02700406
3640.00   0.23735863   0.02762743
3642.00   0.27054542   0.02876516
3644.00   0.24779929   0.02802762
3646.00   0.27124029   0.02848672
3648.00   0.19902797   0.03135110
3650.00   0.21622656   0.03818292
3652.00   0.31214625   0.03588952
3654.00   0.27117610   0.03315771
3656.00   0.23763809   0.03113078
3658.00   0.29890767   0.02859100
3660.00   0.30682218   0.02821147
3662.00   0.29000816   0.03038070
3664.00   0.24600385   0.02964063
3666.00   0.28114492   0.02695798
3668.00   0.24682115   0.02462089
3670.00   0.29440391   0.02525371
3672.00   0.28806815   0.02484406
3674.00   0.29826343   0.02479013
3676.00   0.29425713   0.02408835
3678.00   0.23425102   0.02271135
3680.00   0.26918843   0.02342370
3682.00   0.26402506   0.02335750
3684.00   0.23332822   0.02213918
3686.00   0.21371442   0.02186404
3688.00   0.22162127   0.02217617
3690.00   0.24734809   0.02255208
3692.00   0.26339313   0.02322228
3694.00   0.25272527   0.02229133
3696.00   0.22793591   0.02192205
3698.00   0.24759528   0.02295227
3700.00   0.25654781   0.02334067
3702.00   0.25296745   0.02316641
3704.00   0.23818195   0.02238343
3706.00   0.25764796   0.02288341
3708.00   0.23228794   0.02204712
3710.00   0.28670198   0.02281307
3712.00   0.27210280   0.02253591
3714.00   0.23792174   0.02178538
3716.00   0.22033475   0.02134601
3718.00   0.22067188   0.02115174
3720.00   0.30417955   0.02246800
3722.00   0.26647732   0.02132020
3724.00   0.22215901   0.02080091
3726.00   0.24994498   0.02203597
3728.00   0.26530692   0.02197047
3730.00   0.27574423   0.02234295
3732.00   0.27245584   0.02213480
3734.00   0.28953102   0.02245086
3736.00   0.28213266   0.02256580
3738.00   0.28512397   0.02278143
3740.00   0.23846917   0.02228098
3742.00   0.26013941   0.02229231
3744.00   0.31783909   0.02243250
3746.00   0.21146865   0.02048493
3748.00   0.22888412   0.02031992
3750.00   0.27969402   0.02143272
3752.00   0.30845997   0.02173280
3754.00   0.31075081   0.02177595
3756.00   0.32240778   0.02149074
3758.00   0.31710231   0.02131303
3760.00   0.30130267   0.02145865
3762.00   0.31005132   0.02116264
3764.00   0.32537091   0.02103786
3766.00   0.33464605   0.02095299
3768.00   0.26095295   0.01944964
3770.00   0.31549695   0.02082469
3772.00   0.31106266   0.02115316
3774.00   0.31276962   0.02094948
3776.00   0.30766231   0.02094285
3778.00   0.29977101   0.02057160
3780.00   0.33543873   0.02091426
3782.00   0.32090089   0.02052043
3784.00   0.30240461   0.02050307
3786.00   0.32467204   0.02057550
3788.00   0.34074754   0.02063025
3790.00   0.32766104   0.02077202
3792.00   0.34497824   0.02098888
3794.00   0.33313164   0.02069556
3796.00   0.30039126   0.01983837
3798.00   0.30834776   0.01973813
3800.00   0.33797309   0.02011327
3802.00   0.35081661   0.02082383
3804.00   0.32948533   0.02027080
3806.00   0.31625295   0.01963066
3808.00   0.32120270   0.01973485
3810.00   0.27792022   0.01927240
3812.00   0.33568162   0.02022703
3814.00   0.34236088   0.02046133
3816.00   0.33852026   0.02026508
3818.00   0.32324946   0.02005824
3820.00   0.35053796   0.02027958
3822.00   0.32928729   0.01989900
3824.00   0.32741386   0.01966250
3826.00   0.34318715   0.01983161
3828.00   0.30425963   0.02028993
3830.00   0.35642788   0.02073449
3832.00   0.36472124   0.02062506
3834.00   0.37058654   0.02048314
3836.00   0.38104495   0.02032818
3838.00   0.37609845   0.02035212
3840.00   0.38177183   0.02037723
3842.00   0.36914182   0.02013839
3844.00   0.36660203   0.01989919
3846.00   0.36949155   0.02011256
3848.00   0.35684931   0.01973520
3850.00   0.36797056   0.01975211
3852.00   0.33543450   0.01909303
3854.00   0.32747108   0.01889055
3856.00   0.31943667   0.01872834
3858.00   0.34558514   0.01892180
3860.00   0.33760101   0.01877831
3862.00   0.33827457   0.01901369
3864.00   0.29928693   0.01824051
3866.00   0.32428077   0.01850613
3868.00   0.26215231   0.01737491
3870.00   0.32993731   0.01824423
3872.00   0.31918666   0.01838235
3874.00   0.30064961   0.01839181
3876.00   0.29527676   0.01823108
3878.00   0.29189655   0.01781654
3880.00   0.32577696   0.01809634
3882.00   0.28963962   0.01778511
3884.00   0.27015805   0.01744294
3886.00   0.30989969   0.01774450
3888.00   0.27209005   0.01694720
3890.00   0.26184091   0.01671220
3892.00   0.27099672   0.01710473
3894.00   0.25957769   0.01698867
3896.00   0.25563005   0.01717889
3898.00   0.26217183   0.01708085
3900.00   0.26855272   0.01735367
3902.00   0.27372581   0.01768902
3904.00   0.26505569   0.01801108
3906.00   0.26091760   0.01899187
3908.00   0.29060155   0.02000352
3910.00   0.28695863   0.02018683
3912.00   0.23692527   0.02063896
3914.00   0.23985440   0.02046755
3916.00   0.23970914   0.01816632
3918.00   0.27226621   0.01754465
3920.00   0.25974464   0.01659143
3922.00   0.25032684   0.01628843
3924.00   0.24679564   0.01596974
3926.00   0.24268766   0.01575881
3928.00   0.26805523   0.01611575
3930.00   0.26663324   0.01592987
3932.00   0.25064829   0.01598877
3934.00   0.27314800   0.01637902
3936.00   0.24089909   0.01549060
3938.00   0.25659832   0.01576709
3940.00   0.22369640   0.01556852
3942.00   0.26177883   0.01635466
3944.00   0.23520380   0.01647135
3946.00   0.26498282   0.01652434
3948.00   0.29087248   0.01660129
3950.00   0.26896277   0.01603162
3952.00   0.30389556   0.01641637
3954.00   0.29133162   0.01614088
3956.00   0.28155223   0.01589233
3958.00   0.31899878   0.01614515
3960.00   0.32922316   0.01693677
3962.00   0.29803634   0.01649549
3964.00   0.30319422   0.01599304
3966.00   0.33357143   0.01618331
3968.00   0.31558451   0.01564962
3970.00   0.32988387   0.01581877
3972.00   0.30464587   0.01559327
3974.00   0.33327425   0.01621102
3976.00   0.31872517   0.01599387
3978.00   0.33697033   0.01632053
3980.00   0.34542292   0.01657819
3982.00   0.37728506   0.01696800
3984.00   0.36298093   0.01668894
3986.00   0.36853674   0.01659304
3988.00   0.38282102   0.01689503
3990.00   0.37684104   0.01691697
3992.00   0.39186087   0.01690668
3994.00   0.38441074   0.01705708
3996.00   0.36373708   0.01723676
3998.00   0.35078216   0.01694963
4000.00   0.40841725   0.01733662
4002.00   0.38897264   0.01687335
4004.00   0.36622238   0.01660833
4006.00   0.39370686   0.01710081
4008.00   0.33938214   0.01656503
4010.00   0.36125281   0.01691874
4012.00   0.40935072   0.01751691
4014.00   0.41026121   0.01753436
4016.00   0.41395092   0.01744759
4018.00   0.39663637   0.01785360
4020.00   0.38953909   0.01851864
4022.00   0.40722826   0.01916093
4024.00   0.39148033   0.01869219
4026.00   0.39288700   0.01806543
4028.00   0.40687436   0.01756513
4030.00   0.40936410   0.01754490
4032.00   0.42461205   0.01762753
4034.00   0.40645179   0.01722294
4036.00   0.38044539   0.01693681
4038.00   0.38102949   0.01679832
4040.00   0.41598988   0.01725433
4042.00   0.41877875   0.01744728
4044.00   0.42717618   0.02154695
4046.00   0.43765953   0.02764399
4048.00   0.42498964   0.02538040
4050.00   0.42246753   0.02061481
4052.00   0.44171533   0.01840633
4054.00   0.42779967   0.01789522
4056.00   0.44074637   0.01790726
4058.00   0.41388327   0.01723497
4060.00   0.44055539   0.01731526
4062.00   0.45558822   0.01739503
4064.00   0.44479483   0.01735231
4066.00   0.41308761   0.01692733
4068.00   0.43429369   0.01713536
4070.00   0.40988353   0.01675294
4072.00   0.42298386   0.01666171
4074.00   0.39742297   0.01643286
4076.00   0.44981629   0.01819669
4078.00   0.41138473   0.01831803
4080.00   0.40503320   0.01771360
4082.00   0.39538515   0.01722459
4084.00   0.42342541   0.01720512
4086.00   0.43601185   0.01731138
4088.00   0.39777291   0.01647077
4090.00   0.41100344   0.01618332
4092.00   0.39118761   0.01577804
4094.00   0.41136464   0.01595852
4096.00   0.39131483   0.01564196
4098.00   0.36981109   0.01525634
4100.00   0.39507371   0.01554690
4102.00   0.37065351   0.01510703
4104.00   0.36345345   0.01492420
4106.00   0.38795382   0.01527092
4108.00   0.39017236   0.01530496
4110.00   0.35511953   0.01491068
4112.00   0.35414410   0.01484028
4114.00   0.36286125   0.01492011
4116.00   0.37449223   0.01508288
4118.00   0.35054481   0.01470736
4120.00   0.35037181   0.01470452
4122.00   0.36095479   0.01482825
4124.00   0.32670712   0.01439689
4126.00   0.37403813   0.01496751
4128.00   0.33775622   0.01458869
4130.00   0.33958933   0.01465847
4132.00   0.37545326   0.01539600
4134.00   0.40322119   0.01575347
4136.00   0.34183201   0.01480780
4138.00   0.32801738   0.01471777
4140.00   0.34029251   0.01497244
4142.00   0.35029188   0.01487173
4144.00   0.35189298   0.01454523
4146.00   0.34078333   0.01450453
4148.00   0.31880820   0.01481595
4150.00   0.35331559   0.01467267
4152.00   0.37123641   0.01537683
4154.00   0.33212122   0.01475942
4156.00   0.34644586   0.01468396
4158.00   0.35769081   0.01466904
4160.00   0.37461880   0.01488229
4162.00   0.37390617   0.01527333
4164.00   0.33701730   0.01540713
4166.00   0.34151435   0.01537822
4168.00   0.39287266   0.01554643
4170.00   0.36503416   0.01500371
4172.00   0.39332202   0.01508745
4174.00   0.38374406   0.01474977
4176.00   0.38609281   0.01490773
4178.00   0.36496019   0.01470179
4180.00   0.36854479   0.01473072
4182.00   0.37964416   0.01460830
4184.00   0.36498311   0.01439580
4186.00   0.36069509   0.01433598
4188.00   0.37611556   0.01441520
4190.00   0.37256193   0.01441262
4192.00   0.37095103   0.01441667
4194.00   0.37070242   0.01429396
4196.00   0.36744568   0.01413365
4198.00   0.37372094   0.01417078
4200.00   0.37735453   0.01419784
4202.00   0.39915913   0.01432777
4204.00   0.34388191   0.01374259
4206.00   0.35915306   0.01408032
4208.00   0.38833597   0.01440126
4210.00   0.35629466   0.01422600
4212.00   0.35391337   0.01410069
4214.00   0.35295671   0.01396567
4216.00   0.35977462   0.01398423
4218.00   0.35583723   0.01398183
4220.00   0.36412367   0.01397928
4222.00   0.33900285   0.01369051
4224.00   0.34897313   0.01378144
4226.00   0.37690958   0.01401696
4228.00   0.36488846   0.01391623
4230.00   0.34063169   0.01373859
4232.00   0.34691417   0.01378976
4234.00   0.37939101   0.01420769
4236.00   0.31449962   0.01370196
4238.00   0.31220677   0.01361131
4240.00   0.35422909   0.01373557
4242.00   0.34179911   0.01338498
4244.00   0.31673667   0.01359829
4246.00   0.36136121   0.01503995
4248.00   0.36198631   0.01473455
4250.00   0.34663001   0.01400260
4252.00   0.35124910   0.01355252
4254.00   0.33212164   0.01341444
4256.00   0.37427860   0.01378466
4258.00   0.33735985   0.01352277
4260.00   0.38435104   0.01381040
4262.00   0.35848668   0.01344800
4264.00   0.35083228   0.01332734
4266.00   0.36985698   0.01355642
4268.00   0.35488817   0.01346543
4270.00   0.32750860   0.01324453
4272.00   0.35476804   0.01353404
4274.00   0.34358940   0.01341760
4276.00   0.34418410   0.01357524
4278.00   0.36102846   0.01374876
4280.00   0.35806441   0.01353867
4282.00   0.34529757   0.01329367
4284.00   0.35395235   0.01347749
4286.00   0.33998632   0.01322181
4288.00   0.37260944   0.01344896
4290.00   0.38424206   0.01344200
4292.00   0.35750383   0.01327649
4294.00   0.39158905   0.01372624
4296.00   0.38215163   0.01364662
4298.00   0.38512939   0.01361512
4300.00   0.39809045   0.01365632
4302.00   0.37991130   0.01340079
4304.00   0.35271305   0.01318017
4306.00   0.37405238   0.01350217
4308.00   0.39129123   0.01375272
4310.00   0.38356489   0.01367675
4312.00   0.39694208   0.01454316
4314.00   0.37904602   0.01450491
4316.00   0.39300779   0.01425078
4318.00   0.36278668   0.01403652
4320.00   0.38217467   0.01428505
4322.00   0.37360680   0.01411796
4324.00   0.37723505   0.01412255
4326.00   0.37023354   0.01379773
4328.00   0.38288242   0.01370857
4330.00   0.38897502   0.01360615
4332.00   0.37312266   0.01340229
4334.00   0.39464352   0.01363268
4336.00   0.37640125   0.01359153
4338.00   0.38618451   0.01373627
4340.00   0.39908096   0.01391437
4342.00   0.39303109   0.01393964
4344.00   0.38976935   0.01396681
4346.00   0.39833912   0.01450471
4348.00   0.38446960   0.01442886
4350.00   0.37007868   0.01416442
4352.00   0.39105225   0.01406995
4354.00   0.36539137   0.01460633
4356.00   0.32791281   0.02175997
4358.00   0.36072898   0.02666079
4360.00   0.37083721   0.02347708
4362.00   0.33658332   0.01887724
4364.00   0.37660775   0.01571567
4366.00   0.36373878   0.01439430
4368.00   0.37616614   0.01420413
4370.00   0.38340816   0.01415499
4372.00   0.40316084   0.01448859
4374.00   0.37883309   0.01439163
4376.00   0.38105971   0.01430157
4378.00   0.40830764   0.01431089
4380.00   0.38337618   0.01392120
4382.00   0.38395122   0.01373906
4384.00   0.40329069   0.01389337
4386.00   0.40677193   0.01388145
4388.00   0.38923490   0.01375492
4390.00   0.40479404   0.01384858
4392.00   0.41131940   0.01394395
4394.00   0.42125416   0.01393383
4396.00   0.44150108   0.01419891
4398.00   0.41060784   0.01401582
4400.00   0.44968984   0.01457315
4402.00   0.46487063   0.01459730
4404.00   0.45927444   0.01444446
4406.00   0.44191080   0.01428332
4408.00   0.43732938   0.01421135
4410.00   0.44822836   0.01427208
4412.00   0.45082536   0.01437205
4414.00   0.43881214   0.01432542
4416.00   0.46358690   0.01458305
4418.00   0.43048283   0.01415959
4420.00   0.40907323   0.01392991
4422.00   0.42353308   0.01401905
4424.00   0.43473926   0.01405393
4426.00   0.43964949   0.01405261
4428.00   0.43960989   0.01412258
4430.00   0.43414178   0.01413725
4432.00   0.42418933   0.01389675
4434.00   0.44072086   0.01399563
4436.00   0.40690583   0.01364996
4438.00   0.40143481   0.01368925
4440.00   0.42403606   0.01385147
4442.00   0.40675810   0.01361451
4444.00   0.43688416   0.01386365
4446.00   0.40089834   0.01352957
4448.00   0.39338139   0.01340494
4450.00   0.39613914   0.01346297
4452.00   0.40078670   0.01335861
4454.00   0.37528256   0.01314745
4456.00   0.36661482   0.01308966
4458.00   0.37018058   0.01306684
4460.00   0.37971878   0.01313348
4462.00   0.35495332   0.01291970
4464.00   0.36339977   0.01291747
4466.00   0.35387307   0.01292300
4468.00   0.36752510   0.01296148
4470.00   0.31152278   0.01235930
4472.00   0.36375430   0.01290819
4474.00   0.32331339   0.01251711
4476.00   0.32466081   0.01259981
4478.00   0.32400411   0.01256243
4480.00   0.34972978   0.01281399
4482.00   0.32616791   0.01256870
4484.00   0.31846270   0.01244053
4486.00   0.31928328   0.01247124
4488.00   0.34397611   0.01266844
4490.00   0.33361399   0.01261073
4492.00   0.28618121   0.01225404
4494.00   0.30830920   0.01239144
4496.00   0.31621969   0.01244535
4498.00   0.30868363   0.01249258
4500.00   0.31032979   0.01244270
4502.00   0.30549055   0.01231513
4504.00   0.29325706   0.01212773
4506.00   0.29040408   0.01218027
4508.00   0.29525942   0.01219499
4510.00   0.29527801   0.01228560
4512.00   0.28698057   0.01195904
4514.00   0.29139924   0.01195808
4516.00   0.29119354   0.01198428
4518.00   0.28589261   0.01192499
4520.00   0.29584196   0.01196411
4522.00   0.29828477   0.01198252
4524.00   0.28098065   0.01188862
4526.00   0.30670029   0.01207529
4528.00   0.28094882   0.01183158
4530.00   0.28961349   0.01184191
4532.00   0.29846457   0.01200039
4534.00   0.29918313   0.01196938
4536.00   0.29001155   0.01183140
4538.00   0.28721982   0.01177394
4540.00   0.28032506   0.01167744
4542.00   0.26992822   0.01165578
4544.00   0.29672447   0.01198924
4546.00   0.29212028   0.01179649
4548.00   0.29492450   0.01175751
4550.00   0.28410321   0.01167323
4552.00   0.31226569   0.01190391
4554.00   0.32932732   0.01200391
4556.00   0.31202424   0.01188370
4558.00   0.32989863   0.01206153
4560.00   0.31374022   0.01187425
4562.00   0.33191520   0.01196578
4564.00   0.33010909   0.01187243
4566.00   0.35074762   0.01205529
4568.00   0.31488419   0.01165043
4570.00   0.33253863   0.01178185
4572.00   0.33912709   0.01190067
4574.00   0.33539802   0.01192357
4576.00   0.32974368   0.01187954
4578.00   0.35685340   0.01198803
4580.00   0.35214230   0.01196555
4582.00   0.35489786   0.01193769
4584.00   0.35250565   0.01187494
4586.00   0.34686548   0.01182037
4588.00   0.35644090   0.01191217
4590.00   0.37150916   0.01200602
4592.00   0.35903233   0.01196146
4594.00   0.34013724   0.01177739
4596.00   0.36622417   0.01207589
4598.00   0.35589156   0.01186147
4600.00   0.35948524   0.01177198
4602.00   0.36868635   0.01186022
4604.00   0.38208243   0.01201851
4606.00   0.36908513   0.01179917
4608.00   0.39672562   0.01219306
4610.00   0.38981882   0.01211744
4612.00   0.39731026   0.01215896
4614.00   0.39572656   0.01208555
4616.00   0.39408487   0.01200702
4618.00   0.43170550   0.01230131
4620.00   0.41220522   0.01217541
4622.00   0.41176194   0.01217495
4624.00   0.40609843   0.01213439
4626.00   0.40932131   0.01216731
4628.00   0.39606476   0.01201440
4630.00   0.41348022   0.01220478
4632.00   0.42827228   0.01229267
4634.00   0.45493031   0.01256002
4636.00   0.45721856   0.01252145
4638.00   0.47991401   0.01275718
4640.00   0.46306497   0.01263599
4642.00   0.47639608   0.01276590
4644.00   0.48775783   0.01279304
4646.00   0.51552260   0.01297670
4648.00   0.53328395   0.01323498
4650.00   0.52009821   0.01316489
4652.00   0.51243865   0.01312826
4654.00   0.54105210   0.01341299
4656.00   0.56688803   0.01365661
4658.00   0.54883772   0.01359179
4660.00   0.53119344   0.01350729
4662.00   0.56204116   0.01377576
4664.00   0.58174372   0.01409646
4666.00   0.60588884   0.01435139
4668.00   0.61452574   0.01454100
4670.00   0.61153448   0.01456245
4672.00   0.64331543   0.01472548
4674.00   0.63476145   0.01459707
4676.00   0.64409041   0.01455123
4678.00   0.66145504   0.01460691
4680.00   0.64841717   0.01444723
4682.00   0.65624857   0.01442700
4684.00   0.64241731   0.01424725
4686.00   0.65266377   0.01430681
4688.00   0.68886423   0.01453546
4690.00   0.67836463   0.01440924
4692.00   0.66803026   0.01434397
4694.00   0.67151928   0.01436585
4696.00   0.66671497   0.01426244
4698.00   0.71171832   0.01461959
4700.00   0.70464438   0.01450695
4702.00   0.70609957   0.01457300
4704.00   0.69099510   0.01444862
4706.00   0.71799481   0.01475608
4708.00   0.70541376   0.01469900
4710.00   0.67775339   0.01445843
4712.00   0.70100623   0.01462830
4714.00   0.72668821   0.01476331
4716.00   0.74288833   0.01478367
4718.00   0.77301335   0.01491118
4720.00   0.76878053   0.01499217
4722.00   0.76172137   0.01485473
4724.00   0.73500353   0.01466305
4726.00   0.74984640   0.01490652
4728.00   0.76495337   0.01526901
4730.00   0.77298290   0.01529164
4732.00   0.75401813   0.01533196
4734.00   0.75388247   0.01533555
4736.00   0.73046875   0.01525513
4738.00   0.76585388   0.01563129
4740.00   0.77108407   0.01577172
4742.00   0.78507304   0.01602445
4744.00   0.77883035   0.01581075
4746.00   0.77950162   0.01547571
4748.00   0.79423225   0.01530964
4750.00   0.80467170   0.01528489
4752.00   0.80292487   0.01534138
4754.00   0.82492280   0.01545703
4756.00   0.79652542   0.01514833
4758.00   0.80612928   0.01505964
4760.00   0.79097778   0.01485709
4762.00   0.77534103   0.01465499
4764.00   0.77091312   0.01465731
4766.00   0.77527148   0.01462523
4768.00   0.76366872   0.01449837
4770.00   0.76414871   0.01448736
4772.00   0.76188380   0.01441174
4774.00   0.77430791   0.01454518
4776.00   0.72818011   0.01442239
4778.00   0.75618100   0.01465582
4780.00   0.70564294   0.01426397
4782.00   0.69556940   0.01406633
4784.00   0.70738119   0.01405935
4786.00   0.69463640   0.01383766
4788.00   0.69081688   0.01386954
4790.00   0.65307134   0.01358325
4792.00   0.67032087   0.01370186
4794.00   0.64170361   0.01342702
4796.00   0.60728687   0.01313142
4798.00   0.63742077   0.01338031
4800.00   0.63068753   0.01327791
4802.00   0.58403033   0.01289783
4804.00   0.56128198   0.01270457
4806.00   0.54767877   0.01258914
4808.00   0.55637640   0.01271928
4810.00   0.56009179   0.01274738
4812.00   0.53759098   0.01248134
4814.00   0.55119723   0.01265070
4816.00   0.50728631   0.01227823
4818.00   0.51381999   0.01235196
4820.00   0.50958753   0.01238176
4822.00   0.51438791   0.01246068
4824.00   0.51317251   0.01246746
4826.00   0.52816457   0.01255680
4828.00   0.52037448   0.01257376
4830.00   0.51519918   0.01249833
4832.00   0.48150474   0.01222044
4834.00   0.50956959   0.01244036
4836.00   0.49961218   0.01237880
4838.00   0.48506269   0.01235747
4840.00   0.50228846   0.01251796
4842.00   0.48215622   0.01226986
4844.00   0.47292405   0.01215495
4846.00   0.47937638   0.01212080
4848.00   0.47891241   0.01211412
4850.00   0.47175255   0.01209373
4852.00   0.45873818   0.01202055
4854.00   0.46323606   0.01189682
4856.00   0.47826585   0.01198755
4858.00   0.46515211   0.01184082
4860.00   0.45513174   0.01176885
4862.00   0.47994813   0.01206964
4864.00   0.49430731   0.01217726
4866.00   0.46617579   0.01187397
4868.00   0.46934646   0.01186786
4870.00   0.46621624   0.01177948
4872.00   0.46232453   0.01181231
4874.00   0.43682647   0.01157466
4876.00   0.45896032   0.01179681
4878.00   0.43559265   0.01163788
4880.00   0.44511607   0.01172863
4882.00   0.44559711   0.01173863
4884.00   0.41974899   0.01142567
4886.00   0.43176118   0.01147370
4888.00   0.43279746   0.01141804
4890.00   0.44296369   0.01153182
4892.00   0.41707787   0.01133915
4894.00   0.43414626   0.01149665
4896.00   0.42336273   0.01138757
4898.00   0.44865835   0.01155157
4900.00   0.44638208   0.01148696
4902.00   0.47023642   0.01171733
4904.00   0.46206054   0.01165214
4906.00   0.46956778   0.01168728
4908.00   0.47966820   0.01184446
4910.00   0.47440538   0.01177177
4912.00   0.46692920   0.01169991
4914.00   0.48955572   0.01197559
4916.00   0.46588540   0.01184346
4918.00   0.51723599   0.01210808
4920.00   0.48554212   0.01188414
4922.00   0.48138011   0.01209390
4924.00   0.51088774   0.01195249
4926.00   0.50643224   0.01196865
4928.00   0.52172589   0.01204141
4930.00   0.52321130   0.01197731
4932.00   0.51514995   0.01195137
4934.00   0.51866794   0.01198075
4936.00   0.52273989   0.01201176
4938.00   0.52234906   0.01206968
4940.00   0.52246130   0.01206356
4942.00   0.52856541   0.01206610
4944.00   0.50624877   0.01189275
4946.00   0.49761605   0.01179810
4948.00   0.51259524   0.01190149
4950.00   0.51482660   0.01193014
4952.00   0.55350345   0.01227583
4954.00   0.53844529   0.01237041
4956.00   0.51458895   0.01200574
4958.00   0.52665460   0.01204467
4960.00   0.51375580   0.01199960
4962.00   0.53494006   0.01222059
4964.00   0.53297096   0.01217071
4966.00   0.51210678   0.01206330
4968.00   0.51918811   0.01214694
4970.00   0.54667133   0.01248032
4972.00   0.55204391   0.01269489
4974.00   0.53261429   0.01266471
4976.00   0.52966923   0.01287687
4978.00   0.55216557   0.01332027
4980.00   0.51263428   0.01326185
4982.00   0.52498949   0.01354541
4984.00   0.50929773   0.01346665
4986.00   0.53231192   0.01347849
4988.00   0.53477174   0.01325685
4990.00   0.52514702   0.01297750
4992.00   0.53052306   0.01283186
4994.00   0.54159492   0.01265125
4996.00   0.53774792   0.01253634
4998.00   0.55599040   0.01251651
5000.00   0.57097834   0.01254947
5002.00   0.58533198   0.01256587
5004.00   0.59815061   0.01265251
5006.00   0.58223486   0.01248298
5008.00   0.61094379   0.01265829
5010.00   0.60280150   0.01261005
5012.00   0.59116054   0.01248390
5014.00   0.62766880   0.01272567
5016.00   0.66144305   0.01297080
5018.00   0.63705558   0.01287381
5020.00   0.65451944   0.01304152
5022.00   0.66675514   0.01312820
5024.00   0.67939401   0.01317893
5026.00   0.67424452   0.01304602
5028.00   0.70706099   0.01336657
5030.00   0.71915299   0.01348498
5032.00   0.75623631   0.01376302
5034.00   0.72733623   0.01351343
5036.00   0.73407191   0.01355360
5038.00   0.77594185   0.01379456
5040.00   0.74279004   0.01355655
5042.00   0.73983902   0.01354245
5044.00   0.77091527   0.01376707
5046.00   0.79076105   0.01393356
5048.00   0.75435841   0.01360047
5050.00   0.77899909   0.01384221
5052.00   0.75866926   0.01371636
5054.00   0.80393004   0.01396951
5056.00   0.79753655   0.01394339
5058.00   0.81062376   0.01405456
5060.00   0.79352129   0.01399319
5062.00   0.78778702   0.01404354
5064.00   0.78683597   0.01411617
5066.00   0.78642493   0.01417782
5068.00   0.74521297   0.01408237
5070.00   0.72221255   0.01389028
5072.00   0.73536950   0.01393191
5074.00   0.72968000   0.01390615
5076.00   0.73083371   0.01385743
5078.00   0.72928286   0.01392711
5080.00   0.70761198   0.01417740
5082.00   0.71123743   0.01466189
5084.00   0.69562763   0.01488739
5086.00   0.69702333   0.01493699
5088.00   0.66206622   0.01438653
5090.00   0.66866314   0.01405509
5092.00   0.65609086   0.01367718
5094.00   0.64028019   0.01336214
5096.00   0.62300152   0.01331598
5098.00   0.63010782   0.01341112
5100.00   0.59131938   0.01312540
5102.00   0.59788454   0.01309912
5104.00   0.58501953   0.01287901
5106.00   0.59028929   0.01277113
5108.00   0.59740371   0.01278214
5110.00   0.56957394   0.01262682
5112.00   0.53992122   0.01233525
5114.00   0.54173642   0.01245269
5116.00   0.54237229   0.01244599
5118.00   0.54055202   0.01239336
5120.00   0.51073664   0.01208524
5122.00   0.53163952   0.01226070
5124.00   0.52341986   0.01219374
5126.00   0.49816668   0.01196384
5128.00   0.48874491   0.01187638
5130.00   0.50266856   0.01199558
5132.00   0.49146155   0.01199611
5134.00   0.48107988   0.01191897
5136.00   0.48175958   0.01192953
5138.00   0.48942006   0.01203194
5140.00   0.49497578   0.01201732
5142.00   0.46755603   0.01184407
5144.00   0.46813270   0.01190792
5146.00   0.48291391   0.01214854
5148.00   0.48798358   0.01233101
5150.00   0.47107661   0.01228960
5152.00   0.48276219   0.01261537
5154.00   0.47823447   0.01261174
5156.00   0.48574302   0.01259167
5158.00   0.46324867   0.01228048
5160.00   0.46939516   0.01220897
5162.00   0.46943998   0.01214616
5164.00   0.47279412   0.01201427
5166.00   0.46137062   0.01193800
5168.00   0.47600913   0.01204527
5170.00   0.45243666   0.01181874
5172.00   0.46680444   0.01197120
5174.00   0.44314101   0.01181178
5176.00   0.45105720   0.01192670
5178.00   0.47325185   0.01213066
5180.00   0.44102603   0.01186402
5182.00   0.46027094   0.01198075
5184.00   0.43459702   0.01179068
5186.00   0.46257639   0.01210714
5188.00   0.45241883   0.01198818
5190.00   0.44204646   0.01192560
5192.00   0.45830947   0.01210932
5194.00   0.42377621   0.01175188
5196.00   0.45007759   0.01218374
5198.00   0.41819677   0.01204504
5200.00   0.45358279   0.01237982
5202.00   0.44224480   0.01221120
5204.00   0.44276392   0.01215965
5206.00   0.42520300   0.01198022
5208.00   0.43122521   0.01213168
5210.00   0.44927159   0.01236948
5212.00   0.43987766   0.01221748
5214.00   0.42915580   0.01208047
5216.00   0.42516148   0.01209955
5218.00   0.44728854   0.01243620
5220.00   0.43382558   0.01235781
5222.00   0.40925488   0.01209657
5224.00   0.42280245   0.01218627
5226.00   0.44773450   0.01246316
5228.00   0.43290839   0.01227045
5230.00   0.39988768   0.01190948
5232.00   0.43729949   0.01227553
5234.00   0.44500294   0.01248051
5236.00   0.43048748   0.01236565
5238.00   0.43982509   0.01250784
5240.00   0.42947206   0.01240812
5242.00   0.42726889   0.01234630
5244.00   0.41989133   0.01234303
5246.00   0.41638669   0.01225648
5248.00   0.43742418   0.01254751
5250.00   0.42434916   0.01240758
5252.00   0.43771741   0.01252651
5254.00   0.40107217   0.01229424
5256.00   0.42342162   0.01266570
5258.00   0.42155594   0.01267391
5260.00   0.40794647   0.01254380
5262.00   0.42275828   0.01263270
5264.00   0.40560612   0.01247151
5266.00   0.40336472   0.01239602
5268.00   0.43300697   0.01268211
5270.00   0.43131912   0.01277927
5272.00   0.44776881   0.01294931
5274.00   0.45089701   0.01306299
5276.00   0.44958073   0.01310859
5278.00   0.43931663   0.01305777
5280.00   0.43506429   0.01295346
5282.00   0.46982059   0.01339431
5284.00   0.50252163   0.01380937
5286.00   0.47693244   0.01358934
5288.00   0.46027341   0.01340942
5290.00   0.46191511   0.01349890
5292.00   0.47927597   0.01369151
5294.00   0.47357750   0.01365905
5296.00   0.46742958   0.01366040
5298.00   0.48520243   0.01385318
5300.00   0.48356953   0.01390481
5302.00   0.50279105   0.01413224
5304.00   0.47924739   0.01400453
5306.00   0.48048875   0.01406478
5308.00   0.47183198   0.01392481
5310.00   0.48461175   0.01415504
5312.00   0.48224813   0.01419729
5314.00   0.48146248   0.01423836
5316.00   0.50110555   0.01440691
5318.00   0.52200431   0.01458142
5320.00   0.51487160   0.01460637
5322.00   0.54375929   0.01502456
5324.00   0.51318711   0.01474904
5326.00   0.53181010   0.01494946
5328.00   0.56458569   0.01529421
5330.00   0.54677284   0.01526691
5332.00   0.56872106   0.01551259
5334.00   0.59642297   0.01580079
5336.00   0.55667436   0.01550290
5338.00   0.57003921   0.01572469
5340.00   0.57455683   0.01593474
5342.00   0.58729911   0.01601170
5344.00   0.60309535   0.01620642
5346.00   0.59619117   0.01631537
5348.00   0.61989748   0.01681492
5350.00   0.59081149   0.01642928
5352.00   0.61468571   0.01674093
5354.00   0.59308368   0.01668673
5356.00   0.61737978   0.01691215
5358.00   0.67217010   0.01736515
5360.00   0.64923650   0.01710325
5362.00   0.61074030   0.01676697
5364.00   0.64280528   0.01693099
5366.00   0.63976729   0.01697806
5368.00   0.67150962   0.01732443
5370.00   0.65300828   0.01716628
5372.00   0.63558418   0.01717198
5374.00   0.65792179   0.01754551
5376.00   0.67110234   0.01769693
5378.00   0.66428167   0.01770446
5380.00   0.68978792   0.01783278
5382.00   0.70279598   0.01803042
5384.00   0.66906691   0.01791353
5386.00   0.69118541   0.01803232
5388.00   0.69411182   0.01820516
5390.00   0.69013202   0.01831968
5392.00   0.69132257   0.01850510
5394.00   0.70874214   0.01845685
5396.00   0.69483805   0.01849374
5398.00   0.69627160   0.01851843
5400.00   0.69971198   0.01861542
5402.00   0.70144373   0.01873648
5404.00   0.68270761   0.01861804
5406.00   0.70586079   0.01886565
5408.00   0.74333930   0.01929114
5410.00   0.73531693   0.01933256
5412.00   0.73357171   0.01935694
5414.00   0.75786740   0.01986147
5416.00   0.76630855   0.01992823
5418.00   0.75495279   0.01999282
5420.00   0.72818679   0.01982048
5422.00   0.74668026   0.02019731
5424.00   0.77764374   0.02038915
5426.00   0.78240001   0.02041337
5428.00   0.75150728   0.02019928
5430.00   0.78483069   0.00714813
5432.00   0.78239888   0.00714425
5434.00   0.78796613   0.00716526
5436.00   0.80123866   0.00719675
5438.00   0.80934483   0.00725428
5440.00   0.81709558   0.00725163
5442.00   0.82199061   0.00742531
5444.00   0.82080054   0.00793607
5446.00   0.82026333   0.00838867
5448.00   0.83030617   0.00830375
5450.00   0.84955639   0.00772686
5452.00   0.85687870   0.00785515
5454.00   0.86137652   0.00855374
5456.00   0.85602206   0.00897021
5458.00   0.83423942   0.00921502
5460.00   0.81385410   0.00938538
5462.00   0.80730814   0.00956876
5464.00   0.80834484   0.00973620
5466.00   0.81804019   0.00941148
5468.00   0.84780598   0.00829362
5470.00   0.85917717   0.00769343
5472.00   0.85671061   0.00744938
5474.00   0.85203212   0.00737273
5476.00   0.84809673   0.00737235
5478.00   0.84355664   0.00752482
5480.00   0.84394944   0.00796993
5482.00   0.85410094   0.00897704
5484.00   0.84957796   0.00921949
5486.00   0.82746750   0.00907358
5488.00   0.81634611   0.00871813
5490.00   0.82773256   0.00793455
5492.00   0.84392726   0.00698979
5494.00   0.83656603   0.00684791
5496.00   0.80842811   0.00741634
5498.00   0.80207157   0.00756548
5500.00   0.80744380   0.00771414
5502.00   0.81485772   0.00768355
5504.00   0.82907140   0.00735825
5506.00   0.84143615   0.00698996
5508.00   0.83924288   0.00686672
5510.00   0.82534218   0.00686254
5512.00   0.82703394   0.00707692
5514.00   0.83827490   0.00770544
5516.00   0.84976596   0.00795225
5518.00   0.86909360   0.00785577
5520.00   0.88179332   0.00772822
5522.00   0.87502068   0.00776547
5524.00   0.85600179   0.00786038
5526.00   0.85320842   0.00780248
5528.00   0.85758549   0.00762416
5530.00   0.86613429   0.00745285
5532.00   0.88194329   0.00717594
5534.00   0.89885587   0.00699593
5536.00   0.91609240   0.00699871
5538.00   0.93354213   0.00711817
5540.00   0.94642627   0.00728574
5542.00   0.95601213   0.00764683
5544.00   0.96436405   0.00770918
5546.00   0.97162879   0.00753593
5548.00   0.97559804   0.00738742
5550.00   0.97311854   0.00727025
5552.00   0.97011060   0.00718058
5554.00   0.97608614   0.00717779
5556.00   0.98802984   0.00725128
5558.00   1.00064754   0.00732435
5560.00   1.01840854   0.00731847
5562.00   1.03282702   0.00754313
5564.00   1.04489112   0.00796730
5566.00   1.05444884   0.00852052
5568.00   1.05947316   0.00912116
5570.00   1.06003439   0.00975842
5572.00   1.06882823   0.01079279
5574.00   1.08622277   0.01277772
5576.00   1.09738350   0.01322572
5578.00   1.10427213   0.01233661
5580.00   1.10957468   0.01114928
5582.00   1.11302769   0.01013708
5584.00   1.11521733   0.00902356
5586.00   1.12413061   0.00833566
5588.00   1.13784182   0.00817269
5590.00   1.15322566   0.00792410
5592.00   1.17871773   0.00782243
5594.00   1.19368756   0.00774761
5596.00   1.18728137   0.00766766
5598.00   1.17339945   0.00761412
5600.00   1.17897987   0.00760809
5602.00   1.19891608   0.00765583
5604.00   1.21033216   0.00769644
5606.00   1.22065675   0.00778165
5608.00   1.22869170   0.00781394
5610.00   1.23218882   0.00774171
5612.00   1.23574555   0.00767536
5614.00   1.24556673   0.00776580
5616.00   1.25938773   0.00797555
5618.00   1.27444446   0.00808981
5620.00   1.29637301   0.00819506
5622.00   1.31048417   0.00824367
5624.00   1.31523621   0.00821164
5626.00   1.31905723   0.00817300
5628.00   1.32876098   0.00820082
5630.00   1.34131813   0.00826408
5632.00   1.34584677   0.00819374
5634.00   1.33915269   0.00793157
5636.00   1.34375834   0.00784540
5638.00   1.35904300   0.00792253
5640.00   1.37315595   0.00798539
5642.00   1.37957203   0.00790193
5644.00   1.38357508   0.00779105
5646.00   1.39726901   0.00803698
5648.00   1.42790282   0.00878993
5650.00   1.43437469   0.00893618
5652.00   1.42251360   0.00869912
5654.00   1.41016197   0.00843466
5656.00   1.39754939   0.00814386
5658.00   1.38599622   0.00785649
5660.00   1.38542271   0.00777785
5662.00   1.39816093   0.00780956
5664.00   1.39360797   0.00806987
5666.00   1.37328863   0.00880171
5668.00   1.36108291   0.00908945
5670.00   1.36038613   0.00885335
5672.00   1.36051917   0.00846403
5674.00   1.35091877   0.00825210
5676.00   1.33454025   0.00805401
5678.00   1.32741475   0.00806725
5680.00   1.32555914   0.00825865
5682.00   1.32493675   0.00852520
5684.00   1.33080649   0.00895479
5686.00   1.33212411   0.00934358
5688.00   1.31883800   0.00960549
5690.00   1.29642200   0.00979717
5692.00   1.28806674   0.00977476
5694.00   1.29008150   0.00957926
5696.00   1.28792322   0.00923616
5698.00   1.28527522   0.00847513
5700.00   1.28225267   0.00790094
5702.00   1.27860129   0.00771110
5704.00   1.27464342   0.00786725
5706.00   1.27149439   0.00867646
5708.00   1.27028370   0.01062675
5710.00   1.26507246   0.01076003
5712.00   1.26014292   0.00938314
5714.00   1.24837661   0.00828034
5716.00   1.22574663   0.00794361
5718.00   1.19959056   0.00786875
5720.00   1.17994595   0.00758484
5722.00   1.16029406   0.00723773
5724.00   1.15417159   0.00707395
5726.00   1.16454184   0.00706027
5728.00   1.16939926   0.00709637
5730.00   1.16993797   0.00721740
5732.00   1.16856802   0.00736393
5734.00   1.16572762   0.00750545
5736.00   1.16115177   0.00767730
5738.00   1.15564907   0.00758945
5740.00   1.14913738   0.00714555
5742.00   1.14101410   0.00693421
5744.00   1.12994635   0.00691817
5746.00   1.11956668   0.00693064
5748.00   1.11243784   0.00689536
5750.00   1.10686600   0.00685688
5752.00   1.09798431   0.00684249
5754.00   1.08470154   0.00685597
5756.00   1.07650268   0.00685254
5758.00   1.07127845   0.00676067
5760.00   1.06754124   0.00680932
5762.00   1.06520450   0.00711864
5764.00   1.06417227   0.00751276
5766.00   1.06392384   0.00771093
5768.00   1.06891358   0.00790450
5770.00   1.06109142   0.00779037
5772.00   1.04056609   0.00723425
5774.00   1.02313030   0.00684246
5776.00   1.00538051   0.00670189
5778.00   0.99330014   0.00667885
5780.00   1.00008023   0.00668941
5782.00   1.02516484   0.00678328
5784.00   1.03403044   0.00686533
5786.00   1.03826737   0.00701033
5788.00   1.03641152   0.00707864
5790.00   1.02673054   0.00708564
5792.00   1.01370537   0.00704443
5794.00   0.99932772   0.00693992
5796.00   0.98216516   0.00677062
5798.00   0.97413170   0.00668649
5800.00   0.97339338   0.00665342
5802.00   0.97271323   0.00662326
5804.00   0.97768927   0.00662680
5806.00   0.97814345   0.00661376
5808.00   0.96782291   0.00655222
5810.00   0.95168233   0.00646659
5812.00   0.94135952   0.00641772
5814.00   0.93098468   0.00631799
5816.00   0.92622441   0.00639698
5818.00   0.92897779   0.00673144
5820.00   0.92927116   0.00689801
5822.00   0.92312646   0.00677514
5824.00   0.91628498   0.00654336
5826.00   0.91839683   0.00647301
5828.00   0.93028867   0.00648395
5830.00   0.92973799   0.00646435
5832.00   0.91847664   0.00645065
5834.00   0.91189343   0.00643812
5836.00   0.91104746   0.00642371
5838.00   0.91166079   0.00641446
5840.00   0.91071284   0.00642090
5842.00   0.90965623   0.00644265
5844.00   0.90749395   0.00644193
5846.00   0.90311939   0.00639758
5848.00   0.90103412   0.00641496
5850.00   0.90300870   0.00645206
5852.00   0.90297139   0.00656586
5854.00   0.89485949   0.00684864
5856.00   0.88186437   0.00723315
5858.00   0.88195056   0.00731029
5860.00   0.89085037   0.00713955
5862.00   0.90203470   0.00702713
5864.00   0.92151010   0.00680086
5866.00   0.93774909   0.00670680
5868.00   0.94771659   0.00691915
5870.00   0.95314568   0.00724848
5872.00   0.95068055   0.00728136
5874.00   0.93384117   0.00711990
5876.00   0.93190676   0.00698198
5878.00   0.94320309   0.00656763
5880.00   0.94741035   0.00653117
5882.00   0.94245118   0.00694572
5884.00   0.93140841   0.00764902
5886.00   0.91370511   0.00863212
5888.00   0.88628680   0.01002772
5890.00   0.86732030   0.01051301
5892.00   0.84443671   0.01053433
5894.00   0.83770466   0.01034562
5896.00   0.84927636   0.00981463
5898.00   0.87002569   0.00911008
5900.00   0.89500076   0.00840229
5902.00   0.92825657   0.00753793
5904.00   0.94781864   0.00707123
5906.00   0.95857173   0.00706623
5908.00   0.96831805   0.00695729
5910.00   0.97738642   0.00682426
5912.00   0.98115140   0.00675062
5914.00   0.97476959   0.00680403
5916.00   0.96168727   0.00693608
5918.00   0.95905173   0.00691809
5920.00   0.96336395   0.00669061
5922.00   0.96594733   0.00672288
5924.00   0.96770561   0.00699718
5926.00   0.97269768   0.00719777
5928.00   0.98303503   0.00724198
5930.00   0.99617016   0.00722089
5932.00   1.00772929   0.00722384
5934.00   1.02548659   0.00721914
5936.00   1.02397561   0.00719608
5938.00   1.00083363   0.00718361
5940.00   0.98554099   0.00710637
5942.00   0.97994006   0.00692891
5944.00   0.97923613   0.00671478
5946.00   0.98211116   0.00653057
5948.00   0.98997188   0.00629806
5950.00   0.99720591   0.00635297
5952.00   1.00902522   0.00673620
5954.00   1.01492643   0.00696804
5956.00   1.01508439   0.00715854
5958.00   1.01228452   0.00722500
5960.00   1.00719655   0.00701509
5962.00   0.99913001   0.00655845
5964.00   0.99643534   0.00644019
5966.00   0.99942142   0.00657910
5968.00   0.99788362   0.00663558
5970.00   0.99123156   0.00648232
5972.00   0.98682302   0.00664242
5974.00   0.98970354   0.00755300
5976.00   0.99575382   0.00864858
5978.00   0.99285978   0.00866385
5980.00   0.98129267   0.00764142
5982.00   0.97525251   0.00712473
5984.00   0.96929955   0.00655250
5986.00   0.96687657   0.00626337
5988.00   0.97074258   0.00651721
5990.00   0.97664124   0.00695664
5992.00   0.97614318   0.00699531
5994.00   0.97101748   0.00679812
5996.00   0.96855986   0.00672225
5998.00   0.96131968   0.00662201
6000.00   0.96467251   0.00660250
6002.00   0.98613912   0.00665206
6004.00   1.00813568   0.00678219
6006.00   1.01043296   0.00708166
6008.00   0.99981409   0.00758748
6010.00   0.99410373   0.00749424
6012.00   0.98506856   0.00668354
6014.00   0.98025745   0.00627874
6016.00   0.97834384   0.00627461
6018.00   0.97956145   0.00637696
6020.00   0.98633999   0.00645378
6022.00   0.99749416   0.00657224
6024.00   0.99770284   0.00659661
6026.00   0.98863780   0.00654063
6028.00   0.98228276   0.00651720
6030.00   0.97426939   0.00655100
6032.00   0.96824628   0.00650317
6034.00   0.96670949   0.00627495
6036.00   0.96717733   0.00595067
6038.00   0.96343166   0.00579764
6040.00   0.95529252   0.00575951
6042.00   0.95207602   0.00571353
6044.00   0.95321155   0.00570996
6046.00   0.95237893   0.00571417
6048.00   0.95011032   0.00570599
6050.00   0.94512838   0.00572067
6052.00   0.93251061   0.00583173
6054.00   0.91046935   0.00608036
6056.00   0.89945465   0.00605780
6058.00   0.89790851   0.00575819
6060.00   0.89107507   0.00557849
6062.00   0.87832832   0.00549764
6064.00   0.86406910   0.00550325
6066.00   0.85090691   0.00565200
6068.00   0.83725715   0.00593990
6070.00   0.82761699   0.00599156
6072.00   0.82004899   0.00590321
6074.00   0.81595963   0.00578219
6076.00   0.81708920   0.00554317
6078.00   0.81846017   0.00532996
6080.00   0.81749469   0.00523994
6082.00   0.81561965   0.00522638
6084.00   0.81263769   0.00525511
6086.00   0.81027114   0.00536596
6088.00   0.80299616   0.00546192
6090.00   0.78748083   0.00563736
6092.00   0.77681178   0.00570570
6094.00   0.77579576   0.00554847
6096.00   0.77950191   0.00530693
6098.00   0.78116727   0.00534402
6100.00   0.78493041   0.00566438
6102.00   0.78439051   0.00567417
6104.00   0.77932250   0.00543252
6106.00   0.77603257   0.00529320
6108.00   0.77651513   0.00530741
6110.00   0.77669042   0.00538173
6112.00   0.77152616   0.00544690
6114.00   0.76263934   0.00553194
6116.00   0.75325841   0.00563145
6118.00   0.73967981   0.00582076
6120.00   0.73010552   0.00586965
6122.00   0.72410929   0.00574180
6124.00   0.72028244   0.00559044
6126.00   0.71834219   0.00553792
6128.00   0.71859157   0.00552939
6130.00   0.71764368   0.00553126
6132.00   0.71707529   0.00561386
6134.00   0.71549839   0.00558639
6136.00   0.71305895   0.00546296
6138.00   0.71016192   0.00530823
6140.00   0.70637161   0.00512022
6142.00   0.70221770   0.00490759
6144.00   0.70111138   0.00483936
6146.00   0.70416683   0.00493003
6148.00   0.70339519   0.00494366
6150.00   0.70015037   0.00494039
6152.00   0.69721180   0.00494687
6154.00   0.69530904   0.00497896
6156.00   0.69357234   0.00501324
6158.00   0.69102567   0.00500199
6160.00   0.68759596   0.00492879
6162.00   0.68538469   0.00495478
6164.00   0.68474889   0.00509254
6166.00   0.68271112   0.00515359
6168.00   0.67879820   0.00514307
6170.00   0.67431492   0.00507564
6172.00   0.67011368   0.00492136
6174.00   0.66525269   0.00464678
6176.00   0.66431445   0.00455058
6178.00   0.66924769   0.00460887
6180.00   0.66929382   0.00461804
6182.00   0.66426009   0.00460023
6184.00   0.65866190   0.00457996
6186.00   0.65470630   0.00456382
6188.00   0.65122831   0.00454829
6190.00   0.65123039   0.00454780
6192.00   0.65516633   0.00456803
6194.00   0.65813571   0.00457398
6196.00   0.66393352   0.00453825
6198.00   0.66575319   0.00455543
6200.00   0.65863442   0.00467470
6202.00   0.64751256   0.00484569
6204.00   0.64579040   0.00497857
6206.00   0.65172046   0.00519112
6208.00   0.65342414   0.00517496
6210.00   0.65540135   0.00488373
6212.00   0.65498626   0.00469946
6214.00   0.65040964   0.00474086
6216.00   0.64471698   0.00484312
6218.00   0.64297360   0.00480693
6220.00   0.64379066   0.00466902
6222.00   0.64367342   0.00465543
6224.00   0.64313751   0.00475217
6226.00   0.64393914   0.00478932
6228.00   0.64636832   0.00476819
6230.00   0.64945436   0.00472074
6232.00   0.65247357   0.00463941
6234.00   0.65584904   0.00450026
6236.00   0.65855998   0.00458177
6238.00   0.65871811   0.00495679
6240.00   0.66339850   0.00506995
6242.00   0.67310530   0.00496519
6244.00   0.68332142   0.00481944
6246.00   0.69166505   0.00468444
6248.00   0.69946474   0.00453735
6250.00   0.70734006   0.00463161
6252.00   0.71540290   0.00506755
6254.00   0.72255087   0.00517289
6256.00   0.72872722   0.00506432
6258.00   0.73488551   0.00494903
6260.00   0.74138063   0.00487431
6262.00   0.74785960   0.00481006
6264.00   0.75374150   0.00479155
6266.00   0.75825125   0.00482521
6268.00   0.76542360   0.00483373
6270.00   0.77482784   0.00483307
6272.00   0.78416336   0.00484510
6274.00   0.79411995   0.00483274
6276.00   0.80339587   0.00486752
6278.00   0.80955017   0.00509515
6280.00   0.81354666   0.00553037
6282.00   0.81575358   0.00557255
6284.00   0.81495953   0.00522878
6286.00   0.81451684   0.00508957
6288.00   0.81509191   0.00519958
6290.00   0.81423378   0.00531740
6292.00   0.80835867   0.00526283
6294.00   0.79829103   0.00510725
6296.00   0.80047870   0.00510554
6298.00   0.81454253   0.00523052
6300.00   0.82376403   0.00529282
6302.00   0.83301717   0.00531054
6304.00   0.83907300   0.00534413
6306.00   0.83931851   0.00546002
6308.00   0.83570993   0.00559691
6310.00   0.83374369   0.00550607
6312.00   0.83026791   0.00510350
6314.00   0.82924032   0.00494139
6316.00   0.83193207   0.00492187
6318.00   0.83164072   0.00490202
6320.00   0.82501793   0.00484339
6322.00   0.81667078   0.00478901
6324.00   0.81505173   0.00478552
6326.00   0.81891811   0.00483670
6328.00   0.81894296   0.00484442
6330.00   0.81729686   0.00483628
6332.00   0.81607050   0.00482055
6334.00   0.81569260   0.00472769
6336.00   0.81507951   0.00469941
6338.00   0.81375098   0.00491119
6340.00   0.81295413   0.00526194
6342.00   0.80463481   0.00575132
6344.00   0.78033936   0.00675433
6346.00   0.77458876   0.00695705
6348.00   0.79306549   0.00629857
6350.00   0.80973226   0.00545262
6352.00   0.80523014   0.00500128
6354.00   0.78902107   0.00471736
6356.00   0.78446817   0.00457105
6358.00   0.78940707   0.00474046
6360.00   0.78454095   0.00475195
6362.00   0.77052546   0.00468647
6364.00   0.75783688   0.00463271
6366.00   0.75020993   0.00460992
6368.00   0.74503845   0.00461159
6370.00   0.74121040   0.00468898
6372.00   0.74042034   0.00492905
6374.00   0.73799276   0.00493234
6376.00   0.73609674   0.00467675
6378.00   0.73255539   0.00455903
6380.00   0.72822690   0.00468776
6382.00   0.72142631   0.00490740
6384.00   0.70758551   0.00505354
6386.00   0.68537396   0.00515513
6388.00   0.67116147   0.00540870
6390.00   0.65660369   0.00606420
6392.00   0.65133870   0.00613072
6394.00   0.66469163   0.00535634
6396.00   0.67472804   0.00431976
6398.00   0.65529209   0.00396088
6400.00   0.61346442   0.00406681
6402.00   0.59946114   0.00401770
6404.00   0.60553557   0.00406470
6406.00   0.60358185   0.00407164
6408.00   0.59708279   0.00405790
6410.00   0.59015208   0.00403751
6412.00   0.58396053   0.00401223
6414.00   0.57793379   0.00398136
6416.00   0.57471013   0.00396213
6418.00   0.57457626   0.00395033
6420.00   0.57348937   0.00394027
6422.00   0.57382190   0.00395026
6424.00   0.57209462   0.00393536
6426.00   0.56631178   0.00382026
6428.00   0.55870384   0.00370098
6430.00   0.55409229   0.00387435
6432.00   0.55189729   0.00425592
6434.00   0.54714286   0.00461922
6436.00   0.53540832   0.00529652
6438.00   0.53378028   0.00547808
6440.00   0.54793656   0.00489708
6442.00   0.56688684   0.00402541
6444.00   0.57685447   0.00389054
6446.00   0.58316326   0.00430133
6448.00   0.58835518   0.00432603
6450.00   0.58968008   0.00415122
6452.00   0.59306830   0.00412246
6454.00   0.59886223   0.00431090
6456.00   0.60471195   0.00446082
6458.00   0.60864568   0.00435938
6460.00   0.61139894   0.00407815
6462.00   0.61637729   0.00399565
6464.00   0.62246311   0.00400481
6466.00   0.62955981   0.00406329
6468.00   0.63941002   0.00420027
6470.00   0.64765543   0.00435373
6472.00   0.65163279   0.00452805
6474.00   0.65317798   0.00470583
6476.00   0.65633714   0.00471156
6478.00   0.65800452   0.00451451
6480.00   0.66375709   0.00443767
6482.00   0.67407775   0.00440429
6484.00   0.68320209   0.00437433
6486.00   0.68908840   0.00430270
6488.00   0.69423062   0.00425619
6490.00   0.70232517   0.00439762
6492.00   0.71260369   0.00475125
6494.00   0.72208428   0.00486525
6496.00   0.73459977   0.00488599
6498.00   0.74158537   0.00482491
6500.00   0.74034995   0.00461138
6502.00   0.73710930   0.00437023
6504.00   0.73858237   0.00430523
6506.00   0.74181932   0.00436079
6508.00   0.74714297   0.00436277
6510.00   0.75582743   0.00437200
6512.00   0.76358432   0.00437493
6514.00   0.76934713   0.00433024
6516.00   0.77713650   0.00434008
6518.00   0.79119319   0.00450662
6520.00   0.80966890   0.00477108
6522.00   0.81953186   0.00488063
6524.00   0.82426995   0.00490465
6526.00   0.82711977   0.00492565
6528.00   0.82388508   0.00489393
6530.00   0.82348889   0.00488915
6532.00   0.83097422   0.00498783
6534.00   0.84204954   0.00511059
6536.00   0.84732258   0.00501339
6538.00   0.84814489   0.00461087
6540.00   0.85208821   0.00449296
6542.00   0.85717928   0.00457606
6544.00   0.86261702   0.00463533
6546.00   0.86776721   0.00460714
6548.00   0.87368822   0.00458878
6550.00   0.88252759   0.00470838
6552.00   0.89487070   0.00492759
6554.00   0.90340626   0.00513812
6556.00   0.91064596   0.00549685
6558.00   0.91592002   0.00562125
6560.00   0.91670972   0.00546445
6562.00   0.91854477   0.00521294
6564.00   0.92790210   0.00503050
6566.00   0.94264489   0.00482788
6568.00   0.95496911   0.00476132
6570.00   0.97065288   0.00485455
6572.00   0.97956818   0.00488775
6574.00   0.97998911   0.00489478
6576.00   0.98055995   0.00489062
6578.00   0.98603469   0.00482865
6580.00   0.99385089   0.00473863
6582.00   1.00380361   0.00496922
6584.00   1.02104545   0.00562899
6586.00   1.02870405   0.00583334
6588.00   1.02850795   0.00576776
6590.00   1.02768385   0.00564545
6592.00   1.02804446   0.00548321
6594.00   1.02834785   0.00528908
6596.00   1.02932131   0.00525912
6598.00   1.03143179   0.00543687
6600.00   1.03176236   0.00537390
6602.00   1.03015828   0.00508449
6604.00   1.02960026   0.00489642
6606.00   1.03036475   0.00488533
6608.00   1.03194594   0.00493679
6610.00   1.03387856   0.00493733
6612.00   1.03544021   0.00492964
6614.00   1.04204500   0.00493945
6616.00   1.05474615   0.00496485
6618.00   1.06508124   0.00498644
6620.00   1.07326853   0.00500550
6622.00   1.08095658   0.00502410
6624.00   1.08946633   0.00504363
6626.00   1.09847248   0.00506404
6628.00   1.10339022   0.00507589
6630.00   1.10336518   0.00507813
6632.00   1.10609376   0.00508453
6634.00   1.11023068   0.00509808
6636.00   1.11514091   0.00510402
6638.00   1.12224925   0.00506578
6640.00   1.13014853   0.00501508
6642.00   1.12909484   0.00513658
6644.00   1.11325347   0.00542778
6646.00   1.11405742   0.00563860
6648.00   1.12936974   0.00594531
6650.00   1.14041257   0.00606358
6652.00   1.14332509   0.00587421
6654.00   1.14149332   0.00552563
6656.00   1.13417959   0.00531602
6658.00   1.11579728   0.00511145
6660.00   1.11200595   0.00501729
6662.00   1.11976707   0.00502869
6664.00   1.12487161   0.00508523
6666.00   1.12681818   0.00523190
6668.00   1.12764728   0.00537508
6670.00   1.12820053   0.00538792
6672.00   1.12874877   0.00531686
6674.00   1.12471628   0.00523808
6676.00   1.11344898   0.00499198
6678.00   1.10777283   0.00498964
6680.00   1.10876644   0.00533335
6682.00   1.10955548   0.00562348
6684.00   1.10539150   0.00560916
6686.00   1.09856355   0.00541994
6688.00   1.09206021   0.00528086
6690.00   1.08239222   0.00503627
6692.00   1.07760572   0.00493099
6694.00   1.07964456   0.00494510
6696.00   1.07858193   0.00499990
6698.00   1.06869233   0.00507790
6700.00   1.05477560   0.00518273
6702.00   1.04794121   0.00526057
6704.00   1.04376280   0.00537807
6706.00   1.04349279   0.00537059
6708.00   1.04713154   0.00516593
6710.00   1.05363357   0.00510086
6712.00   1.06562960   0.00532576
6714.00   1.07843101   0.00560128
6716.00   1.08186769   0.00559630
6718.00   1.07846105   0.00539795
6720.00   1.07583594   0.00524888
6722.00   1.07164323   0.00492141
6724.00   1.06578922   0.00485706
6726.00   1.05608165   0.00521559
6728.00   1.04721701   0.00557474
6730.00   1.04476130   0.00556786
6732.00   1.04678237   0.00533119
6734.00   1.04795504   0.00524491
6736.00   1.05422521   0.00517683
6738.00   1.05236459   0.00515580
6740.00   1.04250705   0.00521391
6742.00   1.02994955   0.00526199
6744.00   1.01566458   0.00524790
6746.00   0.99928468   0.00519962
6748.00   0.99370563   0.00512464
6750.00   1.00151992   0.00500002
6752.00   0.99920005   0.00488593
6754.00   0.98827618   0.00447795
6756.00   0.98090947   0.00454307
6758.00   0.98329943   0.00559578
6760.00   0.98911840   0.00674974
6762.00   0.98548961   0.00679361
6764.00   0.97831595   0.00588281
6766.00   0.96347642   0.00549329
6768.00   0.93428886   0.00522508
6770.00   0.91345447   0.00502447
6772.00   0.90442032   0.00493500
6774.00   0.90109688   0.00489513
6776.00   0.89965779   0.00476139
6778.00   0.90524989   0.00454191
6780.00   0.89729857   0.00450602
6782.00   0.87506646   0.00467613
6784.00   0.86065102   0.00473477
6786.00   0.85381132   0.00466528
6788.00   0.84977818   0.00458676
6790.00   0.84554768   0.00459328
6792.00   0.84229326   0.00464512
6794.00   0.84336919   0.00468637
6796.00   0.85320097   0.00479047
6798.00   0.85399824   0.00478102
6800.00   0.84594262   0.00463887
6802.00   0.83765906   0.00449650
6804.00   0.83292556   0.00442318
6806.00   0.82959461   0.00438207
6808.00   0.82813621   0.00436361
6810.00   0.83091521   0.00439871
6812.00   0.82941389   0.00439683
6814.00   0.82654214   0.00431835
6816.00   0.82092804   0.00434124
6818.00   0.81074452   0.00454405
6820.00   0.79863667   0.00481280
6822.00   0.79079026   0.00498818
6824.00   0.78419423   0.00520409
6826.00   0.78152394   0.00517475
6828.00   0.78476763   0.00485892
6830.00   0.78571796   0.00461546
6832.00   0.78347707   0.00447389
6834.00   0.78034186   0.00438270
6836.00   0.77782702   0.00433574
6838.00   0.77466238   0.00435216
6840.00   0.77520031   0.00433609
6842.00   0.78525084   0.00420661
6844.00   0.78248799   0.00430971
6846.00   0.76320887   0.00478348
6848.00   0.74332410   0.00512726
6850.00   0.73483241   0.00499364
6852.00   0.73213917   0.00452946
6854.00   0.72483814   0.00442544
6856.00   0.71257377   0.00451072
6858.00   0.70807803   0.00462115
6860.00   0.71171719   0.00482497
6862.00   0.71497220   0.00502508
6864.00   0.71397918   0.00509333
6866.00   0.71153581   0.00516677
6868.00   0.71150136   0.00574032
6870.00   0.71893889   0.00713513
6872.00   0.71111655   0.00719844
6874.00   0.68497366   0.00616051
6876.00   0.66792184   0.00517732
6878.00   0.66693211   0.00460319
6880.00   0.67267126   0.00423923
6882.00   0.67529786   0.00407462
6884.00   0.68108261   0.00422322
6886.00   0.67858309   0.00436784
6888.00   0.66734904   0.00476044
6890.00   0.65933812   0.00490368
6892.00   0.65405566   0.00474835
6894.00   0.65084410   0.00450136
6896.00   0.65064353   0.00435955
6898.00   0.65348107   0.00423406
6900.00   0.65532357   0.00417243
6902.00   0.65512425   0.00417766
6904.00   0.66034341   0.00420227
6906.00   0.67245406   0.00427895
6908.00   0.68482137   0.00434604
6910.00   0.69453722   0.00434484
6912.00   0.70309579   0.00430801
6914.00   0.70361567   0.00439372
6916.00   0.69043505   0.00458811
6918.00   0.69020176   0.00473582
6920.00   0.70027614   0.00489805
6922.00   0.70959616   0.00501961
6924.00   0.71444857   0.00508410
6926.00   0.71779221   0.00510899
6928.00   0.72183722   0.00510771
6930.00   0.72305155   0.00509587
6932.00   0.73178387   0.00499433
6934.00   0.74935418   0.00474183
6936.00   0.76308942   0.00455973
6938.00   0.77140021   0.00445218
6940.00   0.77688491   0.00444020
6942.00   0.78055376   0.00464467
6944.00   0.78064048   0.00511194
6946.00   0.78474838   0.00516719
6948.00   0.79467392   0.00484761
6950.00   0.79766709   0.00472024
6952.00   0.79237717   0.00481416
6954.00   0.78470743   0.00495815
6956.00   0.77778006   0.00504963
6958.00   0.76906371   0.00513986
6960.00   0.77272612   0.00519355
6962.00   0.79203779   0.00528226
6964.00   0.80139494   0.00521881
6966.00   0.80606908   0.00490232
6968.00   0.80564672   0.00465010
6970.00   0.79774201   0.00472298
6972.00   0.78420377   0.00495744
6974.00   0.77556068   0.00491553
6976.00   0.76546681   0.00460722
6978.00   0.76263922   0.00450871
6980.00   0.76833719   0.00451582
6982.00   0.77251089   0.00456956
6984.00   0.77251869   0.00469156
6986.00   0.77081347   0.00483361
6988.00   0.76914769   0.00485127
6990.00   0.76884091   0.00479690
6992.00   0.76146370   0.00469230
6994.00   0.74518615   0.00445658
6996.00   0.73285508   0.00428550
6998.00   0.72727287   0.00417559
7000.00   0.72224015   0.00414400
7002.00   0.70967638   0.00427603
7004.00   0.68938565   0.00458905
7006.00   0.68598402   0.00463707
7008.00   0.69972479   0.00443219
7010.00   0.70537168   0.00439989
7012.00   0.70365936   0.00459799
7014.00   0.70079899   0.00475716
7016.00   0.69991612   0.00468371
7018.00   0.69937098   0.00446021
7020.00   0.70182961   0.00435248
7022.00   0.71193069   0.00420109
7024.00   0.71165437   0.00424042
7026.00   0.70164180   0.00455882
7028.00   0.69073933   0.00476841
7030.00   0.68206835   0.00471237
7032.00   0.67379981   0.00451346
7034.00   0.66715956   0.00436459
7036.00   0.65850145   0.00408642
7038.00   0.65893143   0.00404674
7040.00   0.66931182   0.00426603
7042.00   0.67807698   0.00439516
7044.00   0.68482822   0.00436743
7046.00   0.68899965   0.00427576
7048.00   0.68449277   0.00420106
7050.00   0.66947240   0.00408798
7052.00   0.66416293   0.00404228
7054.00   0.66455638   0.00398972
7056.00   0.66388869   0.00405868
7058.00   0.66193622   0.00434714
7060.00   0.66005129   0.00460223
7062.00   0.65918100   0.00457081
7064.00   0.65918618   0.00433290
7066.00   0.65764177   0.00420935
7068.00   0.65236378   0.00403643
7070.00   0.65270072   0.00400283
7072.00   0.66218358   0.00413073
7074.00   0.66858828   0.00429326
7076.00   0.66249681   0.00445285
7078.00   0.64882392   0.00462693
7080.00   0.64261323   0.00460039
7082.00   0.63807112   0.00433411
7084.00   0.63706630   0.00419449
7086.00   0.63952023   0.00406989
7088.00   0.64439631   0.00402476
7090.00   0.65223652   0.00411348
7092.00   0.66211742   0.00427551
7094.00   0.66999769   0.00437094
7096.00   0.68036485   0.00450439
7098.00   0.68196923   0.00448447
7100.00   0.67283034   0.00425520
7102.00   0.66821373   0.00413105
7104.00   0.67106616   0.00421044
7106.00   0.67655504   0.00434013
7108.00   0.68030280   0.00433723
7110.00   0.68507701   0.00424429
7112.00   0.68549746   0.00424319
7114.00   0.68103677   0.00432132
7116.00   0.67843044   0.00434310
7118.00   0.67682862   0.00428274
7120.00   0.67665935   0.00422687
7122.00   0.67918670   0.00425364
7124.00   0.68407893   0.00432965
7126.00   0.68821526   0.00441467
7128.00   0.69389290   0.00456753
7130.00   0.69710118   0.00463705
7132.00   0.69963068   0.00466524
7134.00   0.69897819   0.00462895
7136.00   0.69213837   0.00445491
7138.00   0.68122905   0.00418519
7140.00   0.67682964   0.00420664
7142.00   0.67455351   0.00453190
7144.00   0.67651808   0.00465406
7146.00   0.68622798   0.00474489
7148.00   0.69259799   0.00473719
7150.00   0.69103938   0.00454207
7152.00   0.68664616   0.00426567
7154.00   0.68797225   0.00424082
7156.00   0.69380617   0.00444614
7158.00   0.69555259   0.00446732
7160.00   0.69559234   0.00433318
7162.00   0.69463205   0.00433074
7164.00   0.69282812   0.00455179
7166.00   0.68984628   0.00479023
7168.00   0.68455207   0.00482144
7170.00   0.67552251   0.00470538
7172.00   0.67526448   0.00472153
7174.00   0.68452686   0.00481002
7176.00   0.68864125   0.00487677
7178.00   0.68885493   0.00496437
7180.00   0.68670869   0.00500404
7182.00   0.68163455   0.00490414
7184.00   0.67352575   0.00468950
7186.00   0.67095637   0.00466981
7188.00   0.67456472   0.00485059
7190.00   0.67284280   0.00488001
7192.00   0.66696435   0.00480675
7194.00   0.66048324   0.00470948
7196.00   0.65509164   0.00460236
7198.00   0.64958161   0.00448203
7200.00   0.64187741   0.00443621
7202.00   0.63009238   0.00445145
7204.00   0.62328511   0.00447273
7206.00   0.61956179   0.00455264
7208.00   0.61674500   0.00458883
7210.00   0.61606133   0.00454161
7212.00   0.61519462   0.00446656
7214.00   0.60778046   0.00445850
7216.00   0.59409225   0.00450743
7218.00   0.58456802   0.00448775
7220.00   0.57458788   0.00444163
7222.00   0.56825036   0.00435746
7224.00   0.56569797   0.00415431
7226.00   0.56614923   0.00399114
7228.00   0.57051557   0.00410079
7230.00   0.58047998   0.00440473
7232.00   0.57872128   0.00462090
7234.00   0.56624961   0.00493764
7236.00   0.55761540   0.00505094
7238.00   0.54957682   0.00495528
7240.00   0.54425466   0.00480840
7242.00   0.54411834   0.00470156
7244.00   0.54791570   0.00458711
7246.00   0.55154026   0.00450368
7248.00   0.55913836   0.00445379
7250.00   0.56174505   0.00439062
7252.00   0.55920231   0.00431639
7254.00   0.55778593   0.00425563
7256.00   0.56092680   0.00422343
7258.00   0.56539047   0.00420647
7260.00   0.56388211   0.00416991
7262.00   0.55536324   0.00407344
7264.00   0.55380756   0.00411447
7266.00   0.55660123   0.00428660
7268.00   0.55926400   0.00442851
7270.00   0.56294489   0.00453753
7272.00   0.56532103   0.00461869
7274.00   0.55998784   0.00463773
7276.00   0.54552931   0.00459771
7278.00   0.54352450   0.00456465
7280.00   0.55105966   0.00451472
7282.00   0.55641490   0.00445551
7284.00   0.56063437   0.00438303
7286.00   0.56380045   0.00430298
7288.00   0.56460214   0.00414405
7290.00   0.56330079   0.00385261
7292.00   0.56384748   0.00431574
7294.00   0.56475985   0.00562209
7296.00   0.56657553   0.00603761
7298.00   0.56910956   0.00589665
7300.00   0.57256526   0.00554747
7302.00   0.57729667   0.00502528
7304.00   0.58305359   0.00424391
7306.00   0.58828384   0.00400105
7308.00   0.59232950   0.00433835
7310.00   0.59922302   0.00443185
7312.00   0.60994619   0.00447548
7314.00   0.61887944   0.00455834
7316.00   0.62459081   0.00475298
7318.00   0.62823856   0.00495414
7320.00   0.62988091   0.00492818
7322.00   0.62813443   0.00468971
7324.00   0.62857878   0.00454219
7326.00   0.62752700   0.00430237
7328.00   0.63073558   0.00423185
7330.00   0.63938457   0.00440408
7332.00   0.65102333   0.00466919
7334.00   0.66395301   0.00490044
7336.00   0.68110287   0.00519755
7338.00   0.68833929   0.00524703
7340.00   0.68827504   0.00509186
7342.00   0.68678612   0.00493012
7344.00   0.68077451   0.00468914
7346.00   0.67563957   0.00446368
7348.00   0.67608660   0.00435704
7350.00   0.67981839   0.00432792
7352.00   0.68729448   0.00441319
7354.00   0.70202225   0.00465918
7356.00   0.71215612   0.00484845
7358.00   0.72046500   0.00508931
7360.00   0.72649252   0.00522885
7362.00   0.72926998   0.00517532
7364.00   0.72965109   0.00500158
7366.00   0.73113847   0.00490547
7368.00   0.73359877   0.00481064
7370.00   0.73318595   0.00473582
7372.00   0.72997636   0.00468981
7374.00   0.72689778   0.00463612
7376.00   0.72399622   0.00455404
7378.00   0.72156268   0.00447182
7380.00   0.72165930   0.00444680
7382.00   0.72496712   0.00447984
7384.00   0.72465163   0.00446928
7386.00   0.71991086   0.00439081
7388.00   0.71935868   0.00440871
7390.00   0.72549295   0.00457393
7392.00   0.73222762   0.00475355
7394.00   0.73339778   0.00482703
7396.00   0.73191917   0.00485739
7398.00   0.72603011   0.00480140
7400.00   0.71126586   0.00459247
7402.00   0.70336664   0.00446905
7404.00   0.70271087   0.00436131
7406.00   0.70250624   0.00435880
7408.00   0.69814044   0.00457805
7410.00   0.69191265   0.00493987
7412.00   0.68918300   0.00507945
7414.00   0.68828315   0.00519722
7416.00   0.68861234   0.00509297
7418.00   0.69141626   0.00458600
7420.00   0.69381291   0.00420744
7422.00   0.69519633   0.00430884
7424.00   0.69574583   0.00462506
7426.00   0.69349110   0.00470917
7428.00   0.68785578   0.00474574
7430.00   0.68364435   0.00468961
7432.00   0.67851704   0.00445628
7434.00   0.67502302   0.00430709
7436.00   0.67424572   0.00432583
7438.00   0.67438412   0.00439672
7440.00   0.67242557   0.00437166
7442.00   0.66805267   0.00426898
7444.00   0.66933060   0.00430384
7446.00   0.67509657   0.00446574
7448.00   0.68122202   0.00457454
7450.00   0.68991888   0.00465446
7452.00   0.69715333   0.00469431
7454.00   0.69751948   0.00463976
7456.00   0.69252247   0.00448495
7458.00   0.69268245   0.00454003
7460.00   0.69786465   0.00481956
7462.00   0.69742107   0.00493321
7464.00   0.69149846   0.00490779
7466.00   0.68463564   0.00487641
7468.00   0.67832148   0.00492111
7470.00   0.67188150   0.00499253
7472.00   0.67031866   0.00496841
7474.00   0.67437959   0.00487938
7476.00   0.67569357   0.00476318
7478.00   0.67635381   0.00451924
7480.00   0.67678511   0.00437653
7482.00   0.67635411   0.00445550
7484.00   0.67604923   0.00463451
7486.00   0.67911804   0.00471219
7488.00   0.68491018   0.00478405
7490.00   0.69106883   0.00478249
7492.00   0.70138800   0.00464127
7494.00   0.70697927   0.00461028
7496.00   0.70564330   0.00477121
7498.00   0.70175922   0.00495799
7500.00   0.70052487   0.00497366
7502.00   0.70052356   0.00485810
7504.00   0.69704688   0.00489821
7506.00   0.68833154   0.00499943
7508.00   0.68438703   0.00516301
7510.00   0.68488145   0.00546613
7512.00   0.68781245   0.00570965
7514.00   0.69318205   0.00573821
7516.00   0.70153612   0.00562830
7518.00   0.70305800   0.00551960
7520.00   0.69917411   0.00529566
7522.00   0.69597924   0.00516517
7524.00   0.68944198   0.00514849
7526.00   0.68647677   0.00509373
7528.00   0.69177222   0.00489395
7530.00   0.70190078   0.00461534
7532.00   0.70787293   0.00449802
7534.00   0.71452290   0.00452645
7536.00   0.71645796   0.00449526
7538.00   0.71246845   0.00443334
7540.00   0.71022981   0.00442670
7542.00   0.71272409   0.00450970
7544.00   0.71610141   0.00463471
7546.00   0.71402031   0.00473827
7548.00   0.70646775   0.00488851
7550.00   0.70466483   0.00488972
7552.00   0.70617539   0.00465645
7554.00   0.70797449   0.00461761
7556.00   0.71003431   0.00488690
7558.00   0.71269542   0.00517806
7560.00   0.71624810   0.00523298
7562.00   0.72107577   0.00515798
7564.00   0.72325581   0.00508429
7566.00   0.72321767   0.00483652
7568.00   0.72359449   0.00481896
7570.00   0.72320336   0.00510444
7572.00   0.72389066   0.00536265
7574.00   0.72718626   0.00539379
7576.00   0.73233336   0.00530675
7578.00   0.73821127   0.00528254
7580.00   0.74565148   0.00527644
7582.00   0.75319397   0.00523075
7584.00   0.75971562   0.00511620
7586.00   0.76906908   0.00504221
7588.00   0.78551733   0.00495390
7590.00   0.80454862   0.00494566
7592.00   0.81105781   0.00549230
7594.00   0.81018353   0.00633611
7596.00   0.80350912   0.00729462
7598.00   0.78620744   0.00852733
7600.00   0.77055454   0.00949754
7602.00   0.75928086   0.01043526
7604.00   0.74838471   0.01106546
7606.00   0.73233974   0.01070648
7608.00   0.70696145   0.00922199
7610.00   0.70518059   0.00832614
7612.00   0.72046798   0.00745387
7614.00   0.74143159   0.00677934
7616.00   0.77681166   0.00636059
7618.00   0.80972397   0.00622920
7620.00   0.82077563   0.00648454
7622.00   0.81796491   0.00713677
7624.00   0.80952448   0.00727204
7626.00   0.78704548   0.00705779
7628.00   0.76854336   0.00698745
7630.00   0.74829084   0.00706463
7632.00   0.73225540   0.00706479
7634.00   0.72436368   0.00681937
7636.00   0.72247773   0.00640816
7638.00   0.72630501   0.00622131
7640.00   0.74414206   0.00621615
7642.00   0.74873197   0.00612396
7644.00   0.74616694   0.00601817
7646.00   0.73951030   0.00589068
7648.00   0.72728425   0.00572000
7650.00   0.71212202   0.00552991
7652.00   0.70423079   0.00539458
7654.00   0.70192713   0.00520530
7656.00   0.69653606   0.00529700
7658.00   0.68840885   0.00570680
7660.00   0.68410903   0.00599237
7662.00   0.68366283   0.00621317
7664.00   0.68700600   0.00629767
7666.00   0.69667047   0.00599669
7668.00   0.71534294   0.00520363
7670.00   0.72043258   0.00483960
7672.00   0.71473145   0.00475189
7674.00   0.71170527   0.00466780
7676.00   0.70956570   0.00462320
7678.00   0.70881832   0.00461749
7680.00   0.71131879   0.00463442
7682.00   0.71648532   0.00468455
7684.00   0.71938759   0.00471735
7686.00   0.72383803   0.00466045
7688.00   0.72290945   0.00480125
7690.00   0.71417040   0.00503341
7692.00   0.70745862   0.00542586
7694.00   0.70932817   0.00610909
7696.00   0.71509045   0.00687339
7698.00   0.71175587   0.00707715
7700.00   0.70208430   0.00694716
7702.00   0.69251335   0.00668487
7704.00   0.67533213   0.00599223
7706.00   0.66662127   0.00539417
7708.00   0.67475808   0.00509883
7710.00   0.68852699   0.00498258
7712.00   0.68676817   0.00494624
7714.00   0.67346597   0.00512235
7716.00   0.66742760   0.00511958
7718.00   0.66427654   0.00502830
7720.00   0.65985787   0.00493608
7722.00   0.65137953   0.00482893
7724.00   0.64487159   0.00472714
7726.00   0.64902842   0.00466948
7728.00   0.66299617   0.00463374
7730.00   0.66521305   0.00467413
7732.00   0.65953702   0.00483518
7734.00   0.65569651   0.00491665
7736.00   0.65271211   0.00489984
7738.00   0.64949363   0.00490586
7740.00   0.64598936   0.00503700
7742.00   0.64227957   0.00524001
7744.00   0.63604671   0.00530510
7746.00   0.62273312   0.00528373
7748.00   0.61984080   0.00525695
7750.00   0.62780625   0.00520064
7752.00   0.63469779   0.00512588
7754.00   0.63651901   0.00503428
7756.00   0.63575041   0.00492493
7758.00   0.63115865   0.00481172
7760.00   0.61719531   0.00466513
7762.00   0.61539412   0.00456921
7764.00   0.62309164   0.00450313
7766.00   0.62973297   0.00446240
7768.00   0.63384843   0.00445209
7770.00   0.63717520   0.00446425
7772.00   0.63994634   0.00446922
7774.00   0.64229965   0.00442341
7776.00   0.64307189   0.00460335
7778.00   0.63995266   0.00511582
7780.00   0.64094657   0.00531208
7782.00   0.64652598   0.00514127
7784.00   0.65435678   0.00487653
7786.00   0.66331339   0.00469587
7788.00   0.67455578   0.00442272
7790.00   0.68165928   0.00499476
7792.00   0.68930393   0.00663126
7794.00   0.68939519   0.00703041
7796.00   0.67914295   0.00638395
7798.00   0.66886944   0.00558026
7800.00   0.66354293   0.00519221
7802.00   0.66059148   0.00498486
7804.00   0.66588336   0.00533869
7806.00   0.68432468   0.00665927
7808.00   0.69280529   0.00683731
7810.00   0.69466478   0.00616399
7812.00   0.69715035   0.00546949
7814.00   0.70231879   0.00492915
7816.00   0.70858639   0.00456129
7818.00   0.71574575   0.00516934
7820.00   0.72770917   0.00688800
7822.00   0.72943681   0.00714357
7824.00   0.71952617   0.00653768
7826.00   0.71506703   0.00593452
7828.00   0.71878952   0.00532796
7830.00   0.72566432   0.00474396
7832.00   0.73191249   0.00459371
7834.00   0.74103332   0.00488195
7836.00   0.74165010   0.00491191
7838.00   0.73348457   0.00487443
7840.00   0.72840714   0.00486649
7842.00   0.72442019   0.00488027
7844.00   0.72304416   0.00490920
7846.00   0.72684777   0.00492095
7848.00   0.73486382   0.00490884
7850.00   0.74339187   0.00519610
7852.00   0.75806570   0.00591769
7854.00   0.76478380   0.00615750
7856.00   0.76342487   0.00605589
7858.00   0.76163054   0.00584287
7860.00   0.76277226   0.00555820
7862.00   0.76489168   0.00517749
7864.00   0.76798123   0.00504567
7866.00   0.77439046   0.00517472
7868.00   0.77621347   0.00516619
7870.00   0.77461964   0.00504191
7872.00   0.77258283   0.00505304
7874.00   0.77050620   0.00533606
7876.00   0.76819009   0.00568559
7878.00   0.76609975   0.00577130
7880.00   0.76084590   0.00568397
7882.00   0.76639992   0.00564257
7884.00   0.78572428   0.00551568
7886.00   0.79757112   0.00548887
7888.00   0.79958385   0.00554683
7890.00   0.79800463   0.00570735
7892.00   0.79660958   0.00604961
7894.00   0.79123116   0.00657679
7896.00   0.80013812   0.00680614
7898.00   0.82740813   0.00699965
7900.00   0.84208506   0.00690028
7902.00   0.84464240   0.00631582
7904.00   0.84438151   0.00569305
7906.00   0.84681410   0.00549192
7908.00   0.84923947   0.00554410
7910.00   0.85000575   0.00559699
7912.00   0.85207725   0.00581772
7914.00   0.84762913   0.00593152
7916.00   0.83258331   0.00602137
7918.00   0.82223827   0.00604706
7920.00   0.82352287   0.00597442
7922.00   0.83135378   0.00583199
7924.00   0.83929926   0.00570810
7926.00   0.85519236   0.00553371
7928.00   0.85962236   0.00543391
7930.00   0.85704792   0.00540656
7932.00   0.85115248   0.00536271
7934.00   0.83934271   0.00527326
7936.00   0.82647163   0.00517852
7938.00   0.82442713   0.00513674
7940.00   0.83234674   0.00513256
7942.00   0.83110148   0.00513380
7944.00   0.82020056   0.00515525
7946.00   0.81892824   0.00518266
7948.00   0.80149215   0.00496467
7950.00   0.81994635   0.00504150
#7952.00   0.92570245   0.00541805
#7954.00   1.08555269   0.00537405
#7956.00   1.39513588   0.00971170
#7958.00   1.92974293   0.01598611
#7960.00   2.35280657   0.01858558
#7962.00   2.62840152   0.01783692
#7964.00   2.98580599   0.01885106
#7966.00   3.65342784   0.02486302
#7968.00   4.50222063   0.03188444
#7970.00   4.79879522   0.03371043
#7972.00   4.78043079   0.03327374
#7974.00   4.50982952   0.03128672
#7976.00   3.76124716   0.02505525
#7978.00   3.09243560   0.01868020
#7980.00   2.72031045   0.01608231
#7982.00   2.45357919   0.01592648
#7984.00   2.03885174   0.01399962
#7986.00   1.47192848   0.01130241
#7988.00   1.13721919   0.00930560
#7990.00   0.94897318   0.00823198
#7992.00   0.82046306   0.00723633
7994.00   0.76108938   0.00623278
7996.00   0.75142294   0.00545296
7998.00   0.74144292   0.00503436
8000.00   0.75905412   0.00520340
8002.00   0.76244760   0.00511435
8004.00   0.76385194   0.00501555
8006.00   0.76639843   0.00497223
8008.00   0.76954830   0.00498417
8010.00   0.77376103   0.00503935
8012.00   0.78109312   0.00515102
8014.00   0.79160118   0.00532326
8016.00   0.79106742   0.00535658
8018.00   0.77958173   0.00525203
8020.00   0.77211469   0.00522804
8022.00   0.76527220   0.00523787
8024.00   0.75995761   0.00528910
8026.00   0.75833750   0.00539408
8028.00   0.75870329   0.00554046
8030.00   0.75204873   0.00569192
8032.00   0.73463488   0.00603612
8034.00   0.72983605   0.00597897
8036.00   0.73662221   0.00547072
8038.00   0.73982346   0.00505207
8040.00   0.73357373   0.00489854
8042.00   0.72468024   0.00490713
8044.00   0.72429901   0.00506140
8046.00   0.73289847   0.00534492
8048.00   0.73003972   0.00577658
8050.00   0.71589136   0.00665038
8052.00   0.70825726   0.00696164
8054.00   0.71024770   0.00656433
8056.00   0.71460229   0.00590151
8058.00   0.71410507   0.00553187
8060.00   0.71144670   0.00519600
8062.00   0.70935047   0.00521320
8064.00   0.70689273   0.00572371
8066.00   0.70421427   0.00596493
8068.00   0.70439517   0.00608910
8070.00   0.70022279   0.00604489
8072.00   0.68324566   0.00563682
8074.00   0.65673643   0.00484671
8076.00   0.64677787   0.00473378
8078.00   0.64987296   0.00534913
8080.00   0.64842373   0.00546987
8082.00   0.64778584   0.00529788
8084.00   0.64455938   0.00507764
8086.00   0.63640738   0.00487876
8088.00   0.62521756   0.00466508
8090.00   0.61534780   0.00455347
8092.00   0.59963065   0.00452814
8094.00   0.59759831   0.00452176
8096.00   0.60737669   0.00454871
8098.00   0.61801183   0.00462535
8100.00   0.62993431   0.00474525
8102.00   0.64130443   0.00491354
8104.00   0.64419883   0.00517365
8106.00   0.64020681   0.00562680
8108.00   0.63685697   0.00563255
8110.00   0.62982959   0.00515311
8112.00   0.62500638   0.00489258
8114.00   0.62321079   0.00490728
8116.00   0.62187642   0.00504547
8118.00   0.61809891   0.00523946
8120.00   0.61223191   0.00553659
8122.00   0.61268258   0.00567796
8124.00   0.62109452   0.00582650
8126.00   0.62362331   0.00576379
8128.00   0.62137914   0.00537538
8130.00   0.61735409   0.00498256
8132.00   0.61250180   0.00484326
8134.00   0.60633481   0.00484754
8136.00   0.60207129   0.00489266
8138.00   0.59811777   0.00512529
8140.00   0.59603620   0.00516929
8142.00   0.59589362   0.00505756
8144.00   0.59645730   0.00496368
8146.00   0.59689635   0.00494639
8148.00   0.59809804   0.00496378
8150.00   0.60244656   0.00499916
8152.00   0.61207706   0.00508799
8154.00   0.61543858   0.00511609
8156.00   0.61279136   0.00508864
8158.00   0.61332053   0.00509087
8160.00   0.61946094   0.00513845
8162.00   0.62696791   0.00520397
8164.00   0.63033974   0.00524752
8166.00   0.63026071   0.00523342
8168.00   0.63552922   0.00545123
8170.00   0.64767677   0.00601440
8172.00   0.65362102   0.00622824
8174.00   0.65093458   0.00603982
8176.00   0.64794612   0.00578360
8178.00   0.65229970   0.00576266
8180.00   0.66114736   0.00585492
8182.00   0.66527826   0.00588402
8184.00   0.66451919   0.00585252
8186.00   0.66925907   0.00594077
8188.00   0.68090910   0.00619545
8190.00   0.69080478   0.00639364
8192.00   0.69791794   0.00635914
8194.00   0.70191413   0.00622058
8196.00   0.68266875   0.00651006
8198.00   0.62281400   0.00739799
8200.00   0.60462081   0.00754042
8202.00   0.61476856   0.00719271
8204.00   0.62717116   0.00675169
8206.00   0.63841033   0.00624495
8208.00   0.64955992   0.00566283
8210.00   0.64957619   0.00531314
8212.00   0.63577479   0.00513844
8214.00   0.63735181   0.00505741
8216.00   0.64722908   0.00513312
8218.00   0.66001707   0.00528002
8220.00   0.68276823   0.00550241
8222.00   0.70171899   0.00577601
8224.00   0.69370449   0.00609245
8226.00   0.66186070   0.00651397
8228.00   0.65132499   0.00658601
8230.00   0.64711130   0.00638628
8232.00   0.65066278   0.00616155
8234.00   0.66995203   0.00581404
8236.00   0.68608534   0.00546320
8238.00   0.68148386   0.00522841
8240.00   0.66369486   0.00506106
8242.00   0.65930742   0.00508935
8244.00   0.66111261   0.00534568
8246.00   0.66312897   0.00557314
8248.00   0.67064464   0.00592007
8250.00   0.67353749   0.00613822
8252.00   0.66457558   0.00608718
8254.00   0.64974320   0.00589057
8256.00   0.64621443   0.00587935
8258.00   0.65543032   0.00592342
8260.00   0.65076339   0.00605932
8262.00   0.63319111   0.00637792
8264.00   0.62193966   0.00657171
8266.00   0.61977583   0.00661493
8268.00   0.62410641   0.00654211
8270.00   0.63763541   0.00626445
8272.00   0.66748923   0.00548067
8274.00   0.67481530   0.00562636
8276.00   0.66510797   0.00665622
8278.00   0.65788263   0.00722355
8280.00   0.65420413   0.00751952
8282.00   0.64934325   0.00753386
8284.00   0.63936532   0.00696419
8286.00   0.62483335   0.00558339
8288.00   0.61584312   0.00512649
8290.00   0.60648841   0.00554670
8292.00   0.60493541   0.00566908
8294.00   0.61631513   0.00566059
8296.00   0.62506551   0.00561155
8298.00   0.62023431   0.00553404
8300.00   0.60751402   0.00541980
8302.00   0.59683681   0.00530247
8304.00   0.57821804   0.00512357
8306.00   0.57320780   0.00503217
8308.00   0.58511007   0.00502876
8310.00   0.59090519   0.00502371
8312.00   0.58030725   0.00499364
8314.00   0.56241119   0.00495156
8316.00   0.55228591   0.00486938
8318.00   0.54241550   0.00465772
8320.00   0.53994536   0.00468397
8322.00   0.54663670   0.00494141
8324.00   0.55137134   0.00512282
8326.00   0.55266792   0.00521331
8328.00   0.55278772   0.00524796
8330.00   0.55257899   0.00517584
8332.00   0.55049485   0.00487407
8334.00   0.55309826   0.00510186
8336.00   0.56434023   0.00594899
8338.00   0.56601048   0.00626160
8340.00   0.55601352   0.00600473
8342.00   0.54283500   0.00563544
8344.00   0.53299910   0.00559070
8346.00   0.52339017   0.00571123
8348.00   0.51522923   0.00561722
8350.00   0.50784856   0.00531557
8352.00   0.50208014   0.00516374
8354.00   0.49710977   0.00510334
8356.00   0.49455726   0.00513031
8358.00   0.49616134   0.00532538
8360.00   0.50072193   0.00560944
8362.00   0.50249338   0.00550257
8364.00   0.50528383   0.00492228
8366.00   0.50316739   0.00464556
8368.00   0.49482769   0.00451775
8370.00   0.48824769   0.00444661
8372.00   0.48725203   0.00442952
8374.00   0.48740765   0.00445847
8376.00   0.48004445   0.00445367
8378.00   0.46398258   0.00443275
8380.00   0.45788294   0.00444917
8382.00   0.45893151   0.00451084
8384.00   0.45876589   0.00454627
8386.00   0.45740730   0.00454839
8388.00   0.45509958   0.00453485
8390.00   0.45001048   0.00450069
8392.00   0.44122657   0.00440307
8394.00   0.43976989   0.00453049
8396.00   0.44922373   0.00495710
8398.00   0.44767728   0.00512044
8400.00   0.43067458   0.00504975
8402.00   0.41499799   0.00489037
8404.00   0.41413102   0.00470314
8406.00   0.42208284   0.00443800
8408.00   0.42649469   0.00433299
8410.00   0.43213668   0.00435668
8412.00   0.43714565   0.00438048
8414.00   0.44330618   0.00447230
8416.00   0.44710866   0.00452933
8418.00   0.44546890   0.00446949
8420.00   0.44101086   0.00436033
8422.00   0.44283125   0.00443511
8424.00   0.45410585   0.00466834
8426.00   0.45267081   0.00483477
8428.00   0.44195014   0.00508768
8430.00   0.43061408   0.00518567
8432.00   0.41902360   0.00505197
8434.00   0.40760171   0.00479091
8436.00   0.40062577   0.00456445
8438.00   0.39657044   0.00425368
8440.00   0.39469737   0.00408616
8442.00   0.39669952   0.00401696
8444.00   0.39824229   0.00401371
8446.00   0.40223494   0.00406885
8448.00   0.40311369   0.00419986
8450.00   0.39161626   0.00446554
8452.00   0.36852041   0.00488667
8454.00   0.36094844   0.00488977
8456.00   0.36210284   0.00441324
8458.00   0.36555257   0.00424051
8460.00   0.37438679   0.00429559
8462.00   0.38369852   0.00451306
8464.00   0.39103296   0.00498602
8466.00   0.39771464   0.00560477
8468.00   0.39585674   0.00555099
8470.00   0.38259637   0.00475939
8472.00   0.37633485   0.00433201
8474.00   0.37501174   0.00406876
8476.00   0.37206855   0.00389322
8478.00   0.36376595   0.00381476
8480.00   0.35369676   0.00382653
8482.00   0.35042894   0.00380865
8484.00   0.35278621   0.00377951
8486.00   0.35331357   0.00383706
8488.00   0.35545665   0.00401824
8490.00   0.35578525   0.00412297
8492.00   0.35382250   0.00406625
8494.00   0.35025671   0.00400381
8496.00   0.34498897   0.00420004
8498.00   0.33632508   0.00463297
8500.00   0.33353117   0.00472166
8502.00   0.33684227   0.00460339
8504.00   0.33675101   0.00446081
8506.00   0.33209804   0.00423495
8508.00   0.32732108   0.00400084
8510.00   0.32588741   0.00387199
8512.00   0.32612744   0.00380918
8514.00   0.32893619   0.00378372
8516.00   0.33365649   0.00375695
8518.00   0.34143305   0.00388687
8520.00   0.35536882   0.00427659
8522.00   0.36725846   0.00454298
8524.00   0.37223145   0.00449003
8526.00   0.37309295   0.00424838
8528.00   0.37311473   0.00412249
8530.00   0.36563039   0.00379986
8532.00   0.36904091   0.00396907
8534.00   0.38415268   0.00471890
8536.00   0.39529541   0.00514336
8538.00   0.39799449   0.00506407
8540.00   0.39616776   0.00474188
8542.00   0.39202923   0.00451173
8544.00   0.38103235   0.00414290
8546.00   0.37830600   0.00402414
8548.00   0.38094527   0.00417284
8550.00   0.38402542   0.00424523
8552.00   0.38704184   0.00420655
8554.00   0.39108995   0.00413914
8556.00   0.39718866   0.00409003
8558.00   0.40574872   0.00400015
8560.00   0.41144779   0.00411752
8562.00   0.41614583   0.00442900
8564.00   0.41936252   0.00468286
8566.00   0.42090702   0.00499470
8568.00   0.42135277   0.00518149
8570.00   0.42083240   0.00505685
8572.00   0.41913533   0.00468005
8574.00   0.41911343   0.00446318
8576.00   0.42063949   0.00423054
8578.00   0.42100453   0.00411709
8580.00   0.42056742   0.00416017
8582.00   0.41991720   0.00421511
8584.00   0.41893396   0.00421108
8586.00   0.41783744   0.00419599
8588.00   0.41858628   0.00423474
8590.00   0.42052254   0.00432986
8592.00   0.42347702   0.00438913
8594.00   0.42574877   0.00443407
8596.00   0.43217760   0.00448171
8598.00   0.44556093   0.00454253
8600.00   0.46188918   0.00460084
8602.00   0.47395355   0.00461968
8604.00   0.48576427   0.00455777
8606.00   0.49191004   0.00467184
8608.00   0.49090901   0.00492789
8610.00   0.49207497   0.00516021
8612.00   0.49583575   0.00543729
8614.00   0.50034505   0.00563807
8616.00   0.50489008   0.00556950
8618.00   0.51031351   0.00523905
8620.00   0.51240271   0.00524067
8622.00   0.50917387   0.00549434
8624.00   0.51110315   0.00564583
8626.00   0.51923144   0.00575238
8628.00   0.52719241   0.00582115
8630.00   0.53099912   0.00584493
8632.00   0.53267890   0.00582880
8634.00   0.53308743   0.00576139
8636.00   0.52843547   0.00559413
8638.00   0.53019190   0.00549037
8640.00   0.53821313   0.00539665
8642.00   0.54554957   0.00535384
8644.00   0.54942793   0.00539209
8646.00   0.55199009   0.00548264
8648.00   0.55569559   0.00555470
8650.00   0.56025296   0.00563201
8652.00   0.56339210   0.00572194
8654.00   0.56640065   0.00585572
8656.00   0.56755912   0.00593657
8658.00   0.56444120   0.00590648
8660.00   0.56130832   0.00586823
8662.00   0.56583244   0.00599245
8664.00   0.57560068   0.00622235
8666.00   0.58701754   0.00645566
8668.00   0.60378808   0.00693381
8670.00   0.61816537   0.00700961
8672.00   0.63148963   0.00651776
8674.00   0.64229631   0.00590816
8676.00   0.64725995   0.00573595
8678.00   0.64674306   0.00582477
8680.00   0.65320295   0.00578242
8682.00   0.66500986   0.00573440
8684.00   0.67423517   0.00569479
8686.00   0.68171328   0.00565624
8688.00   0.68901938   0.00563081
8690.00   0.69779837   0.00562944
8692.00   0.70696723   0.00564559
8694.00   0.70981908   0.00565393
8696.00   0.70362931   0.00567134
8698.00   0.70535290   0.00567126
8700.00   0.70999038   0.00563985
8702.00   0.71875882   0.00563344
8704.00   0.73534358   0.00568381
8706.00   0.75461936   0.00575402
8708.00   0.76138061   0.00576768
8710.00   0.75644493   0.00573537
8712.00   0.75975996   0.00573303
8714.00   0.77048129   0.00574938
8716.00   0.77355677   0.00575043
8718.00   0.76356232   0.00571918
8720.00   0.75114751   0.00568868
8722.00   0.75006586   0.00570541
8724.00   0.75574619   0.00575501
8726.00   0.76091683   0.00580480
8728.00   0.77288109   0.00574902
8730.00   0.77638632   0.00594190
8732.00   0.76952493   0.00649732
8734.00   0.76079315   0.00697615
8736.00   0.75566036   0.00711198
8738.00   0.75112659   0.00706324
8740.00   0.75390249   0.00685194
8742.00   0.76569819   0.00617524
8744.00   0.77369410   0.00589485
8746.00   0.77969307   0.00600916
8748.00   0.78607661   0.00614995
8750.00   0.79508442   0.00615359
8752.00   0.80482036   0.00612679
8754.00   0.80710649   0.00617959
8756.00   0.79817480   0.00626158
8758.00   0.80073065   0.00640378
8760.00   0.81360787   0.00665258
8762.00   0.82180130   0.00684012
8764.00   0.82126784   0.00694089
8766.00   0.81656849   0.00698711
8768.00   0.81205189   0.00697662
8770.00   0.80397117   0.00686691
8772.00   0.80152613   0.00685234
8774.00   0.80452079   0.00691463
8776.00   0.80517781   0.00693204
8778.00   0.80419540   0.00682062
8780.00   0.80084985   0.00676321
8782.00   0.79202127   0.00704222
8784.00   0.77703726   0.00762071
8786.00   0.77137864   0.00763778
8788.00   0.77260357   0.00705431
8790.00   0.77266049   0.00687461
8792.00   0.77043831   0.00721906
8794.00   0.77145284   0.00747888
8796.00   0.78013486   0.00724446
8798.00   0.79438347   0.00669031
8800.00   0.80658031   0.00641694
8802.00   0.82068723   0.00622663
8804.00   0.83231574   0.00614519
8806.00   0.84334028   0.00624906
8808.00   0.85161757   0.00633677
8810.00   0.85581654   0.00632100
8812.00   0.85712034   0.00627122
8814.00   0.85814261   0.00628494
8816.00   0.85279429   0.00625173
8818.00   0.85964262   0.00643961
8820.00   0.88008744   0.00680661
8822.00   0.89456403   0.00719228
8824.00   0.90126073   0.00766475
8826.00   0.90197235   0.00808199
8828.00   0.89312971   0.00816390
8830.00   0.87054759   0.00798182
8832.00   0.86297345   0.00783578
8834.00   0.86499417   0.00758416
8836.00   0.86582458   0.00735267
8838.00   0.86598897   0.00711794
8840.00   0.86623901   0.00691097
8842.00   0.86592466   0.00678327
8844.00   0.86492270   0.00671817
8846.00   0.86750889   0.00670649
8848.00   0.87532908   0.00682847
8850.00   0.87869751   0.00684134
8852.00   0.87806147   0.00672700
8854.00   0.87663531   0.00663712
8856.00   0.87462890   0.00665212
8858.00   0.87212861   0.00672964
8860.00   0.87859100   0.00688992
8862.00   0.90097427   0.00725556
8864.00   0.90509689   0.00736989
8866.00   0.89805245   0.00733870
8868.00   0.88507462   0.00722499
8870.00   0.86394137   0.00699914
8872.00   0.83873516   0.00670021
8874.00   0.82549649   0.00652239
8876.00   0.81755674   0.00632663
8878.00   0.81730467   0.00640120
8880.00   0.82875812   0.00675646
8882.00   0.83827204   0.00708054
8884.00   0.84763271   0.00744291
8886.00   0.85341704   0.00771903
8888.00   0.84582967   0.00765180
8890.00   0.82437706   0.00726924
8892.00   0.81648570   0.00703811
8894.00   0.81445879   0.00673323
8896.00   0.81512481   0.00658938
8898.00   0.82043833   0.00665603
8900.00   0.82680929   0.00678168
8902.00   0.83155692   0.00687047
8904.00   0.83634663   0.00697763
8906.00   0.83488536   0.00694348
8908.00   0.82662857   0.00669699
8910.00   0.82014334   0.00663329
8912.00   0.81251431   0.00664770
8914.00   0.80656397   0.00680299
8916.00   0.80582255   0.00721877
8918.00   0.80742663   0.00775135
8920.00   0.79876155   0.00787218
8922.00   0.77415454   0.00772043
8924.00   0.76803184   0.00753490
8926.00   0.77691901   0.00711810
8928.00   0.78314108   0.00678309
8930.00   0.78225332   0.00663625
8932.00   0.77887219   0.00659171
8934.00   0.77640331   0.00656576
8936.00   0.77173185   0.00659104
8938.00   0.77276003   0.00667168
8940.00   0.78227711   0.00688148
8942.00   0.78495628   0.00699079
8944.00   0.77845246   0.00695641
8946.00   0.76874870   0.00689365
8948.00   0.76101309   0.00691474
8950.00   0.75235569   0.00696024
8952.00   0.74763918   0.00710863
8954.00   0.74389315   0.00739426
8956.00   0.74545276   0.00760853
8958.00   0.75554538   0.00783175
8960.00   0.76508492   0.00795754
8962.00   0.76660180   0.00788259
8964.00   0.76361018   0.00765250
8966.00   0.76572376   0.00745687
8968.00   0.77524936   0.00706039
8970.00   0.77386832   0.00700667
8972.00   0.76014727   0.00717293
8974.00   0.74906462   0.00755223
8976.00   0.74472111   0.00834462
8978.00   0.74515569   0.00920599
8980.00   0.75723577   0.00909309
8982.00   0.78963190   0.00772012
8984.00   0.80228686   0.00742496
8986.00   0.80835217   0.00791166
8988.00   0.80441201   0.00822117
8990.00   0.78175801   0.00822970
8992.00   0.75542617   0.00812458
8994.00   0.75647700   0.00797190
8996.00   0.78271753   0.00762810
8998.00   0.78283441   0.00765023
9000.00   0.76352668   0.00806889
9002.00   0.75274521   0.00826203
9004.00   0.75115800   0.00824640
9006.00   0.75279844   0.00811601
9008.00   0.75420511   0.00787053
9010.00   0.75699043   0.00745050
9012.00   0.76061583   0.00729425
9014.00   0.77046192   0.00735917
9016.00   0.77009273   0.00736314
9018.00   0.75872642   0.00736646
9020.00   0.74537128   0.00734480
9022.00   0.73548627   0.00726897
9024.00   0.72607547   0.00715372
9026.00   0.71247017   0.00704107
9028.00   0.69391519   0.00691023
9030.00   0.67834008   0.00677811
9032.00   0.65943033   0.00659199
9034.00   0.64851558   0.00647893
9036.00   0.65399706   0.00651207
9038.00   0.66625684   0.00661881
9040.00   0.66083366   0.00665292
9042.00   0.63772374   0.00667417
9044.00   0.63298398   0.00666628
9046.00   0.64659047   0.00662110
9048.00   0.64732808   0.00657570
9050.00   0.62513185   0.00654560
9052.00   0.59871876   0.00650195
9054.00   0.59269309   0.00638950
9056.00   0.60023206   0.00617723
9058.00   0.60168910   0.00616095
9060.00   0.60648566   0.00607508
9062.00   0.60493797   0.00644536
9064.00   0.59239185   0.00753439
9066.00   0.58169109   0.00836418
9068.00   0.58630180   0.00830455
9070.00   0.60170209   0.00765438
9072.00   0.60085720   0.00724863
9074.00   0.58578455   0.00662659
9076.00   0.57913786   0.00633358
9078.00   0.57456100   0.00642829
9080.00   0.57631153   0.00657757
9082.00   0.58990318   0.00662548
9084.00   0.61106867   0.00666719
9086.00   0.62084216   0.00676589
9088.00   0.62602741   0.00696226
9090.00   0.62656659   0.00703563
9092.00   0.62074095   0.00702436
9094.00   0.61329800   0.00700293
9096.00   0.60466397   0.00685535
9098.00   0.59488285   0.00677478
9100.00   0.58614093   0.00735280
9102.00   0.57622921   0.00870189
9104.00   0.57106000   0.00886354
9106.00   0.56478304   0.00815539
9108.00   0.56920820   0.00755722
9110.00   0.59376580   0.00709275
9112.00   0.61863613   0.00671113
9114.00   0.61704320   0.00655327
9116.00   0.59607941   0.00663166
9118.00   0.58708435   0.00659272
9120.00   0.57684934   0.00653761
9122.00   0.57493013   0.00650675
9124.00   0.58275753   0.00626658
9126.00   0.59380007   0.00635138
9128.00   0.60555369   0.00731631
9130.00   0.61973780   0.00869584
9132.00   0.62074649   0.00903789
9134.00   0.60653043   0.00881989
9136.00   0.60118049   0.00848352
9138.00   0.60035425   0.00762616
9140.00   0.60079437   0.00687178
9142.00   0.60192555   0.00665646
9144.00   0.60389060   0.00675629
9146.00   0.60446107   0.00680182
9148.00   0.60633379   0.00694113
9150.00   0.60285878   0.00711977
9152.00   0.59182721   0.00745400
9154.00   0.58495700   0.00764482
9156.00   0.58382797   0.00762139
9158.00   0.58678210   0.00750042
9160.00   0.59501350   0.00742341
9162.00   0.61193162   0.00731310
9164.00   0.61846507   0.00726949
9166.00   0.61842459   0.00726164
9168.00   0.61818790   0.00729184
9170.00   0.61784416   0.00739138
9172.00   0.61624819   0.00749097
9174.00   0.61269885   0.00752530
9176.00   0.60733330   0.00753476
9178.00   0.60178822   0.00742478
9180.00   0.59724933   0.00716045
9182.00   0.58828455   0.00692843
9184.00   0.57091343   0.00663270
9186.00   0.55706018   0.00642535
9188.00   0.55511701   0.00646065
9190.00   0.56054324   0.00665850
9192.00   0.56355453   0.00672295
9194.00   0.57196724   0.00679623
9196.00   0.57121450   0.00675447
9198.00   0.55878615   0.00653867
9200.00   0.55133611   0.00638134
9202.00   0.55595940   0.00638748
9204.00   0.56609243   0.00646847
9206.00   0.57134908   0.00649339
9208.00   0.57783496   0.00648891
9210.00   0.57703590   0.00654214
9212.00   0.56892478   0.00666013
9214.00   0.56092721   0.00674391
9216.00   0.55060714   0.00676981
9218.00   0.54270244   0.00678326
9220.00   0.54822952   0.00683706
9222.00   0.56724048   0.00691036
9224.00   0.57356066   0.00699433
9226.00   0.57399499   0.00717056
9228.00   0.57307476   0.00719734
9230.00   0.56767261   0.00695151
9232.00   0.56369972   0.00675995
9234.00   0.56837392   0.00695849
9236.00   0.57939845   0.00739706
9238.00   0.58193809   0.00775165
9240.00   0.58587354   0.00846084
9242.00   0.57546592   0.00845286
9244.00   0.54091609   0.00753911
9246.00   0.51470268   0.00662113
9248.00   0.51686907   0.00642060
9250.00   0.53456521   0.00660277
9252.00   0.54032779   0.00659047
9254.00   0.54742664   0.00662099
9256.00   0.54418737   0.00658818
9258.00   0.52694798   0.00648106
9260.00   0.51464331   0.00640835
9262.00   0.51376319   0.00641572
9264.00   0.51718926   0.00645190
9266.00   0.51498741   0.00642764
9268.00   0.50786144   0.00631007
9270.00   0.50915062   0.00638457
9272.00   0.51616138   0.00661728
9274.00   0.52482748   0.00683450
9276.00   0.53878731   0.00705333
9278.00   0.55098653   0.00725153
9280.00   0.54983348   0.00736690
9282.00   0.53757149   0.00740880
9284.00   0.53284824   0.00752741
9286.00   0.52470553   0.00769034
9288.00   0.52844119   0.00784166
9290.00   0.54897726   0.00795760
9292.00   0.56996620   0.00811238
9294.00   0.57889068   0.00835113
9296.00   0.58164304   0.00864337
9298.00   0.58618617   0.00901253
9300.00   0.58574408   0.00934977
9302.00   0.59352165   0.00994077
9304.00   0.61666799   0.01074630
9306.00   0.62896442   0.01157610
9308.00   0.61214811   0.01241165
9310.00   0.58179212   0.01324174
9312.00   0.58261442   0.01388295
9314.00   0.61930180   0.01453160
9316.00   0.61846519   0.01483057
9318.00   0.59024286   0.01470284
9320.00   0.56709480   0.01472365
9322.00   0.55302370   0.01501737
9324.00   0.54448122   0.01541742
9326.00   0.54552668   0.01583122
9328.00   0.55650944   0.01652556
9330.00   0.56799591   0.01636965
9332.00   0.58093768   0.01500188
9334.00   0.60123724   0.01445845
9336.00   0.64465982   0.01520810
9338.00   0.67708039   0.01609048
9340.00   0.65370691   0.01619738
9342.00   0.58503723   0.01597679
9344.00   0.55450046   0.01527126
9346.00   0.53293586   0.01277799
9348.00   0.52601844   0.01239107
9350.00   0.54452509   0.01493863
9352.00   0.56016505   0.01679154
9354.00   0.55087018   0.01626780
9356.00   0.52833873   0.01434571
9358.00   0.52692223   0.01414565
9360.00   0.53517747   0.01551496
9362.00   0.55140865   0.01553566
9364.00   0.58274120   0.01405426
9366.00   0.61143786   0.01338667
9368.00   0.63347614   0.01460193
9370.00   0.65074682   0.01664338
9372.00   0.65650296   0.01857542
9374.00   0.65904248   0.02152873
9376.00   0.63639265   0.02220547
9378.00   0.57606596   0.02158280
9380.00   0.53253138   0.02024943
9382.00   0.53241169   0.01757790
9384.00   0.52809894   0.01395442
9386.00   0.44309890   0.01142793
9388.00   0.28124672   0.00972364
9390.00   0.19569196   0.00805562
9392.00   0.14428157   0.00725239
9394.00   0.10800654   0.00672362
9396.00   0.09529151   0.00675120
9398.00   0.09169151   0.00708171
9400.00   0.07986797   0.00741133
9402.00   0.06608348   0.00787812
9404.00   0.07330023   0.00823106
9406.00   0.06065232   0.00840771
9408.00   0.13421340   0.00889297
9410.00   0.32777303   0.00969482
9412.00   0.50489140   0.01042780
9414.00   0.59226203   0.01094892
9416.00   0.63308018   0.01137674
9418.00   0.66722304   0.01178753
9420.00   0.66541278   0.01198689
9422.00   0.67827785   0.01255750
9424.00   0.70733160   0.01383491
9426.00   0.71025109   0.01434776
9428.00   0.65635228   0.01343712
9430.00   0.58573002   0.01185261
9432.00   0.58929300   0.01155448
9434.00   0.65382659   0.01159838
9436.00   0.68824661   0.01310629
9438.00   0.73591226   0.01653758
9440.00   0.75167036   0.01823195
9442.00   0.71653944   0.01846917
9444.00   0.67011613   0.01785889
9446.00   0.66393924   0.01635901
9448.00   0.68391287   0.01302554
9450.00   0.67804271   0.01170750
9452.00   0.66493994   0.01215392
9454.00   0.63875753   0.01260021
9456.00   0.58471131   0.01351323
9458.00   0.53876543   0.01427584
9460.00   0.53215396   0.01437843
9462.00   0.55088133   0.01409339
9464.00   0.56379950   0.01378641
9466.00   0.58636105   0.01290912
9468.00   0.60280508   0.01278446
9470.00   0.61851847   0.01335614
9472.00   0.62876654   0.01401947
9474.00   0.63457811   0.01466662
9476.00   0.63378143   0.01531104
9478.00   0.60841483   0.01544218
9480.00   0.54147333   0.01535367
9482.00   0.51424938   0.01472905
9484.00   0.50266099   0.01313337
9486.00   0.50675666   0.01169311
9488.00   0.53440940   0.01061950
9490.00   0.57228774   0.00996011
9492.00   0.59017628   0.01016356
9494.00   0.59428924   0.01046445
9496.00   0.61164749   0.01332938
9498.00   0.64570296   0.01901154
9500.00   0.66132474   0.02113145
9502.00   0.65789247   0.02031997
9504.00   0.64110214   0.01815005
9506.00   0.60903889   0.01551652
9508.00   0.55606103   0.01060261
9510.00   0.53736889   0.00838064
9512.00   0.54246449   0.00983538
9514.00   0.54765576   0.01084796
9516.00   0.55762720   0.01235336
9518.00   0.57048506   0.01356184
9520.00   0.58623910   0.01405926
9522.00   0.60492706   0.01418056
9524.00   0.61061144   0.01392283
9526.00   0.60974705   0.01295747
9528.00   0.59928781   0.01225296
9530.00   0.57034588   0.01146088
9532.00   0.54839051   0.01086676
9534.00   0.54267097   0.01064089
9536.00   0.54610181   0.01069522
9538.00   0.55363101   0.01089264
9540.00   0.57498497   0.01142666
9542.00   0.58071375   0.01170993
9544.00   0.56909043   0.01172809
9546.00   0.57017249   0.01204719
9548.00   0.59637988   0.01282223
9550.00   0.62622601   0.01369830
9552.00   0.62787771   0.01435104
9554.00   0.60908735   0.01511384
9556.00   0.59827560   0.01501054
9558.00   0.58609098   0.01373498
9560.00   0.57370061   0.01307175
9562.00   0.56031042   0.01322650
9564.00   0.54742390   0.01354055
9566.00   0.53531861   0.01357512
9568.00   0.52272385   0.01355806
9570.00   0.52334249   0.01321056
9572.00   0.54033089   0.01232833
9574.00   0.54908609   0.01175222
9576.00   0.55495805   0.01140945
9578.00   0.55648732   0.01115439
9580.00   0.54878682   0.01086100
9582.00   0.53547889   0.01061932
9584.00   0.53998041   0.01087431
9586.00   0.56408256   0.01157065
9588.00   0.57403147   0.01225806
9590.00   0.57598990   0.01346168
9592.00   0.57834589   0.01401081
9594.00   0.58552331   0.01343544
9596.00   0.59224397   0.01229693
9598.00   0.58749431   0.01186512
9600.00   0.57127470   0.01152030
9602.00   0.56099778   0.01200208
9604.00   0.54226786   0.01390766
9606.00   0.54144508   0.01454894
9608.00   0.57212132   0.01349399
9610.00   0.60675204   0.01181927
9612.00   0.60597670   0.01106922
9614.00   0.57627958   0.01065490
9616.00   0.58339280   0.01091878
9618.00   0.63153625   0.01221993
9620.00   0.64289463   0.01294262
9622.00   0.60719860   0.01337386
9624.00   0.57103157   0.01350651
9626.00   0.57147366   0.01311717
9628.00   0.59234321   0.01222094
9630.00   0.59492666   0.01199900
9632.00   0.59323573   0.01212127
9634.00   0.58442497   0.01244077
9636.00   0.55530894   0.01339416
9638.00   0.54120630   0.01386961
9640.00   0.56683540   0.01323623
9642.00   0.61261129   0.01192012
9644.00   0.62202573   0.01139046
9646.00   0.59545958   0.01119033
9648.00   0.60154283   0.01128195
9650.00   0.63715744   0.01206578
9652.00   0.65475708   0.01242431
9654.00   0.63812238   0.01200516
9656.00   0.60863698   0.01129780
9658.00   0.59666014   0.01114874
9660.00   0.59134811   0.01133703
9662.00   0.58761394   0.01143538
9664.00   0.59305090   0.01173524
9666.00   0.58985484   0.01176076
9668.00   0.57251030   0.01140573
9670.00   0.55450422   0.01092896
9672.00   0.55017394   0.01058297
9674.00   0.55389118   0.01021007
9676.00   0.56024837   0.01023405
9678.00   0.58479220   0.01073636
9680.00   0.58440554   0.01102210
9682.00   0.55076838   0.01125820
9684.00   0.52018607   0.01133644
9686.00   0.51735163   0.01104591
9688.00   0.52970344   0.01046568
9690.00   0.53887051   0.01052919
9692.00   0.55435795   0.01107782
9694.00   0.56581026   0.01155015
9696.00   0.57906431   0.01238366
9698.00   0.58549029   0.01275655
9700.00   0.57864535   0.01223090
9702.00   0.56504202   0.01119208
9704.00   0.56239879   0.01077731
9706.00   0.56831700   0.01069318
9708.00   0.56731594   0.01062244
9710.00   0.55596066   0.01065230
9712.00   0.55713367   0.01081552
9714.00   0.58234972   0.01117757
9716.00   0.61194056   0.01159787
9718.00   0.61468309   0.01186880
9720.00   0.59762371   0.01211470
9722.00   0.59065032   0.01216402
9724.00   0.58128816   0.01199292
9726.00   0.57878768   0.01184434
9728.00   0.58621508   0.01154524
9730.00   0.59504300   0.01142463
9732.00   0.59654081   0.01191821
9734.00   0.59366727   0.01284845
9736.00   0.59819293   0.01337433
9738.00   0.61226255   0.01399675
9740.00   0.61662751   0.01408493
9742.00   0.61324042   0.01359067
9744.00   0.60627830   0.01292796
9746.00   0.59465748   0.01223234
9748.00   0.57959354   0.01142313
9750.00   0.58037353   0.01116531
9752.00   0.59845966   0.01152887
9754.00   0.60622770   0.01162226
9756.00   0.61253381   0.01169359
9758.00   0.61367697   0.01172867
9760.00   0.60636765   0.01174319
9762.00   0.59476972   0.01171025
9764.00   0.58941633   0.01152197
9766.00   0.59219420   0.01106617
9768.00   0.57908058   0.01093397
9770.00   0.54315686   0.01107953
9772.00   0.52558720   0.01113749
9774.00   0.53571492   0.01096012
9776.00   0.55452055   0.01084277
9778.00   0.56089467   0.01120410
9780.00   0.56243122   0.01193553
9782.00   0.56712568   0.01240798
9784.00   0.57496077   0.01288779
9786.00   0.57814240   0.01320576
9788.00   0.57957613   0.01339141
9790.00   0.57483089   0.01345647
9792.00   0.55772394   0.01335847
9794.00   0.53023297   0.01309597
9796.00   0.51139218   0.01303753
9798.00   0.48984864   0.01320240
9800.00   0.48147836   0.01313145
9802.00   0.48442078   0.01284095
9804.00   0.49464318   0.01253010
9806.00   0.51628804   0.01228297
9808.00   0.54441142   0.01205233
9810.00   0.54581839   0.01185271
9812.00   0.52143306   0.01168587
9814.00   0.50873810   0.01153564
9816.00   0.49449700   0.01136275
9818.00   0.48485014   0.01129263
9820.00   0.48205277   0.01141164
9822.00   0.48318189   0.01159393
9824.00   0.48410472   0.01158794
9826.00   0.48790178   0.01137001
9828.00   0.48791873   0.01149839
9830.00   0.48773488   0.01208106
9832.00   0.48285729   0.01226255
9834.00   0.46952665   0.01188860
9836.00   0.45595664   0.01137572
9838.00   0.45343703   0.01118465
9840.00   0.46006206   0.01114293
9842.00   0.45210162   0.01113047
9844.00   0.43180504   0.01118822
9846.00   0.41624781   0.01131158
9848.00   0.39882424   0.01153592
9850.00   0.38891134   0.01177003
9852.00   0.39765570   0.01200786
9854.00   0.41983265   0.01225774
9856.00   0.42315418   0.01211621
9858.00   0.41541016   0.01144243
9860.00   0.40758520   0.01110901
9862.00   0.39360210   0.01083876
9864.00   0.38238591   0.01084595
9866.00   0.37954506   0.01126904
9868.00   0.37989238   0.01194334
9870.00   0.37077069   0.01255928
9872.00   0.35184124   0.01354383
9874.00   0.34146875   0.01371709
9876.00   0.33257377   0.01327090
9878.00   0.32963672   0.01273180
9880.00   0.33485571   0.01203545
9882.00   0.34457353   0.01129556
9884.00   0.35354236   0.01098270
9886.00   0.36552861   0.01095036
9888.00   0.37196344   0.01117062
9890.00   0.37693408   0.01192497
9892.00   0.37624118   0.01232362
9894.00   0.36759198   0.01233308
9896.00   0.35674036   0.01225949
9898.00   0.34974882   0.01236919
9900.00   0.34446058   0.01257741
9902.00   0.33444107   0.01247304
9904.00   0.31562495   0.01190076
9906.00   0.30766904   0.01176227
9908.00   0.30857420   0.01186980
9910.00   0.31431141   0.01229498
9912.00   0.32620138   0.01331722
9914.00   0.34298059   0.01462229
9916.00   0.34372634   0.01468813
9918.00   0.32994744   0.01363065
9920.00   0.32115921   0.01294936
9922.00   0.30618036   0.01199845
9924.00   0.30103391   0.01140657
9926.00   0.31460330   0.01154946
9928.00   0.33694473   0.01209012
9930.00   0.34751678   0.01245591
9932.00   0.35396791   0.01298523
9934.00   0.35687590   0.01317406
9936.00   0.35038561   0.01268604
9938.00   0.35087934   0.01296950
9940.00   0.36586261   0.01443658
9942.00   0.38071766   0.01600242
9944.00   0.37518054   0.01671687
9946.00   0.35485244   0.01708455
9948.00   0.33728129   0.01711305
9950.00   0.30333686   0.01641347
9952.00   0.29442373   0.01617771
9954.00   0.31590283   0.01647857
9956.00   0.34442222   0.01685450
9958.00   0.36626297   0.01706937
9960.00   0.38984859   0.01727141
9962.00   0.38299873   0.01691307
9964.00   0.32961798   0.01573304
9966.00   0.31657752   0.01503505
9968.00   0.34004492   0.01465803
9970.00   0.36283177   0.01441199
9972.00   0.36847842   0.01427984
9974.00   0.36717546   0.01425851
9976.00   0.36534345   0.01404584
9978.00   0.35057056   0.01357196
9980.00   0.35700065   0.01342016
9982.00   0.38405675   0.01353416
9984.00   0.40601769   0.01362286
9986.00   0.41730997   0.01361116
9988.00   0.42346755   0.01358305
9990.00   0.42698988   0.01361564
9992.00   0.42744407   0.01365421
9994.00   0.42240709   0.01380733
9996.00   0.40077162   0.01410087
9998.00   0.39741346   0.01434749
10000.00   0.42658788   0.01443713
10002.00   0.45601258   0.01461874
10004.00   0.44416344   0.01512546
10006.00   0.39897564   0.01575708
10008.00   0.39675996   0.01701573
10010.00   0.42340210   0.01914110
10012.00   0.44574264   0.02045021
10014.00   0.47351390   0.02125598
10016.00   0.49555632   0.02174298
10018.00   0.50196451   0.02203395
10020.00   0.49764472   0.02209759
10022.00   0.48770753   0.02132656
10024.00   0.45263904   0.01892756
10026.00   0.45056564   0.01777645
10028.00   0.48241696   0.01771095
10030.00   0.50950277   0.01776416
10032.00   0.51452118   0.01762264
10034.00   0.51107824   0.01748009
10036.00   0.51993507   0.01723016
10038.00   0.53918236   0.01671288
10040.00   0.54807729   0.01663142
10042.00   0.54649097   0.01682880
10044.00   0.55221766   0.01716808
10046.00   0.57363725   0.01775872
10048.00   0.59720796   0.01836766
10050.00   0.60152543   0.01852876
10052.00   0.59350204   0.01831167
10054.00   0.58174199   0.01839229
10056.00   0.55588651   0.01866326
10058.00   0.53891087   0.01880628
10060.00   0.52763057   0.01882231
10062.00   0.52496040   0.01876990
10064.00   0.53915554   0.01862886
10066.00   0.56979346   0.01834844
10068.00   0.58335084   0.01851146
10070.00   0.58111930   0.01864308
10072.00   0.59405327   0.01960269
10074.00   0.63257807   0.02181615
10076.00   0.65751898   0.02348199
10078.00   0.63810015   0.02372877
10080.00   0.59222639   0.02318776
10082.00   0.58412194   0.02299418
10084.00   0.59977245   0.02287714
10086.00   0.61082345   0.02240426
10088.00   0.62994587   0.02130705
10090.00   0.64324975   0.02052971
10092.00   0.64722675   0.02033772
10094.00   0.64419848   0.02061850
10096.00   0.63077241   0.02167040
10098.00   0.58860725   0.02421037
10100.00   0.59531254   0.02449148
10102.00   0.65902066   0.02295204
10104.00   0.68873072   0.02174980
10106.00   0.66243923   0.02118635
10108.00   0.62193161   0.02085457
10110.00   0.61478740   0.02050843
10112.00   0.62267840   0.02007733
10114.00   0.63701385   0.02062844
10116.00   0.68026108   0.02221076
10118.00   0.69219184   0.02340981
10120.00   0.65687335   0.02436082
10122.00   0.62575257   0.02522006
10124.00   0.64809728   0.02619853
10126.00   0.70583999   0.02729341
10128.00   0.71535945   0.02691279
10130.00   0.68998456   0.02462675
10132.00   0.67731416   0.02332228
10134.00   0.66726905   0.02246340
10136.00   0.66017860   0.02211258
10138.00   0.65861630   0.02253248
10140.00   0.66047931   0.02348717
10142.00   0.65605420   0.02393748
10144.00   0.63518447   0.02426906
10146.00   0.64388275   0.02448194
10148.00   0.68129236   0.02443413
10150.00   0.71350694   0.02452882
10152.00   0.73880911   0.02503135
10154.00   0.75504369   0.02556001
10156.00   0.73836035   0.02533168
10158.00   0.67309284   0.02417878
10160.00   0.66882640   0.02412253
10162.00   0.71019477   0.02445893
10164.00   0.74338150   0.02543863
10166.00   0.77146399   0.02750049
10168.00   0.79230720   0.02946778
10170.00   0.79511738   0.03013150
10172.00   0.78465933   0.03004329
10174.00   0.76011044   0.02979997
10176.00   0.70758444   0.02895767
10178.00   0.67102861   0.02824999
10180.00   0.63476950   0.02728666
10182.00   0.62050217   0.02673290
10184.00   0.65679574   0.02739496
10186.00   0.73167008   0.02887714
10188.00   0.75457853   0.02916494
10190.00   0.74463290   0.02872537
10192.00   0.74083161   0.02837884
10194.00   0.73490810   0.02770039
10196.00   0.72448301   0.02727437
10198.00   0.70315558   0.02734339
10200.00   0.67830569   0.02775916
10202.00   0.68140656   0.02849059
10204.00   0.70615387   0.02844624
10206.00   0.73380226   0.03138663
10208.00   0.80269367   0.03803632
10210.00   0.82088912   0.04132132
10212.00   0.75220340   0.04054035
10214.00   0.65230000   0.03782222
10216.00   0.60446793   0.03537861
10218.00   0.57780242   0.03092053
10220.00   0.56026161   0.03050352
10222.00   0.55165809   0.03502069
10224.00   0.56380224   0.03644722
10226.00   0.61833596   0.03444185
10228.00   0.66703743   0.03145590
10230.00   0.64982349   0.02981128
10232.00   0.58238077   0.02856823
10234.00   0.57364857   0.02780752
10236.00   0.60082114   0.02770809
10238.00   0.62259763   0.02781690
10240.00   0.65900165   0.02866043
10242.00   0.67906451   0.02913202
10244.00   0.65435731   0.02835759
10246.00   0.60095859   0.02677153
10248.00   0.58224040   0.02619402
10250.00   0.59653425   0.02633596
10252.00   0.57582736   0.02618513
10254.00   0.52469116   0.02548965
10256.00   0.47816831   0.02562390
10258.00   0.43796164   0.02756182
10260.00   0.40824524   0.02996065
10262.00   0.42840213   0.03018834
10264.00   0.50976992   0.02823267
10266.00   0.55033219   0.02833430
10268.00   0.59866482   0.03024177
10270.00   0.60391456   0.03094485
10272.00   0.53528452   0.02957472
10274.00   0.45031378   0.02777790
10276.00   0.43770990   0.02796205
10278.00   0.47981277   0.02912211
10280.00   0.46602494   0.03135411
10282.00   0.37067795   0.03350264
10284.00   0.37883663   0.03807628
10286.00   0.54669571   0.04721395
10288.00   0.70298094   0.05313975
10290.00   0.69116598   0.05060786
10292.00   0.57360846   0.04097052
10294.00   0.51518548   0.03645176
10296.00   0.44460344   0.03441597
10298.00   0.41313598   0.03247704
10300.00   0.42557466   0.03162289
10302.00   0.44347966   0.03109474
10304.00   0.45476151   0.03051465
10306.00   0.46453199   0.03008444
10308.00   0.43895376   0.02928456
10310.00   0.34781265   0.02776943
10312.00   0.33352610   0.02724302
10314.00   0.38666567   0.02766158
10316.00   0.42248115   0.02793561
10318.00   0.41739446   0.02772477
10320.00   0.39573982   0.02740848
10322.00   0.38037103   0.02750860
10324.00   0.36102390   0.02807970
10326.00   0.34386438   0.02800476
10328.00   0.29828069   0.02618046
10330.00   0.30828336   0.02682289
10332.00   0.42002937   0.03174713
10334.00   0.53513551   0.03593526
10336.00   0.52511644   0.03495574
10338.00   0.42527142   0.02958011
10340.00   0.37550446   0.02778895
10342.00   0.32462272   0.02807701
10344.00   0.29126069   0.02810086
10346.00   0.26532933   0.02719268
10348.00   0.26421559   0.02770898
10350.00   0.31634706   0.03220288
10352.00   0.41151839   0.03854793
10354.00   0.42530894   0.03869506
10356.00   0.36088267   0.03266803
10358.00   0.34657556   0.02993655
10360.00   0.37024245   0.02943268
10362.00   0.38639164   0.02937518
10364.00   0.37492430   0.02908042
10366.00   0.35070148   0.02902080
10368.00   0.33516911   0.02955270
10370.00   0.31516904   0.03105868
10372.00   0.30943242   0.03160996
10374.00   0.31696963   0.03180567
10376.00   0.32497770   0.03165817
10378.00   0.33100745   0.03105586
10380.00   0.33808941   0.03016329
10382.00   0.34910581   0.02933744
10384.00   0.36737809   0.02827355
10386.00   0.37106240   0.02772540
10388.00   0.36449724   0.02745936
10390.00   0.35505128   0.02755157
10392.00   0.34101099   0.02828654
10394.00   0.32493412   0.02901936
10396.00   0.31044149   0.02905961
10398.00   0.29586056   0.02867923
10400.00   0.28170976   0.02831470
10402.00   0.26245743   0.02765357
10404.00   0.25498980   0.02720222
10406.00   0.26615301   0.02679227
10408.00   0.27233571   0.02664072
10410.00   0.25656864   0.02690755
10412.00   0.22801314   0.02749993
10414.00   0.20954779   0.02833782
10416.00   0.18680990   0.03013430
10418.00   0.18091078   0.03050715
10420.00   0.18881311   0.02962514
10422.00   0.20418195   0.02875652
10424.00   0.22760829   0.02829021
10426.00   0.25710452   0.02797897
10428.00   0.28188875   0.02792156
10430.00   0.31535414   0.02843259
10432.00   0.32154542   0.02817112
10434.00   0.29368225   0.02704213
10436.00   0.28214100   0.02641658
10438.00   0.29571408   0.02656372
10440.00   0.31919590   0.02708247
10442.00   0.33939582   0.02766963
10444.00   0.36383465   0.02855973
10446.00   0.38061616   0.02903796
10448.00   0.40588966   0.02946626
10450.00   0.40206334   0.02947747
10452.00   0.35761148   0.02848141
10454.00   0.30693370   0.02785454
10456.00   0.28027710   0.02939657
10458.00   0.26459807   0.03240824
10460.00   0.24513777   0.03230027
10462.00   0.21477912   0.02871207
10464.00   0.21210808   0.02766489
10466.00   0.24261659   0.02861200
10468.00   0.27318445   0.03027191
10470.00   0.29540613   0.03291159
10472.00   0.31181452   0.03590440
10474.00   0.27633736   0.03481014
10476.00   0.14913869   0.02770973
10478.00   0.11915470   0.02495703
10480.00   0.16473939   0.02554356
10482.00   0.20048825   0.02620926
10484.00   0.20139803   0.02620721
10486.00   0.19280457   0.02620677
10488.00   0.20120370   0.02640375
10490.00   0.22430019   0.02683393
10492.00   0.22845408   0.02700874
10494.00   0.21100411   0.02673079
10496.00   0.20975979   0.02702171
10498.00   0.24384378   0.02791376
10500.00   0.27308273   0.02920760
10502.00   0.23976634   0.03108234
10504.00   0.14967607   0.03391063
10506.00   0.13174748   0.03385229
10508.00   0.16689830   0.03061141
10510.00   0.18576694   0.02887265
10512.00   0.19764850   0.02852562
10514.00   0.20303516   0.02880191
10516.00   0.19323882   0.02904487
10518.00   0.17078915   0.02947408
10520.00   0.18284194   0.03251300
10522.00   0.23233584   0.04004430
10524.00   0.25743842   0.04130260
10526.00   0.26907706   0.03690687
10528.00   0.27539259   0.03237733
10530.00   0.28398147   0.03117444
10532.00   0.28752807   0.03145276
10534.00   0.25745159   0.03080611
10536.00   0.16413942   0.02964182
10538.00   0.14712684   0.02957465
10540.00   0.19085863   0.03066813
10542.00   0.22334030   0.03141398
10544.00   0.22931682   0.03142028
10546.00   0.22738828   0.03126457
10548.00   0.23324093   0.03172376
10550.00   0.24679896   0.03278756
10552.00   0.23861954   0.03294939
10554.00   0.20553777   0.03231280
10556.00   0.18419313   0.03199176
10558.00   0.17082438   0.03198466
10560.00   0.16842772   0.03216212
10562.00   0.19041923   0.03258653
10564.00   0.23900209   0.03333313
10566.00   0.24244164   0.03340393
10568.00   0.20042947   0.03266481
10570.00   0.18779765   0.03257731
10572.00   0.19734189   0.03310513
10574.00   0.21615879   0.03374204
10576.00   0.24717017   0.03429844
10578.00   0.28872192   0.03487225
10580.00   0.27774790   0.03499489
10582.00   0.20421924   0.03481024
10584.00   0.17366965   0.03439975
10586.00   0.15457773   0.03306211
10588.00   0.15965608   0.03255222
10590.00   0.21070015   0.03407018
10592.00   0.28134957   0.03627235
10594.00   0.28714028   0.03638780
10596.00   0.24236672   0.03487565
10598.00   0.21251887   0.03407472
10600.00   0.16164742   0.03271707
10602.00   0.13602628   0.03240895
10604.00   0.15154070   0.03406371
10606.00   0.18041748   0.03597299
10608.00   0.18369702   0.03581030
10610.00   0.16943495   0.03399374
10612.00   0.18133576   0.03360632
10614.00   0.22548445   0.03410037
10616.00   0.24162392   0.03425682
10618.00   0.22513995   0.03411358
10620.00   0.19947259   0.03386039
10622.00   0.17912993   0.03349842
10624.00   0.15505296   0.03295390
10626.00   0.15658711   0.03309023
10628.00   0.18348512   0.03402354
10630.00   0.20526965   0.03444096
10632.00   0.23107526   0.03446005
10634.00   0.25309357   0.03446142
10636.00   0.26974142   0.03471296
10638.00   0.28105327   0.03503244
10640.00   0.26705107   0.03476134
10642.00   0.21889102   0.03386200
10644.00   0.18999524   0.03320124
10646.00   0.15820841   0.03238489
10648.00   0.14349179   0.03182809
10650.00   0.15410094   0.03167427
10652.00   0.18082550   0.03180473
10654.00   0.21025442   0.03212066
10656.00   0.26106086   0.03285182
10658.00   0.27660859   0.03315814
10660.00   0.26526481   0.03330104
10662.00   0.25302184   0.03328783
10664.00   0.23943615   0.03317377
10666.00   0.22432317   0.03284706
10668.00   0.21058974   0.03205081
10670.00   0.19373924   0.03063427
10672.00   0.19546242   0.03007555
10674.00   0.21913710   0.03022968
10676.00   0.23287350   0.03018576
10678.00   0.23244062   0.02991194
10680.00   0.23734434   0.02975892
10682.00   0.26911202   0.03010622
10684.00   0.32027310   0.03081433
10686.00   0.31944582   0.03055886
10688.00   0.27211666   0.02930770
10690.00   0.23921712   0.02855960
10692.00   0.19521247   0.02802608
10694.00   0.17059919   0.02763461
10696.00   0.18960094   0.02749493
10698.00   0.23205145   0.02749078
10700.00   0.23622054   0.02694823
10702.00   0.20527072   0.02551399
10704.00   0.20558999   0.02515088
10706.00   0.22361071   0.02567430
10708.00   0.24244823   0.02606469
10710.00   0.26245901   0.02621574
10712.00   0.28112540   0.02621053
10714.00   0.28539935   0.02582372
10716.00   0.27297813   0.02491053
10718.00   0.27891001   0.02448568
10720.00   0.31143063   0.02455268
10722.00   0.31387150   0.02421038
10724.00   0.26839188   0.02314019
10726.00   0.21928729   0.02203532
10728.00   0.21458340   0.02180678
10730.00   0.23757619   0.02222314
10732.00   0.25058961   0.02219006
10734.00   0.26987788   0.02203487
10736.00   0.28309372   0.02185069
10738.00   0.29443106   0.02159118
10740.00   0.29867747   0.02132610
10742.00   0.29074535   0.02114952
10744.00   0.27323681   0.02101590
10746.00   0.25579783   0.02058902
10748.00   0.22494297   0.01978420
10750.00   0.21407536   0.01920315
10752.00   0.21887432   0.01864186
10754.00   0.22875282   0.01826863
10756.00   0.24529229   0.01829247
10758.00   0.26440629   0.01849374
10760.00   0.26173910   0.01817835
10762.00   0.23131454   0.01729954
10764.00   0.22944720   0.01692419
10766.00   0.24753928   0.01680189
10768.00   0.26197731   0.01678793
10770.00   0.27094206   0.01696549
10772.00   0.27667058   0.01717279
10774.00   0.27587584   0.01706872
10776.00   0.26544002   0.01669929
10778.00   0.26948529   0.01655185
10780.00   0.28927669   0.01658575
10782.00   0.29802215   0.01646846
10784.00   0.29644147   0.01594107
10786.00   0.28849715   0.01562532
10788.00   0.27360302   0.01635811
10790.00   0.25007963   0.01786250
10792.00   0.24100049   0.01785276
10794.00   0.23782359   0.01646186
10796.00   0.24330220   0.01569667
10798.00   0.26088387   0.01533760
10800.00   0.28071257   0.01509432
10802.00   0.30257368   0.01493205
10804.00   0.32538635   0.01485748
10806.00   0.31653792   0.01435740
10808.00   0.27784047   0.01330121
10810.00   0.24185413   0.01258256
10812.00   0.18087299   0.01145959
10814.00   0.14573970   0.01134371
10816.00   0.15753065   0.01324029
10818.00   0.19345030   0.01547568
10820.00   0.21701258   0.01567365
10822.00   0.24749753   0.01392334
10824.00   0.26289019   0.01424407
10826.00   0.26538396   0.01646846
10828.00   0.26807952   0.01727121
10830.00   0.27909207   0.01611407
10832.00   0.28212261   0.01436215
10834.00   0.24925022   0.01408747
10836.00   0.17586794   0.01487657
10838.00   0.16761009   0.01438489
10840.00   0.22535786   0.01272288
10842.00   0.24231949   0.01152607
10844.00   0.20272627   0.01040678
10846.00   0.17402308   0.01005361
10848.00   0.21435030   0.01147624
10850.00   0.29994646   0.01391030
