# File created by shivutils (I.Shivvers)
# 
# wl(A)   flm    er(optional)
3456.00   0.48860180   0.04361100
3458.00   0.49142346   0.04249041
3460.00   0.39526650   0.04092619
3462.00   0.41604902   0.04167842
3464.00   0.52627715   0.04313323
3466.00   0.52819888   0.04361113
3468.00   0.42058464   0.04349643
3470.00   0.46261510   0.04431211
3472.00   0.41205606   0.04256880
3474.00   0.35673088   0.04064929
3476.00   0.44332020   0.04126096
3478.00   0.48336161   0.04350862
3480.00   0.44635670   0.04464473
3482.00   0.52366319   0.04536062
3484.00   0.56843438   0.04456366
3486.00   0.48275922   0.04403719
3488.00   0.48007210   0.04326383
3490.00   0.48924870   0.04161881
3492.00   0.47325377   0.04163789
3494.00   0.45459644   0.04152882
3496.00   0.42912235   0.04111899
3498.00   0.46730275   0.04175787
3500.00   0.44138199   0.04275517
3502.00   0.47249807   0.04379744
3504.00   0.43923105   0.04279894
3506.00   0.52966659   0.04295731
3508.00   0.38006802   0.04139013
3510.00   0.41329096   0.04092402
3512.00   0.46962131   0.04097829
3514.00   0.45439682   0.04017470
3516.00   0.41907004   0.04136361
3518.00   0.48819231   0.04259850
3520.00   0.35257234   0.04028292
3522.00   0.51131981   0.04028754
3524.00   0.44667197   0.03860973
3526.00   0.42794777   0.03843569
3528.00   0.46627002   0.04040443
3530.00   0.50064081   0.04117377
3532.00   0.53198266   0.04121033
3534.00   0.39826811   0.03999407
3536.00   0.53501006   0.04169628
3538.00   0.39327750   0.04042020
3540.00   0.41713439   0.04103732
3542.00   0.48317877   0.04192017
3544.00   0.47852438   0.04234440
3546.00   0.60287515   0.04268839
3548.00   0.50711693   0.04190854
3550.00   0.51164998   0.04128393
3552.00   0.50652885   0.04122133
3554.00   0.51669545   0.04053314
3556.00   0.46747418   0.04025771
3558.00   0.44224009   0.03968047
3560.00   0.52988403   0.03990023
3562.00   0.42235636   0.03886819
3564.00   0.45461092   0.03808893
3566.00   0.54201932   0.03708252
3568.00   0.45642069   0.03600851
3570.00   0.51384520   0.03604003
3572.00   0.40466518   0.03565403
3574.00   0.45877952   0.03673235
3576.00   0.44198573   0.03668607
3578.00   0.46697956   0.03562167
3580.00   0.53691180   0.03473201
3582.00   0.46753653   0.03329625
3584.00   0.47215051   0.03334882
3586.00   0.45249639   0.03267934
3588.00   0.49662314   0.03415861
3590.00   0.49485254   0.03537918
3592.00   0.49050578   0.03580894
3594.00   0.48631799   0.03556076
3596.00   0.48408776   0.03595391
3598.00   0.47795660   0.03612674
3600.00   0.50847932   0.03591050
3602.00   0.48575542   0.03450884
3604.00   0.52089039   0.03378779
3606.00   0.48704486   0.03298335
3608.00   0.47222231   0.03241385
3610.00   0.51974471   0.03297394
3612.00   0.49986511   0.03393908
3614.00   0.47454541   0.03422546
3616.00   0.54018310   0.03426931
3618.00   0.48407561   0.03205430
3620.00   0.54111409   0.03243439
3622.00   0.52663222   0.03352579
3624.00   0.51092250   0.03396955
3626.00   0.48914186   0.03416925
3628.00   0.43996714   0.03386703
3630.00   0.53777182   0.03317734
3632.00   0.48825813   0.03205872
3634.00   0.48436246   0.03211373
3636.00   0.49122069   0.03245475
3638.00   0.45599463   0.03284360
3640.00   0.53289253   0.03348043
3642.00   0.41736375   0.03255017
3644.00   0.52170524   0.03258005
3646.00   0.52434133   0.03222144
3648.00   0.49773765   0.03467775
3650.00   0.52918559   0.03672284
3652.00   0.49044893   0.03601186
3654.00   0.52521421   0.03500608
3656.00   0.55598354   0.03429159
3658.00   0.51051077   0.03304816
3660.00   0.60001664   0.03343629
3662.00   0.49290669   0.03342445
3664.00   0.46083654   0.03252270
3666.00   0.53613063   0.03148254
3668.00   0.56769059   0.03066619
3670.00   0.50633372   0.03012271
3672.00   0.51225753   0.03033721
3674.00   0.51459703   0.03028711
3676.00   0.48152504   0.02942740
3678.00   0.55371763   0.02887500
3680.00   0.53418416   0.02841190
3682.00   0.54510142   0.02877489
3684.00   0.52527564   0.02837208
3686.00   0.51803584   0.02751084
3688.00   0.45921543   0.02731115
3690.00   0.46803301   0.02830465
3692.00   0.44918137   0.02823359
3694.00   0.43179467   0.02769812
3696.00   0.52763834   0.02821610
3698.00   0.42171660   0.02806456
3700.00   0.49022120   0.02888011
3702.00   0.38629718   0.02705563
3704.00   0.40394253   0.02618000
3706.00   0.48347259   0.02597286
3708.00   0.46545028   0.02602863
3710.00   0.40429113   0.02620456
3712.00   0.46726729   0.02748033
3714.00   0.49756004   0.02797148
3716.00   0.49062518   0.02758714
3718.00   0.47945814   0.02612926
3720.00   0.43610193   0.02421166
3722.00   0.43915651   0.02430311
3724.00   0.43977371   0.02572395
3726.00   0.45911488   0.02610168
3728.00   0.49368100   0.02615194
3730.00   0.46964662   0.02592523
3732.00   0.48794956   0.02518156
3734.00   0.51415361   0.02409883
3736.00   0.48482491   0.02388948
3738.00   0.47366668   0.02517798
3740.00   0.52206548   0.02650728
3742.00   0.55022576   0.02693546
3744.00   0.62545064   0.02705347
3746.00   0.57096692   0.02642601
3748.00   0.48780115   0.02474266
3750.00   0.51988603   0.02458133
3752.00   0.53681723   0.02574759
3754.00   0.56374504   0.02672870
3756.00   0.47902522   0.02572615
3758.00   0.54447379   0.02534927
3760.00   0.59863522   0.02540618
3762.00   0.53229008   0.02517009
3764.00   0.54645610   0.02497152
3766.00   0.55454494   0.02490519
3768.00   0.52002396   0.02460775
3770.00   0.52700930   0.02514905
3772.00   0.53856521   0.02594196
3774.00   0.49988441   0.02619780
3776.00   0.50905135   0.02603959
3778.00   0.48426510   0.02593232
3780.00   0.47523965   0.02606144
3782.00   0.47631557   0.02621711
3784.00   0.43574023   0.02544242
3786.00   0.44709045   0.02461431
3788.00   0.34379685   0.02345014
3790.00   0.32705164   0.02356824
3792.00   0.36281074   0.02386868
3794.00   0.33842808   0.02314761
3796.00   0.32305977   0.02244017
3798.00   0.25878843   0.02184889
3800.00   0.32012306   0.02282503
3802.00   0.28474768   0.02357803
3804.00   0.30165117   0.02365191
3806.00   0.29859109   0.02315699
3808.00   0.34226608   0.02329832
3810.00   0.24315449   0.02302044
3812.00   0.25691297   0.02262959
3814.00   0.22421235   0.02103820
3816.00   0.25759438   0.02090778
3818.00   0.27191955   0.02147911
3820.00   0.29497583   0.02088576
3822.00   0.20908446   0.02034504
3824.00   0.23690254   0.02011914
3826.00   0.20579702   0.01913460
3828.00   0.22148596   0.01997888
3830.00   0.27751561   0.02069744
3832.00   0.24822742   0.01952524
3834.00   0.24306574   0.01916439
3836.00   0.27192594   0.01958500
3838.00   0.21221953   0.01879831
3840.00   0.25079527   0.01936513
3842.00   0.24959034   0.02023610
3844.00   0.19590605   0.02043678
3846.00   0.19237791   0.02039745
3848.00   0.28812819   0.02038685
3850.00   0.24419699   0.02000752
3852.00   0.22388134   0.02012916
3854.00   0.26900668   0.01978459
3856.00   0.21635961   0.01915472
3858.00   0.26171348   0.01873195
3860.00   0.29994623   0.01918952
3862.00   0.30995144   0.02039031
3864.00   0.35811343   0.02118789
3866.00   0.40150392   0.02097007
3868.00   0.38650378   0.02036133
3870.00   0.39845099   0.01983771
3872.00   0.45208437   0.02037667
3874.00   0.47883832   0.02140352
3876.00   0.50805767   0.02135378
3878.00   0.46503008   0.02048891
3880.00   0.44470679   0.02027790
3882.00   0.50662371   0.02077319
3884.00   0.49192003   0.02062906
3886.00   0.50756125   0.02042711
3888.00   0.52983980   0.02056811
3890.00   0.48647752   0.02065844
3892.00   0.52348047   0.02136472
3894.00   0.53322013   0.02150856
3896.00   0.53233824   0.02152906
3898.00   0.53004818   0.02153953
3900.00   0.55314722   0.02146506
3902.00   0.56977334   0.02142369
3904.00   0.56308545   0.02128820
3906.00   0.54038908   0.02195346
3908.00   0.59151662   0.02293126
3910.00   0.56399428   0.02311401
3912.00   0.57672346   0.02334527
3914.00   0.61491603   0.02296891
3916.00   0.60956033   0.02206185
3918.00   0.56263700   0.02128216
3920.00   0.61790147   0.02090007
3922.00   0.62719497   0.02084834
3924.00   0.60473118   0.02070823
3926.00   0.61942288   0.02003223
3928.00   0.59968927   0.01916590
3930.00   0.64435210   0.01870243
3932.00   0.64023134   0.01828294
3934.00   0.58758294   0.01800913
3936.00   0.66740705   0.01872920
3938.00   0.63247810   0.01934522
3940.00   0.68766912   0.02021835
3942.00   0.67914985   0.02041643
3944.00   0.65814247   0.02063832
3946.00   0.67619895   0.02079949
3948.00   0.64010333   0.02067967
3950.00   0.55931857   0.02000665
3952.00   0.56518151   0.01994620
3954.00   0.60960014   0.02000164
3956.00   0.68712406   0.02055905
3958.00   0.72129050   0.02088454
3960.00   0.72811450   0.02051456
3962.00   0.68471412   0.01966556
3964.00   0.70819765   0.01898792
3966.00   0.73431800   0.01831832
3968.00   0.74476234   0.01801844
3970.00   0.75785939   0.01851226
3972.00   0.77776161   0.01949411
3974.00   0.79936462   0.02025218
3976.00   0.83260307   0.02087394
3978.00   0.79468955   0.02098113
3980.00   0.83535028   0.02151921
3982.00   0.76286901   0.02085096
3984.00   0.75491608   0.02069961
3986.00   0.70311432   0.02038019
3988.00   0.68080901   0.02048720
3990.00   0.75872402   0.02098086
3992.00   0.80586566   0.02136648
3994.00   0.79883343   0.02130802
3996.00   0.79861499   0.02142645
3998.00   0.80350158   0.02155238
4000.00   0.78655459   0.02160311
4002.00   0.82082048   0.02170994
4004.00   0.80952985   0.02130399
4006.00   0.79668598   0.02126935
4008.00   0.82655532   0.02172247
4010.00   0.84996296   0.02196565
4012.00   0.82216965   0.02185429
4014.00   0.84246626   0.02183802
4016.00   0.81707603   0.02168427
4018.00   0.85439130   0.02233571
4020.00   0.81877702   0.02267053
4022.00   0.83357770   0.02272343
4024.00   0.82806255   0.02235830
4026.00   0.80087918   0.02194540
4028.00   0.81240795   0.02185028
4030.00   0.80063867   0.02142050
4032.00   0.76611220   0.02091699
4034.00   0.82464187   0.02121438
4036.00   0.80335419   0.02155918
4038.00   0.81752689   0.02162352
4040.00   0.84746439   0.02164682
4042.00   0.82604989   0.02168452
4044.00   0.81516339   0.02406941
4046.00   0.80925059   0.02587543
4048.00   0.81656500   0.02448566
4050.00   0.74629007   0.02168185
4052.00   0.78423866   0.02117677
4054.00   0.75248847   0.02088201
4056.00   0.78510918   0.02084137
4058.00   0.80753110   0.02109350
4060.00   0.79352557   0.02062261
4062.00   0.78901304   0.02034185
4064.00   0.71591632   0.01988451
4066.00   0.73056727   0.02030131
4068.00   0.77343719   0.02058875
4070.00   0.81069769   0.02048728
4072.00   0.77338495   0.02031907
4074.00   0.75274531   0.02034013
4076.00   0.77765676   0.02071425
4078.00   0.76674896   0.02075127
4080.00   0.74106899   0.02076553
4082.00   0.74178301   0.02057081
4084.00   0.77146636   0.02049395
4086.00   0.73031402   0.02044049
4088.00   0.77780388   0.02062123
4090.00   0.71930049   0.02009880
4092.00   0.77024714   0.02012264
4094.00   0.72789803   0.01963018
4096.00   0.66822566   0.01917780
4098.00   0.70323392   0.01899890
4100.00   0.68317336   0.01853871
4102.00   0.71052051   0.01851779
4104.00   0.73304876   0.01901925
4106.00   0.69992303   0.01920300
4108.00   0.67965608   0.01922495
4110.00   0.68383080   0.01925339
4112.00   0.70481843   0.01932682
4114.00   0.69935401   0.01949126
4116.00   0.64820977   0.01914188
4118.00   0.69603701   0.01914734
4120.00   0.74573432   0.01934943
4122.00   0.70449080   0.01922116
4124.00   0.70565296   0.01909740
4126.00   0.70456175   0.01901410
4128.00   0.72384477   0.01905297
4130.00   0.71942530   0.01890474
4132.00   0.70010476   0.01882783
4134.00   0.68365204   0.01888861
4136.00   0.67352837   0.01906477
4138.00   0.74270685   0.01950064
4140.00   0.72274317   0.01926812
4142.00   0.72233844   0.01887777
4144.00   0.75063751   0.01875457
4146.00   0.75067977   0.01893601
4148.00   0.76258398   0.01901735
4150.00   0.74206223   0.01902972
4152.00   0.75224587   0.01904042
4154.00   0.75101127   0.01879594
4156.00   0.79506973   0.01897460
4158.00   0.79484695   0.01903149
4160.00   0.80435271   0.01924327
4162.00   0.74928075   0.01923292
4164.00   0.81455372   0.01952734
4166.00   0.78061374   0.01926243
4168.00   0.79337560   0.01898190
4170.00   0.75533455   0.01854339
4172.00   0.75007588   0.01823505
4174.00   0.77812546   0.01834177
4176.00   0.80083087   0.01841383
4178.00   0.78425660   0.01844273
4180.00   0.78794673   0.01840226
4182.00   0.78515282   0.01825976
4184.00   0.80951261   0.01834430
4186.00   0.81670499   0.01817403
4188.00   0.78930751   0.01804965
4190.00   0.78890846   0.01822164
4192.00   0.78224818   0.01819844
4194.00   0.79838421   0.01804453
4196.00   0.81548514   0.01785768
4198.00   0.76786056   0.01756916
4200.00   0.81378456   0.01769592
4202.00   0.82997244   0.01784373
4204.00   0.85873292   0.01817282
4206.00   0.89309372   0.01843620
4208.00   0.89710630   0.01850941
4210.00   0.87529695   0.01845467
4212.00   0.89846733   0.01845226
4214.00   0.90499977   0.01821987
4216.00   0.87806186   0.01807040
4218.00   0.91033602   0.01823388
4220.00   0.94301908   0.01833366
4222.00   0.93879541   0.01822495
4224.00   0.95824174   0.01770136
4226.00   0.96019634   0.01756275
4228.00   0.98759160   0.01807782
4230.00   0.99339232   0.01848556
4232.00   1.02408863   0.01860031
4234.00   1.02579788   0.01838957
4236.00   1.00075584   0.01827426
4238.00   1.07246248   0.01851766
4240.00   1.04376683   0.01845847
4242.00   1.07268418   0.01848450
4244.00   0.99531823   0.01852577
4246.00   1.03731821   0.01872637
4248.00   1.05132031   0.01838952
4250.00   1.09824400   0.01828737
4252.00   1.05184095   0.01815890
4254.00   1.08714977   0.01832658
4256.00   1.08300892   0.01834272
4258.00   1.10148679   0.01826239
4260.00   1.10025915   0.01806867
4262.00   1.09097170   0.01823328
4264.00   1.10615095   0.01850807
4266.00   1.12513683   0.01838260
4268.00   1.10411880   0.01808346
4270.00   1.15039597   0.01786714
4272.00   1.13062463   0.01772788
4274.00   1.12315716   0.01790284
4276.00   1.11680033   0.01813527
4278.00   1.16338184   0.01826515
4280.00   1.12077038   0.01801496
4282.00   1.19100808   0.01823301
4284.00   1.12695836   0.01798360
4286.00   1.10500134   0.01775805
4288.00   1.15592593   0.01772026
4290.00   1.12727571   0.01762873
4292.00   1.15076297   0.01782230
4294.00   1.12491852   0.01765762
4296.00   1.13783888   0.01749358
4298.00   1.15285321   0.01720101
4300.00   1.13431422   0.01695748
4302.00   1.16846202   0.01771376
4304.00   1.14903209   0.01703267
4306.00   1.11698685   0.01683759
4308.00   1.12443490   0.01670732
4310.00   1.14564604   0.01693546
4312.00   1.15110310   0.01759935
4314.00   1.15126238   0.01800907
4316.00   1.11846039   0.01804269
4318.00   1.11340178   0.01808428
4320.00   1.14384555   0.01804199
4322.00   1.15012142   0.01759337
4324.00   1.19517631   0.01730764
4326.00   1.14988100   0.01735172
4328.00   1.16486942   0.01762067
4330.00   1.13874239   0.01765992
4332.00   1.16542269   0.01770008
4334.00   1.18227846   0.01777966
4336.00   1.17675831   0.01757382
4338.00   1.21679424   0.01733983
4340.00   1.22845097   0.01741911
4342.00   1.18716956   0.01745165
4344.00   1.19714473   0.01776535
4346.00   1.19876689   0.01800173
4348.00   1.20550680   0.01799985
4350.00   1.21401300   0.01775057
4352.00   1.23562904   0.01771631
4354.00   1.22133916   0.01899759
4356.00   1.21386961   0.02280859
4358.00   1.23803374   0.02427341
4360.00   1.29037260   0.02183019
4362.00   1.24400301   0.01905512
4364.00   1.21463413   0.01819804
4366.00   1.23833026   0.01808579
4368.00   1.23779500   0.01799003
4370.00   1.23781382   0.01791794
4372.00   1.25309379   0.01795023
4374.00   1.21502324   0.01783477
4376.00   1.25550916   0.01795563
4378.00   1.25406613   0.01798535
4380.00   1.27579237   0.01775655
4382.00   1.29741138   0.01747638
4384.00   1.29080626   0.01741563
4386.00   1.30123357   0.01764426
4388.00   1.30923555   0.01774040
4390.00   1.32560586   0.01783358
4392.00   1.30466336   0.01769583
4394.00   1.25685577   0.01757175
4396.00   1.31733363   0.01790273
4398.00   1.35888039   0.01809262
4400.00   1.35019115   0.01808852
4402.00   1.32013348   0.01774681
4404.00   1.31227032   0.01754448
4406.00   1.30546987   0.01759734
4408.00   1.30775718   0.01775099
4410.00   1.30611055   0.01797346
4412.00   1.28627599   0.01790874
4414.00   1.31003743   0.01789358
4416.00   1.32371465   0.01795093
4418.00   1.37121933   0.01822275
4420.00   1.33327585   0.01808389
4422.00   1.31565522   0.01787199
4424.00   1.24946827   0.01769318
4426.00   1.27246747   0.01775972
4428.00   1.24760380   0.01759717
4430.00   1.28118285   0.01769893
4432.00   1.26023026   0.01754849
4434.00   1.22166061   0.01732157
4436.00   1.15271136   0.01722372
4438.00   1.16220698   0.01737475
4440.00   1.17033434   0.01723286
4442.00   1.18133743   0.01709657
4444.00   1.11444633   0.01702106
4446.00   1.08915662   0.01692610
4448.00   1.03295797   0.01666720
4450.00   1.03319657   0.01663626
4452.00   1.02465832   0.01652269
4454.00   0.99943036   0.01619343
4456.00   0.99976461   0.01614042
4458.00   1.00061235   0.01618857
4460.00   0.98927525   0.01617540
4462.00   0.94064029   0.01616420
4464.00   1.02514960   0.01641932
4466.00   0.99502776   0.01634060
4468.00   0.94670834   0.01618216
4470.00   0.94990137   0.01620660
4472.00   0.95782904   0.01639805
4474.00   0.91370947   0.01619633
4476.00   0.89776456   0.01608426
4478.00   0.90180714   0.01596658
4480.00   0.92626648   0.01590591
4482.00   0.90726434   0.01586305
4484.00   0.92334262   0.01609022
4486.00   0.91501354   0.01610402
4488.00   0.93144863   0.01599363
4490.00   0.92137499   0.01607778
4492.00   0.93698803   0.01622522
4494.00   0.92342027   0.01620070
4496.00   0.97717972   0.01635244
4498.00   0.98105707   0.01645461
4500.00   0.94230869   0.01626917
4502.00   0.93508553   0.01630649
4504.00   0.98386472   0.01647107
4506.00   1.00081846   0.01660412
4508.00   0.96640388   0.01645236
4510.00   1.00600410   0.01647483
4512.00   0.97236247   0.01640338
4514.00   1.01709880   0.01646255
4516.00   0.99767112   0.01628979
4518.00   0.98712713   0.01631979
4520.00   1.03582777   0.01653474
4522.00   1.05039624   0.01649578
4524.00   1.06371825   0.01643194
4526.00   1.09015087   0.01642381
4528.00   1.09694984   0.01640619
4530.00   1.15817528   0.01664166
4532.00   1.12056564   0.01651153
4534.00   1.18273154   0.01671756
4536.00   1.20287109   0.01683828
4538.00   1.21747161   0.01703426
4540.00   1.24569748   0.01704330
4542.00   1.25809891   0.01712847
4544.00   1.24748400   0.01700781
4546.00   1.30811075   0.01705230
4548.00   1.35687522   0.01710680
4550.00   1.33562847   0.01704779
4552.00   1.34681344   0.01703762
4554.00   1.40552547   0.01726544
4556.00   1.43349230   0.01740029
4558.00   1.49226265   0.01764504
4560.00   1.53384147   0.01778343
4562.00   1.54429411   0.01770675
4564.00   1.57062077   0.01773280
4566.00   1.58489789   0.01779184
4568.00   1.64023858   0.01794486
4570.00   1.68260006   0.01806346
4572.00   1.72670203   0.01817457
4574.00   1.75915754   0.01824738
4576.00   1.76342025   0.01822145
4578.00   1.84827147   0.01840389
4580.00   1.93718153   0.01855268
4582.00   1.94817615   0.01857640
4584.00   1.93774521   0.01853683
4586.00   1.99712668   0.01867312
4588.00   2.01625236   0.01883436
4590.00   2.02348049   0.01882109
4592.00   2.08757015   0.01896099
4594.00   2.15729756   0.01912301
4596.00   2.17752655   0.01912484
4598.00   2.21880837   0.01919303
4600.00   2.21489197   0.01910677
4602.00   2.25002760   0.01919328
4604.00   2.28748696   0.01928353
4606.00   2.30869649   0.01938002
4608.00   2.38162120   0.01963192
4610.00   2.41840480   0.01969091
4612.00   2.44872728   0.01972169
4614.00   2.45235166   0.01971417
4616.00   2.49499689   0.01979456
4618.00   2.54533165   0.01993288
4620.00   2.58029084   0.01997219
4622.00   2.61988928   0.02014029
4624.00   2.60576455   0.02004466
4626.00   2.62144466   0.02006926
4628.00   2.68512915   0.02022039
4630.00   2.71547233   0.02030958
4632.00   2.73726012   0.02030772
4634.00   2.80140622   0.02048148
4636.00   2.87193443   0.02062281
4638.00   2.85236656   0.02054126
4640.00   2.87914905   0.02063753
4642.00   2.93319904   0.02077034
4644.00   2.92925537   0.02070422
4646.00   2.97178314   0.02076850
4648.00   3.00468878   0.02080462
4650.00   3.03894419   0.02094421
4652.00   3.04257582   0.02098881
4654.00   3.05638031   0.02100559
4656.00   3.09985725   0.02110509
4658.00   3.08897565   0.02113937
4660.00   3.14885340   0.02126237
4662.00   3.11185680   0.02116230
4664.00   3.14610307   0.02118195
4666.00   3.17327300   0.02117724
4668.00   3.13221903   0.02108875
4670.00   3.14743443   0.02119264
4672.00   3.19701610   0.02129353
4674.00   3.23830887   0.02136973
4676.00   3.16855271   0.02115502
4678.00   3.19041965   0.02116771
4680.00   3.21048798   0.02121486
4682.00   3.19996143   0.02118900
4684.00   3.19301047   0.02114945
4686.00   3.21528137   0.02115784
4688.00   3.20931587   0.02110484
4690.00   3.20373806   0.02102883
4692.00   3.20515260   0.02108359
4694.00   3.18778166   0.02104905
4696.00   3.22205051   0.02106576
4698.00   3.17684510   0.02090668
4700.00   3.19290820   0.02089337
4702.00   3.20826403   0.02091767
4704.00   3.17521191   0.02086009
4706.00   3.18315625   0.02092993
4708.00   3.16675221   0.02091086
4710.00   3.16520033   0.02091336
4712.00   3.13895174   0.02082054
4714.00   3.15353916   0.02084390
4716.00   3.13506464   0.02080427
4718.00   3.12515855   0.02081014
4720.00   3.07315216   0.02067661
4722.00   3.06500396   0.02061368
4724.00   3.06278364   0.02059220
4726.00   2.98489971   0.02047444
4728.00   2.98059252   0.02044558
4730.00   2.98983663   0.02046885
4732.00   3.01462632   0.02052095
4734.00   2.98441001   0.02046233
4736.00   2.94329153   0.02040469
4738.00   2.94279430   0.02046194
4740.00   2.94487620   0.02056907
4742.00   2.92755418   0.02054074
4744.00   2.89526107   0.02034046
4746.00   2.87227859   0.02015372
4748.00   2.79615229   0.01987621
4750.00   2.78146596   0.01983085
4752.00   2.73034155   0.01966349
4754.00   2.72450599   0.01957872
4756.00   2.67960483   0.01942486
4758.00   2.62119376   0.01926239
4760.00   2.55917739   0.01906925
4762.00   2.50079535   0.01885809
4764.00   2.42258970   0.01861887
4766.00   2.36820845   0.01849258
4768.00   2.30995810   0.01835526
4770.00   2.23203808   0.01814357
4772.00   2.22506966   0.01813532
4774.00   2.19122728   0.01804554
4776.00   2.16515347   0.01802354
4778.00   2.12214513   0.01798543
4780.00   2.14424113   0.01794584
4782.00   2.12375272   0.01781436
4784.00   2.11303110   0.01766163
4786.00   2.10081472   0.01759352
4788.00   2.02922890   0.01743529
4790.00   2.03588192   0.01748297
4792.00   2.05082237   0.01750690
4794.00   1.99514967   0.01738871
4796.00   1.98883799   0.01732809
4798.00   1.95275910   0.01718354
4800.00   1.90561491   0.01708248
4802.00   1.85780740   0.01692126
4804.00   1.83082561   0.01681315
4806.00   1.74021899   0.01657135
4808.00   1.76000605   0.01657333
4810.00   1.77113673   0.01658104
4812.00   1.70526854   0.01639880
4814.00   1.68816725   0.01636577
4816.00   1.67270277   0.01634955
4818.00   1.64889301   0.01630903
4820.00   1.62366462   0.01621845
4822.00   1.57612728   0.01603420
4824.00   1.53364244   0.01591897
4826.00   1.51293222   0.01585597
4828.00   1.49877773   0.01578128
4830.00   1.44721118   0.01557018
4832.00   1.41224495   0.01554239
4834.00   1.37708593   0.01540757
4836.00   1.36219158   0.01530365
4838.00   1.29193785   0.01514154
4840.00   1.29696831   0.01516047
4842.00   1.26671282   0.01497286
4844.00   1.20230990   0.01476474
4846.00   1.21189065   0.01475610
4848.00   1.17389811   0.01461431
4850.00   1.16186194   0.01457722
4852.00   1.10499372   0.01431258
4854.00   1.06496158   0.01406198
4856.00   1.05542105   0.01388572
4858.00   1.03436986   0.01364097
4860.00   1.00593929   0.01343392
4862.00   0.97856637   0.01344338
4864.00   0.98685662   0.01359857
4866.00   0.94257524   0.01354050
4868.00   0.96872613   0.01360644
4870.00   0.97116247   0.01354229
4872.00   0.95891753   0.01350402
4874.00   0.95131443   0.01360672
4876.00   0.94860646   0.01358549
4878.00   0.98399884   0.01369284
4880.00   1.01992583   0.01426409
4882.00   1.08135745   0.01572153
4884.00   1.07609929   0.01521284
4886.00   1.06164572   0.01428539
4888.00   1.03227613   0.01372352
4890.00   1.05178488   0.01364574
4892.00   1.03441616   0.01365628
4894.00   1.06678442   0.01389460
4896.00   1.06488441   0.01390990
4898.00   1.10223193   0.01400045
4900.00   1.11473996   0.01404108
4902.00   1.13660700   0.01408510
4904.00   1.14356172   0.01415133
4906.00   1.12214830   0.01410577
4908.00   1.14376360   0.01408802
4910.00   1.14428546   0.01404481
4912.00   1.14116210   0.01406244
4914.00   1.21200165   0.01431350
4916.00   1.20523796   0.01424975
4918.00   1.23823196   0.01422603
4920.00   1.25310030   0.01426875
4922.00   1.26194670   0.01433723
4924.00   1.25530214   0.01433740
4926.00   1.25809158   0.01439128
4928.00   1.26521274   0.01442894
4930.00   1.26578334   0.01436494
4932.00   1.26518432   0.01433142
4934.00   1.26469549   0.01429985
4936.00   1.29595994   0.01434596
4938.00   1.26883678   0.01426769
4940.00   1.25026833   0.01426040
4942.00   1.23596326   0.01421872
4944.00   1.24744321   0.01421829
4946.00   1.26706948   0.01425207
4948.00   1.25702745   0.01423272
4950.00   1.27257021   0.01434956
4952.00   1.29262913   0.01443721
4954.00   1.27698451   0.01432202
4956.00   1.29651039   0.01422876
4958.00   1.27438361   0.01420623
4960.00   1.30893500   0.01435378
4962.00   1.31803115   0.01439861
4964.00   1.32859755   0.01446821
4966.00   1.33026568   0.01443799
4968.00   1.35169305   0.01454344
4970.00   1.39000703   0.01469513
4972.00   1.39752879   0.01480127
4974.00   1.38683332   0.01485587
4976.00   1.37528133   0.01487397
4978.00   1.37711529   0.01493907
4980.00   1.41045755   0.01507726
4982.00   1.41490578   0.01510353
4984.00   1.43420011   0.01510874
4986.00   1.42638667   0.01506580
4988.00   1.44617648   0.01500680
4990.00   1.46602361   0.01497400
4992.00   1.42250326   0.01481114
4994.00   1.43469452   0.01482159
4996.00   1.47870974   0.01481126
4998.00   1.44365823   0.01465566
5000.00   1.45705842   0.01464380
5002.00   1.40804177   0.01445784
5004.00   1.34266946   0.01417475
5006.00   1.36852443   0.01420764
5008.00   1.35124185   0.01419077
5010.00   1.37534046   0.01424452
5012.00   1.40348214   0.01424584
5014.00   1.39290129   0.01426512
5016.00   1.41816953   0.01432762
5018.00   1.42586902   0.01442805
5020.00   1.47839434   0.01455233
5022.00   1.46652937   0.01450533
5024.00   1.49226050   0.01453884
5026.00   1.49615170   0.01459901
5028.00   1.51855390   0.01476836
5030.00   1.56511802   0.01505655
5032.00   1.51261951   0.01493715
5034.00   1.52192880   0.01468983
5036.00   1.51198299   0.01455203
5038.00   1.50221666   0.01449106
5040.00   1.49828205   0.01441412
5042.00   1.53928556   0.01454529
5044.00   1.48028803   0.01451538
5046.00   1.49932381   0.01457227
5048.00   1.50023911   0.01451822
5050.00   1.50719672   0.01458198
5052.00   1.48137897   0.01455514
5054.00   1.51322599   0.01468867
5056.00   1.48237262   0.01460522
5058.00   1.43833583   0.01449599
5060.00   1.44401946   0.01452342
5062.00   1.41601050   0.01446032
5064.00   1.40598876   0.01440517
5066.00   1.41895891   0.01445959
5068.00   1.39420638   0.01449214
5070.00   1.37287469   0.01445245
5072.00   1.34352812   0.01425979
5074.00   1.32746939   0.01420983
5076.00   1.32657774   0.01418055
5078.00   1.27229445   0.01409968
5080.00   1.28399762   0.01435938
5082.00   1.27801874   0.01461085
5084.00   1.21547101   0.01460127
5086.00   1.18752749   0.01443023
5088.00   1.18437716   0.01422102
5090.00   1.19575397   0.01401346
5092.00   1.16884381   0.01384134
5094.00   1.13381518   0.01368965
5096.00   1.16875041   0.01381447
5098.00   1.11840072   0.01369135
5100.00   1.08696993   0.01358245
5102.00   1.10230161   0.01353914
5104.00   1.08843312   0.01342729
5106.00   1.09786430   0.01342090
5108.00   1.07757470   0.01335275
5110.00   1.07134590   0.01343001
5112.00   1.10853414   0.01361418
5114.00   1.11357044   0.01369236
5116.00   1.11596183   0.01375912
5118.00   1.11734627   0.01372259
5120.00   1.11067769   0.01359236
5122.00   1.09387406   0.01349244
5124.00   1.16523576   0.01370252
5126.00   1.13492960   0.01361510
5128.00   1.15692630   0.01370645
5130.00   1.17631860   0.01379298
5132.00   1.21474285   0.01391636
5134.00   1.20231689   0.01389964
5136.00   1.24117964   0.01403069
5138.00   1.23635244   0.01400695
5140.00   1.26479514   0.01424358
5142.00   1.28598236   0.01422338
5144.00   1.31555853   0.01433195
5146.00   1.30782659   0.01435586
5148.00   1.32028366   0.01438919
5150.00   1.36293366   0.01458309
5152.00   1.41105274   0.01481320
5154.00   1.37337736   0.01471771
5156.00   1.40926132   0.01477960
5158.00   1.41939546   0.01483098
5160.00   1.48603577   0.01496366
5162.00   1.46290755   0.01485117
5164.00   1.48803435   0.01481453
5166.00   1.49535090   0.01469896
5168.00   1.53752565   0.01479666
5170.00   1.53928341   0.01482510
5172.00   1.58261683   0.01495448
5174.00   1.62099700   0.01520544
5176.00   1.63366270   0.01537195
5178.00   1.63335885   0.01540273
5180.00   1.65665478   0.01539419
5182.00   1.68522850   0.01538138
5184.00   1.71523121   0.01551489
5186.00   1.73378683   0.01565365
5188.00   1.71595387   0.01563093
5190.00   1.65991283   0.01549209
5192.00   1.73297763   0.01563325
5194.00   1.72381872   0.01564229
5196.00   1.75659044   0.01590748
5198.00   1.77832569   0.01608915
5200.00   1.82666564   0.01630394
5202.00   1.82990789   0.01620629
5204.00   1.82102843   0.01615085
5206.00   1.83148033   0.01611975
5208.00   1.79271757   0.01603293
5210.00   1.88490664   0.01638187
5212.00   1.86838676   0.01641131
5214.00   1.90125323   0.01649758
5216.00   1.87738179   0.01642120
5218.00   1.89989117   0.01655061
5220.00   1.91754754   0.01662965
5222.00   1.93306497   0.01671843
5224.00   1.92587971   0.01665258
5226.00   1.90896125   0.01660276
5228.00   1.92126485   0.01663106
5230.00   1.88625755   0.01655964
5232.00   1.91434608   0.01666012
5234.00   1.89522147   0.01663208
5236.00   1.92440046   0.01680132
5238.00   1.93231732   0.01688666
5240.00   1.90913958   0.01686677
5242.00   1.93565619   0.01692857
5244.00   1.93005722   0.01694531
5246.00   1.93498138   0.01697449
5248.00   1.90276231   0.01689081
5250.00   1.89878887   0.01685805
5252.00   1.86497895   0.01679150
5254.00   1.88287043   0.01691767
5256.00   1.90086526   0.01707772
5258.00   1.87452932   0.01702384
5260.00   1.87357277   0.01700770
5262.00   1.87615512   0.01696135
5264.00   1.92999513   0.01711995
5266.00   1.88553550   0.01700821
5268.00   1.90009698   0.01709706
5270.00   1.88029944   0.01709775
5272.00   1.91948471   0.01721774
5274.00   1.91997804   0.01732573
5276.00   1.86985862   0.01726437
5278.00   1.89240213   0.01733689
5280.00   1.90764078   0.01738891
5282.00   1.92050026   0.01757375
5284.00   1.89572313   0.01749463
5286.00   1.84288402   0.01741489
5288.00   1.87255386   0.01747735
5290.00   1.89130487   0.01753267
5292.00   1.87856546   0.01752600
5294.00   1.85570299   0.01745115
5296.00   1.85794340   0.01750592
5298.00   1.84278451   0.01750756
5300.00   1.89137778   0.01769689
5302.00   1.90148988   0.01784339
5304.00   1.87282243   0.01782234
5306.00   1.90321103   0.01795861
5308.00   1.89136649   0.01800425
5310.00   1.89378570   0.01807903
5312.00   1.89643773   0.01814744
5314.00   1.89830609   0.01817386
5316.00   1.93231234   0.01835902
5318.00   1.91455800   0.01832499
5320.00   1.91731257   0.01834832
5322.00   1.92028800   0.01839802
5324.00   1.91391188   0.01835804
5326.00   1.90574668   0.01837794
5328.00   1.92689990   0.01852381
5330.00   1.88760410   0.01851019
5332.00   1.90126438   0.01864371
5334.00   1.92182228   0.01875942
5336.00   1.94503509   0.01886461
5338.00   1.94873976   0.01896862
5340.00   1.94793816   0.01896065
5342.00   1.98000147   0.01916626
5344.00   1.92560940   0.01899896
5346.00   1.91785360   0.01910011
5348.00   1.89786645   0.01906765
5350.00   1.88116582   0.01903439
5352.00   1.89066426   0.01904681
5354.00   1.86607312   0.01906742
5356.00   1.88794113   0.01913356
5358.00   1.88214811   0.01914199
5360.00   1.88136706   0.01921149
5362.00   1.87891130   0.01912914
5364.00   1.81792944   0.01898771
5366.00   1.86740333   0.01912425
5368.00   1.85418221   0.01910099
5370.00   1.84269870   0.01909544
5372.00   1.83331315   0.01920217
5374.00   1.83307354   0.01929221
5376.00   1.83341515   0.01936490
5378.00   1.77890307   0.01925774
5380.00   1.83336093   0.01937686
5382.00   1.80244473   0.01939376
5384.00   1.83722693   0.01957578
5386.00   1.75158525   0.01933360
5388.00   1.77319901   0.01944106
5390.00   1.75123498   0.01948248
5392.00   1.71501096   0.01932080
5394.00   1.71731184   0.01938406
5396.00   1.72837674   0.01940574
5398.00   1.70222028   0.01938692
5400.00   1.73455249   0.01957239
5402.00   1.65394470   0.01943314
5404.00   1.68163194   0.01941441
5406.00   1.66681292   0.01948384
5408.00   1.62870125   0.01949516
5410.00   1.62201107   0.01954045
5412.00   1.60119448   0.01957808
5414.00   1.61510836   0.01972277
5416.00   1.56231595   0.01956629
5418.00   1.55011105   0.01963297
5420.00   1.56799850   0.01971435
5422.00   1.54482009   0.01963450
5424.00   1.54325840   0.01968536
5426.00   1.53629992   0.01972596
5428.00   1.50702746   0.01967271
5430.00   1.46327939   0.01949682
5432.00   1.47810608   0.01958825
5434.00   1.45362695   0.01957943
5436.00   1.45719220   0.01968536
5438.00   1.45608970   0.01983402
5440.00   1.44866584   0.01985412
5442.00   1.39816981   0.01973406
5444.00   1.32711669   0.01957006
5446.00   1.41624439   0.01991279
5448.00   1.36341993   0.01978762
5450.00   1.34167570   0.00791322
5452.00   1.33203274   0.00786309
5454.00   1.31263071   0.00827436
5456.00   1.29325032   0.00843134
5458.00   1.27179992   0.00842168
5460.00   1.24468797   0.00855691
5462.00   1.20705402   0.00908286
5464.00   1.17266136   0.00965886
5466.00   1.16919512   0.00952414
5468.00   1.19683671   0.00872827
5470.00   1.18459463   0.00821672
5472.00   1.13546413   0.00758469
5474.00   1.11097074   0.00714783
5476.00   1.11145180   0.00707363
5478.00   1.11282492   0.00716116
5480.00   1.09768635   0.00709931
5482.00   1.06740344   0.00699203
5484.00   1.05518359   0.00719606
5486.00   1.05337346   0.00774574
5488.00   1.05523270   0.00805647
5490.00   1.05860847   0.00837577
5492.00   1.06611252   0.00851810
5494.00   1.07392293   0.00824247
5496.00   1.07447803   0.00772699
5498.00   1.06767541   0.00749512
5500.00   1.04957366   0.00743538
5502.00   1.04082757   0.00723527
5504.00   1.03878027   0.00683783
5506.00   1.03654712   0.00669220
5508.00   1.02282038   0.00704371
5510.00   1.00377718   0.00751428
5512.00   1.00298142   0.00764950
5514.00   1.01773524   0.00768238
5516.00   1.02266818   0.00757219
5518.00   1.02586949   0.00715300
5520.00   1.02571058   0.00689097
5522.00   1.01776630   0.00683297
5524.00   1.00946271   0.00680562
5526.00   1.00988394   0.00669827
5528.00   1.01312855   0.00653156
5530.00   1.01132196   0.00684720
5532.00   1.00223970   0.00785509
5534.00   1.00383952   0.00814502
5536.00   1.01716006   0.00775481
5538.00   1.02564311   0.00732514
5540.00   1.01742560   0.00732569
5542.00   0.99885580   0.00750273
5544.00   0.98805895   0.00736986
5546.00   0.97511777   0.00693260
5548.00   0.97190174   0.00670798
5550.00   0.97981465   0.00656479
5552.00   0.98639673   0.00649207
5554.00   0.99171755   0.00654063
5556.00   1.00057945   0.00667498
5558.00   1.00201577   0.00671099
5560.00   0.99489510   0.00666968
5562.00   0.99479136   0.00672871
5564.00   1.00121507   0.00676816
5566.00   1.00359881   0.00694499
5568.00   1.00290832   0.00739113
5570.00   1.00283307   0.00796070
5572.00   1.00317037   0.00838199
5574.00   1.00953874   0.00888704
5576.00   0.99985760   0.00900539
5578.00   0.97174519   0.00882942
5580.00   0.94777045   0.00849323
5582.00   0.93060070   0.00788824
5584.00   0.91826171   0.00714597
5586.00   0.91761491   0.00673325
5588.00   0.93234906   0.00657095
5590.00   0.93252555   0.00640975
5592.00   0.92562127   0.00641895
5594.00   0.91677070   0.00634116
5596.00   0.90477973   0.00611982
5598.00   0.89308593   0.00597708
5600.00   0.88520166   0.00607972
5602.00   0.88041249   0.00633726
5604.00   0.87092599   0.00645581
5606.00   0.85748944   0.00659008
5608.00   0.84509346   0.00657859
5610.00   0.83437490   0.00632258
5612.00   0.82582203   0.00615992
5614.00   0.81538653   0.00635384
5616.00   0.80389428   0.00669470
5618.00   0.79444414   0.00664655
5620.00   0.78559566   0.00623413
5622.00   0.77688819   0.00608394
5624.00   0.77058852   0.00602026
5626.00   0.76637611   0.00599393
5628.00   0.76253718   0.00608481
5630.00   0.75883281   0.00619936
5632.00   0.74875954   0.00615121
5634.00   0.73143795   0.00595208
5636.00   0.71762100   0.00586525
5638.00   0.70385119   0.00583858
5640.00   0.69297048   0.00582353
5642.00   0.68714890   0.00577664
5644.00   0.68263251   0.00571186
5646.00   0.67026234   0.00569119
5648.00   0.65101004   0.00568102
5650.00   0.63743424   0.00572387
5652.00   0.62723637   0.00572802
5654.00   0.61540422   0.00593143
5656.00   0.60031685   0.00642868
5658.00   0.58792913   0.00691328
5660.00   0.58256033   0.00706027
5662.00   0.58034745   0.00692533
5664.00   0.57471806   0.00671173
5666.00   0.56751883   0.00615294
5668.00   0.56160873   0.00588026
5670.00   0.55444515   0.00581476
5672.00   0.54808179   0.00583196
5674.00   0.54347184   0.00583762
5676.00   0.53714284   0.00579614
5678.00   0.53480875   0.00611650
5680.00   0.54223415   0.00699073
5682.00   0.53853127   0.00728879
5684.00   0.51338868   0.00684192
5686.00   0.49322936   0.00649793
5688.00   0.50071447   0.00703390
5690.00   0.52257867   0.00783665
5692.00   0.52136993   0.00795865
5694.00   0.49989644   0.00763482
5696.00   0.50157771   0.00769026
5698.00   0.53049758   0.00812235
5700.00   0.54051283   0.00809644
5702.00   0.51774308   0.00741716
5704.00   0.48423773   0.00654806
5706.00   0.47571559   0.00630330
5708.00   0.48366354   0.00642502
5710.00   0.48049162   0.00625493
5712.00   0.46928614   0.00572223
5714.00   0.46674430   0.00574573
5716.00   0.47666727   0.00648579
5718.00   0.48400259   0.00714496
5720.00   0.47790398   0.00709102
5722.00   0.46629474   0.00656348
5724.00   0.46569216   0.00621970
5726.00   0.47506879   0.00566877
5728.00   0.47748174   0.00541472
5730.00   0.47374761   0.00563756
5732.00   0.47257517   0.00590161
5734.00   0.48309647   0.00577752
5736.00   0.50224294   0.00534424
5738.00   0.51265717   0.00532282
5740.00   0.51585849   0.00528643
5742.00   0.52642038   0.00591041
5744.00   0.54188275   0.00727336
5746.00   0.55821881   0.00816818
5748.00   0.57760856   0.00838731
5750.00   0.59313488   0.00811161
5752.00   0.59218648   0.00754180
5754.00   0.57057264   0.00599695
5756.00   0.57075605   0.00558456
5758.00   0.58477679   0.00636336
5760.00   0.59877199   0.00685924
5762.00   0.61141381   0.00677677
5764.00   0.62236354   0.00639928
5766.00   0.62729892   0.00615550
5768.00   0.62309766   0.00579393
5770.00   0.62631458   0.00562739
5772.00   0.62997764   0.00567875
5774.00   0.64194056   0.00569779
5776.00   0.66568461   0.00556244
5778.00   0.68987519   0.00542031
5780.00   0.70019192   0.00546519
5782.00   0.70502573   0.00570684
5784.00   0.71572646   0.00595481
5786.00   0.72965801   0.00644644
5788.00   0.73960921   0.00653993
5790.00   0.75182408   0.00627908
5792.00   0.76411113   0.00593867
5794.00   0.77413726   0.00570339
5796.00   0.78420231   0.00552022
5798.00   0.79436570   0.00546283
5800.00   0.80712667   0.00560675
5802.00   0.81378937   0.00561269
5804.00   0.80935258   0.00553114
5806.00   0.81044731   0.00547894
5808.00   0.82811698   0.00551345
5810.00   0.85403085   0.00557553
5812.00   0.87216949   0.00557949
5814.00   0.88924778   0.00553419
5816.00   0.90482754   0.00555811
5818.00   0.91664991   0.00564204
5820.00   0.92696553   0.00568669
5822.00   0.94143084   0.00568458
5824.00   0.95824203   0.00569008
5826.00   0.96815431   0.00573855
5828.00   0.97264022   0.00583145
5830.00   0.97935399   0.00583253
5832.00   0.98044428   0.00571254
5834.00   0.99209532   0.00568738
5836.00   1.02197844   0.00577141
5838.00   1.05415928   0.00588413
5840.00   1.06999159   0.00608030
5842.00   1.07749611   0.00654352
5844.00   1.08622146   0.00660217
5846.00   1.08956939   0.00629587
5848.00   1.09699094   0.00608780
5850.00   1.11256355   0.00611459
5852.00   1.12821996   0.00617433
5854.00   1.13334453   0.00608647
5856.00   1.12929863   0.00591145
5858.00   1.13986695   0.00592188
5860.00   1.16618997   0.00610949
5862.00   1.17983961   0.00620053
5864.00   1.18137646   0.00624886
5866.00   1.18450230   0.00629424
5868.00   1.19490421   0.00630816
5870.00   1.21123540   0.00629628
5872.00   1.22049612   0.00633003
5874.00   1.22402054   0.00639769
5876.00   1.22758609   0.00644959
5878.00   1.23199368   0.00636985
5880.00   1.23822606   0.00649151
5882.00   1.24371850   0.00690553
5884.00   1.25003332   0.00754047
5886.00   1.25811017   0.00845473
5888.00   1.26861346   0.01005207
5890.00   1.26713848   0.01018662
5892.00   1.25054866   0.00874216
5894.00   1.24436164   0.00785450
5896.00   1.25165701   0.00822573
5898.00   1.26003492   0.00896323
5900.00   1.25153464   0.00939060
5902.00   1.22909665   0.00983345
5904.00   1.23079699   0.00939373
5906.00   1.26753181   0.00738509
5908.00   1.26717192   0.00636416
5910.00   1.23155761   0.00673916
5912.00   1.17907262   0.00730050
5914.00   1.11587149   0.00719704
5916.00   1.03146783   0.00675921
5918.00   1.00156543   0.00656504
5920.00   1.00526568   0.00641049
5922.00   1.03063405   0.00636116
5924.00   1.09008443   0.00649946
5926.00   1.15399027   0.00665163
5928.00   1.20854211   0.00676110
5930.00   1.26041228   0.00693616
5932.00   1.28921980   0.00681063
5934.00   1.29579759   0.00617783
5936.00   1.30335474   0.00597727
5938.00   1.30289781   0.00631393
5940.00   1.30232698   0.00664549
5942.00   1.30591840   0.00663155
5944.00   1.30848217   0.00653289
5946.00   1.30332243   0.00662300
5948.00   1.28935397   0.00678146
5950.00   1.28512579   0.00677125
5952.00   1.28663641   0.00672595
5954.00   1.28946906   0.00659780
5956.00   1.29623705   0.00615064
5958.00   1.29967576   0.00570791
5960.00   1.29309332   0.00577168
5962.00   1.28483260   0.00611266
5964.00   1.27012455   0.00628836
5966.00   1.24274516   0.00631427
5968.00   1.22318214   0.00662732
5970.00   1.21304768   0.00740594
5972.00   1.20412242   0.00814265
5974.00   1.20472205   0.00799182
5976.00   1.22015941   0.00694527
5978.00   1.22672975   0.00639197
5980.00   1.23233020   0.00589720
5982.00   1.23380959   0.00557429
5984.00   1.23194438   0.00552949
5986.00   1.22678697   0.00559592
5988.00   1.21943271   0.00555756
5990.00   1.21005177   0.00552490
5992.00   1.19911176   0.00553316
5994.00   1.18353069   0.00557777
5996.00   1.17260081   0.00560840
5998.00   1.16654444   0.00569006
6000.00   1.16087401   0.00573174
6002.00   1.15196830   0.00563514
6004.00   1.13952231   0.00543315
6006.00   1.12716365   0.00531361
6008.00   1.11335540   0.00520333
6010.00   1.10117978   0.00515975
6012.00   1.08996719   0.00519544
6014.00   1.07917744   0.00522838
6016.00   1.06584656   0.00521755
6018.00   1.05404460   0.00526920
6020.00   1.05133349   0.00545430
6022.00   1.05909687   0.00573855
6024.00   1.04790515   0.00569649
6026.00   1.01696497   0.00527163
6028.00   0.99711007   0.00507753
6030.00   0.99080515   0.00511769
6032.00   0.98722863   0.00519128
6034.00   0.97547433   0.00512533
6036.00   0.95889723   0.00496882
6038.00   0.94690335   0.00492741
6040.00   0.93663776   0.00498161
6042.00   0.92784533   0.00498313
6044.00   0.91901374   0.00495293
6046.00   0.91200012   0.00494122
6048.00   0.91200164   0.00494446
6050.00   0.91801986   0.00495640
6052.00   0.90882093   0.00493456
6054.00   0.88085186   0.00484314
6056.00   0.86940193   0.00484736
6058.00   0.87260506   0.00487006
6060.00   0.87607932   0.00501781
6062.00   0.87555540   0.00546949
6064.00   0.87449628   0.00599909
6066.00   0.86629915   0.00589940
6068.00   0.84917665   0.00509579
6070.00   0.83665791   0.00484019
6072.00   0.82412243   0.00497060
6074.00   0.81583467   0.00511622
6076.00   0.81521946   0.00530764
6078.00   0.81735122   0.00544808
6080.00   0.80973965   0.00532644
6082.00   0.79296437   0.00496400
6084.00   0.78540275   0.00483818
6086.00   0.78289005   0.00482798
6088.00   0.78122589   0.00484022
6090.00   0.78106028   0.00494003
6092.00   0.78204000   0.00509450
6094.00   0.78431556   0.00524999
6096.00   0.79203138   0.00554741
6098.00   0.78704786   0.00554569
6100.00   0.76706848   0.00520939
6102.00   0.75602505   0.00500407
6104.00   0.75227177   0.00504467
6106.00   0.75307563   0.00518664
6108.00   0.76328859   0.00529179
6110.00   0.78380319   0.00541546
6112.00   0.79009169   0.00554579
6114.00   0.78855187   0.00584357
6116.00   0.78457865   0.00579214
6118.00   0.77158800   0.00529340
6120.00   0.76319352   0.00482656
6122.00   0.76815060   0.00468119
6124.00   0.78024235   0.00475357
6126.00   0.78821194   0.00488882
6128.00   0.79780874   0.00519627
6130.00   0.80307695   0.00534045
6132.00   0.80286425   0.00550066
6134.00   0.80440825   0.00548648
6136.00   0.81082082   0.00518105
6138.00   0.81812009   0.00482068
6140.00   0.81774396   0.00474141
6142.00   0.81019467   0.00484813
6144.00   0.80671844   0.00485435
6146.00   0.80199963   0.00483956
6148.00   0.80231956   0.00484274
6150.00   0.81017843   0.00487583
6152.00   0.81809407   0.00494577
6154.00   0.81905341   0.00499968
6156.00   0.81634793   0.00504937
6158.00   0.81807023   0.00508728
6160.00   0.82169509   0.00506871
6162.00   0.82610688   0.00513458
6164.00   0.83312210   0.00539751
6166.00   0.83949614   0.00556420
6168.00   0.84426865   0.00542638
6170.00   0.85050172   0.00510361
6172.00   0.85530275   0.00499960
6174.00   0.86149350   0.00506136
6176.00   0.86124834   0.00501839
6178.00   0.85381395   0.00486476
6180.00   0.84911373   0.00479609
6182.00   0.85259563   0.00491374
6184.00   0.85942990   0.00506621
6186.00   0.85746711   0.00515352
6188.00   0.84776145   0.00532794
6190.00   0.84194100   0.00528833
6192.00   0.83488452   0.00492227
6194.00   0.83418578   0.00462236
6196.00   0.84177017   0.00454210
6198.00   0.85274804   0.00452986
6200.00   0.86062104   0.00451970
6202.00   0.87032640   0.00453200
6204.00   0.87282485   0.00461823
6206.00   0.86726040   0.00483392
6208.00   0.86419761   0.00498144
6210.00   0.86375988   0.00499678
6212.00   0.86191925   0.00491219
6214.00   0.85689008   0.00478941
6216.00   0.84819013   0.00455214
6218.00   0.84482178   0.00445130
6220.00   0.84454510   0.00445087
6222.00   0.84500968   0.00444679
6224.00   0.84884712   0.00439786
6226.00   0.85407895   0.00438327
6228.00   0.85378554   0.00451869
6230.00   0.84804553   0.00485498
6232.00   0.84666061   0.00502673
6234.00   0.84930584   0.00517191
6236.00   0.84760731   0.00518792
6238.00   0.84055409   0.00518782
6240.00   0.83442724   0.00509729
6242.00   0.83048788   0.00482838
6244.00   0.82934451   0.00451027
6246.00   0.83455205   0.00450925
6248.00   0.85076720   0.00477522
6250.00   0.85296893   0.00492617
6252.00   0.84479862   0.00515663
6254.00   0.83809584   0.00526432
6256.00   0.83191431   0.00521582
6258.00   0.82488218   0.00516439
6260.00   0.82391697   0.00502800
6262.00   0.83007786   0.00465907
6264.00   0.82866609   0.00449389
6266.00   0.82057551   0.00450690
6268.00   0.81538522   0.00452646
6270.00   0.81433034   0.00453712
6272.00   0.81584263   0.00455942
6274.00   0.81580773   0.00452841
6276.00   0.81431785   0.00441950
6278.00   0.81346676   0.00438917
6280.00   0.81363580   0.00434897
6282.00   0.81267765   0.00442354
6284.00   0.80675575   0.00469219
6286.00   0.80104434   0.00499184
6288.00   0.80666783   0.00502608
6290.00   0.82425666   0.00481750
6292.00   0.83036748   0.00494327
6294.00   0.83460814   0.00529784
6296.00   0.82872432   0.00559076
6298.00   0.81239229   0.00601403
6300.00   0.79422075   0.00618486
6302.00   0.77737099   0.00586011
6304.00   0.76064315   0.00520272
6306.00   0.75305185   0.00485446
6308.00   0.75665981   0.00462086
6310.00   0.75209355   0.00444689
6312.00   0.73972896   0.00443645
6314.00   0.73288026   0.00444032
6316.00   0.73573706   0.00437723
6318.00   0.74147758   0.00428115
6320.00   0.74416119   0.00425104
6322.00   0.74993464   0.00426947
6324.00   0.74753195   0.00427708
6326.00   0.73558548   0.00430417
6328.00   0.72585815   0.00432096
6330.00   0.71903932   0.00428002
6332.00   0.71171170   0.00421843
6334.00   0.70573327   0.00424415
6336.00   0.70325837   0.00432412
6338.00   0.69605199   0.00433105
6340.00   0.68472728   0.00424820
6342.00   0.67446822   0.00427471
6344.00   0.66418722   0.00437039
6346.00   0.65625927   0.00449549
6348.00   0.65569931   0.00464072
6350.00   0.65992731   0.00477226
6352.00   0.65901244   0.00480343
6354.00   0.65527952   0.00464957
6356.00   0.65418810   0.00472616
6358.00   0.65235353   0.00506807
6360.00   0.64616671   0.00522727
6362.00   0.63793594   0.00502205
6364.00   0.62801981   0.00465623
6366.00   0.61751193   0.00454031
6368.00   0.60252580   0.00461324
6370.00   0.59527519   0.00456345
6372.00   0.59478882   0.00446326
6374.00   0.59446415   0.00434997
6376.00   0.59391084   0.00426576
6378.00   0.59543753   0.00419616
6380.00   0.59527037   0.00417389
6382.00   0.59286126   0.00420859
6384.00   0.59180942   0.00426596
6386.00   0.59074798   0.00438899
6388.00   0.59295708   0.00445606
6390.00   0.60008147   0.00441720
6392.00   0.60664061   0.00432447
6394.00   0.60279879   0.00435343
6396.00   0.58610654   0.00446574
6398.00   0.58655089   0.00446841
6400.00   0.60031992   0.00438620
6402.00   0.61153987   0.00435229
6404.00   0.61860982   0.00432113
6406.00   0.62499747   0.00426817
6408.00   0.63406417   0.00420230
6410.00   0.64499429   0.00410561
6412.00   0.65637976   0.00408205
6414.00   0.67220268   0.00413838
6416.00   0.68137163   0.00416029
6418.00   0.68208417   0.00414266
6420.00   0.68199092   0.00410733
6422.00   0.68781421   0.00407150
6424.00   0.69619048   0.00402221
6426.00   0.70109886   0.00400545
6428.00   0.70348379   0.00400490
6430.00   0.70798472   0.00402794
6432.00   0.71189579   0.00408453
6434.00   0.71726054   0.00413498
6436.00   0.72584191   0.00416493
6438.00   0.73549202   0.00420911
6440.00   0.74596852   0.00427072
6442.00   0.76031414   0.00435065
6444.00   0.76954162   0.00441565
6446.00   0.77101061   0.00452398
6448.00   0.77757323   0.00453070
6450.00   0.79439050   0.00433533
6452.00   0.81407550   0.00411217
6454.00   0.82389072   0.00438896
6456.00   0.82642180   0.00515639
6458.00   0.82570362   0.00558581
6460.00   0.81275555   0.00602834
6462.00   0.81155160   0.00623759
6464.00   0.82536012   0.00615013
6466.00   0.84666362   0.00586191
6468.00   0.86344874   0.00578134
6470.00   0.87773386   0.00586007
6472.00   0.87929219   0.00599322
6474.00   0.86101139   0.00632990
6476.00   0.85884461   0.00642756
6478.00   0.86399403   0.00638056
6480.00   0.87823635   0.00626920
6482.00   0.90606090   0.00594409
6484.00   0.94204623   0.00533308
6486.00   0.96341521   0.00518481
6488.00   0.97374192   0.00554416
6490.00   0.98991448   0.00555551
6492.00   1.01062256   0.00521234
6494.00   1.02433336   0.00503598
6496.00   1.02614391   0.00528062
6498.00   1.02227390   0.00566994
6500.00   1.02425188   0.00579183
6502.00   1.02628648   0.00573828
6504.00   1.03536272   0.00575382
6506.00   1.05455285   0.00566673
6508.00   1.06762511   0.00586501
6510.00   1.07826269   0.00636894
6512.00   1.08681375   0.00687994
6514.00   1.06844902   0.00723836
6516.00   1.00845331   0.00770243
6518.00   0.98731154   0.00789647
6520.00   0.98690557   0.00785437
6522.00   0.99479103   0.00779569
6524.00   1.01600811   0.00775390
6526.00   1.04678833   0.00755692
6528.00   1.05546176   0.00733678
6530.00   1.04396641   0.00709816
6532.00   1.05371845   0.00691783
6534.00   1.07835215   0.00681017
6536.00   1.09810740   0.00667321
6538.00   1.11922836   0.00641724
6540.00   1.13356858   0.00609834
6542.00   1.13361102   0.00578361
6544.00   1.12321901   0.00541105
6546.00   1.11549592   0.00544244
6548.00   1.10311520   0.00590079
6550.00   1.09564513   0.00618429
6552.00   1.08966100   0.00655523
6554.00   1.08494306   0.00677218
6556.00   1.09126741   0.00650542
6558.00   1.10052121   0.00602981
6560.00   1.07905823   0.00642164
6562.00   1.02556080   0.00753768
6564.00   0.99866587   0.00799318
6566.00   0.97313085   0.00831913
6568.00   0.96739912   0.00834829
6570.00   1.00067440   0.00780587
6572.00   1.05202541   0.00691695
6574.00   1.06781673   0.00665714
6576.00   1.04942214   0.00706222
6578.00   1.05743140   0.00686249
6580.00   1.06644553   0.00589550
6582.00   1.10753447   0.00549266
6584.00   1.19855350   0.00597625
6586.00   1.28853524   0.00680003
6588.00   1.31097955   0.00781755
6590.00   1.29178059   0.00923880
6592.00   1.25212723   0.00970281
6594.00   1.15850741   0.00976324
6596.00   1.09319162   0.00941785
6598.00   1.04512137   0.00834845
6600.00   1.01323992   0.00704710
6602.00   1.00740075   0.00609226
6604.00   1.02507776   0.00521159
6606.00   1.04213178   0.00483883
6608.00   1.07787985   0.00518645
6610.00   1.09680372   0.00550823
6612.00   1.11186749   0.00621694
6614.00   1.10635597   0.00676423
6616.00   1.06555593   0.00662239
6618.00   0.99628723   0.00598051
6620.00   0.94236407   0.00584406
6622.00   0.87682545   0.00602549
6624.00   0.84873387   0.00600365
6626.00   0.85933688   0.00578370
6628.00   0.86285356   0.00577926
6630.00   0.85140094   0.00611808
6632.00   0.83576351   0.00660095
6634.00   0.82038456   0.00677515
6636.00   0.79925966   0.00679651
6638.00   0.79906848   0.00660598
6640.00   0.82284752   0.00602648
6642.00   0.83568275   0.00558934
6644.00   0.83748552   0.00540108
6646.00   0.83075497   0.00542449
6648.00   0.82541105   0.00535137
6650.00   0.82606879   0.00519080
6652.00   0.82184491   0.00524858
6654.00   0.81273243   0.00563502
6656.00   0.80432817   0.00568761
6658.00   0.80345482   0.00540333
6660.00   0.80125129   0.00515397
6662.00   0.79204318   0.00510444
6664.00   0.78223494   0.00509203
6666.00   0.77274829   0.00524343
6668.00   0.76164857   0.00570771
6670.00   0.75147489   0.00585431
6672.00   0.74486125   0.00569756
6674.00   0.73800528   0.00555851
6676.00   0.72552222   0.00561477
6678.00   0.70818508   0.00581056
6680.00   0.71051908   0.00563382
6682.00   0.73525745   0.00500869
6684.00   0.74628469   0.00461082
6686.00   0.75140435   0.00424176
6688.00   0.74924856   0.00416106
6690.00   0.73382738   0.00479176
6692.00   0.70780414   0.00575744
6694.00   0.70061034   0.00589761
6696.00   0.70703429   0.00546379
6698.00   0.71168682   0.00518385
6700.00   0.72088942   0.00479483
6702.00   0.72685507   0.00449644
6704.00   0.72668839   0.00445336
6706.00   0.72557816   0.00452518
6708.00   0.72721848   0.00446603
6710.00   0.73177069   0.00436558
6712.00   0.72940928   0.00439688
6714.00   0.72097224   0.00461769
6716.00   0.71245280   0.00467161
6718.00   0.70521328   0.00451523
6720.00   0.69815344   0.00427635
6722.00   0.69332701   0.00414538
6724.00   0.69290847   0.00407971
6726.00   0.68413663   0.00401673
6728.00   0.66612947   0.00395132
6730.00   0.65427881   0.00394373
6732.00   0.64493090   0.00405773
6734.00   0.63831592   0.00419845
6736.00   0.64095390   0.00421940
6738.00   0.65208128   0.00416062
6740.00   0.65428537   0.00424262
6742.00   0.65337223   0.00434603
6744.00   0.64817858   0.00463153
6746.00   0.63742340   0.00525581
6748.00   0.62822610   0.00553462
6750.00   0.61857066   0.00528462
6752.00   0.60824546   0.00478800
6754.00   0.60978642   0.00461612
6756.00   0.62577713   0.00462999
6758.00   0.63073063   0.00460210
6760.00   0.63235506   0.00460910
6762.00   0.62683418   0.00459079
6764.00   0.61159801   0.00458333
6766.00   0.59273705   0.00458707
6768.00   0.58173510   0.00451014
6770.00   0.57462409   0.00429858
6772.00   0.57459614   0.00422225
6774.00   0.58500609   0.00408118
6776.00   0.59189275   0.00425542
6778.00   0.59924969   0.00494970
6780.00   0.60127243   0.00548230
6782.00   0.59108236   0.00532620
6784.00   0.56976208   0.00463640
6786.00   0.56398782   0.00428641
6788.00   0.56931454   0.00399346
6790.00   0.57237747   0.00382185
6792.00   0.57610673   0.00376162
6794.00   0.57562929   0.00379894
6796.00   0.56824312   0.00402844
6798.00   0.55814904   0.00442204
6800.00   0.55563149   0.00449055
6802.00   0.55415240   0.00412348
6804.00   0.56086814   0.00423239
6806.00   0.58543417   0.00500029
6808.00   0.60469976   0.00549288
6810.00   0.60363621   0.00518019
6812.00   0.58809018   0.00428941
6814.00   0.57539329   0.00397541
6816.00   0.55409306   0.00395646
6818.00   0.54886565   0.00399373
6820.00   0.55646008   0.00414482
6822.00   0.56650656   0.00445141
6824.00   0.58050835   0.00499656
6826.00   0.59466228   0.00560540
6828.00   0.59058666   0.00561174
6830.00   0.56326753   0.00480158
6832.00   0.55781469   0.00466901
6834.00   0.56940964   0.00509694
6836.00   0.57474992   0.00534058
6838.00   0.56342122   0.00504904
6840.00   0.55130181   0.00460968
6842.00   0.56186265   0.00479610
6844.00   0.58862087   0.00535834
6846.00   0.59554926   0.00525933
6848.00   0.58897153   0.00438055
6850.00   0.58809456   0.00412717
6852.00   0.58767480   0.00453879
6854.00   0.58406755   0.00482936
6856.00   0.57896909   0.00469918
6858.00   0.57302856   0.00437713
6860.00   0.56935897   0.00442547
6862.00   0.56197038   0.00456202
6864.00   0.56555229   0.00500342
6866.00   0.58736444   0.00603634
6868.00   0.60721105   0.00668923
6870.00   0.60549897   0.00643961
6872.00   0.58815017   0.00549656
6874.00   0.58268356   0.00500014
6876.00   0.58191380   0.00462900
6878.00   0.58172610   0.00438011
6880.00   0.58010966   0.00422708
6882.00   0.58327621   0.00423740
6884.00   0.59604505   0.00454360
6886.00   0.60913554   0.00488293
6888.00   0.61041451   0.00487440
6890.00   0.60238588   0.00463026
6892.00   0.60344392   0.00446614
6894.00   0.61017233   0.00419559
6896.00   0.61513534   0.00406510
6898.00   0.61723140   0.00414160
6900.00   0.62071675   0.00427285
6902.00   0.62720931   0.00431564
6904.00   0.63532940   0.00431626
6906.00   0.64058170   0.00432841
6908.00   0.64603999   0.00435443
6910.00   0.64706433   0.00434839
6912.00   0.64008242   0.00422101
6914.00   0.63501227   0.00415797
6916.00   0.64249200   0.00431707
6918.00   0.66070250   0.00456070
6920.00   0.66857770   0.00468572
6922.00   0.67180774   0.00486052
6924.00   0.67296597   0.00482020
6926.00   0.67125636   0.00444232
6928.00   0.67238206   0.00410347
6930.00   0.67865252   0.00401704
6932.00   0.68732047   0.00404715
6934.00   0.68860641   0.00404874
6936.00   0.68379056   0.00411220
6938.00   0.68086144   0.00411860
6940.00   0.67609546   0.00406653
6942.00   0.67450210   0.00402811
6944.00   0.67882860   0.00402132
6946.00   0.68605950   0.00404175
6948.00   0.68938428   0.00410085
6950.00   0.69079044   0.00421586
6952.00   0.69091281   0.00421489
6954.00   0.68749958   0.00406398
6956.00   0.68773308   0.00402444
6958.00   0.69242105   0.00417441
6960.00   0.69596222   0.00437684
6962.00   0.69300351   0.00433295
6964.00   0.68427992   0.00402882
6966.00   0.68152094   0.00401334
6968.00   0.68283913   0.00424809
6970.00   0.68196309   0.00432550
6972.00   0.67965391   0.00429485
6974.00   0.67959332   0.00424519
6976.00   0.67968789   0.00414257
6978.00   0.67847753   0.00398528
6980.00   0.68200210   0.00396309
6982.00   0.69217765   0.00409482
6984.00   0.69689390   0.00410834
6986.00   0.69860792   0.00403700
6988.00   0.69845390   0.00399042
6990.00   0.69385955   0.00400141
6992.00   0.68708056   0.00403206
6994.00   0.68881011   0.00406829
6996.00   0.70052221   0.00414012
6998.00   0.70251405   0.00415277
7000.00   0.69624835   0.00405374
7002.00   0.69050238   0.00406065
7004.00   0.69017383   0.00429827
7006.00   0.69355255   0.00463397
7008.00   0.69557208   0.00468481
7010.00   0.69938689   0.00453771
7012.00   0.69960192   0.00441466
7014.00   0.69576082   0.00418441
7016.00   0.69279474   0.00401900
7018.00   0.69239265   0.00401088
7020.00   0.69249502   0.00410302
7022.00   0.69507897   0.00421589
7024.00   0.70528480   0.00447948
7026.00   0.70281795   0.00449100
7028.00   0.68664196   0.00425261
7030.00   0.67723858   0.00410983
7032.00   0.67719659   0.00412243
7034.00   0.68180701   0.00416391
7036.00   0.68548027   0.00424046
7038.00   0.69156739   0.00445851
7040.00   0.69329607   0.00443084
7042.00   0.69203094   0.00414078
7044.00   0.68899128   0.00397635
7046.00   0.68446529   0.00391540
7048.00   0.68350434   0.00397050
7050.00   0.68885595   0.00420627
7052.00   0.69767138   0.00451462
7054.00   0.69980741   0.00454444
7056.00   0.69434291   0.00431138
7058.00   0.69796795   0.00427744
7060.00   0.71242651   0.00437676
7062.00   0.72181833   0.00445494
7064.00   0.71703973   0.00441498
7066.00   0.70701930   0.00425907
7068.00   0.70796081   0.00415070
7070.00   0.71439421   0.00400065
7072.00   0.72055084   0.00405659
7074.00   0.73223755   0.00439883
7076.00   0.73850745   0.00452958
7078.00   0.73705128   0.00437251
7080.00   0.73301369   0.00415018
7082.00   0.73026904   0.00409788
7084.00   0.72535777   0.00411312
7086.00   0.72503158   0.00410303
7088.00   0.72739497   0.00408945
7090.00   0.73232394   0.00411832
7092.00   0.74159405   0.00419311
7094.00   0.74972829   0.00423573
7096.00   0.75064090   0.00418301
7098.00   0.74553189   0.00405190
7100.00   0.74639946   0.00401267
7102.00   0.74812260   0.00403560
7104.00   0.75532097   0.00403700
7106.00   0.76918030   0.00398893
7108.00   0.78134069   0.00400969
7110.00   0.78773913   0.00420962
7112.00   0.78859442   0.00456253
7114.00   0.79024002   0.00466673
7116.00   0.79093891   0.00459655
7118.00   0.79128665   0.00455358
7120.00   0.78734815   0.00455475
7122.00   0.78757665   0.00450748
7124.00   0.79410240   0.00435991
7126.00   0.80413613   0.00422099
7128.00   0.81067407   0.00429084
7130.00   0.81354567   0.00458347
7132.00   0.81858155   0.00477738
7134.00   0.82653597   0.00505964
7136.00   0.83440617   0.00506202
7138.00   0.83687150   0.00474198
7140.00   0.83949295   0.00437389
7142.00   0.85190791   0.00434672
7144.00   0.87281880   0.00458135
7146.00   0.88485238   0.00468044
7148.00   0.89427635   0.00477726
7150.00   0.89938533   0.00484562
7152.00   0.90155479   0.00465994
7154.00   0.89589578   0.00477769
7156.00   0.87333199   0.00576903
7158.00   0.83879852   0.00706635
7160.00   0.83975753   0.00707302
7162.00   0.87904483   0.00561936
7164.00   0.89344645   0.00512896
7166.00   0.89134932   0.00568967
7168.00   0.88574073   0.00627354
7170.00   0.89330867   0.00607632
7172.00   0.91335452   0.00523736
7174.00   0.93020707   0.00496755
7176.00   0.95039093   0.00502457
7178.00   0.96747538   0.00511817
7180.00   0.98441696   0.00532922
7182.00   0.99510226   0.00550729
7184.00   1.00165036   0.00550799
7186.00   1.00022608   0.00549856
7188.00   0.98014647   0.00579851
7190.00   0.93707842   0.00613781
7192.00   0.91636786   0.00650379
7194.00   0.89998025   0.00732983
7196.00   0.89187816   0.00781804
7198.00   0.91076282   0.00717104
7200.00   0.94848767   0.00568277
7202.00   0.97923476   0.00512306
7204.00   1.02239347   0.00526367
7206.00   1.03601950   0.00519207
7208.00   1.02881044   0.00509324
7210.00   1.01241332   0.00523422
7212.00   0.98071012   0.00570155
7214.00   0.93698165   0.00631856
7216.00   0.90879565   0.00662115
7218.00   0.89869153   0.00659326
7220.00   0.90609699   0.00636449
7222.00   0.94872999   0.00560514
7224.00   0.96296814   0.00522342
7226.00   0.95446807   0.00513566
7228.00   0.94389865   0.00521608
7230.00   0.95112947   0.00528706
7232.00   0.97140852   0.00537764
7234.00   0.96991432   0.00537360
7236.00   0.94858834   0.00523876
7238.00   0.93742934   0.00524142
7240.00   0.93488348   0.00537458
7242.00   0.93132642   0.00549904
7244.00   0.91947308   0.00559738
7246.00   0.90302455   0.00571695
7248.00   0.90055957   0.00562047
7250.00   0.91273576   0.00524933
7252.00   0.91510198   0.00499003
7254.00   0.91022745   0.00475554
7256.00   0.90606681   0.00459988
7258.00   0.90684029   0.00456666
7260.00   0.90717021   0.00463827
7262.00   0.90182325   0.00465299
7264.00   0.89243686   0.00457936
7266.00   0.89122194   0.00471614
7268.00   0.89778224   0.00509998
7270.00   0.90023577   0.00536216
7272.00   0.90091726   0.00542905
7274.00   0.89791754   0.00534258
7276.00   0.88881901   0.00523401
7278.00   0.87396577   0.00499619
7280.00   0.86579180   0.00492667
7282.00   0.86039168   0.00502684
7284.00   0.85674536   0.00506225
7286.00   0.85573483   0.00485730
7288.00   0.85726050   0.00466308
7290.00   0.85999691   0.00486410
7292.00   0.86236167   0.00529745
7294.00   0.86653313   0.00533729
7296.00   0.87364480   0.00495234
7298.00   0.87882099   0.00493682
7300.00   0.88458973   0.00534691
7302.00   0.88756025   0.00573329
7304.00   0.88018075   0.00574124
7306.00   0.86532065   0.00551619
7308.00   0.85721886   0.00530991
7310.00   0.85149091   0.00490631
7312.00   0.84571102   0.00467731
7314.00   0.83938009   0.00463576
7316.00   0.83551699   0.00463632
7318.00   0.83628589   0.00461645
7320.00   0.84293959   0.00462540
7322.00   0.85223311   0.00460384
7324.00   0.86706832   0.00454487
7326.00   0.87506944   0.00453262
7328.00   0.87988073   0.00455455
7330.00   0.88196051   0.00458184
7332.00   0.88131070   0.00462038
7334.00   0.87941918   0.00466129
7336.00   0.87621790   0.00470113
7338.00   0.87185210   0.00476817
7340.00   0.86439902   0.00479724
7342.00   0.84869754   0.00482723
7344.00   0.84160104   0.00479305
7346.00   0.84629938   0.00467429
7348.00   0.85586011   0.00454149
7350.00   0.86286449   0.00446654
7352.00   0.86978534   0.00442266
7354.00   0.86889216   0.00441037
7356.00   0.85678130   0.00443517
7358.00   0.85370201   0.00447013
7360.00   0.85617331   0.00455685
7362.00   0.85941458   0.00465331
7364.00   0.86630696   0.00469242
7366.00   0.87703893   0.00469727
7368.00   0.87633997   0.00469743
7370.00   0.86339915   0.00468589
7372.00   0.86041191   0.00463293
7374.00   0.86490992   0.00452858
7376.00   0.86727089   0.00445020
7378.00   0.86655486   0.00440014
7380.00   0.86506915   0.00436432
7382.00   0.86436567   0.00434181
7384.00   0.86460620   0.00433774
7386.00   0.86382940   0.00433423
7388.00   0.86078182   0.00432359
7390.00   0.85927382   0.00434149
7392.00   0.86122721   0.00440244
7394.00   0.86790282   0.00449211
7396.00   0.87839577   0.00456977
7398.00   0.89640772   0.00465999
7400.00   0.90837488   0.00468705
7402.00   0.91774619   0.00465180
7404.00   0.92544457   0.00462847
7406.00   0.93536386   0.00462417
7408.00   0.94202968   0.00460620
7410.00   0.94342032   0.00455886
7412.00   0.94339156   0.00449178
7414.00   0.94270238   0.00446337
7416.00   0.93752074   0.00444643
7418.00   0.93743595   0.00446770
7420.00   0.94403574   0.00452718
7422.00   0.95065445   0.00458963
7424.00   0.95479944   0.00466368
7426.00   0.95948035   0.00473420
7428.00   0.96423382   0.00480760
7430.00   0.96902424   0.00494328
7432.00   0.97346190   0.00497405
7434.00   0.98167053   0.00485501
7436.00   0.98365909   0.00473063
7438.00   0.97564232   0.00465151
7440.00   0.95773312   0.00463504
7442.00   0.93707550   0.00480816
7444.00   0.90950450   0.00522589
7446.00   0.89049253   0.00527902
7448.00   0.87174764   0.00506937
7450.00   0.86198717   0.00485965
7452.00   0.86626002   0.00461154
7454.00   0.87317261   0.00439254
7456.00   0.87060022   0.00435226
7458.00   0.86338070   0.00448741
7460.00   0.86013600   0.00450392
7462.00   0.85772932   0.00444934
7464.00   0.85675421   0.00445762
7466.00   0.85898209   0.00456489
7468.00   0.86124045   0.00467440
7470.00   0.85950840   0.00472391
7472.00   0.85493034   0.00475713
7474.00   0.85165232   0.00475461
7476.00   0.84905133   0.00470279
7478.00   0.84460104   0.00466175
7480.00   0.83846971   0.00461945
7482.00   0.83309942   0.00456356
7484.00   0.82750961   0.00450221
7486.00   0.82125023   0.00443134
7488.00   0.82129276   0.00439191
7490.00   0.82901543   0.00437348
7492.00   0.83132002   0.00437368
7494.00   0.83089811   0.00440120
7496.00   0.83013022   0.00441854
7498.00   0.82695538   0.00440198
7500.00   0.82206637   0.00437218
7502.00   0.82104591   0.00445525
7504.00   0.82257244   0.00468239
7506.00   0.82514453   0.00481618
7508.00   0.83151913   0.00490719
7510.00   0.83457065   0.00495192
7512.00   0.83307850   0.00498394
7514.00   0.82749280   0.00495947
7516.00   0.82183263   0.00493850
7518.00   0.81715077   0.00494031
7520.00   0.80807683   0.00490864
7522.00   0.79318163   0.00484700
7524.00   0.78105903   0.00479327
7526.00   0.77114022   0.00469914
7528.00   0.76222464   0.00461264
7530.00   0.75929981   0.00460481
7532.00   0.76491997   0.00460283
7534.00   0.76317191   0.00464925
7536.00   0.75706360   0.00481105
7538.00   0.75196168   0.00485883
7540.00   0.74717274   0.00473248
7542.00   0.74321315   0.00463195
7544.00   0.74183390   0.00465100
7546.00   0.74152961   0.00470630
7548.00   0.74315462   0.00483808
7550.00   0.74764422   0.00516723
7552.00   0.75171882   0.00523727
7554.00   0.75560820   0.00506784
7556.00   0.76024252   0.00487568
7558.00   0.76523381   0.00472200
7560.00   0.76692742   0.00458100
7562.00   0.76027021   0.00453624
7564.00   0.74309099   0.00455023
7566.00   0.73324683   0.00460521
7568.00   0.72556764   0.00469602
7570.00   0.72171882   0.00489411
7572.00   0.72275633   0.00522449
7574.00   0.72305170   0.00555148
7576.00   0.71357137   0.00564697
7578.00   0.69215524   0.00552939
7580.00   0.68472412   0.00539557
7582.00   0.68892744   0.00507727
7584.00   0.68954051   0.00493734
7586.00   0.68117142   0.00476874
7588.00   0.67055416   0.00476879
7590.00   0.66769847   0.00521919
7592.00   0.66829383   0.00569065
7594.00   0.70120087   0.00769037
7596.00   0.79355642   0.01102469
7598.00   0.83164662   0.01251876
7600.00   0.81770879   0.01297743
7602.00   0.77260721   0.01249638
7604.00   0.72023955   0.01122741
7606.00   0.66354302   0.00921283
7608.00   0.64707172   0.00820247
7610.00   0.67625758   0.00825082
7612.00   0.67369643   0.00768608
7614.00   0.65724826   0.00688015
7616.00   0.63596916   0.00617556
7618.00   0.60663354   0.00577220
7620.00   0.57549652   0.00572948
7622.00   0.57509694   0.00596855
7624.00   0.61140534   0.00672148
7626.00   0.61503652   0.00697503
7628.00   0.59693688   0.00694851
7630.00   0.57482287   0.00681547
7632.00   0.55415031   0.00672762
7634.00   0.54049873   0.00680883
7636.00   0.54048181   0.00700857
7638.00   0.56031078   0.00758252
7640.00   0.56047797   0.00742918
7642.00   0.54410645   0.00635029
7644.00   0.53433090   0.00561000
7646.00   0.53909099   0.00575413
7648.00   0.54644716   0.00621026
7650.00   0.54840234   0.00657697
7652.00   0.54900777   0.00704526
7654.00   0.54354644   0.00679865
7656.00   0.52507111   0.00542206
7658.00   0.52079809   0.00483176
7660.00   0.52804098   0.00504901
7662.00   0.53997386   0.00540462
7664.00   0.55580905   0.00566335
7666.00   0.57752928   0.00602740
7668.00   0.58229086   0.00610387
7670.00   0.57450902   0.00602606
7672.00   0.56426334   0.00577466
7674.00   0.54610735   0.00519324
7676.00   0.53138170   0.00471551
7678.00   0.52369145   0.00468235
7680.00   0.51802596   0.00492857
7682.00   0.51478350   0.00501561
7684.00   0.51440266   0.00513586
7686.00   0.51853931   0.00506120
7688.00   0.52654362   0.00471469
7690.00   0.53653568   0.00457071
7692.00   0.54924980   0.00463649
7694.00   0.56323066   0.00484747
7696.00   0.57374728   0.00524765
7698.00   0.57984105   0.00585885
7700.00   0.58193833   0.00591396
7702.00   0.57592389   0.00543176
7704.00   0.57832396   0.00525563
7706.00   0.58679882   0.00523656
7708.00   0.59578875   0.00520750
7710.00   0.60061839   0.00526851
7712.00   0.60265505   0.00540788
7714.00   0.60624492   0.00553225
7716.00   0.61179858   0.00578546
7718.00   0.61462930   0.00584373
7720.00   0.61042178   0.00559150
7722.00   0.60540989   0.00520013
7724.00   0.61201963   0.00495984
7726.00   0.62870792   0.00478546
7728.00   0.62859339   0.00469450
7730.00   0.61055601   0.00474237
7732.00   0.60557207   0.00475598
7734.00   0.61166647   0.00473506
7736.00   0.62077001   0.00471177
7738.00   0.62988570   0.00469164
7740.00   0.64279559   0.00466800
7742.00   0.65237364   0.00482040
7744.00   0.66146070   0.00519374
7746.00   0.66569328   0.00533136
7748.00   0.66462865   0.00530457
7750.00   0.66434282   0.00531059
7752.00   0.66874292   0.00533759
7754.00   0.67599332   0.00533841
7756.00   0.67735878   0.00532185
7758.00   0.67148337   0.00529427
7760.00   0.67360207   0.00521703
7762.00   0.68294510   0.00502923
7764.00   0.69092569   0.00493052
7766.00   0.69608685   0.00499320
7768.00   0.69719487   0.00511957
7770.00   0.69397387   0.00513237
7772.00   0.68835080   0.00508878
7774.00   0.67854309   0.00504330
7776.00   0.65773195   0.00493258
7778.00   0.64775103   0.00489658
7780.00   0.65009543   0.00495725
7782.00   0.65521544   0.00501046
7784.00   0.66075847   0.00503956
7786.00   0.67053938   0.00507243
7788.00   0.67703661   0.00514968
7790.00   0.67998499   0.00530128
7792.00   0.68743348   0.00538234
7794.00   0.70184925   0.00540238
7796.00   0.71317783   0.00537521
7798.00   0.71443412   0.00531101
7800.00   0.71024486   0.00521119
7802.00   0.71258593   0.00511567
7804.00   0.71981680   0.00495778
7806.00   0.72265407   0.00491131
7808.00   0.72041422   0.00495024
7810.00   0.72079161   0.00505732
7812.00   0.72887346   0.00520974
7814.00   0.73807245   0.00538141
7816.00   0.73807642   0.00561672
7818.00   0.73150855   0.00607742
7820.00   0.72359464   0.00610781
7822.00   0.71261925   0.00571285
7824.00   0.70090166   0.00533665
7826.00   0.67912382   0.00510113
7828.00   0.65835938   0.00496277
7830.00   0.66452390   0.00489607
7832.00   0.69621274   0.00491533
7834.00   0.70919997   0.00493671
7836.00   0.71801886   0.00502521
7838.00   0.72071743   0.00507297
7840.00   0.71271473   0.00503513
7842.00   0.70367569   0.00500556
7844.00   0.70392418   0.00509315
7846.00   0.70703283   0.00524365
7848.00   0.70824513   0.00538740
7850.00   0.70906860   0.00559262
7852.00   0.71204567   0.00571389
7854.00   0.71798319   0.00579135
7856.00   0.71712840   0.00581609
7858.00   0.70368478   0.00570614
7860.00   0.68351358   0.00547970
7862.00   0.67708042   0.00545263
7864.00   0.68277010   0.00560938
7866.00   0.67956555   0.00563350
7868.00   0.66807434   0.00559214
7870.00   0.66203558   0.00554373
7872.00   0.66682637   0.00541846
7874.00   0.67684931   0.00521143
7876.00   0.68325070   0.00514587
7878.00   0.69170916   0.00519132
7880.00   0.69337305   0.00521973
7882.00   0.68727756   0.00526693
7884.00   0.68237185   0.00530856
7886.00   0.68092662   0.00535904
7888.00   0.68207648   0.00542511
7890.00   0.68262607   0.00545740
7892.00   0.68169725   0.00544935
7894.00   0.67626143   0.00543281
7896.00   0.66425321   0.00532902
7898.00   0.65769312   0.00535126
7900.00   0.65032467   0.00558753
7902.00   0.64423168   0.00581277
7904.00   0.64899752   0.00575378
7906.00   0.66259152   0.00547722
7908.00   0.67341310   0.00550236
7910.00   0.69258535   0.00576783
7912.00   0.69732890   0.00591435
7914.00   0.68217486   0.00605203
7916.00   0.66715190   0.00609740
7918.00   0.66706678   0.00595915
7920.00   0.67610765   0.00568452
7922.00   0.68309903   0.00558922
7924.00   0.69671410   0.00565278
7926.00   0.70024654   0.00559895
7928.00   0.69595200   0.00535282
7930.00   0.68607801   0.00523790
7932.00   0.67122471   0.00550874
7934.00   0.65542695   0.00593735
7936.00   0.65410712   0.00596347
7938.00   0.66687799   0.00569661
7940.00   0.66944990   0.00550244
7942.00   0.66708541   0.00521460
7944.00   0.66534999   0.00504310
7946.00   0.66244850   0.00502127
7948.00   0.65940765   0.00512492
7950.00   0.66156092   0.00531484
7952.00   0.67009333   0.00555682
7954.00   0.66758540   0.00582655
7956.00   0.65096071   0.00626672
7958.00   0.64636526   0.00649974
7960.00   0.65569863   0.00643210
7962.00   0.66673994   0.00623252
7964.00   0.67319429   0.00605295
7966.00   0.67838493   0.00575782
7968.00   0.67824978   0.00575019
7970.00   0.66872606   0.00612216
7972.00   0.66798589   0.00618378
7974.00   0.67451924   0.00594857
7976.00   0.68031290   0.00567556
7978.00   0.67866829   0.00547884
7980.00   0.67043230   0.00531053
7982.00   0.67057988   0.00525240
7984.00   0.68172866   0.00517602
7986.00   0.67871824   0.00544081
7988.00   0.66411895   0.00612634
7990.00   0.65072325   0.00655381
7992.00   0.63440153   0.00669209
7994.00   0.61421648   0.00669669
7996.00   0.60825014   0.00654717
7998.00   0.61243421   0.00609779
8000.00   0.61741459   0.00593332
8002.00   0.62991822   0.00595965
8004.00   0.64081088   0.00597859
8006.00   0.64369103   0.00599233
8008.00   0.64144447   0.00601451
8010.00   0.64048186   0.00602061
8012.00   0.63590842   0.00599475
8014.00   0.63809359   0.00592794
8016.00   0.64423898   0.00577693
8018.00   0.65399057   0.00571346
8020.00   0.67156613   0.00566271
8022.00   0.68891567   0.00566059
8024.00   0.68969956   0.00589365
8026.00   0.67860317   0.00637413
8028.00   0.66304797   0.00646952
8030.00   0.62928724   0.00637672
8032.00   0.61204448   0.00617059
8034.00   0.61415362   0.00561022
8036.00   0.62197864   0.00501289
8038.00   0.62630647   0.00492277
8040.00   0.63279626   0.00516672
8042.00   0.63811836   0.00526944
8044.00   0.64014155   0.00546950
8046.00   0.64922380   0.00551348
8048.00   0.66743514   0.00530499
8050.00   0.68075696   0.00524361
8052.00   0.68699032   0.00548707
8054.00   0.68972456   0.00583090
8056.00   0.68527654   0.00606080
8058.00   0.67292833   0.00636000
8060.00   0.66308379   0.00635076
8062.00   0.65168366   0.00597695
8064.00   0.63687938   0.00570558
8066.00   0.62186748   0.00561465
8068.00   0.60829180   0.00556590
8070.00   0.60595211   0.00551177
8072.00   0.61557969   0.00553517
8074.00   0.62488392   0.00557283
8076.00   0.64595601   0.00562861
8078.00   0.65216228   0.00567878
8080.00   0.63568097   0.00582503
8082.00   0.61329627   0.00594397
8084.00   0.60709983   0.00591232
8086.00   0.60690957   0.00581522
8088.00   0.60980678   0.00571965
8090.00   0.62049249   0.00558358
8092.00   0.63000157   0.00542269
8094.00   0.63442871   0.00520177
8096.00   0.63508332   0.00510387
8098.00   0.63955209   0.00528212
8100.00   0.64678451   0.00564103
8102.00   0.63967034   0.00576375
8104.00   0.61275288   0.00579407
8106.00   0.60260132   0.00575286
8108.00   0.60465673   0.00561923
8110.00   0.60565674   0.00551497
8112.00   0.60558796   0.00536141
8114.00   0.60949656   0.00511002
8116.00   0.61012006   0.00520729
8118.00   0.60843685   0.00573474
8120.00   0.60601401   0.00591076
8122.00   0.60235146   0.00582614
8124.00   0.60001808   0.00568032
8126.00   0.60137770   0.00555711
8128.00   0.60492894   0.00537070
8130.00   0.60555816   0.00524358
8132.00   0.60494149   0.00516102
8134.00   0.60412160   0.00517186
8136.00   0.60089287   0.00529771
8138.00   0.60093853   0.00538859
8140.00   0.60635513   0.00542538
8142.00   0.61179772   0.00546862
8144.00   0.60931644   0.00561218
8146.00   0.59694466   0.00586356
8148.00   0.59153083   0.00591289
8150.00   0.58673325   0.00578653
8152.00   0.58783171   0.00573255
8154.00   0.59538034   0.00572169
8156.00   0.60215414   0.00566154
8158.00   0.60028559   0.00558403
8160.00   0.59421310   0.00553560
8162.00   0.59394792   0.00547970
8164.00   0.59769782   0.00539322
8166.00   0.59881666   0.00535216
8168.00   0.60298091   0.00538278
8170.00   0.60372686   0.00545240
8172.00   0.59509724   0.00555638
8174.00   0.58295253   0.00568727
8176.00   0.57609919   0.00568098
8178.00   0.57054129   0.00548435
8180.00   0.56404850   0.00548116
8182.00   0.55967683   0.00552819
8184.00   0.55812606   0.00576638
8186.00   0.55780384   0.00636047
8188.00   0.55933565   0.00707808
8190.00   0.55547756   0.00723103
8192.00   0.54799843   0.00694436
8194.00   0.53629923   0.00682107
8196.00   0.51606098   0.00677031
8198.00   0.50108518   0.00659145
8200.00   0.49360572   0.00615363
8202.00   0.49357437   0.00569626
8204.00   0.49691604   0.00575069
8206.00   0.50401030   0.00639462
8208.00   0.49942364   0.00644860
8210.00   0.48145062   0.00606125
8212.00   0.47306933   0.00585145
8214.00   0.47389992   0.00601066
8216.00   0.47325294   0.00620212
8218.00   0.46203385   0.00613315
8220.00   0.44280544   0.00589150
8222.00   0.44656880   0.00606468
8224.00   0.47152685   0.00662331
8226.00   0.48996785   0.00696699
8228.00   0.50993046   0.00714131
8230.00   0.52802899   0.00733149
8232.00   0.53471559   0.00755351
8234.00   0.52736618   0.00764472
8236.00   0.52786401   0.00789497
8238.00   0.53303362   0.00847831
8240.00   0.53336205   0.00848644
8242.00   0.52865198   0.00794832
8244.00   0.52219820   0.00740879
8246.00   0.50649944   0.00667920
8248.00   0.48611644   0.00569279
8250.00   0.48586981   0.00547423
8252.00   0.50089720   0.00594463
8254.00   0.50956985   0.00619571
8256.00   0.52235025   0.00659383
8258.00   0.53129777   0.00689866
8260.00   0.52796638   0.00691023
8262.00   0.51432310   0.00673000
8264.00   0.50472331   0.00675460
8266.00   0.50298619   0.00717436
8268.00   0.49939394   0.00721361
8270.00   0.49546786   0.00691016
8272.00   0.48945117   0.00670231
8274.00   0.48804565   0.00686299
8276.00   0.49002728   0.00713824
8278.00   0.49806295   0.00748149
8280.00   0.51647881   0.00812372
8282.00   0.51411593   0.00806508
8284.00   0.48342617   0.00694998
8286.00   0.47964066   0.00681653
8288.00   0.50964755   0.00800912
8290.00   0.53094557   0.00875547
8292.00   0.51671936   0.00842379
8294.00   0.48167208   0.00750344
8296.00   0.48112209   0.00709161
8298.00   0.50982487   0.00684691
8300.00   0.52335775   0.00673752
8302.00   0.52452952   0.00683213
8304.00   0.52437603   0.00687784
8306.00   0.53330356   0.00692458
8308.00   0.54431665   0.00693672
8310.00   0.54564640   0.00677992
8312.00   0.53792363   0.00643520
8314.00   0.53288329   0.00617548
8316.00   0.52751100   0.00590469
8318.00   0.52553076   0.00569291
8320.00   0.51925488   0.00544424
8322.00   0.51377736   0.00522282
8324.00   0.51978213   0.00524288
8326.00   0.53768587   0.00545843
8328.00   0.53598186   0.00551468
8330.00   0.51574591   0.00547283
8332.00   0.50367701   0.00551632
8334.00   0.50217682   0.00559549
8336.00   0.50419047   0.00575869
8338.00   0.50212707   0.00605316
8340.00   0.50130497   0.00641861
8342.00   0.48947032   0.00671522
8344.00   0.45615053   0.00707532
8346.00   0.44529136   0.00728902
8348.00   0.45877905   0.00720061
8350.00   0.48015726   0.00713423
8352.00   0.50224204   0.00744637
8354.00   0.52926515   0.00791013
8356.00   0.53140062   0.00783026
8358.00   0.50756039   0.00719864
8360.00   0.49355817   0.00682936
8362.00   0.48236956   0.00650587
8364.00   0.47804962   0.00630518
8366.00   0.47796170   0.00628705
8368.00   0.48362070   0.00634598
8370.00   0.49076131   0.00625180
8372.00   0.50565663   0.00603616
8374.00   0.50468102   0.00586074
8376.00   0.49128720   0.00568754
8378.00   0.47649069   0.00557481
8380.00   0.45850451   0.00538894
8382.00   0.44204897   0.00523950
8384.00   0.44314134   0.00542986
8386.00   0.45775200   0.00584678
8388.00   0.47043809   0.00618840
8390.00   0.48669028   0.00657381
8392.00   0.50735435   0.00699917
8394.00   0.53292608   0.00731670
8396.00   0.54887009   0.00749181
8398.00   0.54426447   0.00776077
8400.00   0.52034441   0.00808893
8402.00   0.50558290   0.00785395
8404.00   0.48114389   0.00683696
8406.00   0.48029914   0.00623925
8408.00   0.50388919   0.00586025
8410.00   0.52135772   0.00557855
8412.00   0.52181214   0.00563489
8414.00   0.51248690   0.00600382
8416.00   0.50744428   0.00597538
8418.00   0.49664566   0.00550560
8420.00   0.49804443   0.00550102
8422.00   0.51121190   0.00590551
8424.00   0.52233785   0.00630550
8426.00   0.52385768   0.00661861
8428.00   0.52042344   0.00691231
8430.00   0.52029315   0.00691218
8432.00   0.52074522   0.00663837
8434.00   0.52010939   0.00632415
8436.00   0.51623636   0.00576944
8438.00   0.51695985   0.00535082
8440.00   0.52494642   0.00519191
8442.00   0.53795820   0.00522129
8444.00   0.55426952   0.00534705
8446.00   0.58267412   0.00570125
8448.00   0.59281096   0.00584532
8450.00   0.59247500   0.00586927
8452.00   0.58257267   0.00589263
8454.00   0.55751073   0.00597391
8456.00   0.53328758   0.00602210
8458.00   0.53330454   0.00594354
8460.00   0.55147269   0.00571716
8462.00   0.55395493   0.00576243
8464.00   0.54975912   0.00609839
8466.00   0.54560474   0.00624062
8468.00   0.53754053   0.00625592
8470.00   0.52980179   0.00612854
8472.00   0.52879569   0.00574893
8474.00   0.53263706   0.00506419
8476.00   0.53468663   0.00480071
8478.00   0.53634864   0.00488595
8480.00   0.54036736   0.00492799
8482.00   0.54758242   0.00502887
8484.00   0.55248904   0.00512751
8486.00   0.55345428   0.00517668
8488.00   0.55314162   0.00522328
8490.00   0.55242971   0.00526592
8492.00   0.55197373   0.00526431
8494.00   0.54568991   0.00533561
8496.00   0.53038278   0.00552841
8498.00   0.52115732   0.00563625
8500.00   0.52334666   0.00562638
8502.00   0.53235468   0.00559088
8504.00   0.53701538   0.00557180
8506.00   0.53943744   0.00557966
8508.00   0.54619977   0.00549080
8510.00   0.55924851   0.00526793
8512.00   0.56786039   0.00508783
8514.00   0.56950063   0.00501188
8516.00   0.57009643   0.00498727
8518.00   0.57543215   0.00496391
8520.00   0.58605027   0.00495532
8522.00   0.58748952   0.00497172
8524.00   0.58387813   0.00498397
8526.00   0.57481164   0.00506956
8528.00   0.56021324   0.00529364
8530.00   0.54730678   0.00551468
8532.00   0.54213041   0.00551492
8534.00   0.54640442   0.00530162
8536.00   0.54853740   0.00524524
8538.00   0.55323416   0.00522455
8540.00   0.55454558   0.00527519
8542.00   0.55587387   0.00542436
8544.00   0.55677673   0.00557671
8546.00   0.55922219   0.00558491
8548.00   0.56573433   0.00543481
8550.00   0.57029620   0.00546130
8552.00   0.57006302   0.00570647
8554.00   0.57724467   0.00572304
8556.00   0.59916943   0.00542733
8558.00   0.61538142   0.00519208
8560.00   0.61331007   0.00516706
8562.00   0.60086593   0.00524754
8564.00   0.59410679   0.00553429
8566.00   0.58947173   0.00607997
8568.00   0.58525756   0.00625577
8570.00   0.58074594   0.00627139
8572.00   0.57384041   0.00623114
8574.00   0.57361257   0.00578779
8576.00   0.57784265   0.00509315
8578.00   0.56901777   0.00503953
8580.00   0.54765901   0.00533108
8582.00   0.52798599   0.00592064
8584.00   0.48614731   0.00726468
8586.00   0.48189434   0.00777369
8588.00   0.53037542   0.00716021
8590.00   0.58891752   0.00598830
8592.00   0.61298147   0.00545998
8594.00   0.61956638   0.00531514
8596.00   0.62862906   0.00522982
8598.00   0.63156649   0.00545968
8600.00   0.63512185   0.00553132
8602.00   0.64111322   0.00542241
8604.00   0.64198118   0.00540873
8606.00   0.63033545   0.00567334
8608.00   0.61175692   0.00608065
8610.00   0.61255938   0.00616487
8612.00   0.63013700   0.00598767
8614.00   0.63901114   0.00592557
8616.00   0.65074399   0.00587486
8618.00   0.65680203   0.00591122
8620.00   0.64430159   0.00612617
8622.00   0.61926910   0.00645309
8624.00   0.61269480   0.00647562
8626.00   0.61992767   0.00623510
8628.00   0.62122381   0.00608678
8630.00   0.62154034   0.00594213
8632.00   0.61915055   0.00581370
8634.00   0.61402544   0.00572027
8636.00   0.60862505   0.00566176
8638.00   0.60606200   0.00558387
8640.00   0.60348949   0.00545218
8642.00   0.60625410   0.00557328
8644.00   0.61627537   0.00587614
8646.00   0.62363577   0.00619285
8648.00   0.62467158   0.00677285
8650.00   0.62516642   0.00734878
8652.00   0.63559109   0.00731198
8654.00   0.65659022   0.00672226
8656.00   0.65657407   0.00655610
8658.00   0.63562885   0.00654420
8660.00   0.62464082   0.00661436
8662.00   0.62502795   0.00685250
8664.00   0.62370178   0.00703546
8666.00   0.61112896   0.00710084
8668.00   0.59325078   0.00711416
8670.00   0.59423292   0.00694738
8672.00   0.61340305   0.00651610
8674.00   0.62430662   0.00621529
8676.00   0.63184360   0.00587542
8678.00   0.63955337   0.00563194
8680.00   0.64804351   0.00567531
8682.00   0.65342376   0.00586451
8684.00   0.65420005   0.00581814
8686.00   0.65166321   0.00558551
8688.00   0.64551538   0.00555729
8690.00   0.63313520   0.00568274
8692.00   0.62270194   0.00577222
8694.00   0.61182731   0.00586931
8696.00   0.59867638   0.00597189
8698.00   0.59061766   0.00593937
8700.00   0.58819711   0.00579475
8702.00   0.58631524   0.00578061
8704.00   0.58477315   0.00588836
8706.00   0.58685970   0.00589870
8708.00   0.59693322   0.00581505
8710.00   0.60974646   0.00567798
8712.00   0.61819476   0.00561679
8714.00   0.62715062   0.00563547
8716.00   0.62867185   0.00558196
8718.00   0.62349346   0.00540428
8720.00   0.61510602   0.00541701
8722.00   0.60352129   0.00562770
8724.00   0.59789243   0.00577136
8726.00   0.59725273   0.00586112
8728.00   0.59969094   0.00594050
8730.00   0.60426798   0.00580415
8732.00   0.61489773   0.00524823
8734.00   0.61974669   0.00513317
8736.00   0.62059397   0.00534317
8738.00   0.62135813   0.00565776
8740.00   0.62547934   0.00603109
8742.00   0.62876371   0.00641427
8744.00   0.62458694   0.00656219
8746.00   0.61095428   0.00656206
8748.00   0.61127689   0.00644653
8750.00   0.62135652   0.00604937
8752.00   0.63063192   0.00586906
8754.00   0.64158013   0.00593028
8756.00   0.65130883   0.00606112
8758.00   0.65487418   0.00627032
8760.00   0.65575206   0.00667075
8762.00   0.65175191   0.00683593
8764.00   0.63864219   0.00683312
8766.00   0.63086912   0.00684460
8768.00   0.62873149   0.00689895
8770.00   0.62521562   0.00700898
8772.00   0.61954930   0.00718527
8774.00   0.61312401   0.00754989
8776.00   0.61506787   0.00747595
8778.00   0.62723580   0.00696478
8780.00   0.63347891   0.00652364
8782.00   0.63471580   0.00618484
8784.00   0.63689029   0.00595725
8786.00   0.64091033   0.00585698
8788.00   0.64593464   0.00586414
8790.00   0.65115464   0.00593412
8792.00   0.65852723   0.00618766
8794.00   0.66112426   0.00628515
8796.00   0.66428939   0.00630015
8798.00   0.66759065   0.00624717
8800.00   0.66169930   0.00596277
8802.00   0.64454240   0.00540632
8804.00   0.63519970   0.00525047
8806.00   0.62723076   0.00542440
8808.00   0.62792596   0.00552502
8810.00   0.63783959   0.00561932
8812.00   0.64614764   0.00575878
8814.00   0.64546430   0.00580756
8816.00   0.64161831   0.00587376
8818.00   0.65569195   0.00644363
8820.00   0.69330782   0.00745651
8822.00   0.69605690   0.00787620
8824.00   0.67074567   0.00802100
8826.00   0.64760622   0.00810334
8828.00   0.62159318   0.00802780
8830.00   0.60027221   0.00783131
8832.00   0.60332617   0.00760089
8834.00   0.63169605   0.00723803
8836.00   0.64386493   0.00713377
8838.00   0.65840361   0.00740919
8840.00   0.65628371   0.00730491
8842.00   0.62956944   0.00674660
8844.00   0.61002111   0.00621866
8846.00   0.62383816   0.00609489
8848.00   0.65706840   0.00626685
8850.00   0.65865690   0.00634619
8852.00   0.63167489   0.00658593
8854.00   0.62393117   0.00655730
8856.00   0.63012719   0.00621412
8858.00   0.63552755   0.00593372
8860.00   0.63391498   0.00601717
8862.00   0.63261232   0.00631555
8864.00   0.63508266   0.00639993
8866.00   0.64151904   0.00640721
8868.00   0.64296660   0.00636155
8870.00   0.64058724   0.00621565
8872.00   0.63962695   0.00612670
8874.00   0.64283216   0.00603620
8876.00   0.64798793   0.00601056
8878.00   0.64777398   0.00639060
8880.00   0.63895118   0.00717685
8882.00   0.63920730   0.00750727
8884.00   0.65209404   0.00764405
8886.00   0.65677550   0.00768902
8888.00   0.64166170   0.00763220
8890.00   0.62112436   0.00749669
8892.00   0.61343199   0.00714262
8894.00   0.61049595   0.00635186
8896.00   0.60773751   0.00611503
8898.00   0.60768580   0.00634820
8900.00   0.60849205   0.00651484
8902.00   0.61078882   0.00672770
8904.00   0.60919324   0.00682708
8906.00   0.60206550   0.00657802
8908.00   0.58989689   0.00600656
8910.00   0.58571315   0.00604833
8912.00   0.58513460   0.00660685
8914.00   0.58936241   0.00697419
8916.00   0.60217375   0.00734946
8918.00   0.60847062   0.00756091
8920.00   0.59518045   0.00747442
8922.00   0.56864819   0.00719179
8924.00   0.56742972   0.00706136
8926.00   0.58870080   0.00701344
8928.00   0.59521210   0.00679881
8930.00   0.59427750   0.00634360
8932.00   0.59197316   0.00608350
8934.00   0.58406353   0.00619766
8936.00   0.57198986   0.00654573
8938.00   0.57161826   0.00667000
8940.00   0.58154187   0.00667802
8942.00   0.58487734   0.00667793
8944.00   0.57867572   0.00655234
8946.00   0.58503965   0.00660712
8948.00   0.61492711   0.00693870
8950.00   0.64764920   0.00734778
8952.00   0.65006468   0.00756443
8954.00   0.63259214   0.00771581
8956.00   0.61436173   0.00773263
8958.00   0.58009252   0.00763799
8960.00   0.55681977   0.00743082
8962.00   0.54630178   0.00701603
8964.00   0.54153314   0.00657897
8966.00   0.54150644   0.00634680
8968.00   0.55174693   0.00624187
8970.00   0.55568016   0.00612702
8972.00   0.55841827   0.00607551
8974.00   0.55884764   0.00601450
8976.00   0.55645663   0.00587255
8978.00   0.55570605   0.00583386
8980.00   0.56029794   0.00602961
8982.00   0.56842464   0.00645284
8984.00   0.57632208   0.00704681
8986.00   0.59323838   0.00815929
8988.00   0.58973268   0.00837457
8990.00   0.56008121   0.00777718
8992.00   0.54270047   0.00722780
8994.00   0.55060107   0.00711882
8996.00   0.57004389   0.00729728
8998.00   0.58220637   0.00763414
9000.00   0.60326082   0.00839945
9002.00   0.60001493   0.00858697
9004.00   0.56447214   0.00835369
9006.00   0.54348254   0.00805970
9008.00   0.54734361   0.00777987
9010.00   0.55856052   0.00742282
9012.00   0.56442565   0.00716010
9014.00   0.57174942   0.00700185
9016.00   0.58272877   0.00697781
9018.00   0.60368893   0.00714705
9020.00   0.61174232   0.00725616
9022.00   0.60695115   0.00743094
9024.00   0.59813651   0.00755935
9026.00   0.58863670   0.00741364
9028.00   0.57749817   0.00707392
9030.00   0.57933283   0.00686245
9032.00   0.60017693   0.00656294
9034.00   0.60307741   0.00647157
9036.00   0.59175107   0.00678264
9038.00   0.57991898   0.00715224
9040.00   0.57496667   0.00726383
9042.00   0.57440859   0.00727758
9044.00   0.56860054   0.00722305
9046.00   0.56067774   0.00698738
9048.00   0.55001149   0.00684513
9050.00   0.53306258   0.00687479
9052.00   0.52053198   0.00689003
9054.00   0.51817033   0.00669029
9056.00   0.51971796   0.00642219
9058.00   0.52336785   0.00646675
9060.00   0.53576148   0.00679310
9062.00   0.54038125   0.00692055
9064.00   0.54037499   0.00702023
9066.00   0.53665987   0.00703749
9068.00   0.52365109   0.00681933
9070.00   0.50516388   0.00644179
9072.00   0.50324100   0.00636167
9074.00   0.51331836   0.00651568
9076.00   0.52603778   0.00654753
9078.00   0.55195552   0.00653589
9080.00   0.56779420   0.00658429
9082.00   0.57092977   0.00667274
9084.00   0.56752777   0.00671580
9086.00   0.56304893   0.00667902
9088.00   0.55496880   0.00657986
9090.00   0.55493048   0.00666898
9092.00   0.56304258   0.00692093
9094.00   0.56572828   0.00711982
9096.00   0.56699294   0.00731593
9098.00   0.56685132   0.00752204
9100.00   0.55933815   0.00765919
9102.00   0.54783636   0.00776367
9104.00   0.55545160   0.00816196
9106.00   0.59177393   0.00918409
9108.00   0.59518665   0.00917734
9110.00   0.57268494   0.00816705
9112.00   0.55519158   0.00733626
9114.00   0.54370311   0.00702872
9116.00   0.53470090   0.00680353
9118.00   0.54013899   0.00666397
9120.00   0.56323126   0.00667457
9122.00   0.57428718   0.00690493
9124.00   0.58586875   0.00750333
9126.00   0.58499330   0.00780336
9128.00   0.56610605   0.00765947
9130.00   0.53953701   0.00737823
9132.00   0.52567632   0.00742349
9134.00   0.51327927   0.00766979
9136.00   0.52729714   0.00806225
9138.00   0.58132005   0.00891050
9140.00   0.61100534   0.00917632
9142.00   0.61215147   0.00885674
9144.00   0.60095060   0.00827654
9146.00   0.58914152   0.00784739
9148.00   0.57073414   0.00744366
9150.00   0.56407335   0.00743395
9152.00   0.56535456   0.00794226
9154.00   0.56600657   0.00816736
9156.00   0.57257134   0.00820653
9158.00   0.57905188   0.00820997
9160.00   0.57809731   0.00812312
9162.00   0.57453296   0.00782258
9164.00   0.55948180   0.00760207
9166.00   0.51839404   0.00730189
9168.00   0.50657997   0.00715898
9170.00   0.52567634   0.00719626
9172.00   0.54442024   0.00734948
9174.00   0.54765338   0.00742126
9176.00   0.54617158   0.00750818
9178.00   0.55535156   0.00772147
9180.00   0.57787338   0.00814355
9182.00   0.58520499   0.00819771
9184.00   0.57703531   0.00796712
9186.00   0.56900913   0.00772697
9188.00   0.57216409   0.00745854
9190.00   0.58603206   0.00720053
9192.00   0.59700137   0.00719999
9194.00   0.60815299   0.00746584
9196.00   0.60439932   0.00749933
9198.00   0.57856545   0.00738883
9200.00   0.57113090   0.00732835
9202.00   0.58315316   0.00727875
9204.00   0.60019851   0.00728506
9206.00   0.61023962   0.00743472
9208.00   0.61622804   0.00770209
9210.00   0.61930174   0.00771360
9212.00   0.61223003   0.00749978
9214.00   0.61840332   0.00736411
9216.00   0.63495663   0.00717465
9218.00   0.65669599   0.00713116
9220.00   0.68231481   0.00746199
9222.00   0.71391010   0.00805957
9224.00   0.73088387   0.00815519
9226.00   0.74107495   0.00786027
9228.00   0.74200657   0.00769680
9230.00   0.72717884   0.00756987
9232.00   0.70999068   0.00748980
9234.00   0.70490384   0.00743739
9236.00   0.70659316   0.00743297
9238.00   0.69472134   0.00743580
9240.00   0.66460171   0.00738082
9242.00   0.65894192   0.00744858
9244.00   0.67664137   0.00778844
9246.00   0.69058138   0.00800722
9248.00   0.69694313   0.00784326
9250.00   0.69700137   0.00753562
9252.00   0.68694112   0.00751579
9254.00   0.66266036   0.00757238
9256.00   0.65983608   0.00779003
9258.00   0.67207813   0.00843592
9260.00   0.68474799   0.00866385
9262.00   0.70107582   0.00823925
9264.00   0.71435836   0.00757927
9266.00   0.72104150   0.00727175
9268.00   0.72592354   0.00707791
9270.00   0.72637683   0.00705877
9272.00   0.72136718   0.00722182
9274.00   0.71532786   0.00752228
9276.00   0.70514652   0.00797789
9278.00   0.69760087   0.00832819
9280.00   0.69789362   0.00861838
9282.00   0.70135996   0.00903250
9284.00   0.71854836   0.00909658
9286.00   0.76341581   0.00871518
9288.00   0.78239188   0.00862319
9290.00   0.77525118   0.00887068
9292.00   0.75924394   0.00913923
9294.00   0.74727929   0.00921671
9296.00   0.73574650   0.00918328
9298.00   0.73154026   0.00947616
9300.00   0.72452286   0.00985965
9302.00   0.74240762   0.01060927
9304.00   0.79996499   0.01174950
9306.00   0.83608654   0.01275520
9308.00   0.83502021   0.01352582
9310.00   0.81453869   0.01410990
9312.00   0.78041482   0.01460100
9314.00   0.70477769   0.01506032
9316.00   0.68937060   0.01532985
9318.00   0.72740123   0.01545586
9320.00   0.75755131   0.01542775
9322.00   0.78172302   0.01517562
9324.00   0.79848543   0.01482609
9326.00   0.77395943   0.01453248
9328.00   0.69943255   0.01406545
9330.00   0.68267980   0.01407673
9332.00   0.69621739   0.01458588
9334.00   0.72119635   0.01489776
9336.00   0.77587432   0.01508564
9338.00   0.82532907   0.01536086
9340.00   0.82690719   0.01570551
9342.00   0.79265869   0.01616653
9344.00   0.79721677   0.01588005
9346.00   0.82626265   0.01464517
9348.00   0.84803727   0.01383904
9350.00   0.87696040   0.01330892
9352.00   0.88662270   0.01310077
9354.00   0.85615638   0.01335217
9356.00   0.80170381   0.01388143
9358.00   0.77753094   0.01357737
9360.00   0.76357153   0.01212926
9362.00   0.76148382   0.01182180
9364.00   0.77491406   0.01199586
9366.00   0.79215083   0.01315338
9368.00   0.81549636   0.01543765
9370.00   0.84760457   0.01801808
9372.00   0.87755099   0.01969439
9374.00   0.92924935   0.02147764
9376.00   0.91383392   0.02181131
9378.00   0.82877299   0.02061239
9380.00   0.75308985   0.01952659
9382.00   0.68053651   0.01890049
9384.00   0.62645587   0.01821091
9386.00   0.64860249   0.01708479
9388.00   0.74765721   0.01557261
9390.00   0.80438805   0.01396715
9392.00   0.87452793   0.01135545
9394.00   0.90288997   0.00974104
9396.00   0.87438139   0.00994857
9398.00   0.83008462   0.01080221
9400.00   0.80546379   0.01160082
9402.00   0.78579149   0.01267850
9404.00   0.76388606   0.01342979
9406.00   0.73487571   0.01435339
9408.00   0.71683517   0.01477284
9410.00   0.72088388   0.01415687
9412.00   0.73657876   0.01322377
9414.00   0.74502391   0.01302548
9416.00   0.75439063   0.01301453
9418.00   0.75848612   0.01319492
9420.00   0.75061452   0.01383797
9422.00   0.75828156   0.01417192
9424.00   0.78820482   0.01430531
9426.00   0.81278697   0.01407970
9428.00   0.81289199   0.01323792
9430.00   0.79692641   0.01227141
9432.00   0.80561844   0.01298907
9434.00   0.83356640   0.01506560
9436.00   0.84962922   0.01646027
9438.00   0.87835833   0.01839460
9440.00   0.87596717   0.01898283
9442.00   0.80544621   0.01776341
9444.00   0.71229762   0.01572291
9446.00   0.68785119   0.01465436
9448.00   0.69029990   0.01409131
9450.00   0.71488670   0.01378040
9452.00   0.80190042   0.01396536
9454.00   0.84713528   0.01410951
9456.00   0.81072390   0.01465693
9458.00   0.75690717   0.01507256
9460.00   0.75980985   0.01484507
9462.00   0.78849503   0.01416388
9464.00   0.80577272   0.01407617
9466.00   0.84295803   0.01437012
9468.00   0.84676495   0.01466929
9470.00   0.78900838   0.01493489
9472.00   0.73040664   0.01512234
9474.00   0.73523140   0.01542457
9476.00   0.77923396   0.01573882
9478.00   0.78955084   0.01545094
9480.00   0.79505011   0.01465146
9482.00   0.78351572   0.01367319
9484.00   0.73855704   0.01178946
9486.00   0.69889820   0.01015648
9488.00   0.69123721   0.00980722
9490.00   0.69936472   0.01040961
9492.00   0.69880334   0.01119445
9494.00   0.68738696   0.01262484
9496.00   0.70662507   0.01341380
9498.00   0.77006134   0.01414558
9500.00   0.81241813   0.01442262
9502.00   0.81038612   0.01401516
9504.00   0.78872770   0.01317785
9506.00   0.77208668   0.01236146
9508.00   0.73196775   0.01098373
9510.00   0.71936867   0.01090829
9512.00   0.72988528   0.01214021
9514.00   0.74248818   0.01297553
9516.00   0.74283847   0.01369585
9518.00   0.73595107   0.01420016
9520.00   0.73340088   0.01404084
9522.00   0.73328578   0.01332013
9524.00   0.73769662   0.01317387
9526.00   0.74466342   0.01361893
9528.00   0.75660181   0.01339806
9530.00   0.78125587   0.01233233
9532.00   0.80146137   0.01148671
9534.00   0.80141026   0.01158369
9536.00   0.79687607   0.01225461
9538.00   0.80979228   0.01312861
9540.00   0.85036713   0.01491588
9542.00   0.85171428   0.01534843
9544.00   0.83127153   0.01475680
9546.00   0.80793613   0.01441162
9548.00   0.78110448   0.01458888
9550.00   0.74692777   0.01497059
9552.00   0.71925616   0.01466376
9554.00   0.69195035   0.01350074
9556.00   0.67533734   0.01292954
9558.00   0.65926462   0.01271157
9560.00   0.66044274   0.01284578
9562.00   0.68970922   0.01356283
9564.00   0.73138610   0.01450126
9566.00   0.75578603   0.01451640
9568.00   0.78252041   0.01374821
9570.00   0.77503139   0.01339031
9572.00   0.72532216   0.01294524
9574.00   0.68728966   0.01291298
9576.00   0.66289592   0.01365528
9578.00   0.65234327   0.01423049
9580.00   0.65837622   0.01373993
9582.00   0.67792252   0.01237004
9584.00   0.69560778   0.01192762
9586.00   0.72765604   0.01201317
9588.00   0.74325040   0.01222152
9590.00   0.73793051   0.01283420
9592.00   0.71936461   0.01310930
9594.00   0.69347125   0.01255681
9596.00   0.65561062   0.01137191
9598.00   0.64570874   0.01109928
9600.00   0.65863496   0.01161604
9602.00   0.66921091   0.01177357
9604.00   0.69073623   0.01157773
9606.00   0.69453055   0.01151921
9608.00   0.66538173   0.01203778
9610.00   0.61809182   0.01269834
9612.00   0.59633088   0.01268198
9614.00   0.58359426   0.01207894
9616.00   0.58375350   0.01183681
9618.00   0.60215428   0.01170606
9620.00   0.61994821   0.01159313
9622.00   0.63253769   0.01150216
9624.00   0.63870141   0.01135845
9626.00   0.64544892   0.01109623
9628.00   0.65458453   0.01056064
9630.00   0.66735891   0.01061965
9632.00   0.69227383   0.01136234
9634.00   0.69787881   0.01175820
9636.00   0.67467934   0.01167338
9638.00   0.64478338   0.01140992
9640.00   0.64377907   0.01127731
9642.00   0.66602367   0.01114087
9644.00   0.66388950   0.01100833
9646.00   0.63826659   0.01081260
9648.00   0.63177910   0.01075164
9650.00   0.65056983   0.01080515
9652.00   0.67256355   0.01099291
9654.00   0.67915013   0.01139031
9656.00   0.67914632   0.01201922
9658.00   0.66908470   0.01214337
9660.00   0.63179109   0.01174285
9662.00   0.62525618   0.01170767
9664.00   0.65515336   0.01199144
9666.00   0.68216652   0.01221229
9668.00   0.68085229   0.01228173
9670.00   0.66462371   0.01218275
9672.00   0.66612995   0.01220581
9674.00   0.68265364   0.01239247
9676.00   0.68431053   0.01244971
9678.00   0.67837575   0.01232777
9680.00   0.66372374   0.01208653
9682.00   0.63305718   0.01171827
9684.00   0.59812152   0.01120175
9686.00   0.58689779   0.01088516
9688.00   0.58884412   0.01064171
9690.00   0.59475321   0.01063766
9692.00   0.61123544   0.01080307
9694.00   0.62902266   0.01115490
9696.00   0.65417337   0.01192884
9698.00   0.68079937   0.01272263
9700.00   0.68130174   0.01280026
9702.00   0.66274607   0.01231961
9704.00   0.65356207   0.01204290
9706.00   0.64638671   0.01144160
9708.00   0.63176596   0.01138874
9710.00   0.61793014   0.01206971
9712.00   0.60599056   0.01282226
9714.00   0.59026560   0.01327856
9716.00   0.57633761   0.01363508
9718.00   0.58803746   0.01366478
9720.00   0.63528258   0.01324808
9722.00   0.65600502   0.01306951
9724.00   0.66539308   0.01296519
9726.00   0.66629249   0.01284359
9728.00   0.65292284   0.01264955
9730.00   0.62758845   0.01241455
9732.00   0.63153017   0.01245598
9734.00   0.66377038   0.01275988
9736.00   0.68232095   0.01294808
9738.00   0.70020202   0.01328609
9740.00   0.69934866   0.01339449
9742.00   0.67019692   0.01295588
9744.00   0.62559551   0.01232115
9746.00   0.61546430   0.01225289
9748.00   0.63178954   0.01256409
9750.00   0.64677936   0.01266563
9752.00   0.67971879   0.01290743
9754.00   0.68793118   0.01284176
9756.00   0.66713932   0.01219716
9758.00   0.63672292   0.01151478
9760.00   0.61858565   0.01151014
9762.00   0.60201675   0.01198264
9764.00   0.59796852   0.01205629
9766.00   0.60589385   0.01202434
9768.00   0.61795190   0.01186977
9770.00   0.63466629   0.01141989
9772.00   0.64970785   0.01112478
9774.00   0.65910003   0.01133077
9776.00   0.66036719   0.01182355
9778.00   0.67290798   0.01231058
9780.00   0.70553929   0.01294264
9782.00   0.71312264   0.01351661
9784.00   0.69198021   0.01409981
9786.00   0.66296989   0.01466391
9788.00   0.63800567   0.01513403
9790.00   0.61079985   0.01552951
9792.00   0.59736377   0.01585167
9794.00   0.59837312   0.01620904
9796.00   0.59553939   0.01627174
9798.00   0.58114481   0.01616688
9800.00   0.57982451   0.01572413
9802.00   0.60828817   0.01469910
9804.00   0.64763951   0.01339273
9806.00   0.66688865   0.01295085
9808.00   0.68606529   0.01324282
9810.00   0.68255109   0.01326646
9812.00   0.64305857   0.01328203
9814.00   0.61522225   0.01337787
9816.00   0.61338913   0.01368873
9818.00   0.62384769   0.01390196
9820.00   0.63173729   0.01367708
9822.00   0.64744750   0.01302949
9824.00   0.65425223   0.01311725
9826.00   0.65162531   0.01390783
9828.00   0.65463617   0.01433781
9830.00   0.67562160   0.01441548
9832.00   0.69014549   0.01424410
9834.00   0.67417899   0.01402752
9836.00   0.63321656   0.01372780
9838.00   0.61362323   0.01363858
9840.00   0.59947705   0.01375265
9842.00   0.59479490   0.01375453
9844.00   0.59769598   0.01367073
9846.00   0.60522306   0.01362911
9848.00   0.61103377   0.01372611
9850.00   0.61403015   0.01389989
9852.00   0.62810305   0.01390031
9854.00   0.65627211   0.01374183
9856.00   0.67640540   0.01368731
9858.00   0.68823910   0.01353709
9860.00   0.69656721   0.01358812
9862.00   0.71856844   0.01395622
9864.00   0.74520418   0.01454319
9866.00   0.72611603   0.01545368
9868.00   0.65328830   0.01695215
9870.00   0.62263280   0.01765948
9872.00   0.61007488   0.01807791
9874.00   0.61711651   0.01798157
9876.00   0.65042675   0.01715844
9878.00   0.68916056   0.01594587
9880.00   0.69166073   0.01511990
9882.00   0.66597801   0.01426987
9884.00   0.66534805   0.01403677
9886.00   0.67830476   0.01446931
9888.00   0.68822795   0.01490472
9890.00   0.70429567   0.01554844
9892.00   0.71282122   0.01620517
9894.00   0.69456890   0.01633350
9896.00   0.65070939   0.01609494
9898.00   0.64608592   0.01583661
9900.00   0.67178744   0.01509103
9902.00   0.69121075   0.01489946
9904.00   0.70725116   0.01528978
9906.00   0.71826196   0.01601422
9908.00   0.72476187   0.01712710
9910.00   0.71906736   0.01877901
9912.00   0.70064250   0.01933284
9914.00   0.66518393   0.01935463
9916.00   0.63264859   0.01889540
9918.00   0.58012065   0.01777156
9920.00   0.55152363   0.01667866
9922.00   0.56380427   0.01591588
9924.00   0.59841260   0.01533634
9926.00   0.61611766   0.01497805
9928.00   0.63159621   0.01476712
9930.00   0.63690835   0.01496010
9932.00   0.63481161   0.01536727
9934.00   0.63392466   0.01631837
9936.00   0.62426922   0.01812281
9938.00   0.61141604   0.02011821
9940.00   0.60433051   0.02091683
9942.00   0.59330827   0.02085785
9944.00   0.59599215   0.02107751
9946.00   0.62418756   0.02138629
9948.00   0.62943646   0.02145865
9950.00   0.59934855   0.02102462
9952.00   0.57133338   0.02049176
9954.00   0.56975839   0.02057990
9956.00   0.57409999   0.02120940
9958.00   0.57418203   0.02124187
9960.00   0.57766140   0.02105182
9962.00   0.57775038   0.02057770
9964.00   0.56716022   0.01958096
9966.00   0.55893818   0.01862687
9968.00   0.55715519   0.01830566
9970.00   0.55876535   0.01828175
9972.00   0.54134607   0.01807094
9974.00   0.48831877   0.01793137
9976.00   0.47546315   0.01770502
9978.00   0.51090670   0.01708731
9980.00   0.54841629   0.01642085
9982.00   0.55522552   0.01609952
9984.00   0.54976267   0.01597748
9986.00   0.56258380   0.01591697
9988.00   0.59140521   0.01596727
9990.00   0.60389978   0.01611686
9992.00   0.60767809   0.01642310
9994.00   0.60645890   0.01675259
9996.00   0.59286812   0.01695619
9998.00   0.56833386   0.01717318
10000.00   0.56923658   0.01771954
10002.00   0.59898672   0.01830900
10004.00   0.60625288   0.01943696
10006.00   0.59264529   0.02105573
10008.00   0.59040427   0.02266671
10010.00   0.61953700   0.02459086
10012.00   0.64732808   0.02604416
10014.00   0.61571562   0.02589139
10016.00   0.52860056   0.02436362
10018.00   0.47428884   0.02364273
10020.00   0.39736226   0.02304810
10022.00   0.38549200   0.02247125
10024.00   0.45671311   0.02218962
10026.00   0.53763175   0.02203810
10028.00   0.57788536   0.02164433
10030.00   0.60624477   0.02102850
10032.00   0.61070850   0.02044777
10034.00   0.57820368   0.01970516
10036.00   0.56069243   0.01922062
10038.00   0.54722023   0.01880931
10040.00   0.54991850   0.01862565
10042.00   0.56845391   0.01882029
10044.00   0.58146688   0.01920779
10046.00   0.57623555   0.01917018
10048.00   0.54674375   0.01849434
10050.00   0.54756281   0.01871156
10052.00   0.57186961   0.01989980
10054.00   0.59538154   0.02087609
10056.00   0.59711748   0.02113470
10058.00   0.58783363   0.02102754
10060.00   0.58152851   0.02100104
10062.00   0.55949324   0.02076584
10064.00   0.56408072   0.02069523
10066.00   0.60039565   0.02075102
10068.00   0.62353653   0.02083659
10070.00   0.63491759   0.02071132
10072.00   0.64787859   0.02070698
10074.00   0.63300610   0.02133854
10076.00   0.57393399   0.02264618
10078.00   0.55641121   0.02376822
10080.00   0.57137775   0.02552802
10082.00   0.56996259   0.02597931
10084.00   0.54654625   0.02539419
10086.00   0.52512142   0.02458685
10088.00   0.50931786   0.02354641
10090.00   0.49539551   0.02215309
10092.00   0.50104564   0.02169037
10094.00   0.54445779   0.02222196
10096.00   0.54748756   0.02211749
10098.00   0.51207152   0.02203725
10100.00   0.46807458   0.02204006
10102.00   0.44771099   0.02175320
10104.00   0.45761332   0.02135643
10106.00   0.47363424   0.02107317
10108.00   0.50515361   0.02069346
10110.00   0.52781193   0.02052367
10112.00   0.56917080   0.02043726
10114.00   0.59200135   0.02086591
10116.00   0.57087865   0.02196252
10118.00   0.53036410   0.02345987
10120.00   0.51741734   0.02456970
10122.00   0.50142698   0.02560772
10124.00   0.50932251   0.02618036
10126.00   0.56382850   0.02668346
10128.00   0.59724382   0.02665772
10130.00   0.56849346   0.02545798
10132.00   0.52558787   0.02368688
10134.00   0.52748001   0.02269305
10136.00   0.55317184   0.02184320
10138.00   0.54352131   0.02143950
10140.00   0.50273478   0.02154079
10142.00   0.47979279   0.02186941
10144.00   0.46031351   0.02218393
10146.00   0.46331677   0.02295928
10148.00   0.50380373   0.02434051
10150.00   0.57437879   0.02620795
10152.00   0.61009771   0.02769642
10154.00   0.64443572   0.02991331
10156.00   0.63769162   0.03016712
10158.00   0.58731084   0.02845300
10160.00   0.54213829   0.02694298
10162.00   0.50430749   0.02643826
10164.00   0.46683250   0.02645619
10166.00   0.50021043   0.02761196
10168.00   0.63990346   0.03074934
10170.00   0.68471965   0.03179294
10172.00   0.64978033   0.03119766
10174.00   0.61619881   0.03060902
10176.00   0.61070037   0.03053537
10178.00   0.60244206   0.03036010
10180.00   0.58532977   0.03057498
10182.00   0.56705120   0.03103008
10184.00   0.55630019   0.03157989
10186.00   0.53935361   0.03273320
10188.00   0.52681220   0.03346187
10190.00   0.54983068   0.03284019
10192.00   0.59053147   0.03143126
10194.00   0.59707180   0.03031916
10196.00   0.57499850   0.02826922
10198.00   0.58194149   0.02858452
10200.00   0.60645252   0.03117211
10202.00   0.63176948   0.03317365
10204.00   0.65697274   0.03476902
10206.00   0.68422887   0.03600345
10208.00   0.70473325   0.03650693
10210.00   0.70473874   0.03656083
10212.00   0.67176786   0.03622502
10214.00   0.57656574   0.03517726
10216.00   0.53950253   0.03423298
10218.00   0.53724980   0.03312544
10220.00   0.54683787   0.03221599
10222.00   0.56394616   0.03218964
10224.00   0.58746746   0.03275095
10226.00   0.60379970   0.03328557
10228.00   0.62632364   0.03466776
10230.00   0.63536996   0.03481670
10232.00   0.62357381   0.03330315
10234.00   0.59716237   0.03189710
10236.00   0.55821040   0.03162454
10238.00   0.50273892   0.03152682
10240.00   0.49125850   0.03118158
10242.00   0.51429890   0.03091920
10244.00   0.53862756   0.03042290
10246.00   0.57840592   0.02921181
10248.00   0.61550146   0.02879743
10250.00   0.63943741   0.02945305
10252.00   0.64715916   0.03043284
10254.00   0.63819659   0.03092829
10256.00   0.59749177   0.03126380
10258.00   0.59902292   0.03127657
10260.00   0.64320406   0.03070814
10262.00   0.66273648   0.03056179
10264.00   0.65550694   0.03053817
10266.00   0.63868913   0.03099801
10268.00   0.60549647   0.03256349
10270.00   0.53998703   0.03493001
10272.00   0.52862321   0.03608432
10274.00   0.55781895   0.03617737
10276.00   0.58398619   0.03711622
10278.00   0.62197804   0.03777480
10280.00   0.67415440   0.04014321
10282.00   0.69821033   0.04576515
10284.00   0.68637913   0.05285966
10286.00   0.64148039   0.05461890
10288.00   0.51942435   0.05311601
10290.00   0.46634154   0.05101859
10292.00   0.47729947   0.04624610
10294.00   0.51205802   0.04201128
10296.00   0.52827978   0.04053992
10298.00   0.54180327   0.04043231
10300.00   0.56058764   0.03903748
10302.00   0.59020281   0.03676213
10304.00   0.61054966   0.03597890
10306.00   0.63763577   0.03676012
10308.00   0.62669498   0.03698273
10310.00   0.56405409   0.03655179
10312.00   0.48435833   0.03575436
10314.00   0.47996973   0.03449232
10316.00   0.55628455   0.03249544
10318.00   0.56973511   0.03165110
10320.00   0.54558656   0.03178264
10322.00   0.52495414   0.03170957
10324.00   0.50754973   0.03154569
10326.00   0.48319966   0.03150801
10328.00   0.49098517   0.03188983
10330.00   0.53425840   0.03283073
10332.00   0.55284467   0.03347989
10334.00   0.57693385   0.03418396
10336.00   0.57570992   0.03458148
10338.00   0.51484585   0.03481309
10340.00   0.44307275   0.03500882
10342.00   0.43581158   0.03523489
10344.00   0.46707450   0.03559935
10346.00   0.49282809   0.03579446
10348.00   0.54864308   0.03590557
10350.00   0.56990826   0.03587886
10352.00   0.53329171   0.03553356
10354.00   0.51698416   0.03564302
10356.00   0.57356474   0.03662167
10358.00   0.65920648   0.03780340
10360.00   0.66019534   0.03872274
10362.00   0.57503154   0.03983997
10364.00   0.53732968   0.04045698
10366.00   0.51038960   0.04013479
10368.00   0.54273072   0.04057570
10370.00   0.64075613   0.04218170
10372.00   0.77408177   0.04355637
10374.00   0.80804628   0.04357016
10376.00   0.77027720   0.04289544
10378.00   0.70055628   0.04161214
10380.00   0.52754638   0.03862155
10382.00   0.44551359   0.03658232
10384.00   0.47408712   0.03589295
10386.00   0.54767704   0.03554013
10388.00   0.61418122   0.03545372
10390.00   0.71473846   0.03630900
10392.00   0.70011559   0.03644248
10394.00   0.54473570   0.03628115
10396.00   0.47455867   0.03593734
10398.00   0.49591912   0.03544323
10400.00   0.53882918   0.03491754
10402.00   0.55341542   0.03468054
10404.00   0.57796177   0.03469340
10406.00   0.57955296   0.03537354
10408.00   0.53231747   0.03647513
10410.00   0.54399775   0.03823864
10412.00   0.64925772   0.04100758
10414.00   0.72234955   0.04299166
10416.00   0.69721976   0.04384384
10418.00   0.61876640   0.04382514
10420.00   0.57410932   0.04284829
10422.00   0.52622360   0.04031399
10424.00   0.50187430   0.03844812
10426.00   0.48443997   0.03584064
10428.00   0.49351963   0.03443681
10430.00   0.54163438   0.03554539
10432.00   0.59702674   0.03761903
10434.00   0.64196327   0.03860224
10436.00   0.72073925   0.03996531
10438.00   0.70307904   0.03934010
10440.00   0.54630899   0.03524066
10442.00   0.47323816   0.03351918
10444.00   0.53705689   0.03573262
10446.00   0.63742739   0.03845156
10448.00   0.65808684   0.03946801
10450.00   0.64554849   0.04008709
10452.00   0.61745018   0.03921958
10454.00   0.51647523   0.03523864
10456.00   0.49693550   0.03390564
10458.00   0.60051760   0.03542491
10460.00   0.71110201   0.03749585
10462.00   0.71190915   0.03899827
10464.00   0.64349586   0.04047700
10466.00   0.63325053   0.04081546
10468.00   0.64283037   0.03994091
10470.00   0.65890718   0.03949769
10472.00   0.71618190   0.03908104
10474.00   0.74497095   0.03863923
10476.00   0.67730621   0.03837464
10478.00   0.54993543   0.03827989
10480.00   0.50141014   0.03762726
10482.00   0.48131686   0.03598892
10484.00   0.49374756   0.03562478
10486.00   0.56521648   0.03653524
10488.00   0.62888271   0.03727296
10490.00   0.65422761   0.03757718
10492.00   0.66964859   0.03787086
10494.00   0.70786282   0.03764554
10496.00   0.76810241   0.03639692
10498.00   0.79256925   0.03616962
10500.00   0.79961041   0.03698720
10502.00   0.78623009   0.03752237
10504.00   0.74405015   0.03742251
10506.00   0.69002753   0.03716634
10508.00   0.64838615   0.03702708
10510.00   0.60364798   0.03694208
10512.00   0.58878800   0.03677560
10514.00   0.60619012   0.03541206
10516.00   0.61974570   0.03608184
10518.00   0.62995905   0.04030298
10520.00   0.62194033   0.04483744
10522.00   0.60717680   0.04622499
10524.00   0.57664308   0.04617402
10526.00   0.56930709   0.04490285
10528.00   0.57221973   0.04038957
10530.00   0.59804454   0.03782518
10532.00   0.62682080   0.03833237
10534.00   0.65004143   0.03947990
10536.00   0.67544770   0.03893296
10538.00   0.69101375   0.03743503
10540.00   0.71612328   0.03725976
10542.00   0.76228791   0.03811266
10544.00   0.78069270   0.03856560
10546.00   0.77098551   0.03900069
10548.00   0.74592054   0.03916771
10550.00   0.70301723   0.03885583
10552.00   0.63962537   0.03822914
10554.00   0.60204539   0.03783043
10556.00   0.58409613   0.03746498
10558.00   0.56186998   0.03727301
10560.00   0.52555364   0.03714966
10562.00   0.51307338   0.03719891
10564.00   0.54764956   0.03766120
10566.00   0.58458370   0.03813204
10568.00   0.57253796   0.03799649
10570.00   0.53890552   0.03745329
10572.00   0.52071440   0.03717298
10574.00   0.48662701   0.03673185
10576.00   0.48363949   0.03667920
10578.00   0.54982933   0.03742014
10580.00   0.62090719   0.03827667
10582.00   0.62383720   0.03840961
10584.00   0.58914286   0.03819436
10586.00   0.56127638   0.03782665
10588.00   0.51539744   0.03647032
10590.00   0.48007807   0.03632020
10592.00   0.44590673   0.03811722
10594.00   0.43148352   0.04023219
10596.00   0.46014324   0.04089358
10598.00   0.52280380   0.04081682
10600.00   0.56269377   0.04002919
10602.00   0.60328451   0.03725504
10604.00   0.63265637   0.03633505
10606.00   0.65237206   0.03747195
10608.00   0.65413943   0.03876223
10610.00   0.64892188   0.03940456
10612.00   0.64667875   0.03989700
10614.00   0.61603832   0.04004833
10616.00   0.53321671   0.03987598
10618.00   0.51312384   0.03929443
10620.00   0.55193540   0.03816951
10622.00   0.58298087   0.03710638
10624.00   0.59989372   0.03594771
10626.00   0.61905301   0.03505445
10628.00   0.62941170   0.03474223
10630.00   0.63147253   0.03496785
10632.00   0.61966574   0.03468944
10634.00   0.58367217   0.03408308
10636.00   0.56388155   0.03364523
10638.00   0.55962676   0.03343492
10640.00   0.55417377   0.03324892
10642.00   0.54811560   0.03291740
10644.00   0.54564089   0.03247086
10646.00   0.53095016   0.03211236
10648.00   0.48932777   0.03171212
10650.00   0.48514390   0.03152116
10652.00   0.51918255   0.03149456
10654.00   0.55146548   0.03144875
10656.00   0.55887240   0.03138129
10658.00   0.55123487   0.03128541
10660.00   0.55859596   0.03111361
10662.00   0.58437285   0.03089088
10664.00   0.58500296   0.03062495
10666.00   0.55969429   0.03018317
10668.00   0.53811914   0.02977504
10670.00   0.52274682   0.02954098
10672.00   0.50834037   0.02935970
10674.00   0.51212516   0.02905423
10676.00   0.53056651   0.02858313
10678.00   0.55209684   0.02839708
10680.00   0.59686950   0.02850590
10682.00   0.62128174   0.02852622
10684.00   0.60514417   0.02825937
10686.00   0.57030457   0.02804491
10688.00   0.56124127   0.02842767
10690.00   0.57720137   0.02929291
10692.00   0.57437411   0.02945770
10694.00   0.56566349   0.02937529
10696.00   0.54101288   0.02899384
10698.00   0.49649230   0.02768445
10700.00   0.45924759   0.02623644
10702.00   0.47054702   0.02584138
10704.00   0.51766445   0.02585257
10706.00   0.55321768   0.02608318
10708.00   0.60752925   0.02714674
10710.00   0.64037678   0.02753747
10712.00   0.64198691   0.02674893
10714.00   0.61538851   0.02578910
10716.00   0.57603255   0.02562994
10718.00   0.52345926   0.02578539
10720.00   0.52021173   0.02589619
10722.00   0.57263699   0.02630834
10724.00   0.59058639   0.02630217
10726.00   0.58034435   0.02586806
10728.00   0.56152955   0.02559803
10730.00   0.55841933   0.02572781
10732.00   0.56108993   0.02627446
10734.00   0.55349183   0.02609620
10736.00   0.53037266   0.02525462
10738.00   0.53656712   0.02470951
10740.00   0.56995368   0.02447631
10742.00   0.59853244   0.02389956
10744.00   0.62612447   0.02298243
10746.00   0.64625394   0.02206466
10748.00   0.61300164   0.02201560
10750.00   0.50868349   0.02335197
10752.00   0.47920990   0.02335014
10754.00   0.49943674   0.02233963
10756.00   0.51972727   0.02121468
10758.00   0.54457313   0.02027631
10760.00   0.58210886   0.01942526
10762.00   0.60314640   0.01916965
10764.00   0.60173792   0.01972117
10766.00   0.59967092   0.01957323
10768.00   0.59184381   0.01903828
10770.00   0.58061293   0.01851635
10772.00   0.55018154   0.01786688
10774.00   0.53089502   0.01736430
10776.00   0.53810710   0.01744055
10778.00   0.55970037   0.01784311
10780.00   0.57112446   0.01789488
10782.00   0.59167929   0.01786624
10784.00   0.58502415   0.01776808
10786.00   0.54453841   0.01720531
10788.00   0.52423234   0.01663967
10790.00   0.54647142   0.01672737
10792.00   0.59254727   0.01723525
10794.00   0.60506743   0.01701242
10796.00   0.60912183   0.01608490
10798.00   0.58388141   0.01566383
10800.00   0.51926148   0.01521005
10802.00   0.46383725   0.01549241
10804.00   0.41959180   0.01725416
10806.00   0.39368893   0.01904324
10808.00   0.39901279   0.01872156
10810.00   0.43154302   0.01662741
10812.00   0.44689438   0.01552931
10814.00   0.45951919   0.01466455
10816.00   0.47811307   0.01379586
10818.00   0.50514163   0.01307481
10820.00   0.52996071   0.01265662
10822.00   0.52946517   0.01248881
10824.00   0.51505709   0.01258136
10826.00   0.49413823   0.01273685
10828.00   0.44639719   0.01326811
10830.00   0.42229299   0.01337794
10832.00   0.44129013   0.01300624
10834.00   0.46204042   0.01268574
10836.00   0.43619686   0.01277200
10838.00   0.36880319   0.01316353
10840.00   0.34117527   0.01327808
10842.00   0.32448757   0.01323535
10844.00   0.33328952   0.01330352
10846.00   0.36439911   0.01354411
10848.00   0.40050201   0.01329793
10850.00   0.43887468   0.01272083
10852.00   0.47312801   0.01223454
10854.00   0.46788664   0.01173149
10856.00   0.41984488   0.01107682
10858.00   0.39585707   0.01043169
10860.00   0.35486677   0.00957717
10862.00   0.34478900   0.00939993
10864.00   0.41191447   0.01049512
10866.00   0.41191447   0.01049512
