# File created by shivutils (I.Shivvers)
# 
# wl(A)   flm    er(optional)
3442.00   4.33172321   0.50489438
3444.00   3.08349538   0.51906770
3446.00   3.68184853   0.54448730
3448.00   2.73219705   0.56126404
3450.00   3.87944603   0.58842725
3452.00   3.26859140   0.57532352
3454.00   3.64768004   0.58067226
3456.00   3.83598113   0.62189001
3458.00   4.33242941   0.58035731
3460.00   4.03005600   0.55990899
3462.00   4.01419640   0.57691854
3464.00   4.50965691   0.60372621
3466.00   4.23243809   0.59680021
3468.00   4.33626175   0.60252690
3470.00   4.09326267   0.59596872
3472.00   4.65793371   0.58758205
3474.00   3.16264677   0.55095071
3476.00   4.81936741   0.56060374
3478.00   3.01124549   0.56910318
3480.00   4.11087704   0.60378623
3482.00   4.50959635   0.60710829
3484.00   4.30785322   0.58750153
3486.00   4.62944078   0.60411727
3488.00   4.65054560   0.60540545
3490.00   3.48469424   0.56935853
3492.00   4.14692688   0.57941115
3494.00   4.63620949   0.58835965
3496.00   4.66340971   0.57613462
3498.00   4.99276972   0.59037954
3500.00   4.72041082   0.61888975
3502.00   5.12617350   0.62425053
3504.00   3.95752954   0.62454009
3506.00   6.40150118   0.62740731
3508.00   5.84278297   0.61637688
3510.00   5.25182247   0.60641849
3512.00   5.69422293   0.58740222
3514.00   5.05409527   0.56526083
3516.00   4.02586699   0.57852662
3518.00   4.71642065   0.60524398
3520.00   4.72385883   0.59320778
3522.00   5.76027298   0.59118831
3524.00   5.84066105   0.56267220
3526.00   5.37813759   0.55953807
3528.00   4.70435810   0.57624900
3530.00   4.03598738   0.59316117
3532.00   4.84150410   0.58784628
3534.00   6.05063152   0.60211098
3536.00   6.19434929   0.61586326
3538.00   5.16279125   0.60242665
3540.00   5.65261173   0.60450119
3542.00   4.93625212   0.60227168
3544.00   3.80420065   0.58813155
3546.00   4.80132103   0.60200500
3548.00   5.00703669   0.60979331
3550.00   6.77583456   0.61222464
3552.00   5.10559654   0.58124292
3554.00   5.81977510   0.57204098
3556.00   4.18875408   0.55547875
3558.00   5.42723083   0.56589293
3560.00   4.64528894   0.55899197
3562.00   4.05996990   0.58164370
3564.00   6.09252787   0.58175260
3566.00   4.47642851   0.51130354
3568.00   4.15910530   0.49632290
3570.00   5.15639830   0.48761678
3572.00   4.46845818   0.49426946
3574.00   4.61274624   0.50577992
3576.00   6.01509428   0.51883554
3578.00   6.51018906   0.51993352
3580.00   5.82258987   0.50336152
3582.00   5.63255882   0.49240139
3584.00   6.49704885   0.47231072
3586.00   5.75761461   0.44277570
3588.00   4.93110991   0.44645685
3590.00   4.91135120   0.47153428
3592.00   5.39663458   0.48911217
3594.00   5.94145584   0.48557296
3596.00   5.59901094   0.49245656
3598.00   5.13008881   0.48590451
3600.00   5.66888571   0.48892668
3602.00   5.14977598   0.47210309
3604.00   5.36922216   0.45279017
3606.00   6.65833807   0.45930517
3608.00   6.71761513   0.44699836
3610.00   5.02950239   0.43094268
3612.00   5.18277121   0.44069502
3614.00   5.95785904   0.45183548
3616.00   6.37009811   0.45557445
3618.00   5.03208160   0.42249626
3620.00   5.54183149   0.41931930
3622.00   6.07994461   0.44692108
3624.00   6.29784727   0.45108709
3626.00   6.97185469   0.47342616
3628.00   6.84289217   0.46936724
3630.00   5.95667028   0.43946368
3632.00   6.09661436   0.42121562
3634.00   6.56878281   0.43195641
3636.00   6.64153194   0.43711531
3638.00   6.73520184   0.44509202
3640.00   5.47191715   0.44130221
3642.00   6.58884287   0.44394553
3644.00   6.65653372   0.43129945
3646.00   6.37615967   0.41886789
3648.00   6.39727926   0.42347658
3650.00   6.68070984   0.44916865
3652.00   6.52273273   0.45370322
3654.00   6.27646637   0.45268357
3656.00   6.77051926   0.44778728
3658.00   7.09990883   0.44628400
3660.00   7.06215382   0.44587210
3662.00   5.92562246   0.43685356
3664.00   6.69346762   0.43200722
3666.00   5.93454647   0.41848224
3668.00   7.11237288   0.41613466
3670.00   7.32597685   0.41751400
3672.00   7.13681126   0.41843209
3674.00   6.99988365   0.41553581
3676.00   7.52470732   0.40995541
3678.00   6.69953966   0.40015098
3680.00   6.01998568   0.38603523
3682.00   6.38660383   0.38859722
3684.00   7.16109133   0.39363831
3686.00   6.42537689   0.37864223
3688.00   6.51241732   0.37684038
3690.00   6.66997194   0.39293835
3692.00   5.61802816   0.39138716
3694.00   5.55900860   0.38327333
3696.00   5.54853106   0.38168123
3698.00   6.03323936   0.39038965
3700.00   5.94662619   0.39516944
3702.00   6.35173416   0.38620010
3704.00   5.91273212   0.35680854
3706.00   5.64211655   0.34648401
3708.00   5.42003918   0.34851980
3710.00   6.04235554   0.36017656
3712.00   5.90576982   0.37407050
3714.00   6.51018238   0.38484779
3716.00   5.31094837   0.36756232
3718.00   5.19780874   0.34689167
3720.00   6.19395924   0.32837829
3722.00   5.80431604   0.32434523
3724.00   5.76252651   0.35004300
3726.00   5.30157757   0.35287881
3728.00   6.41020536   0.35383573
3730.00   6.21333838   0.35193005
3732.00   6.27359104   0.33551285
3734.00   6.29432869   0.31354216
3736.00   7.29542732   0.31577694
3738.00   6.92584085   0.33311450
3740.00   6.28988457   0.34838504
3742.00   7.06554174   0.34685677
3744.00   7.53301287   0.33190662
3746.00   7.07378197   0.31661013
3748.00   6.36373901   0.30730742
3750.00   7.13798380   0.31402338
3752.00   6.44973755   0.33224580
3754.00   6.27928734   0.34571716
3756.00   6.00922537   0.33776271
3758.00   6.19313622   0.31518856
3760.00   5.83492184   0.31629720
3762.00   6.43158960   0.32012463
3764.00   5.63179874   0.31776032
3766.00   6.40556669   0.31927475
3768.00   5.37349749   0.31001189
3770.00   6.16758442   0.31627014
3772.00   5.54930496   0.32194531
3774.00   5.87568951   0.33089727
3776.00   5.43059349   0.32694024
3778.00   5.59048414   0.32877350
3780.00   5.82725334   0.33330721
3782.00   5.66576624   0.33254945
3784.00   5.93974018   0.32932618
3786.00   5.57555628   0.31442222
3788.00   6.32269144   0.30584377
3790.00   6.44126320   0.30808491
3792.00   6.26282740   0.30884480
3794.00   5.62961149   0.29555666
3796.00   5.90241718   0.28777054
3798.00   6.10754728   0.28570202
3800.00   5.24105883   0.28736317
3802.00   6.09663868   0.30321649
3804.00   6.22522449   0.31174821
3806.00   6.10077858   0.30249220
3808.00   6.59609556   0.30763116
3810.00   6.09695148   0.30919433
3812.00   6.35014391   0.30094233
3814.00   6.32464981   0.28470045
3816.00   5.72166538   0.27579951
3818.00   5.54143381   0.27697444
3820.00   5.58383322   0.26598573
3822.00   5.32751513   0.26763210
3824.00   5.43042278   0.26206017
3826.00   5.12012577   0.24700502
3828.00   5.21967840   0.25046542
3830.00   5.09113026   0.25296241
3832.00   4.99325752   0.24645455
3834.00   5.02132559   0.24360423
3836.00   5.00781584   0.24650660
3838.00   4.89667797   0.24056323
3840.00   4.13067675   0.24017020
3842.00   4.68327856   0.25798568
3844.00   4.92318964   0.26637140
3846.00   4.70042896   0.26579952
3848.00   4.37013578   0.26282603
3850.00   4.70974350   0.26172861
3852.00   4.68579245   0.25972989
3854.00   4.09533691   0.25479540
3856.00   4.44759035   0.25223473
3858.00   4.63281918   0.24392937
3860.00   4.25766325   0.23953542
3862.00   4.05909967   0.25399044
3864.00   4.38021135   0.26175222
3866.00   4.62018251   0.26072004
3868.00   4.18933535   0.25078112
3870.00   4.32590628   0.24160454
3872.00   4.24339104   0.24122235
3874.00   3.90087485   0.25208744
3876.00   4.29778147   0.25742787
3878.00   3.94013929   0.24580202
3880.00   4.04095602   0.24389732
3882.00   4.32398796   0.25278923
3884.00   4.30099583   0.25593477
3886.00   4.03904295   0.24452695
3888.00   4.76884794   0.24465629
3890.00   4.22057867   0.24936216
3892.00   4.69872665   0.26331636
3894.00   4.66745853   0.26598600
3896.00   4.45628691   0.26763999
3898.00   4.99301529   0.26711115
3900.00   5.48064613   0.26914120
3902.00   5.25319338   0.27049112
3904.00   5.11224413   0.26829752
3906.00   5.23976135   0.27516049
3908.00   5.58516026   0.28725785
3910.00   5.74939537   0.29804471
3912.00   5.37154865   0.32743707
3914.00   5.42642593   0.32762712
3916.00   5.58977795   0.27752146
3918.00   5.80588198   0.25459480
3920.00   6.13363028   0.24822289
3922.00   5.79322195   0.24225721
3924.00   6.47056866   0.24743125
3926.00   6.10298872   0.23546320
3928.00   5.95965338   0.22056425
3930.00   5.92528105   0.20952559
3932.00   5.77061272   0.20498466
3934.00   5.58151484   0.20043336
3936.00   5.84889603   0.20748673
3938.00   6.38818598   0.22105840
3940.00   6.63509989   0.23260777
3942.00   6.44758940   0.23561555
3944.00   6.21813297   0.23734315
3946.00   6.12390995   0.24200155
3948.00   6.68741512   0.24685037
3950.00   5.84242249   0.24597847
3952.00   6.14406157   0.24813712
3954.00   6.39760399   0.24716200
3956.00   6.07044363   0.24352445
3958.00   6.26571703   0.24446966
3960.00   6.16751242   0.23855677
3962.00   6.43791389   0.22741540
3964.00   6.55557871   0.21785542
3966.00   6.74084854   0.20863195
3968.00   5.98268890   0.19776727
3970.00   6.17188787   0.20310150
3972.00   6.55583191   0.21716930
3974.00   6.55463076   0.22812951
3976.00   6.67088795   0.23866503
3978.00   7.47134924   0.25132969
3980.00   7.18194008   0.25264123
3982.00   6.79433250   0.24966985
3984.00   6.89527464   0.25061312
3986.00   7.33685493   0.25325045
3988.00   6.54356337   0.25196835
3990.00   5.21285009   0.24419151
3992.00   6.13401413   0.25256184
3994.00   7.49683905   0.25873393
3996.00   7.30287266   0.25690928
3998.00   7.13284826   0.25473964
4000.00   7.48057938   0.26036459
4002.00   7.64299870   0.26100257
4004.00   7.17943907   0.25223827
4006.00   7.62226486   0.25188008
4008.00   7.52740812   0.25650552
4010.00   7.67657995   0.26106194
4012.00   7.39673758   0.25832397
4014.00   6.94265556   0.25591832
4016.00   6.91174698   0.25394380
4018.00   6.83408928   0.25371853
4020.00   7.04608059   0.26007298
4022.00   7.11884117   0.26014817
4024.00   6.90813112   0.25657716
4026.00   5.27731419   0.24678895
4028.00   6.93812752   0.25263271
4030.00   7.31227160   0.24885730
4032.00   7.04979753   0.24308406
4034.00   6.90037489   0.24359423
4036.00   7.45750380   0.25318006
4038.00   7.51169205   0.25365108
4040.00   7.16842031   0.25047943
4042.00   7.19594479   0.24803722
4044.00   7.31723499   0.25196934
4046.00   6.88406610   0.26263824
4048.00   7.18419123   0.26442042
4050.00   6.89631033   0.24973562
4052.00   6.89839506   0.24513705
4054.00   6.78068161   0.24088404
4056.00   6.95302343   0.23873229
4058.00   7.38193226   0.24064493
4060.00   7.70769787   0.24067943
4062.00   7.27786732   0.23212290
4064.00   8.20747662   0.23467681
4066.00   7.51359177   0.23681387
4068.00   7.61945581   0.24110031
4070.00   7.40849257   0.23599258
4072.00   7.57512999   0.23514320
4074.00   7.40215921   0.23641282
4076.00   7.60648680   0.23459868
4078.00   7.89930820   0.23691875
4080.00   7.04634809   0.23724969
4082.00   7.31090593   0.23650815
4084.00   7.39900875   0.23316409
4086.00   7.72354078   0.23804513
4088.00   8.05784416   0.24356844
4090.00   7.07060480   0.23590870
4092.00   7.20468950   0.23228772
4094.00   7.85820436   0.23380329
4096.00   7.91426420   0.23048306
4098.00   7.07842207   0.22309726
4100.00   7.50692320   0.21690179
4102.00   7.65563107   0.21700221
4104.00   7.40176725   0.22061534
4106.00   7.86342239   0.22914115
4108.00   7.78049088   0.22719105
4110.00   8.23438454   0.23087274
4112.00   8.04232597   0.23053260
4114.00   7.61534548   0.23297098
4116.00   7.50021458   0.23186275
4118.00   7.71388769   0.23053131
4120.00   7.68995667   0.23006472
4122.00   7.77566290   0.22925045
4124.00   7.81542349   0.22899276
4126.00   7.53967524   0.22524258
4128.00   7.73680115   0.22517726
4130.00   8.04988766   0.22468852
4132.00   7.70317841   0.21829607
4134.00   7.38436556   0.21946545
4136.00   7.87306881   0.22435382
4138.00   7.46179152   0.22724749
4140.00   7.50477648   0.22629766
4142.00   7.53475189   0.21857704
4144.00   7.86547041   0.21898951
4146.00   7.25265646   0.22024614
4148.00   7.58987284   0.22103317
4150.00   7.71929884   0.22130835
4152.00   7.48722172   0.21997681
4154.00   7.99656534   0.21934544
4156.00   7.66526842   0.21757002
4158.00   7.62178373   0.22087675
4160.00   7.15465403   0.22103709
4162.00   7.48447943   0.22365041
4164.00   6.95206356   0.22236581
4166.00   7.21838856   0.22154991
4168.00   7.09248781   0.21782331
4170.00   7.12783098   0.21568877
4172.00   6.92513895   0.20882271
4174.00   6.83895063   0.20863470
4176.00   7.01194906   0.21206468
4178.00   6.09458590   0.20981018
4180.00   6.70489597   0.21137789
4182.00   6.90876961   0.21112694
4184.00   6.67869759   0.20853351
4186.00   6.99548054   0.20772721
4188.00   6.84348869   0.20859842
4190.00   7.14760351   0.21098253
4192.00   6.49578428   0.21158971
4194.00   7.26928473   0.21315750
4196.00   6.91320086   0.20681036
4198.00   7.14619637   0.20733856
4200.00   7.03583622   0.20405346
4202.00   7.16999531   0.20551299
4204.00   7.21837091   0.20764390
4206.00   7.22630453   0.21174130
4208.00   7.59525347   0.21170640
4210.00   7.61680222   0.21215115
4212.00   7.60273457   0.21041322
4214.00   7.48322725   0.20844428
4216.00   7.51748037   0.20697062
4218.00   7.01919508   0.20693859
4220.00   7.25005007   0.20874713
4222.00   7.65675306   0.20629323
4224.00   7.13653040   0.19673271
4226.00   6.96157980   0.19173507
4228.00   7.43448925   0.20031455
4230.00   7.31997681   0.20587528
4232.00   7.05849981   0.20412605
4234.00   7.03856707   0.20337163
4236.00   6.78281307   0.19937642
4238.00   6.90985060   0.19815831
4240.00   7.15101862   0.19752415
4242.00   7.48055077   0.19970952
4244.00   6.81472731   0.19843136
4246.00   6.97382402   0.19886540
4248.00   6.91719913   0.19326623
4250.00   7.14904070   0.19321072
4252.00   6.43255424   0.19254972
4254.00   6.51737547   0.19182804
4256.00   6.65546227   0.19471522
4258.00   6.33634329   0.18936019
4260.00   6.47508001   0.18688875
4262.00   6.31163836   0.19033921
4264.00   6.29667377   0.19468728
4266.00   6.12650442   0.19382934
4268.00   6.11384726   0.18906732
4270.00   6.04491949   0.18257292
4272.00   5.94064379   0.17943807
4274.00   5.85402632   0.18551719
4276.00   6.01747274   0.19431388
4278.00   5.83203697   0.19118129
4280.00   6.09795475   0.18397257
4282.00   5.88331509   0.18239079
4284.00   5.81043100   0.18017262
4286.00   5.70843124   0.17708740
4288.00   5.66201878   0.17408720
4290.00   5.66977882   0.17400733
4292.00   5.65295649   0.17723271
4294.00   5.90660334   0.17866980
4296.00   5.40223169   0.17219864
4298.00   5.50260210   0.16577667
4300.00   5.56261492   0.16256286
4302.00   5.37462950   0.16187567
4304.00   5.30026913   0.16243564
4306.00   5.53022623   0.15998185
4308.00   5.44612885   0.15626428
4310.00   5.43085051   0.16060574
4312.00   5.23884726   0.16770533
4314.00   5.08411074   0.17504691
4316.00   5.02349234   0.18032035
4318.00   5.32497692   0.18374732
4320.00   5.17293358   0.18081993
4322.00   4.66073275   0.17112096
4324.00   4.99469137   0.16581526
4326.00   5.16599751   0.16959153
4328.00   4.87202549   0.17417352
4330.00   5.01803780   0.17604162
4332.00   4.64879608   0.17504352
4334.00   4.36992979   0.17294888
4336.00   4.70881128   0.16837244
4338.00   4.96691370   0.16123815
4340.00   5.23967266   0.16177338
4342.00   4.82296515   0.16447273
4344.00   4.76891041   0.16951607
4346.00   4.85763836   0.17253162
4348.00   4.76563835   0.17276217
4350.00   4.39637089   0.16738930
4352.00   4.98462725   0.16700783
4354.00   4.76522970   0.17270753
4356.00   4.89305305   0.19938686
4358.00   4.96828127   0.21193236
4360.00   5.04563379   0.19499835
4362.00   5.12236691   0.18216984
4364.00   5.37585974   0.17894089
4366.00   5.01096296   0.17454499
4368.00   4.87205362   0.17315885
4370.00   5.10628891   0.17314129
4372.00   5.27337217   0.17244302
4374.00   5.38106394   0.17080732
4376.00   5.31450605   0.17252257
4378.00   5.60723925   0.17488244
4380.00   5.58741426   0.17273644
4382.00   5.61550903   0.16386519
4384.00   5.68297577   0.16140711
4386.00   5.07897854   0.16306995
4388.00   5.28698826   0.16565408
4390.00   5.63725328   0.16717499
4392.00   5.65662289   0.16689919
4394.00   5.62417603   0.16756584
4396.00   6.00126457   0.17068595
4398.00   5.84817648   0.17009522
4400.00   5.71380234   0.16897994
4402.00   6.16237068   0.16857620
4404.00   5.94385767   0.16714652
4406.00   5.73386192   0.16816165
4408.00   6.57535172   0.17336792
4410.00   6.56123257   0.17688774
4412.00   6.31407928   0.17612258
4414.00   5.94107151   0.17175020
4416.00   6.71714354   0.17508169
4418.00   6.54022217   0.17748772
4420.00   6.95713425   0.17848934
4422.00   6.55121279   0.17547111
4424.00   6.28739262   0.17407013
4426.00   6.52257442   0.17584574
4428.00   6.25633001   0.17453009
4430.00   6.21599150   0.17329501
4432.00   6.80676842   0.17443494
4434.00   6.52391195   0.17149292
4436.00   6.74880552   0.17443223
4438.00   6.92055368   0.17700860
4440.00   6.75370979   0.17449649
4442.00   6.54536867   0.17149711
4444.00   6.99636126   0.17374241
4446.00   6.76796341   0.17290801
4448.00   7.24733686   0.17511296
4450.00   6.75327873   0.17185140
4452.00   6.39159727   0.16891904
4454.00   6.62167120   0.16754504
4456.00   6.71176338   0.16704625
4458.00   6.37710810   0.16636436
4460.00   6.44982815   0.16675010
4462.00   6.26315975   0.16808125
4464.00   6.11277342   0.16895753
4466.00   6.51995325   0.16983971
4468.00   6.27644014   0.16811767
4470.00   6.58574152   0.17035100
4472.00   6.43348980   0.17081222
4474.00   6.10945082   0.17020594
4476.00   6.15390682   0.16938359
4478.00   5.92857265   0.16571783
4480.00   6.23226786   0.16372420
4482.00   6.13024092   0.16540608
4484.00   6.28943729   0.16951811
4486.00   5.71870804   0.16553003
4488.00   6.06725168   0.16665116
4490.00   6.29313707   0.16738378
4492.00   6.09815025   0.16744959
4494.00   5.94050837   0.16606231
4496.00   6.45823765   0.16845414
4498.00   6.20123816   0.16920525
4500.00   6.42904472   0.16955885
4502.00   6.44921494   0.17014660
4504.00   6.51841831   0.17207651
4506.00   6.65051889   0.17157665
4508.00   6.33003998   0.17038614
4510.00   6.79233789   0.17185439
4512.00   7.11463833   0.17270267
4514.00   6.79291868   0.16967420
4516.00   6.75090265   0.16952218
4518.00   7.16995144   0.16967174
4520.00   7.13297081   0.17029531
4522.00   7.25270605   0.16972868
4524.00   7.16462612   0.16746429
4526.00   7.40429211   0.16650350
4528.00   6.71427441   0.16362152
4530.00   7.14802980   0.16520481
4532.00   7.23176336   0.16525346
4534.00   7.29765606   0.16621900
4536.00   7.56155157   0.16957973
4538.00   7.63070965   0.17076501
4540.00   7.22447157   0.16966739
4542.00   7.03595209   0.16879283
4544.00   6.87138748   0.16653803
4546.00   6.89873981   0.16624914
4548.00   7.05550051   0.16520636
4550.00   6.75897312   0.16362266
4552.00   6.70089817   0.16384758
4554.00   7.14526176   0.16598140
4556.00   7.11199999   0.16608189
4558.00   7.28058910   0.16758788
4560.00   7.11751413   0.16795726
4562.00   6.88646936   0.16615275
4564.00   6.90897560   0.16407590
4566.00   6.68473005   0.16451553
4568.00   7.37049437   0.16678153
4570.00   7.10443306   0.16534176
4572.00   7.10769510   0.16458650
4574.00   6.71711349   0.16312474
4576.00   7.24051142   0.16464356
4578.00   6.93827581   0.16255641
4580.00   6.71036720   0.16031013
4582.00   6.64108849   0.15886332
4584.00   6.67010927   0.15885147
4586.00   6.51145363   0.15935789
4588.00   6.71562338   0.16195647
4590.00   6.68133879   0.16030274
4592.00   6.62499762   0.15957615
4594.00   6.56768513   0.15870017
4596.00   6.91196918   0.16022745
4598.00   6.91062307   0.16059563
4600.00   7.10350323   0.15992908
4602.00   7.14689684   0.15948993
4604.00   6.85967684   0.15845226
4606.00   6.79906225   0.15934090
4608.00   6.61450768   0.15922895
4610.00   6.77939224   0.15902226
4612.00   7.03043842   0.15974766
4614.00   7.28023195   0.16074298
4616.00   7.11458302   0.16046694
4618.00   7.02892256   0.16105890
4620.00   6.86598158   0.15914163
4622.00   6.82016706   0.15939918
4624.00   6.95319223   0.15952697
4626.00   7.05137157   0.15957262
4628.00   7.09289980   0.15971085
4630.00   7.38602448   0.15939592
4632.00   7.07540655   0.15910272
4634.00   7.05806255   0.15877515
4636.00   6.97976255   0.15755111
4638.00   7.25996256   0.15883237
4640.00   6.88880777   0.15834390
4642.00   7.44075489   0.16025734
4644.00   7.39314461   0.15918441
4646.00   7.35144424   0.15853786
4648.00   7.30525970   0.15950577
4650.00   7.16077185   0.15967625
4652.00   7.34507942   0.16072100
4654.00   7.48524904   0.16048028
4656.00   6.98363972   0.15924184
4658.00   7.47682619   0.16199975
4660.00   7.02187634   0.16056754
4662.00   7.52777863   0.16098531
4664.00   7.21602678   0.15825343
4666.00   7.44740295   0.15601499
4668.00   7.16118145   0.15524733
4670.00   7.34540987   0.15743953
4672.00   7.23078251   0.15747495
4674.00   7.43999147   0.15852842
4676.00   7.46735859   0.15845394
4678.00   7.45926094   0.15709390
4680.00   7.33787012   0.15630883
4682.00   7.29503965   0.15585986
4684.00   7.39997864   0.15606333
4686.00   7.21478081   0.15579604
4688.00   7.36149311   0.15537475
4690.00   7.09174204   0.15537959
4692.00   7.36472559   0.15508501
4694.00   7.43124390   0.15644786
4696.00   7.31271219   0.15458386
4698.00   6.88752365   0.15289474
4700.00   7.25749016   0.15257697
4702.00   7.05682707   0.15145595
4704.00   6.80294895   0.15072174
4706.00   7.12637377   0.15365028
4708.00   6.65726805   0.15079507
4710.00   6.96633577   0.15188378
4712.00   7.14967012   0.15679082
4714.00   6.57404661   0.16392711
4716.00   6.49924326   0.14919670
4718.00   6.15130997   0.14932366
4720.00   6.45532560   0.14971028
4722.00   6.47271633   0.15036704
4724.00   6.33443499   0.14953925
4726.00   6.21479797   0.14823070
4728.00   5.97203112   0.14639674
4730.00   6.37458992   0.14816105
4732.00   5.98902845   0.14680400
4734.00   6.06854153   0.14682856
4736.00   6.32514668   0.14788637
4738.00   6.50572014   0.14847952
4740.00   6.59096956   0.14942211
4742.00   6.42735863   0.14949806
4744.00   6.39975500   0.14855525
4746.00   6.53782320   0.14698604
4748.00   6.38366985   0.14631374
4750.00   6.80124521   0.14840686
4752.00   6.67200613   0.14681867
4754.00   6.44814968   0.14484511
4756.00   6.16584969   0.14404607
4758.00   6.09171772   0.14416397
4760.00   6.18604755   0.14311275
4762.00   6.59386587   0.14415701
4764.00   6.61474848   0.14335822
4766.00   6.20741844   0.14160833
4768.00   6.29672480   0.14197893
4770.00   5.99716282   0.14161602
4772.00   6.41749811   0.14340559
4774.00   6.17749453   0.14259388
4776.00   6.44651556   0.14411071
4778.00   6.52301121   0.14440610
4780.00   6.60262346   0.14377244
4782.00   6.04570198   0.14146519
4784.00   6.14622974   0.14032802
4786.00   6.45381403   0.13976032
4788.00   6.29950142   0.13982967
4790.00   6.21872663   0.13912798
4792.00   6.05301428   0.13863498
4794.00   6.48552227   0.13979797
4796.00   6.34500647   0.13953705
4798.00   6.21848583   0.13789795
4800.00   6.19563675   0.13793014
4802.00   6.30220890   0.13815142
4804.00   6.04540110   0.13673633
4806.00   5.98725033   0.13594919
4808.00   6.11411667   0.13585030
4810.00   6.02483130   0.13601406
4812.00   6.15245104   0.13636275
4814.00   6.00524712   0.13624485
4816.00   5.82714319   0.13504164
4818.00   5.84061861   0.13625656
4820.00   5.95828629   0.13506885
4822.00   6.06348705   0.13496508
4824.00   5.95594025   0.13438936
4826.00   6.01785898   0.13553332
4828.00   5.27236271   0.13249697
4830.00   5.99076176   0.13575941
4832.00   6.03561068   0.13472289
4834.00   5.80182934   0.13438655
4836.00   6.17247820   0.13616212
4838.00   5.55744600   0.13285920
4840.00   6.02849913   0.13472603
4842.00   6.18202591   0.13450685
4844.00   5.77771425   0.13333482
4846.00   5.97092009   0.13409504
4848.00   5.95608044   0.13379493
4850.00   5.83301973   0.13312969
4852.00   5.82637930   0.13252296
4854.00   5.81987429   0.13143866
4856.00   5.96254110   0.13036345
4858.00   6.29197741   0.12851393
4860.00   6.04867983   0.12553479
4862.00   6.33156443   0.12812486
4864.00   5.82113838   0.12785724
4866.00   6.06743956   0.13064873
4868.00   6.11593151   0.13032091
4870.00   6.13048077   0.12996238
4872.00   5.75912333   0.12883054
4874.00   5.96069384   0.13084753
4876.00   6.18259048   0.13244878
4878.00   5.90690613   0.13160335
4880.00   5.76692915   0.13166702
4882.00   5.90660286   0.12975943
4884.00   5.91857004   0.12986889
4886.00   5.87572908   0.12890813
4888.00   6.04844427   0.12761873
4890.00   5.76283360   0.12675904
4892.00   5.73610783   0.12777175
4894.00   5.79138708   0.12910719
4896.00   5.87948275   0.13053100
4898.00   5.62521458   0.12887917
4900.00   5.74269199   0.12942497
4902.00   5.82263327   0.12877984
4904.00   5.51909590   0.12772830
4906.00   5.49490595   0.12806255
4908.00   5.62972403   0.12697917
4910.00   5.53129673   0.12683991
4912.00   5.58153915   0.12730977
4914.00   5.40474701   0.12685232
4916.00   5.36380148   0.12442464
4918.00   5.20530367   0.12249779
4920.00   5.15372086   0.12101619
4922.00   5.68548727   0.12321352
4924.00   5.56419659   0.12369970
4926.00   5.23387718   0.12355787
4928.00   5.57918882   0.12524636
4930.00   5.14234924   0.12430672
4932.00   5.14059544   0.12259460
4934.00   5.50206804   0.12256914
4936.00   5.52599955   0.12177996
4938.00   5.32659054   0.12120371
4940.00   5.16146231   0.12117916
4942.00   5.23036623   0.12183045
4944.00   5.54473686   0.12330117
4946.00   5.20145988   0.12134460
4948.00   5.13153219   0.12204239
4950.00   4.77793646   0.12052595
4952.00   5.18824577   0.12118436
4954.00   5.18385506   0.12013521
4956.00   5.16705179   0.11905501
4958.00   5.00120354   0.11865858
4960.00   4.98518276   0.11998503
4962.00   5.07095242   0.12059079
4964.00   4.86294317   0.11920734
4966.00   5.07898808   0.11990438
4968.00   5.05727625   0.11946467
4970.00   4.93721104   0.11933247
4972.00   5.14301634   0.12097845
4974.00   4.59139824   0.11915424
4976.00   4.81063318   0.12003794
4978.00   4.73820686   0.11983435
4980.00   4.63324976   0.11871045
4982.00   4.70743799   0.11829772
4984.00   4.74493790   0.11801567
4986.00   4.70082664   0.11759633
4988.00   4.80663347   0.11820412
4990.00   4.70335770   0.11648583
4992.00   4.69045115   0.11715154
4994.00   4.72674799   0.11652270
4996.00   4.67080116   0.11572482
4998.00   4.71058464   0.11490104
5000.00   4.73683548   0.11369582
5002.00   4.55356455   0.11197034
5004.00   4.89912415   0.11242484
5006.00   4.74823856   0.11246308
5008.00   4.56334829   0.11188068
5010.00   4.43471813   0.11094262
5012.00   4.45748758   0.11038755
5014.00   4.34263229   0.10948471
5016.00   4.31747675   0.10870083
5018.00   4.40349960   0.10903718
5020.00   4.41517210   0.10875797
5022.00   4.39883566   0.10909616
5024.00   4.43306494   0.10839280
5026.00   4.51502848   0.10866252
5028.00   4.35741854   0.10872112
5030.00   4.41980600   0.10981417
5032.00   4.46066570   0.10957354
5034.00   4.03829336   0.10626235
5036.00   4.38318777   0.10671636
5038.00   4.14353657   0.10491227
5040.00   4.23971176   0.10439000
5042.00   4.33081722   0.10587698
5044.00   4.27528334   0.10661720
5046.00   4.48168755   0.10716961
5048.00   4.30939436   0.10639573
5050.00   4.27950573   0.10595050
5052.00   4.27443504   0.10674868
5054.00   4.14353037   0.10718007
5056.00   4.25843573   0.10702726
5058.00   4.46361399   0.10896796
5060.00   4.40691948   0.10880268
5062.00   4.41865778   0.10914270
5064.00   4.66435003   0.10996760
5066.00   4.33270168   0.10854020
5068.00   4.43495369   0.10973918
5070.00   4.79159498   0.11063942
5072.00   4.57325649   0.10977453
5074.00   4.62112904   0.11038959
5076.00   4.35443068   0.10875115
5078.00   4.62078285   0.11000060
5080.00   4.69608164   0.11156402
5082.00   4.78005600   0.11342857
5084.00   4.67214441   0.11420734
5086.00   5.01970530   0.11615641
5088.00   4.70600462   0.11363852
5090.00   4.88695431   0.11367828
5092.00   4.84843636   0.11291350
5094.00   4.92046452   0.11297307
5096.00   4.92955065   0.11228168
5098.00   5.00275564   0.11327203
5100.00   4.81680679   0.11219094
5102.00   5.00854683   0.11357217
5104.00   4.99216509   0.11234275
5106.00   5.28447962   0.11365769
5108.00   5.38092089   0.11397050
5110.00   5.07209921   0.11353456
5112.00   5.20147085   0.11470204
5114.00   5.41698885   0.11567710
5116.00   5.18435621   0.11584769
5118.00   5.59160089   0.11699282
5120.00   5.51354694   0.11550792
5122.00   5.56270123   0.11570811
5124.00   5.35432911   0.11460700
5126.00   5.66793871   0.11562467
5128.00   5.90552664   0.11648050
5130.00   5.70591640   0.11602552
5132.00   5.63546705   0.11594930
5134.00   5.74423504   0.11667909
5136.00   5.88643599   0.11657849
5138.00   6.08052349   0.11806185
5140.00   5.90960121   0.11739929
5142.00   6.00666142   0.11744561
5144.00   6.33830690   0.11916067
5146.00   6.09777784   0.11872795
5148.00   5.88843870   0.11871777
5150.00   5.98694706   0.11906691
5152.00   5.84898853   0.11909865
5154.00   6.16409540   0.12034531
5156.00   6.11454630   0.12061514
5158.00   6.38498831   0.12110461
5160.00   6.34192276   0.12078843
5162.00   6.30709743   0.11945725
5164.00   6.16352272   0.11797749
5166.00   6.38320160   0.11743627
5168.00   6.33420753   0.11726506
5170.00   6.55253124   0.11691887
5172.00   6.47398472   0.11734567
5174.00   6.31153822   0.11837491
5176.00   6.58932018   0.12126316
5178.00   6.59393978   0.12179855
5180.00   6.40598679   0.11975374
5182.00   6.66900873   0.11882133
5184.00   6.62407827   0.11913580
5186.00   6.29310417   0.11915845
5188.00   6.50878096   0.12051649
5190.00   6.33108950   0.11952707
5192.00   6.55887604   0.12054201
5194.00   6.55313635   0.12168285
5196.00   6.09787750   0.12053193
5198.00   6.65362978   0.12330712
5200.00   6.38498878   0.12181513
5202.00   6.29554653   0.12144180
5204.00   6.40587854   0.12108131
5206.00   6.59792328   0.12154868
5208.00   6.38747978   0.12110626
5210.00   6.20659924   0.12177409
5212.00   6.30381870   0.12153668
5214.00   6.13742638   0.12136780
5216.00   6.44328213   0.12235579
5218.00   6.53284836   0.12285478
5220.00   6.17959881   0.12215620
5222.00   6.14433670   0.12208803
5224.00   6.72546434   0.12269826
5226.00   6.16376257   0.12003317
5228.00   6.27557802   0.12168501
5230.00   6.41449499   0.12190145
5232.00   6.31535387   0.12145237
5234.00   6.51116276   0.12217332
5236.00   6.35931635   0.12253354
5238.00   6.54084921   0.12380267
5240.00   6.38485813   0.12296119
5242.00   6.43219137   0.12311969
5244.00   6.19885683   0.12207138
5246.00   6.10634851   0.12201703
5248.00   6.27387428   0.12280124
5250.00   6.55690432   0.12306845
5252.00   6.15820360   0.12094607
5254.00   6.08341837   0.12188255
5256.00   5.98366213   0.12151496
5258.00   6.50572872   0.12400693
5260.00   6.42282391   0.12382146
5262.00   6.48873520   0.12235094
5264.00   6.36835957   0.12160073
5266.00   6.01767683   0.11938583
5268.00   6.17028999   0.12024488
5270.00   6.38612604   0.12258121
5272.00   6.47982645   0.12277681
5274.00   6.39847422   0.12281690
5276.00   6.40136862   0.12395919
5278.00   6.34242487   0.12440033
5280.00   6.23281908   0.12332872
5282.00   6.20170450   0.12345675
5284.00   6.18689060   0.12412205
5286.00   6.42124796   0.12606715
5288.00   6.25762033   0.12545764
5290.00   6.21371222   0.12536499
5292.00   5.66712570   0.12244541
5294.00   5.91709375   0.12326067
5296.00   6.14241457   0.12378135
5298.00   5.94961357   0.12323844
5300.00   6.07096100   0.12326942
5302.00   5.93591785   0.12402067
5304.00   5.73687029   0.12324724
5306.00   5.89513111   0.12430596
5308.00   5.71380901   0.12284044
5310.00   5.52275372   0.12258645
5312.00   5.35356474   0.12203451
5314.00   5.62621450   0.12271682
5316.00   5.38607693   0.12183478
5318.00   5.23851633   0.12093876
5320.00   5.16915607   0.12041465
5322.00   5.05577946   0.11966303
5324.00   5.33616352   0.12092225
5326.00   5.22328806   0.11976412
5328.00   5.14828730   0.12005705
5330.00   4.88481474   0.11961793
5332.00   4.88695002   0.12032232
5334.00   4.81850004   0.12020740
5336.00   4.76824188   0.11961091
5338.00   4.84911394   0.11943582
5340.00   4.77915287   0.11965375
5342.00   5.01643085   0.12245335
5344.00   4.91129875   0.12114197
5346.00   4.59237099   0.12018246
5348.00   4.78551149   0.12244400
5350.00   4.94059467   0.12326814
5352.00   4.58478832   0.12154976
5354.00   4.91637564   0.12413341
5356.00   4.92077684   0.12404147
5358.00   4.66771221   0.12395904
5360.00   4.82350111   0.12560518
5362.00   4.87570524   0.12343357
5364.00   4.72314835   0.12260104
5366.00   4.80621195   0.12362296
5368.00   4.64438200   0.12265850
5370.00   4.56729269   0.12190747
5372.00   4.97196436   0.12524115
5374.00   4.77081585   0.12489913
5376.00   4.89472198   0.12595817
5378.00   4.78999424   0.12551469
5380.00   4.55324554   0.12273456
5382.00   4.65950394   0.12403496
5384.00   4.70499420   0.12478296
5386.00   4.32108974   0.12269054
5388.00   4.55562162   0.12517357
5390.00   4.94982481   0.12746891
5392.00   4.70253992   0.12628347
5394.00   4.66031551   0.12651204
5396.00   4.82496309   0.12631126
5398.00   4.93502998   0.12785061
5400.00   4.81570959   0.12603943
5402.00   4.97574186   0.12743461
5404.00   4.82704926   0.12684877
5406.00   4.86583376   0.12746358
5408.00   5.03895664   0.12909143
5410.00   4.98769379   0.13018303
5412.00   5.16520214   0.13201539
5414.00   5.10049725   0.13090847
5416.00   5.31611824   0.13195576
5418.00   4.92329311   0.13175322
5420.00   4.90792084   0.13152841
5422.00   5.20522928   0.13313061
5424.00   5.14981747   0.13286571
5426.00   5.16403151   0.05360225
5428.00   5.22788286   0.05325231
5430.00   5.34300518   0.05317049
5432.00   5.35709000   0.05309292
5434.00   5.22725439   0.05281915
5436.00   5.09772873   0.05289044
5438.00   5.08723879   0.05371041
5440.00   5.14313507   0.05505255
5442.00   5.14899778   0.05692076
5444.00   5.15771055   0.06058403
5446.00   5.12599754   0.06168000
5448.00   5.01523733   0.06080858
5450.00   4.94927263   0.05919172
5452.00   5.00370646   0.05666263
5454.00   5.11988688   0.05346907
5456.00   5.15607738   0.05325253
5458.00   5.13857746   0.05645156
5460.00   5.15440512   0.05717432
5462.00   5.20127153   0.05682522
5464.00   5.21389818   0.05646236
5466.00   5.15791988   0.05592580
5468.00   5.08443880   0.05560605
5470.00   5.08606672   0.05698419
5472.00   5.15382290   0.06068104
5474.00   5.15642595   0.06051455
5476.00   5.13646269   0.05708206
5478.00   5.08856297   0.05418982
5480.00   4.98160028   0.05159621
5482.00   4.88183975   0.04946746
5484.00   4.87406635   0.04873616
5486.00   4.93388748   0.04931051
5488.00   4.94610405   0.04922263
5490.00   4.94036388   0.04918943
5492.00   4.94207478   0.04898331
5494.00   4.96923208   0.04858010
5496.00   4.96819210   0.04812245
5498.00   4.88241005   0.04767232
5500.00   4.74216747   0.04719687
5502.00   4.72519541   0.04685857
5504.00   4.84765244   0.04633911
5506.00   4.85173035   0.04651333
5508.00   4.76141739   0.04605740
5510.00   4.68705082   0.04787594
5512.00   4.67083788   0.05475874
5514.00   4.67645931   0.06209660
5516.00   4.65705729   0.06074861
5518.00   4.63787174   0.04940950
5520.00   4.58940887   0.04499207
5522.00   4.48694801   0.04460335
5524.00   4.42652035   0.04441655
5526.00   4.43317556   0.04423667
5528.00   4.46264362   0.04432281
5530.00   4.46063280   0.04413788
5532.00   4.44189835   0.04388490
5534.00   4.44945288   0.04365868
5536.00   4.46547127   0.04296727
5538.00   4.50271082   0.04321389
5540.00   4.57698774   0.04435010
5542.00   4.65000343   0.04607311
5544.00   4.68557024   0.04868891
5546.00   4.69907141   0.05222737
5548.00   4.71229553   0.05216763
5550.00   4.72269011   0.04846922
5552.00   4.71504784   0.04611730
5554.00   4.66334724   0.04400820
5556.00   4.64061546   0.04255329
5558.00   4.69455290   0.04238103
5560.00   4.79350710   0.04310868
5562.00   4.85943365   0.04314641
5564.00   4.94305325   0.04254081
5566.00   4.96749926   0.04304821
5568.00   4.91446781   0.04270122
5570.00   4.89359093   0.04543802
5572.00   4.93814182   0.05337650
5574.00   5.01230717   0.06163840
5576.00   5.07940531   0.06404655
5578.00   5.18601370   0.06363631
5580.00   5.19149685   0.06114117
5582.00   5.08455181   0.05325719
5584.00   5.02475214   0.04720907
5586.00   5.02576590   0.04469561
5588.00   5.04898500   0.04377185
5590.00   5.06889391   0.04270531
5592.00   5.09870291   0.04243489
5594.00   5.12217951   0.04203550
5596.00   5.13901186   0.04188553
5598.00   5.16645765   0.04176451
5600.00   5.20605564   0.04173687
5602.00   5.24832535   0.04172853
5604.00   5.29096508   0.04167560
5606.00   5.33593512   0.04161010
5608.00   5.35202408   0.04152727
5610.00   5.33586216   0.04144402
5612.00   5.33341980   0.04130991
5614.00   5.35248232   0.04112096
5616.00   5.34463644   0.04091677
5618.00   5.26907396   0.04068497
5620.00   5.16530895   0.04044801
5622.00   5.15790558   0.04034938
5624.00   5.23239565   0.04038762
5626.00   5.27640867   0.04038272
5628.00   5.32934809   0.04038979
5630.00   5.37458706   0.04040478
5632.00   5.41541576   0.04044972
5634.00   5.44467878   0.04048524
5636.00   5.43902159   0.04042383
5638.00   5.38829803   0.04025821
5640.00   5.39146852   0.04020157
5642.00   5.43143320   0.04019500
5644.00   5.46660042   0.04021586
5646.00   5.49061584   0.04027858
5648.00   5.52429152   0.04035570
5650.00   5.59448385   0.04042557
5652.00   5.69937420   0.04050845
5654.00   5.73352051   0.04049723
5656.00   5.69570875   0.04033179
5658.00   5.70011568   0.04031443
5660.00   5.74500608   0.04026700
5662.00   5.78374815   0.04049149
5664.00   5.78692818   0.04125891
5666.00   5.77147818   0.04237986
5668.00   5.77981997   0.04317838
5670.00   5.80351400   0.04446605
5672.00   5.82101536   0.04435958
5674.00   5.84518433   0.04247868
5676.00   5.85687685   0.04112387
5678.00   5.85568619   0.04125110
5680.00   5.83859444   0.04202923
5682.00   5.78181410   0.04239864
5684.00   5.66636848   0.04279185
5686.00   5.60457659   0.04308779
5688.00   5.56789303   0.04341700
5690.00   5.54030228   0.04351459
5692.00   5.52878618   0.04339164
5694.00   5.51999998   0.04303021
5696.00   5.48507118   0.04227481
5698.00   5.42157793   0.04096747
5700.00   5.41923952   0.04033750
5702.00   5.47661352   0.04015527
5704.00   5.51033640   0.03998816
5706.00   5.52810764   0.03997916
5708.00   5.53537703   0.03992560
5710.00   5.52934694   0.03958704
5712.00   5.51032114   0.03905205
5714.00   5.49748278   0.03871243
5716.00   5.48469353   0.03845419
5718.00   5.47084093   0.03822691
5720.00   5.46174240   0.03806554
5722.00   5.44320345   0.03791201
5724.00   5.40111876   0.03773613
5726.00   5.34738302   0.03755741
5728.00   5.32807255   0.03739684
5730.00   5.33241796   0.03723078
5732.00   5.34052181   0.03711445
5734.00   5.36738014   0.03705661
5736.00   5.38771439   0.03698951
5738.00   5.38838673   0.03658807
5740.00   5.38795805   0.03638068
5742.00   5.42437601   0.03774016
5744.00   5.51586580   0.04108609
5746.00   5.51028824   0.04141885
5748.00   5.42063141   0.03925442
5750.00   5.34762144   0.03779103
5752.00   5.28187466   0.03722515
5754.00   5.23198748   0.03697956
5756.00   5.22584057   0.03675393
5758.00   5.25831556   0.03665588
5760.00   5.27171040   0.03691459
5762.00   5.29718924   0.03761276
5764.00   5.29610538   0.03822884
5766.00   5.24951410   0.03905207
5768.00   5.21739531   0.03958762
5770.00   5.25469828   0.03945040
5772.00   5.33402777   0.03883924
5774.00   5.32446051   0.03820519
5776.00   5.22227287   0.03690121
5778.00   5.18888330   0.03649562
5780.00   5.20363712   0.03661560
5782.00   5.21556330   0.03727615
5784.00   5.20399857   0.03879978
5786.00   5.18623304   0.04066720
5788.00   5.18755341   0.04131635
5790.00   5.20315504   0.04147437
5792.00   5.21583557   0.04080157
5794.00   5.23825788   0.03857809
5796.00   5.24911404   0.03693939
5798.00   5.24281502   0.03639879
5800.00   5.22862864   0.03632994
5802.00   5.21651030   0.03615403
5804.00   5.19845819   0.03614961
5806.00   5.19596529   0.03609819
5808.00   5.20606279   0.03607976
5810.00   5.21722889   0.03606131
5812.00   5.23343658   0.03603326
5814.00   5.24836016   0.03602372
5816.00   5.25636101   0.03607221
5818.00   5.26125765   0.03617336
5820.00   5.24811983   0.03616583
5822.00   5.20920610   0.03603790
5824.00   5.18510914   0.03599848
5826.00   5.16620302   0.03582786
5828.00   5.15668058   0.03597172
5830.00   5.16432428   0.03683480
5832.00   5.18343687   0.03810049
5834.00   5.18334675   0.03864330
5836.00   5.15570116   0.03918875
5838.00   5.16502237   0.03872298
5840.00   5.21766424   0.03607919
5842.00   5.24774027   0.03503161
5844.00   5.22784376   0.03743014
5846.00   5.18919611   0.04096725
5848.00   5.18296528   0.04260653
5850.00   5.18534994   0.04425500
5852.00   5.21386099   0.04341576
5854.00   5.29735947   0.03876512
5856.00   5.33615351   0.03575171
5858.00   5.32058859   0.03570943
5860.00   5.27460623   0.03666591
5862.00   5.20719433   0.03684040
5864.00   5.09730339   0.03702175
5866.00   5.06232929   0.03700355
5868.00   5.06023550   0.03678288
5870.00   5.10414791   0.03657299
5872.00   5.23745537   0.03612157
5874.00   5.35523224   0.03594472
5876.00   5.37256527   0.03644107
5878.00   5.32952166   0.03739266
5880.00   5.27523041   0.03885479
5882.00   5.15145493   0.04159575
5884.00   5.09317684   0.04279550
5886.00   5.11355591   0.04120682
5888.00   5.09891367   0.04198339
5890.00   4.96707106   0.04822929
5892.00   4.79001999   0.05594480
5894.00   4.78299189   0.05868001
5896.00   4.93189478   0.06020920
5898.00   5.01016474   0.05790579
5900.00   5.10221243   0.04884706
5902.00   5.16009378   0.04080969
5904.00   5.15934563   0.03719204
5906.00   5.13762283   0.03604572
5908.00   5.16070890   0.03518333
5910.00   5.22067308   0.03623217
5912.00   5.22833014   0.03618661
5914.00   5.19876719   0.03584598
5916.00   5.16989899   0.03561877
5918.00   5.14022207   0.03546875
5920.00   5.10731268   0.03541696
5922.00   5.06686878   0.03559511
5924.00   5.01330328   0.03602311
5926.00   5.01684141   0.03593912
5928.00   5.07553720   0.03528537
5930.00   5.12270784   0.03502495
5932.00   5.16892529   0.03517821
5934.00   5.21671915   0.03530257
5936.00   5.27559471   0.03514273
5938.00   5.33960199   0.03483478
5940.00   5.33590841   0.03453997
5942.00   5.24096155   0.03407983
5944.00   5.21725941   0.03385341
5946.00   5.23898602   0.03380697
5948.00   5.26246071   0.03381775
5950.00   5.27943373   0.03384759
5952.00   5.29346943   0.03392701
5954.00   5.28610229   0.03408522
5956.00   5.24118805   0.03446050
5958.00   5.24902153   0.03446408
5960.00   5.30836105   0.03415056
5962.00   5.34441710   0.03387339
5964.00   5.35509396   0.03364887
5966.00   5.34355068   0.03345268
5968.00   5.30600786   0.03328688
5970.00   5.26721716   0.03303432
5972.00   5.09035730   0.03338422
5974.00   4.70423126   0.03442883
5976.00   4.45865297   0.03516092
5978.00   4.31157494   0.03601740
5980.00   4.26924562   0.03630315
5982.00   4.38298321   0.03505048
5984.00   4.64178038   0.03238966
5986.00   4.83776331   0.03136121
5988.00   5.09902954   0.03042008
5990.00   5.23836613   0.03156780
5992.00   5.26636648   0.03364671
5994.00   5.25505543   0.03783638
5996.00   5.21325064   0.04642301
5998.00   5.14399242   0.05539839
6000.00   5.17702961   0.05373769
6002.00   5.33269930   0.03699063
6004.00   5.38508272   0.02982239
6006.00   5.37463188   0.03098856
6008.00   5.36920309   0.03231896
6010.00   5.39284992   0.03207680
6012.00   5.41626930   0.03195140
6014.00   5.39479494   0.03244825
6016.00   5.32978392   0.03346425
6018.00   5.29257584   0.03446829
6020.00   5.24203634   0.03653085
6022.00   5.23451090   0.03692277
6024.00   5.29641247   0.03475756
6026.00   5.36879539   0.03196295
6028.00   5.37973976   0.03129715
6030.00   5.35133886   0.03197610
6032.00   5.35255480   0.03197769
6034.00   5.36220980   0.03192821
6036.00   5.37655640   0.03192155
6038.00   5.40112114   0.03197501
6040.00   5.42418051   0.03201399
6042.00   5.43815804   0.03196610
6044.00   5.44699717   0.03186433
6046.00   5.44482327   0.03190953
6048.00   5.41952610   0.03211027
6050.00   5.41743660   0.03221018
6052.00   5.44337845   0.03228763
6054.00   5.45551205   0.03230068
6056.00   5.42066574   0.03217803
6058.00   5.37199736   0.03199828
6060.00   5.40876865   0.03205109
6062.00   5.55509567   0.03244797
6064.00   5.58882713   0.03238787
6066.00   5.55649662   0.03191320
6068.00   5.51428986   0.03157338
6070.00   5.46258354   0.03149515
6072.00   5.40437841   0.03149819
6074.00   5.35904837   0.03138247
6076.00   5.30948973   0.03115906
6078.00   5.30424261   0.03118967
6080.00   5.34329271   0.03149250
6082.00   5.38080168   0.03166867
6084.00   5.43631315   0.03176446
6086.00   5.47590017   0.03175862
6088.00   5.45255613   0.03154716
6090.00   5.37920141   0.03112794
6092.00   5.35023928   0.03100829
6094.00   5.34121418   0.03112452
6096.00   5.33034658   0.03115233
6098.00   5.33297968   0.03047442
6100.00   5.32136869   0.03076607
6102.00   5.26776409   0.03356439
6104.00   5.19006920   0.03744504
6106.00   5.16992760   0.03816963
6108.00   5.20650053   0.03674873
6110.00   5.20631027   0.03545428
6112.00   5.19146109   0.03281097
6114.00   5.17070150   0.03084629
6116.00   5.13654089   0.03066440
6118.00   5.10152674   0.03132815
6120.00   5.10914278   0.03125697
6122.00   5.16654110   0.03091157
6124.00   5.17641258   0.03086960
6126.00   5.16086149   0.03112134
6128.00   5.14171457   0.03118700
6130.00   5.12547064   0.03100137
6132.00   5.09882307   0.03070437
6134.00   5.04106426   0.03032919
6136.00   4.94773817   0.02963112
6138.00   4.90389729   0.03006708
6140.00   4.88081169   0.03202949
6142.00   4.88301659   0.03274174
6144.00   4.93745756   0.03222711
6146.00   4.98087692   0.03138325
6148.00   4.95983601   0.03072732
6150.00   4.89902735   0.02997413
6152.00   4.82562065   0.02978146
6154.00   4.68437099   0.03026376
6156.00   4.62443638   0.03036333
6158.00   4.64682055   0.03028033
6160.00   4.66419458   0.03010746
6162.00   4.64146233   0.02984735
6164.00   4.60041380   0.02950535
6166.00   4.54442978   0.02920266
6168.00   4.43765116   0.02883971
6170.00   4.39919806   0.02860723
6172.00   4.43710089   0.02845891
6174.00   4.43114805   0.02837479
6176.00   4.34184551   0.02812205
6178.00   4.22221565   0.02809321
6180.00   4.14452314   0.02928792
6182.00   4.07834721   0.03205259
6184.00   4.03263807   0.03232848
6186.00   4.02007341   0.03066401
6188.00   3.99477482   0.02930976
6190.00   3.94928908   0.02816811
6192.00   3.90506005   0.02723696
6194.00   3.88551784   0.02689067
6196.00   3.88628650   0.02707920
6198.00   3.85575628   0.02710160
6200.00   3.80647564   0.02733509
6202.00   3.75207543   0.02731481
6204.00   3.68038321   0.02700218
6206.00   3.61523151   0.02667086
6208.00   3.57486534   0.02649755
6210.00   3.54971719   0.02639256
6212.00   3.51952744   0.02625083
6214.00   3.49141717   0.02609730
6216.00   3.46513009   0.02597018
6218.00   3.44248986   0.02578740
6220.00   3.41883755   0.02574170
6222.00   3.38536310   0.02587234
6224.00   3.35303450   0.02616353
6226.00   3.35895705   0.02673821
6228.00   3.41857338   0.02804707
6230.00   3.42008185   0.02811642
6232.00   3.38406992   0.02707709
6234.00   3.34787250   0.02626080
6236.00   3.30523539   0.02584855
6238.00   3.26897526   0.02560644
6240.00   3.27210236   0.02547010
6242.00   3.30875349   0.02551609
6244.00   3.33558965   0.02548294
6246.00   3.37750864   0.02539850
6248.00   3.40057206   0.02542957
6250.00   3.39326620   0.02562670
6252.00   3.38904786   0.02583632
6254.00   3.42284203   0.02592380
6256.00   3.48336101   0.02594637
6258.00   3.50221395   0.02599832
6260.00   3.48323250   0.02598153
6262.00   3.48743248   0.02610929
6264.00   3.50920892   0.02633950
6266.00   3.53178382   0.02666343
6268.00   3.54854488   0.02720765
6270.00   3.56314039   0.02784587
6272.00   3.57292557   0.02779049
6274.00   3.57445312   0.02660542
6276.00   3.58249140   0.02669758
6278.00   3.57956481   0.02811307
6280.00   3.60201883   0.02882317
6282.00   3.67678261   0.02809335
6284.00   3.76719403   0.02681729
6286.00   3.79261374   0.02658359
6288.00   3.76327109   0.02669000
6290.00   3.76950693   0.02761930
6292.00   3.76840711   0.02969778
6294.00   3.80443954   0.03124114
6296.00   3.90731907   0.03232097
6298.00   4.01423502   0.03308467
6300.00   4.03983355   0.03351104
6302.00   4.00377607   0.03371786
6304.00   4.02710152   0.03308506
6306.00   4.10952759   0.03109937
6308.00   4.13066626   0.02976974
6310.00   4.06170321   0.02887263
6312.00   4.01053190   0.02842041
6314.00   4.06877613   0.02879560
6316.00   4.19506598   0.02985527
6318.00   4.23346043   0.02939462
6320.00   4.21850491   0.02704218
6322.00   4.21178436   0.02628462
6324.00   4.18807840   0.02677767
6326.00   4.17539072   0.02750208
6328.00   4.18766975   0.02837217
6330.00   4.21433783   0.02928411
6332.00   4.24023628   0.02893844
6334.00   4.28326416   0.02666852
6336.00   4.29933691   0.02643514
6338.00   4.29668808   0.02764835
6340.00   4.28906822   0.02871750
6342.00   4.27205420   0.02977441
6344.00   4.25459146   0.03050816
6346.00   4.25841856   0.02971412
6348.00   4.27329969   0.02689029
6350.00   4.30692959   0.02649459
6352.00   4.39562559   0.02800819
6354.00   4.42341185   0.02899705
6356.00   4.37788343   0.02976567
6358.00   4.30505133   0.03015714
6360.00   4.23061132   0.02961479
6362.00   4.12980747   0.02815644
6364.00   4.13477135   0.02776420
6366.00   4.27579308   0.02831066
6368.00   4.31898642   0.02821876
6370.00   4.27312088   0.02749663
6372.00   4.21997643   0.02679291
6374.00   4.20371866   0.02649801
6376.00   4.19990540   0.02641230
6378.00   4.18120241   0.02631127
6380.00   4.13420248   0.02629703
6382.00   4.13542557   0.02629616
6384.00   4.18181372   0.02635759
6386.00   4.22721958   0.02640222
6388.00   4.26527262   0.02640817
6390.00   4.29669094   0.02639223
6392.00   4.29420328   0.02635519
6394.00   4.26093006   0.02628936
6396.00   4.22562981   0.02622367
6398.00   4.15462446   0.02611874
6400.00   4.11985350   0.02606244
6402.00   4.14447784   0.02606859
6404.00   4.18347549   0.02611068
6406.00   4.18025684   0.02617198
6408.00   4.15424395   0.02627761
6410.00   4.13113260   0.02631471
6412.00   4.09449148   0.02634759
6414.00   4.06952572   0.02629027
6416.00   4.05404186   0.02607813
6418.00   4.04618454   0.02587851
6420.00   4.04917097   0.02585142
6422.00   4.06312799   0.02593253
6424.00   4.05830145   0.02592451
6426.00   4.03601885   0.02588749
6428.00   4.02441502   0.02584234
6430.00   4.02026606   0.02574669
6432.00   4.01640844   0.02569651
6434.00   4.01312876   0.02575302
6436.00   4.00896549   0.02587175
6438.00   3.98609328   0.02594689
6440.00   3.92277646   0.02601391
6442.00   3.91441154   0.02608224
6444.00   3.95401073   0.02621295
6446.00   3.98362279   0.02622977
6448.00   3.99797297   0.02594156
6450.00   3.99822140   0.02563694
6452.00   3.95997524   0.02599462
6454.00   3.86857772   0.02709824
6456.00   3.83459783   0.02726769
6458.00   3.82025957   0.02619911
6460.00   3.83619499   0.02635758
6462.00   3.91225863   0.02845026
6464.00   3.98549104   0.03052904
6466.00   3.97364187   0.03093768
6468.00   3.90144324   0.03043956
6470.00   3.85895371   0.02957313
6472.00   3.80275583   0.02722321
6474.00   3.77687049   0.02605736
6476.00   3.79186678   0.02640628
6478.00   3.80594730   0.02677213
6480.00   3.78554368   0.02610064
6482.00   3.74737334   0.02487860
6484.00   3.74983072   0.02455733
6486.00   3.79273200   0.02499400
6488.00   3.81026959   0.02509690
6490.00   3.82213068   0.02507260
6492.00   3.81921363   0.02508946
6494.00   3.79097819   0.02522907
6496.00   3.74896002   0.02541391
6498.00   3.72808528   0.02547656
6500.00   3.70651889   0.02545480
6502.00   3.71726322   0.02544255
6504.00   3.77699804   0.02540604
6506.00   3.81028533   0.02536107
6508.00   3.80382562   0.02532213
6510.00   3.77815914   0.02526344
6512.00   3.74820757   0.02512767
6514.00   3.69940495   0.02487902
6516.00   3.67767906   0.02483067
6518.00   3.67219353   0.02493890
6520.00   3.67195439   0.02504029
6522.00   3.68398285   0.02498721
6524.00   3.69510460   0.02513884
6526.00   3.68948913   0.02597815
6528.00   3.67256355   0.02736580
6530.00   3.66691995   0.02766208
6532.00   3.66441298   0.02723095
6534.00   3.66703105   0.02675101
6536.00   3.67479539   0.02580448
6538.00   3.68669343   0.02505461
6540.00   3.70777774   0.02504613
6542.00   3.73373723   0.02545868
6544.00   3.72840548   0.02540983
6546.00   3.69758153   0.02466290
6548.00   3.66482425   0.02505537
6550.00   3.59872842   0.02643209
6552.00   3.56686950   0.02769700
6554.00   3.60196114   0.02893765
6556.00   3.66545558   0.02990089
6558.00   3.68573666   0.02935590
6560.00   3.68551350   0.02698024
6562.00   3.68472767   0.02581749
6564.00   3.67443323   0.02499208
6566.00   3.66293311   0.02452807
6568.00   3.64662910   0.02436796
6570.00   3.63230634   0.02467201
6572.00   3.63177752   0.02581548
6574.00   3.64192820   0.02793572
6576.00   3.64994287   0.02833119
6578.00   3.67198014   0.02752500
6580.00   3.67087984   0.02677281
6582.00   3.63862801   0.02567554
6584.00   3.60542703   0.02471928
6586.00   3.59263921   0.02450410
6588.00   3.58981037   0.02479975
6590.00   3.59582782   0.02483452
6592.00   3.62181783   0.02487846
6594.00   3.63283491   0.02490828
6596.00   3.64223576   0.02495229
6598.00   3.63608837   0.02495131
6600.00   3.60059786   0.02474180
6602.00   3.54841566   0.02449510
6604.00   3.52289248   0.02499759
6606.00   3.50648618   0.02663404
6608.00   3.50524592   0.02692510
6610.00   3.53063250   0.02628946
6612.00   3.54562974   0.02568943
6614.00   3.54129171   0.02524344
6616.00   3.52929640   0.02486342
6618.00   3.52087092   0.02472545
6620.00   3.50781155   0.02485621
6622.00   3.50829315   0.02481388
6624.00   3.53235531   0.02467204
6626.00   3.53320909   0.02462063
6628.00   3.49960971   0.02468793
6630.00   3.46218872   0.02478719
6632.00   3.45032239   0.02484678
6634.00   3.45148230   0.02490293
6636.00   3.46041274   0.02491736
6638.00   3.49195623   0.02486235
6640.00   3.50478196   0.02486514
6642.00   3.50957179   0.02494269
6644.00   3.49773455   0.02500040
6646.00   3.47331476   0.02453713
6648.00   3.43338323   0.02383522
6650.00   3.30101109   0.02616551
6652.00   2.96997714   0.03257729
6654.00   2.88118720   0.03388130
6656.00   2.98468208   0.03170297
6658.00   3.11001039   0.02916086
6660.00   3.22641397   0.02708284
6662.00   3.34474993   0.02502207
6664.00   3.38410830   0.02415036
6666.00   3.35964489   0.02466611
6668.00   3.33074760   0.02464602
6670.00   3.25516343   0.02471300
6672.00   3.20259380   0.02475061
6674.00   3.17486715   0.02472827
6676.00   3.16955304   0.02470243
6678.00   3.20249176   0.02475297
6680.00   3.28075027   0.02488906
6682.00   3.32468390   0.02486221
6684.00   3.36945510   0.02466718
6686.00   3.38500714   0.02455903
6688.00   3.35993791   0.02454671
6690.00   3.32735562   0.02454887
6692.00   3.31560898   0.02450918
6694.00   3.31206703   0.02445254
6696.00   3.30525327   0.02440312
6698.00   3.29406548   0.02432703
6700.00   3.29443598   0.02430707
6702.00   3.31131172   0.02432590
6704.00   3.32387996   0.02438414
6706.00   3.32467341   0.02452982
6708.00   3.31729341   0.02471628
6710.00   3.28941035   0.02466190
6712.00   3.21718121   0.02385207
6714.00   3.19596457   0.02435828
6716.00   3.20424771   0.02645852
6718.00   3.22590351   0.02754776
6720.00   3.26715827   0.02691008
6722.00   3.31570530   0.02550365
6724.00   3.33411551   0.02479820
6726.00   3.33847618   0.02419052
6728.00   3.32197285   0.02392065
6730.00   3.25653982   0.02407990
6732.00   3.23080564   0.02422422
6734.00   3.26702476   0.02440189
6736.00   3.31247330   0.02455058
6738.00   3.30814624   0.02450962
6740.00   3.27178931   0.02431231
6742.00   3.26178193   0.02422972
6744.00   3.26293278   0.02417828
6746.00   3.26360512   0.02414588
6748.00   3.27375579   0.02413308
6750.00   3.27400541   0.02414313
6752.00   3.24245405   0.02419130
6754.00   3.18893480   0.02427180
6756.00   3.17678165   0.02427457
6758.00   3.19610286   0.02418165
6760.00   3.20794296   0.02417604
6762.00   3.22759056   0.02401224
6764.00   3.23952341   0.02421723
6766.00   3.24023080   0.02530550
6768.00   3.23067379   0.02666395
6770.00   3.19799399   0.02661752
6772.00   3.11917949   0.02519826
6774.00   3.09523654   0.02456821
6776.00   3.11572099   0.02405770
6778.00   3.12494183   0.02378252
6780.00   3.11353326   0.02387653
6782.00   3.09444499   0.02412127
6784.00   3.07519174   0.02413202
6786.00   3.04826784   0.02404157
6788.00   3.03691077   0.02396892
6790.00   3.03626013   0.02384410
6792.00   3.03900290   0.02376435
6794.00   3.04554391   0.02372368
6796.00   3.05635524   0.02371820
6798.00   3.07473516   0.02376653
6800.00   3.10280657   0.02387383
6802.00   3.10125232   0.02388884
6804.00   3.07592940   0.02382712
6806.00   3.04960990   0.02379887
6808.00   3.01098657   0.02378935
6810.00   2.97743964   0.02378431
6812.00   2.96053815   0.02378414
6814.00   2.95363903   0.02378753
6816.00   2.94700742   0.02375781
6818.00   2.94770885   0.02363368
6820.00   2.94362593   0.02366245
6822.00   2.93190789   0.02384530
6824.00   2.92906094   0.02399716
6826.00   2.94316506   0.02404253
6828.00   2.96519518   0.02406274
6830.00   2.97828436   0.02420068
6832.00   2.99212193   0.02450645
6834.00   2.99337602   0.02454756
6836.00   2.98449063   0.02441966
6838.00   2.97013617   0.02422949
6840.00   2.94377112   0.02391693
6842.00   2.91807032   0.02359114
6844.00   2.91440368   0.02345080
6846.00   2.92812562   0.02343463
6848.00   2.93150306   0.02342307
6850.00   2.93177247   0.02350029
6852.00   2.93398404   0.02352562
6854.00   2.94002557   0.02346975
6856.00   2.94410348   0.02344092
6858.00   2.94068027   0.02352634
6860.00   2.93193245   0.02368637
6862.00   2.92836809   0.02384963
6864.00   2.95095921   0.02408191
6866.00   2.92025900   0.02424570
6868.00   2.82535982   0.02401739
6870.00   2.73897099   0.02430636
6872.00   2.68178773   0.02541826
6874.00   2.64535093   0.02708731
6876.00   2.68086052   0.02943279
6878.00   2.82535100   0.03415434
6880.00   2.88833404   0.03461589
6882.00   2.93878388   0.03166541
6884.00   2.94149041   0.02869280
6886.00   2.86310053   0.02630586
6888.00   2.75562763   0.02415815
6890.00   2.72536635   0.02315336
6892.00   2.75185370   0.02348780
6894.00   2.73455453   0.02344127
6896.00   2.67919040   0.02366778
6898.00   2.66125512   0.02381716
6900.00   2.70038652   0.02391624
6902.00   2.74622703   0.02395437
6904.00   2.74479604   0.02385065
6906.00   2.71357942   0.02360030
6908.00   2.70634580   0.02353524
6910.00   2.71196651   0.02360908
6912.00   2.71019888   0.02363011
6914.00   2.70300436   0.02362171
6916.00   2.69368386   0.02360380
6918.00   2.68094587   0.02356984
6920.00   2.66545367   0.02352313
6922.00   2.66736245   0.02355733
6924.00   2.70154023   0.02368859
6926.00   2.69582915   0.02375527
6928.00   2.65309834   0.02382999
6930.00   2.61385274   0.02382911
6932.00   2.58548617   0.02366965
6934.00   2.56597877   0.02344334
6936.00   2.58094335   0.02341042
6938.00   2.65682697   0.02322541
6940.00   2.65692234   0.02383107
6942.00   2.58528900   0.02533722
6944.00   2.54764342   0.02645043
6946.00   2.56367326   0.02728814
6948.00   2.60044813   0.02771058
6950.00   2.63115811   0.02706328
6952.00   2.68127632   0.02514026
6954.00   2.66974521   0.02421219
6956.00   2.58608413   0.02366285
6958.00   2.53983545   0.02334291
6960.00   2.53056955   0.02339388
6962.00   2.53449845   0.02356373
6964.00   2.53936720   0.02361634
6966.00   2.55185151   0.02367147
6968.00   2.55913758   0.02360231
6970.00   2.56516075   0.02334728
6972.00   2.57103372   0.02323551
6974.00   2.58681679   0.02327355
6976.00   2.58679223   0.02328373
6978.00   2.54950809   0.02315471
6980.00   2.48995137   0.02295795
6982.00   2.46327949   0.02288325
6984.00   2.45470524   0.02286953
6986.00   2.44784760   0.02289785
6988.00   2.45077395   0.02301687
6990.00   2.45403910   0.02310751
6992.00   2.45736551   0.02313836
6994.00   2.45967340   0.02314063
6996.00   2.45198441   0.02313776
6998.00   2.42538810   0.02311786
7000.00   2.43301797   0.02309314
7002.00   2.47549987   0.02302838
7004.00   2.50339007   0.02301548
7006.00   2.51659846   0.02309843
7008.00   2.51830173   0.02318294
7010.00   2.50221467   0.02315375
7012.00   2.46534038   0.02305250
7014.00   2.44785619   0.02293250
7016.00   2.42920136   0.02266793
7018.00   2.43289900   0.02259244
7020.00   2.47466183   0.02271993
7022.00   2.50997019   0.02290971
7024.00   2.50048256   0.02297131
7026.00   2.46359897   0.02297387
7028.00   2.45552063   0.02378845
7030.00   2.47053266   0.02605467
7032.00   2.46454477   0.02647458
7034.00   2.44492030   0.02526508
7036.00   2.41921616   0.02398046
7038.00   2.37968922   0.02323493
7040.00   2.33683395   0.02269421
7042.00   2.34589434   0.02252512
7044.00   2.42491698   0.02266845
7046.00   2.43757415   0.02316176
7048.00   2.40974784   0.02453878
7050.00   2.38265395   0.02517205
7052.00   2.36911082   0.02410962
7054.00   2.35020781   0.02292295
7056.00   2.29464436   0.02489733
7058.00   2.18410110   0.02972941
7060.00   2.17276669   0.03022309
7062.00   2.24683356   0.02753254
7064.00   2.30344033   0.02544801
7066.00   2.35730433   0.02385941
7068.00   2.39352465   0.02265617
7070.00   2.37906909   0.02231358
7072.00   2.32118487   0.02281634
7074.00   2.29508591   0.02290985
7076.00   2.25569010   0.02302043
7078.00   2.26712608   0.02310807
7080.00   2.35514712   0.02319084
7082.00   2.42884541   0.02324274
7084.00   2.43132997   0.02324665
7086.00   2.39404511   0.02321208
7088.00   2.35966992   0.02314655
7090.00   2.29150200   0.02269860
7092.00   2.26176882   0.02302555
7094.00   2.25511408   0.02440022
7096.00   2.26166630   0.02517661
7098.00   2.29270244   0.02478586
7100.00   2.33037686   0.02381695
7102.00   2.30969310   0.02321775
7104.00   2.22255492   0.02249316
7106.00   2.19874811   0.02219942
7108.00   2.21784067   0.02123740
7110.00   2.22538733   0.02233674
7112.00   2.21104026   0.02694498
7114.00   2.19476104   0.03098768
7116.00   2.19716597   0.03063653
7118.00   2.21153736   0.02679073
7120.00   2.22651434   0.02488249
7122.00   2.24687505   0.02298522
7124.00   2.26908231   0.02195342
7126.00   2.30353785   0.02227356
7128.00   2.32758808   0.02290259
7130.00   2.31407356   0.02292250
7132.00   2.27174473   0.02271856
7134.00   2.27347732   0.02329144
7136.00   2.32358551   0.02502441
7138.00   2.32889342   0.02544437
7140.00   2.29574084   0.02472431
7142.00   2.25850511   0.02386534
7144.00   2.22694778   0.02326512
7146.00   2.19699836   0.02271583
7148.00   2.19331408   0.02251211
7150.00   2.22491550   0.02276477
7152.00   2.23120427   0.02277843
7154.00   2.22776628   0.02276600
7156.00   2.22042918   0.02270082
7158.00   2.20538855   0.02253362
7160.00   2.18965936   0.02233949
7162.00   2.19361591   0.02228792
7164.00   2.21888113   0.02229994
7166.00   2.22191644   0.02243790
7168.00   2.21316576   0.02267032
7170.00   2.20148993   0.02302381
7172.00   2.17700553   0.02361299
7174.00   2.15924883   0.02417752
7176.00   2.17648745   0.02441091
7178.00   2.22146153   0.02443229
7180.00   2.25398779   0.02444753
7182.00   2.31734633   0.02426468
7184.00   2.31719780   0.02427481
7186.00   2.22798300   0.02453222
7188.00   2.14569259   0.02475886
7190.00   2.13875604   0.02477875
7192.00   2.17279434   0.02468290
7194.00   2.18725991   0.02455179
7196.00   2.21948743   0.02392875
7198.00   2.21551585   0.02421766
7200.00   2.16300297   0.02544317
7202.00   2.12915230   0.02653255
7204.00   2.14873099   0.02737988
7206.00   2.19053555   0.02797874
7208.00   2.19073582   0.02741728
7210.00   2.16047573   0.02528341
7212.00   2.14622235   0.02408240
7214.00   2.12807536   0.02282304
7216.00   2.12297058   0.02231254
7218.00   2.13522553   0.02314949
7220.00   2.15788317   0.02431647
7222.00   2.18524122   0.02427833
7224.00   2.22914886   0.02328508
7226.00   2.23846722   0.02341904
7228.00   2.22571731   0.02451712
7230.00   2.20171523   0.02505174
7232.00   2.14873648   0.02496722
7234.00   2.10350966   0.02476332
7236.00   2.11020851   0.02465110
7238.00   2.15515518   0.02439386
7240.00   2.15987015   0.02561296
7242.00   2.14520097   0.02902193
7244.00   2.12790322   0.03005873
7246.00   2.08899283   0.02922849
7248.00   2.06754255   0.02789778
7250.00   2.08969975   0.02652951
7252.00   2.13953209   0.02485097
7254.00   2.18260884   0.02416495
7256.00   2.25924373   0.02457836
7258.00   2.27533364   0.02444902
7260.00   2.24191523   0.02412531
7262.00   2.19922113   0.02388269
7264.00   2.14259839   0.02378234
7266.00   2.08585382   0.02378293
7268.00   2.09245777   0.02388359
7270.00   2.16950440   0.02383121
7272.00   2.18598270   0.02466866
7274.00   2.16324401   0.02634710
7276.00   2.15551639   0.02783056
7278.00   2.16418695   0.02946638
7280.00   2.18437982   0.03066720
7282.00   2.22546935   0.03045259
7284.00   2.29964948   0.02903853
7286.00   2.29903340   0.02780288
7288.00   2.22751331   0.02573657
7290.00   2.18001890   0.02438502
7292.00   2.14468503   0.02384467
7294.00   2.11966324   0.02369131
7296.00   2.11161160   0.02373801
7298.00   2.11828446   0.02410699
7300.00   2.11420512   0.02406879
7302.00   2.10392666   0.02372344
7304.00   2.10083151   0.02354938
7306.00   2.10156059   0.02340254
7308.00   2.10696721   0.02338011
7310.00   2.12084484   0.02356157
7312.00   2.13917542   0.02387660
7314.00   2.14358759   0.02413350
7316.00   2.13334775   0.02450078
7318.00   2.13433313   0.02463316
7320.00   2.14159060   0.02453148
7322.00   2.14753938   0.02448792
7324.00   2.15113258   0.02458287
7326.00   2.15337658   0.02470876
7328.00   2.15460920   0.02474652
7330.00   2.15923953   0.02477511
7332.00   2.14535284   0.02464312
7334.00   2.10761905   0.02427761
7336.00   2.08221316   0.02402670
7338.00   2.06960583   0.02391217
7340.00   2.06373739   0.02384731
7342.00   2.06467032   0.02378640
7344.00   2.07614350   0.02376806
7346.00   2.06400728   0.02362888
7348.00   2.01642251   0.02335142
7350.00   2.00595570   0.02315334
7352.00   2.03793335   0.02300761
7354.00   2.06940222   0.02289314
7356.00   2.07591772   0.02280081
7358.00   2.07043433   0.02273618
7360.00   2.05708575   0.02272465
7362.00   2.01743197   0.02271999
7364.00   2.00774360   0.02284626
7366.00   2.02086830   0.02301740
7368.00   2.03732848   0.02337034
7370.00   2.05771279   0.02398228
7372.00   2.07755208   0.02474610
7374.00   2.06737232   0.02547758
7376.00   2.02626109   0.02667757
7378.00   2.00060940   0.02666160
7380.00   1.97063005   0.02554649
7382.00   1.95288479   0.02443049
7384.00   1.95288479   0.02322644
7386.00   1.96054006   0.02211855
7388.00   1.96292794   0.02183704
7390.00   1.96525574   0.02232862
7392.00   1.96825266   0.02242215
7394.00   1.98065388   0.02248814
7396.00   1.97515988   0.02253203
7398.00   1.93861747   0.02242587
7400.00   1.90720546   0.02245582
7402.00   1.91473866   0.02297868
7404.00   1.94760549   0.02386878
7406.00   1.97153914   0.02412245
7408.00   2.02287579   0.02411813
7410.00   2.02185678   0.02377396
7412.00   1.95705295   0.02273309
7414.00   1.89864433   0.02186052
7416.00   1.88147402   0.02174990
7418.00   1.88421929   0.02205046
7420.00   1.88838685   0.02205774
7422.00   1.91456783   0.02198282
7424.00   1.91567290   0.02196501
7426.00   1.90125239   0.02197468
7428.00   1.88205707   0.02198395
7430.00   1.85887587   0.02195674
7432.00   1.83200836   0.02194671
7434.00   1.80485475   0.02209131
7436.00   1.75932801   0.02245126
7438.00   1.76920068   0.02251338
7440.00   1.84990180   0.02189249
7442.00   1.88953078   0.02218772
7444.00   1.87496555   0.02370747
7446.00   1.84166217   0.02549715
7448.00   1.81515026   0.02697735
7450.00   1.77688193   0.02877427
7452.00   1.78274405   0.02825626
7454.00   1.84668219   0.02464951
7456.00   1.86902285   0.02251656
7458.00   1.85478079   0.02194641
7460.00   1.82703149   0.02188068
7462.00   1.79296696   0.02178400
7464.00   1.74814832   0.02193998
7466.00   1.73057973   0.02193740
7468.00   1.74056327   0.02189880
7470.00   1.73436570   0.02188555
7472.00   1.71803916   0.02188747
7474.00   1.70301855   0.02189300
7476.00   1.69569421   0.02188827
7478.00   1.69033659   0.02188828
7480.00   1.67261469   0.02194574
7482.00   1.63408768   0.02201611
7484.00   1.62448037   0.02218861
7486.00   1.63382864   0.02259418
7488.00   1.64837253   0.02278013
7490.00   1.67149866   0.02264778
7492.00   1.69616330   0.02234794
7494.00   1.70299613   0.02201781
7496.00   1.69179463   0.02148267
7498.00   1.70381439   0.02133103
7500.00   1.74017048   0.02153862
7502.00   1.75865090   0.02164367
7504.00   1.75507617   0.02167061
7506.00   1.74613523   0.02165236
7508.00   1.75016642   0.02151673
7510.00   1.76437652   0.02122810
7512.00   1.72977781   0.02149289
7514.00   1.64088619   0.02223271
7516.00   1.57707047   0.02289795
7518.00   1.50782514   0.02397135
7520.00   1.47201121   0.02450016
7522.00   1.51160598   0.02367185
7524.00   1.60016584   0.02191294
7526.00   1.61253679   0.02154512
7528.00   1.55559838   0.02225657
7530.00   1.55346680   0.02253334
7532.00   1.58954680   0.02298370
7534.00   1.61869526   0.02306950
7536.00   1.62775612   0.02244504
7538.00   1.62815285   0.02148657
7540.00   1.62814856   0.02114090
7542.00   1.62701702   0.02109800
7544.00   1.61495316   0.02124899
7546.00   1.58162069   0.02172544
7548.00   1.56554067   0.02221952
7550.00   1.57789409   0.02290436
7552.00   1.59620047   0.02344033
7554.00   1.59369433   0.02315931
7556.00   1.58040714   0.02194013
7558.00   1.56394613   0.02223012
7560.00   1.52850497   0.02419357
7562.00   1.51514184   0.02479308
7564.00   1.53505027   0.02395020
7566.00   1.55087876   0.02284634
7568.00   1.52639472   0.02228193
7570.00   1.47532344   0.02185822
7572.00   1.47327685   0.02234450
7574.00   1.53243172   0.02423371
7576.00   1.53053176   0.02490033
7578.00   1.46083033   0.02491385
7580.00   1.40899956   0.02446002
7582.00   1.41576397   0.02330408
7584.00   1.45373988   0.02159587
7586.00   1.48913229   0.02089346
7588.00   1.55288136   0.02091593
7590.00   1.58114815   0.02096628
7592.00   1.60382438   0.02087143
7594.00   1.59029663   0.02167744
7596.00   1.50555503   0.02307472
7598.00   1.40458226   0.02540401
7600.00   1.40874028   0.02963621
7602.00   1.52648151   0.03494050
7604.00   1.49576533   0.03992287
7606.00   1.32494986   0.04728463
7608.00   1.22985256   0.05012766
7610.00   1.21712458   0.04826326
7612.00   1.24745095   0.04426549
7614.00   1.30834246   0.04035383
7616.00   1.41622078   0.03473739
7618.00   1.47936153   0.03082302
7620.00   1.55011690   0.02807924
7622.00   1.55830657   0.02606873
7624.00   1.47922468   0.02526677
7626.00   1.39957726   0.02540964
7628.00   1.37246013   0.02632583
7630.00   1.37029731   0.02801787
7632.00   1.39465463   0.02962692
7634.00   1.48377943   0.03259289
7636.00   1.50977051   0.03299505
7638.00   1.48522770   0.03105972
7640.00   1.46158063   0.02890152
7642.00   1.45345473   0.02712469
7644.00   1.45129991   0.02544490
7646.00   1.46005750   0.02482135
7648.00   1.48462701   0.02523218
7650.00   1.49952936   0.02576432
7652.00   1.52300107   0.02758786
7654.00   1.52492118   0.02804052
7656.00   1.48771906   0.02623604
7658.00   1.44277668   0.02358564
7660.00   1.44107389   0.02265321
7662.00   1.47577512   0.02283559
7664.00   1.46910536   0.02258612
7666.00   1.41430378   0.02239232
7668.00   1.40633607   0.02226976
7670.00   1.47081494   0.02232010
7672.00   1.52989972   0.02231781
7674.00   1.50648618   0.02199586
7676.00   1.42714667   0.02142315
7678.00   1.41215706   0.02117790
7680.00   1.44207954   0.02112068
7682.00   1.45062649   0.02110471
7684.00   1.44408858   0.02119626
7686.00   1.43967295   0.02130318
7688.00   1.44828248   0.02137693
7690.00   1.46261048   0.02144517
7692.00   1.45934403   0.02150631
7694.00   1.43819678   0.02135350
7696.00   1.42800713   0.02168292
7698.00   1.40654397   0.02266138
7700.00   1.41238070   0.02324230
7702.00   1.47532582   0.02306054
7704.00   1.55524087   0.02257186
7706.00   1.56177247   0.02252196
7708.00   1.50807238   0.02266114
7710.00   1.48661685   0.02284047
7712.00   1.46312165   0.02308571
7714.00   1.45498002   0.02344533
7716.00   1.46902561   0.02407342
7718.00   1.49057102   0.02463798
7720.00   1.50423193   0.02470242
7722.00   1.52057064   0.02440808
7724.00   1.51171231   0.02413596
7726.00   1.47994471   0.02378122
7728.00   1.44601750   0.02326998
7730.00   1.38780534   0.02239990
7732.00   1.35012913   0.02162237
7734.00   1.38173032   0.02124844
7736.00   1.46229613   0.02113231
7738.00   1.46992624   0.02185898
7740.00   1.41686857   0.02418429
7742.00   1.39903045   0.02470949
7744.00   1.39498329   0.02364463
7746.00   1.40264463   0.02266833
7748.00   1.42957151   0.02249146
7750.00   1.46699798   0.02269408
7752.00   1.47459590   0.02319394
7754.00   1.43432140   0.02452670
7756.00   1.46248877   0.02479706
7758.00   1.57021034   0.02436086
7760.00   1.62939382   0.02386651
7762.00   1.60460067   0.02330951
7764.00   1.54620194   0.02275103
7766.00   1.51347113   0.02258214
7768.00   1.47403598   0.02276866
7770.00   1.47110987   0.02275857
7772.00   1.51910162   0.02276400
7774.00   1.53459954   0.02266600
7776.00   1.50362134   0.02241170
7778.00   1.46929944   0.02212725
7780.00   1.47083771   0.02192218
7782.00   1.49227750   0.02172436
7784.00   1.51761043   0.02177208
7786.00   1.57942140   0.02150035
7788.00   1.59141755   0.02243859
7790.00   1.54698420   0.02520144
7792.00   1.49959099   0.02714811
7794.00   1.47191644   0.02696099
7796.00   1.45252037   0.02550654
7798.00   1.48442221   0.02464232
7800.00   1.61003697   0.02342372
7802.00   1.63843107   0.02279391
7804.00   1.59068084   0.02278608
7806.00   1.54444802   0.02276240
7808.00   1.52041626   0.02242773
7810.00   1.50344324   0.02207485
7812.00   1.49449492   0.02227356
7814.00   1.48935449   0.02309476
7816.00   1.50325048   0.02336837
7818.00   1.53203237   0.02296890
7820.00   1.57437205   0.02330713
7822.00   1.64528620   0.02507747
7824.00   1.71602726   0.02675959
7826.00   1.74104726   0.02636880
7828.00   1.73968160   0.02382088
7830.00   1.70953238   0.02452729
7832.00   1.61408365   0.02855000
7834.00   1.56726849   0.02988344
7836.00   1.56611598   0.02850152
7838.00   1.58740330   0.02660685
7840.00   1.62241209   0.02606492
7842.00   1.67733490   0.02611732
7844.00   1.71797955   0.02585726
7846.00   1.77929378   0.02449236
7848.00   1.78579092   0.02555543
7850.00   1.72155774   0.02977964
7852.00   1.66748512   0.03251758
7854.00   1.66038108   0.03221976
7856.00   1.67788732   0.03019537
7858.00   1.71153009   0.02816288
7860.00   1.80247056   0.02381376
7862.00   1.82181585   0.02198610
7864.00   1.78027654   0.02257751
7866.00   1.75167894   0.02312705
7868.00   1.75221622   0.02317954
7870.00   1.76543319   0.02317347
7872.00   1.78417158   0.02310830
7874.00   1.82001507   0.02280298
7876.00   1.83330798   0.02307165
7878.00   1.82285738   0.02397697
7880.00   1.82825446   0.02454003
7882.00   1.85659826   0.02478513
7884.00   1.88946915   0.02480778
7886.00   1.91017747   0.02453736
7888.00   1.92741227   0.02390261
7890.00   1.93003035   0.02362393
7892.00   1.91291058   0.02351317
7894.00   1.90334570   0.02344844
7896.00   1.89353549   0.02346035
7898.00   1.89194381   0.02352305
7900.00   1.90906560   0.02363008
7902.00   1.93991578   0.02378561
7904.00   1.95581949   0.02385953
7906.00   1.96592569   0.02356784
7908.00   1.97268569   0.02399172
7910.00   1.96515489   0.02522404
7912.00   1.97047830   0.02621953
7914.00   2.01109648   0.02671106
7916.00   2.06394124   0.02691433
7918.00   2.06185889   0.02673266
7920.00   2.02021909   0.02553744
7922.00   1.97412455   0.02574760
7924.00   1.88193309   0.02741539
7926.00   1.83180964   0.02825182
7928.00   1.85120046   0.02770724
7930.00   1.89532924   0.02677170
7932.00   1.90503645   0.02678430
7934.00   1.90050352   0.02728423
7936.00   1.90198576   0.02786994
7938.00   1.88939846   0.02954893
7940.00   1.90409219   0.02960134
7942.00   1.96347857   0.02730198
7944.00   2.02118182   0.02451454
7946.00   2.02989578   0.02354487
7948.00   2.00649500   0.02367530
7950.00   2.00696826   0.02343412
7952.00   2.00889874   0.02335869
7954.00   2.02441859   0.02331473
7956.00   2.06409979   0.02328280
7958.00   2.09601331   0.02337602
7960.00   2.10192490   0.02370840
7962.00   2.09235692   0.02419328
7964.00   2.07775545   0.02444305
7966.00   2.05130291   0.02468891
7968.00   2.02343440   0.02463363
7970.00   1.98050106   0.02417686
7972.00   1.95171845   0.02380073
7974.00   1.94942844   0.02346209
7976.00   1.96006143   0.02332252
7978.00   1.96062410   0.02415209
7980.00   1.95441437   0.02600768
7982.00   1.96424079   0.02707479
7984.00   1.98995674   0.02834089
7986.00   2.01177382   0.02866461
7988.00   2.03594828   0.02741674
7990.00   2.05083084   0.02584670
7992.00   2.03206229   0.02604115
7994.00   1.98004758   0.02764529
7996.00   1.96017087   0.02726283
7998.00   1.95008850   0.02497195
8000.00   1.95396233   0.02367350
8002.00   1.98193479   0.02346292
8004.00   2.00932384   0.02354016
8006.00   2.01280189   0.02343017
8008.00   2.00220418   0.02336582
8010.00   2.01493287   0.02333191
8012.00   2.05917692   0.02340547
8014.00   2.06705761   0.02335402
8016.00   2.03331804   0.02309176
8018.00   2.01069927   0.02297076
8020.00   2.02699661   0.02321306
8022.00   2.06143165   0.02363707
8024.00   2.07373667   0.02380723
8026.00   2.07984185   0.02359588
8028.00   2.07531881   0.02400767
8030.00   2.05670547   0.02467075
8032.00   2.03730392   0.02571839
8034.00   2.01551056   0.02784394
8036.00   1.99549448   0.02969434
8038.00   1.99200642   0.02870289
8040.00   2.00523901   0.02435907
8042.00   2.00627255   0.02297095
8044.00   1.98572850   0.02352793
8046.00   1.99825525   0.02401500
8048.00   2.06902838   0.02472835
8050.00   2.13742137   0.02530498
8052.00   2.13298702   0.02504958
8054.00   2.07606244   0.02412380
8056.00   2.06437516   0.02376758
8058.00   2.07593751   0.02371459
8060.00   2.07910323   0.02356146
8062.00   2.07712913   0.02325389
8064.00   2.07512331   0.02308615
8066.00   2.07461214   0.02321122
8068.00   2.07481718   0.02354788
8070.00   2.07990265   0.02422941
8072.00   2.09166479   0.02604309
8074.00   2.09936190   0.02611240
8076.00   2.10984945   0.02426117
8078.00   2.11221886   0.02286122
8080.00   2.10407853   0.02276330
8082.00   2.08651614   0.02350130
8084.00   2.05319190   0.02532081
8086.00   1.97469783   0.02937671
8088.00   1.97355521   0.02987804
8090.00   2.05491614   0.02753649
8092.00   2.09829307   0.02569460
8094.00   2.08942366   0.02477188
8096.00   2.05243468   0.02438581
8098.00   1.99276328   0.02486341
8100.00   1.88510203   0.02657344
8102.00   1.86209512   0.02640213
8104.00   1.91866887   0.02450293
8106.00   1.94229841   0.02330651
8108.00   1.93817520   0.02275933
8110.00   1.92169046   0.02260579
8112.00   1.89292085   0.02283202
8114.00   1.84803534   0.02346623
8116.00   1.84175634   0.02406941
8118.00   1.87931120   0.02536960
8120.00   1.88505113   0.02546180
8122.00   1.85644579   0.02413932
8124.00   1.83880651   0.02286297
8126.00   1.86596775   0.02245418
8128.00   1.91359925   0.02249344
8130.00   1.89789903   0.02280873
8132.00   1.80450070   0.02397076
8134.00   1.78280759   0.02419839
8136.00   1.80588329   0.02373384
8138.00   1.83090901   0.02334742
8140.00   1.85251451   0.02312908
8142.00   1.87290668   0.02306698
8144.00   1.87970853   0.02346901
8146.00   1.89004064   0.02405486
8148.00   1.84999192   0.02541273
8150.00   1.71029770   0.02852764
8152.00   1.66402340   0.02958151
8154.00   1.75634086   0.02791336
8156.00   1.88124526   0.02537188
8158.00   1.92900908   0.02434682
8160.00   1.94703948   0.02398083
8162.00   1.93430758   0.02396622
8164.00   1.84154332   0.02462093
8166.00   1.82286990   0.02527173
8168.00   1.89380968   0.02632161
8170.00   1.96457219   0.02702278
8172.00   1.97301745   0.02666566
8174.00   1.94938624   0.02555807
8176.00   1.93536794   0.02542016
8178.00   1.89393771   0.02592674
8180.00   1.89938629   0.02624704
8182.00   1.96260536   0.02659864
8184.00   2.00929403   0.02692624
8186.00   2.00523400   0.02719592
8188.00   1.97723913   0.02743659
8190.00   1.96713138   0.02769866
8192.00   1.96826935   0.02820461
8194.00   1.94906783   0.02808456
8196.00   1.90228045   0.02740935
8198.00   1.87484813   0.02668259
8200.00   1.87377298   0.02593118
8202.00   1.89016056   0.02513915
8204.00   1.92490542   0.02443201
8206.00   1.99634123   0.02367212
8208.00   2.00879002   0.02333718
8210.00   1.96621490   0.02353279
8212.00   1.94669473   0.02354939
8214.00   1.94643724   0.02325412
8216.00   1.95988166   0.02305763
8218.00   1.99466538   0.02337362
8220.00   2.05364084   0.02405341
8222.00   2.07078934   0.02455414
8224.00   2.06508279   0.02511293
8226.00   2.04559851   0.02554721
8228.00   1.99310434   0.02580855
8230.00   1.95071936   0.02611513
8232.00   1.94764066   0.02666505
8234.00   1.96710944   0.02732308
8236.00   1.97624302   0.02750613
8238.00   1.99074447   0.02739496
8240.00   1.99686015   0.02710367
8242.00   1.99512041   0.02641387
8244.00   1.99399710   0.02579659
8246.00   1.99593592   0.02544865
8248.00   1.99888289   0.02519379
8250.00   2.00157666   0.02473962
8252.00   2.00329924   0.02377528
8254.00   2.00888348   0.02397503
8256.00   2.02517200   0.02552875
8258.00   2.02814937   0.02633348
8260.00   2.01164055   0.02628559
8262.00   1.98797905   0.02575373
8264.00   1.96991670   0.02474970
8266.00   1.94877529   0.02279488
8268.00   1.94546723   0.02234342
8270.00   1.95090032   0.02315234
8272.00   1.97245979   0.02376200
8274.00   2.02900505   0.02431767
8276.00   2.07537889   0.02490286
8278.00   2.06833935   0.02555378
8280.00   2.02561188   0.02627257
8282.00   2.00711608   0.02658176
8284.00   1.99326026   0.02658255
8286.00   1.98184192   0.02651731
8288.00   1.97682405   0.02606019
8290.00   1.96932352   0.02590247
8292.00   1.95335531   0.02649355
8294.00   1.93348157   0.02747062
8296.00   1.92200613   0.02803663
8298.00   1.92228031   0.02880195
8300.00   1.90777647   0.02871507
8302.00   1.86890829   0.02779455
8304.00   1.85390508   0.02681265
8306.00   1.88522077   0.02581535
8308.00   1.93135798   0.02482202
8310.00   1.93870640   0.02427404
8312.00   1.92465293   0.02417843
8314.00   1.90624726   0.02385025
8316.00   1.86987269   0.02339469
8318.00   1.84020567   0.02312466
8320.00   1.81256831   0.02311772
8322.00   1.79390931   0.02319140
8324.00   1.79704058   0.02316464
8326.00   1.81848979   0.02311386
8328.00   1.84042406   0.02306394
8330.00   1.87779081   0.02274646
8332.00   1.90200233   0.02297639
8334.00   1.91749310   0.02369578
8336.00   1.92471826   0.02466702
8338.00   1.92152739   0.02588080
8340.00   1.90898657   0.02729915
8342.00   1.89758384   0.02810161
8344.00   1.88033140   0.02872743
8346.00   1.86827528   0.02882070
8348.00   1.86373985   0.02830668
8350.00   1.85332060   0.02762538
8352.00   1.83342814   0.02685127
8354.00   1.80612326   0.02595720
8356.00   1.76760936   0.02528101
8358.00   1.70731187   0.02475748
8360.00   1.67033315   0.02420742
8362.00   1.62959039   0.02359370
8364.00   1.62358344   0.02318441
8366.00   1.67216563   0.02300689
8368.00   1.74032176   0.02304771
8370.00   1.77612722   0.02339058
8372.00   1.80030560   0.02416552
8374.00   1.81549132   0.02439122
8376.00   1.81521595   0.02430896
8378.00   1.81654418   0.02415849
8380.00   1.82128203   0.02387830
8382.00   1.82172489   0.02354527
8384.00   1.80911291   0.02311273
8386.00   1.78515232   0.02247400
8388.00   1.77972198   0.02316886
8390.00   1.79712558   0.02454980
8392.00   1.79175687   0.02671235
8394.00   1.75622439   0.03097434
8396.00   1.73140883   0.03332371
8398.00   1.74575484   0.03161575
8400.00   1.78062141   0.02713227
8402.00   1.78019273   0.02543481
8404.00   1.75213718   0.02555621
8406.00   1.73734176   0.02508183
8408.00   1.71007001   0.02464934
8410.00   1.70933628   0.02439003
8412.00   1.75985861   0.02437088
8414.00   1.82980812   0.02451618
8416.00   1.85094702   0.02469082
8418.00   1.82975376   0.02509631
8420.00   1.85020423   0.02508767
8422.00   1.90547645   0.02445582
8424.00   1.94048262   0.02438403
8426.00   1.94964767   0.02519977
8428.00   1.94701147   0.02615428
8430.00   1.94195390   0.02649654
8432.00   1.92854226   0.02655007
8434.00   1.92013526   0.02645477
8436.00   1.91415954   0.02616998
8438.00   1.90525997   0.02567105
8440.00   1.90155137   0.02470513
8442.00   1.88587022   0.02381043
8444.00   1.83559132   0.02348674
8446.00   1.75917912   0.02352940
8448.00   1.73773181   0.02361296
8450.00   1.76737773   0.02407588
8452.00   1.77051878   0.02417006
8454.00   1.76483834   0.02389839
8456.00   1.75086582   0.02370472
8458.00   1.71964180   0.02371757
8460.00   1.68125510   0.02387856
8462.00   1.68132627   0.02440862
8464.00   1.72371197   0.02572397
8466.00   1.73588431   0.02597749
8468.00   1.72224832   0.02532048
8470.00   1.73081148   0.02492527
8472.00   1.78362608   0.02517192
8474.00   1.84680367   0.02553239
8476.00   1.86480105   0.02531290
8478.00   1.85100067   0.02465256
8480.00   1.84861934   0.02418570
8482.00   1.83997667   0.02351216
8484.00   1.83760595   0.02323408
8486.00   1.84241652   0.02353933
8488.00   1.85053718   0.02395547
8490.00   1.86311138   0.02404231
8492.00   1.88467431   0.02399204
8494.00   1.86702931   0.02389085
8496.00   1.79573774   0.02355435
8498.00   1.76647246   0.02347000
8500.00   1.77363300   0.02362986
8502.00   1.78985250   0.02384771
8504.00   1.80346513   0.02408681
8506.00   1.82053792   0.02435917
8508.00   1.82962823   0.02426420
8510.00   1.82588327   0.02371988
8512.00   1.83870101   0.02345127
8514.00   1.86650646   0.02327492
8516.00   1.89298987   0.02318648
8518.00   1.91736376   0.02322550
8520.00   1.93768716   0.02333806
8522.00   1.93578923   0.02334863
8524.00   1.90370727   0.02326383
8526.00   1.89972591   0.02331854
8528.00   1.91696954   0.02354668
8530.00   1.92450440   0.02364405
8532.00   1.91695130   0.02356560
8534.00   1.90438616   0.02339761
8536.00   1.89719117   0.02319366
8538.00   1.89384818   0.02286738
8540.00   1.87769747   0.02278930
8542.00   1.84378684   0.02289936
8544.00   1.82342780   0.02302733
8546.00   1.81465530   0.02324702
8548.00   1.81381261   0.02343311
8550.00   1.82337403   0.02346061
8552.00   1.84424818   0.02338535
8554.00   1.84256554   0.02328644
8556.00   1.82573974   0.02288757
8558.00   1.80661201   0.02298936
8560.00   1.75962472   0.02358462
8562.00   1.74259937   0.02423692
8564.00   1.80036259   0.02489529
8566.00   1.89930165   0.02553913
8568.00   1.93024945   0.02546731
8570.00   1.91362011   0.02452764
8572.00   1.91305566   0.02407551
8574.00   1.90586865   0.02369044
8576.00   1.90373957   0.02347109
8578.00   1.91830361   0.02351849
8580.00   1.93227589   0.02368967
8582.00   1.90549362   0.02367431
8584.00   1.82927394   0.02353508
8586.00   1.81281400   0.02353377
8588.00   1.83694088   0.02363059
8590.00   1.85895276   0.02370495
8592.00   1.88804650   0.02375401
8594.00   1.90923607   0.02379512
8596.00   1.89354241   0.02384144
8598.00   1.84610915   0.02390178
8600.00   1.82447326   0.02386382
8602.00   1.80728865   0.02371676
8604.00   1.80282605   0.02360656
8606.00   1.81039083   0.02343002
8608.00   1.82861698   0.02337909
8610.00   1.86069465   0.02362514
8612.00   1.90545201   0.02407825
8614.00   1.93272412   0.02447432
8616.00   1.94498718   0.02473019
8618.00   1.96824074   0.02540793
8620.00   2.00434875   0.02646303
8622.00   2.03188634   0.02756122
8624.00   2.04958630   0.02860319
8626.00   2.05475402   0.02965651
8628.00   2.01589823   0.03074509
8630.00   1.90622854   0.03237196
8632.00   1.86703110   0.03264737
8634.00   1.86714280   0.03209787
8636.00   1.87510037   0.03091492
8638.00   1.90358710   0.02842524
8640.00   1.92774606   0.02549245
8642.00   1.88581336   0.02457221
8644.00   1.77418339   0.02506195
8646.00   1.74399388   0.02609816
8648.00   1.74561393   0.02867212
8650.00   1.78540611   0.03019863
8652.00   1.89278436   0.03091218
8654.00   2.00220919   0.03113483
8656.00   2.04645300   0.03077048
8658.00   2.05396533   0.02967817
8660.00   2.05125046   0.02976560
8662.00   2.02818894   0.03155563
8664.00   1.98897839   0.03135004
8666.00   1.90769374   0.02870980
8668.00   1.84645712   0.02614371
8670.00   1.85382295   0.02563803
8672.00   1.89939547   0.02624334
8674.00   1.88215792   0.02607487
8676.00   1.80873609   0.02575532
8678.00   1.77639151   0.02541862
8680.00   1.76489699   0.02487849
8682.00   1.75723648   0.02452911
8684.00   1.75075507   0.02452307
8686.00   1.74662280   0.02471709
8688.00   1.73908925   0.02494691
8690.00   1.72986054   0.02554686
8692.00   1.72095990   0.02538003
8694.00   1.69555998   0.02433705
8696.00   1.70070481   0.02369300
8698.00   1.75456309   0.02366058
8700.00   1.81991029   0.02385348
8702.00   1.85114396   0.02396007
8704.00   1.86728680   0.02414853
8706.00   1.86985505   0.02417435
8708.00   1.84809911   0.02378733
8710.00   1.83362091   0.02400062
8712.00   1.83343565   0.02461376
8714.00   1.82190001   0.02572452
8716.00   1.76642966   0.02793670
8718.00   1.67738700   0.03090875
8720.00   1.68101811   0.03047191
8722.00   1.79355347   0.02589916
8724.00   1.82320356   0.02368870
8726.00   1.79437864   0.02326835
8728.00   1.75447655   0.02331532
8730.00   1.71415305   0.02333744
8732.00   1.66995120   0.02363727
8734.00   1.65800345   0.02420672
8736.00   1.68109560   0.02569645
8738.00   1.68419313   0.02577384
8740.00   1.67195475   0.02455112
8742.00   1.67675340   0.02364304
8744.00   1.71211410   0.02347424
8746.00   1.75860739   0.02360958
8748.00   1.78500128   0.02368838
8750.00   1.79986882   0.02382020
8752.00   1.82120192   0.02415559
8754.00   1.85445499   0.02465647
8756.00   1.86680496   0.02526625
8758.00   1.85350204   0.02605213
8760.00   1.82887769   0.02685204
8762.00   1.80519748   0.02755138
8764.00   1.77658165   0.02828496
8766.00   1.74694598   0.02837403
8768.00   1.69727361   0.02759639
8770.00   1.68330944   0.02737226
8772.00   1.70313513   0.02728565
8774.00   1.73876166   0.02778398
8776.00   1.79284143   0.02972573
8778.00   1.86361444   0.03242137
8780.00   1.86219239   0.03196957
8782.00   1.79270780   0.02788990
8784.00   1.74378800   0.02588821
8786.00   1.67401099   0.02475390
8788.00   1.63337719   0.02443185
8790.00   1.64673674   0.02543375
8792.00   1.69046617   0.02700251
8794.00   1.72217298   0.02687996
8796.00   1.78281677   0.02530721
8798.00   1.77616167   0.02460956
8800.00   1.68342412   0.02400154
8802.00   1.64120209   0.02379182
8804.00   1.68191648   0.02422097
8806.00   1.74838328   0.02484900
8808.00   1.77746320   0.02504692
8810.00   1.79858899   0.02507108
8812.00   1.79200363   0.02498322
8814.00   1.73317945   0.02443157
8816.00   1.71568823   0.02441871
8818.00   1.74754238   0.02473761
8820.00   1.78878331   0.02559940
8822.00   1.80767238   0.02743240
8824.00   1.81735218   0.02999927
8826.00   1.84215367   0.03124641
8828.00   1.89688051   0.03214791
8830.00   1.90793586   0.03217965
8832.00   1.86778438   0.03070498
8834.00   1.83292031   0.02954941
8836.00   1.83855689   0.03017846
8838.00   1.86126018   0.03158553
8840.00   1.84334469   0.03100623
8842.00   1.78576231   0.02841709
8844.00   1.75470793   0.02692315
8846.00   1.72453940   0.02533797
8848.00   1.71401286   0.02465005
8850.00   1.74071145   0.02568064
8852.00   1.77970839   0.02730085
8854.00   1.77282906   0.02741075
8856.00   1.71766150   0.02645398
8858.00   1.72263217   0.02617997
8860.00   1.77418864   0.02588124
8862.00   1.81447887   0.02607734
8864.00   1.84415781   0.02707387
8866.00   1.86594474   0.02814903
8868.00   1.87473845   0.02852840
8870.00   1.87307703   0.02856496
8872.00   1.85845816   0.02833430
8874.00   1.81856072   0.02729006
8876.00   1.79414809   0.02701556
8878.00   1.78921449   0.02741429
8880.00   1.78046691   0.02819896
8882.00   1.74971890   0.02948088
8884.00   1.70538628   0.03118163
8886.00   1.67482960   0.03133010
8888.00   1.64682186   0.03027476
8890.00   1.62738991   0.02917541
8892.00   1.61407185   0.02718439
8894.00   1.60957074   0.02560277
8896.00   1.61466944   0.02523086
8898.00   1.62901056   0.02559041
8900.00   1.65441537   0.02591791
8902.00   1.70637882   0.02686985
8904.00   1.72681487   0.02704797
8906.00   1.73245764   0.02663064
8908.00   1.72494304   0.02631642
8910.00   1.69687915   0.02605930
8912.00   1.66149068   0.02600728
8914.00   1.64576161   0.02672955
8916.00   1.64143348   0.02825469
8918.00   1.63543153   0.02900735
8920.00   1.63640738   0.02978036
8922.00   1.63069284   0.02977647
8924.00   1.61514771   0.02866943
8926.00   1.59890378   0.02723238
8928.00   1.58871925   0.02626643
8930.00   1.57990122   0.02538608
8932.00   1.58924079   0.02509902
8934.00   1.62984562   0.02557692
8936.00   1.64260948   0.02582015
8938.00   1.63502824   0.02596859
8940.00   1.61514759   0.02613163
8942.00   1.57473540   0.02631548
8944.00   1.52009368   0.02652071
8946.00   1.52853036   0.02693351
8948.00   1.61073470   0.02738488
8950.00   1.64060926   0.02818459
8952.00   1.65497291   0.02944792
8954.00   1.64515471   0.03054773
8956.00   1.59406829   0.03148573
8958.00   1.52466810   0.03219736
8960.00   1.50239110   0.03207857
8962.00   1.51456451   0.03085082
8964.00   1.51239729   0.03054450
8966.00   1.49629712   0.03063565
8968.00   1.50784981   0.03089655
8970.00   1.57945967   0.03176579
8972.00   1.64798594   0.03237337
8974.00   1.61600268   0.03118639
8976.00   1.49897313   0.02803865
8978.00   1.45387840   0.02691292
8980.00   1.43923831   0.02688040
8982.00   1.42851675   0.02734751
8984.00   1.44321632   0.02856405
8986.00   1.44167459   0.03000309
8988.00   1.36906743   0.03149887
8990.00   1.24247646   0.03322312
8992.00   1.23452723   0.03301093
8994.00   1.32891250   0.03034928
8996.00   1.38980746   0.02915398
8998.00   1.46546829   0.02901532
9000.00   1.50790083   0.02907972
9002.00   1.47515702   0.02909315
9004.00   1.40076876   0.02917892
9006.00   1.39562953   0.02894953
9008.00   1.44518137   0.02841121
9010.00   1.46296096   0.02799498
9012.00   1.46920383   0.02742470
9014.00   1.47840273   0.02711100
9016.00   1.49809587   0.02703241
9018.00   1.51759839   0.02729363
9020.00   1.51835632   0.02836899
9022.00   1.50981367   0.03056567
9024.00   1.48201036   0.03120814
9026.00   1.41358650   0.03119666
9028.00   1.37681627   0.03052780
9030.00   1.38356698   0.02858701
9032.00   1.40125585   0.02640863
9034.00   1.39799976   0.02569042
9036.00   1.38465464   0.02597403
9038.00   1.38667786   0.02599845
9040.00   1.41431999   0.02624467
9042.00   1.40951800   0.02649291
9044.00   1.36384535   0.02685877
9046.00   1.31966281   0.02714557
9048.00   1.30401599   0.02719427
9050.00   1.30302286   0.02708880
9052.00   1.30558920   0.02704250
9054.00   1.31742239   0.02701079
9056.00   1.33237875   0.02689678
9058.00   1.36351812   0.02662011
9060.00   1.38044322   0.02645226
9062.00   1.36288297   0.02650226
9064.00   1.33119035   0.02668529
9066.00   1.33767509   0.02692192
9068.00   1.38964641   0.02745745
9070.00   1.38684690   0.02747222
9072.00   1.33392119   0.02703343
9074.00   1.30322325   0.02664890
9076.00   1.32079172   0.02617563
9078.00   1.34205616   0.02590578
9080.00   1.29714262   0.02662726
9082.00   1.17927361   0.02841144
9084.00   1.18102765   0.02878973
9086.00   1.30109358   0.02816526
9088.00   1.35965061   0.02779524
9090.00   1.34693325   0.02748957
9092.00   1.32280815   0.02741593
9094.00   1.33634579   0.02754799
9096.00   1.37059450   0.02764603
9098.00   1.35423994   0.03065725
9100.00   1.27325535   0.03812248
9102.00   1.24832428   0.03982532
9104.00   1.27169919   0.03661141
9106.00   1.30376744   0.03257690
9108.00   1.33182442   0.03012425
9110.00   1.36162710   0.02811040
9112.00   1.36110580   0.02690291
9114.00   1.33735573   0.02670950
9116.00   1.30479264   0.02691711
9118.00   1.23197114   0.02843026
9120.00   1.19348669   0.02918546
9122.00   1.22065270   0.02845717
9124.00   1.27766001   0.02707833
9126.00   1.30691123   0.02646914
9128.00   1.34568667   0.02574756
9130.00   1.32997715   0.02645317
9132.00   1.23739028   0.02908884
9134.00   1.19024885   0.03048011
9136.00   1.20857894   0.03052629
9138.00   1.24652517   0.02993308
9140.00   1.25921869   0.02898036
9142.00   1.26215613   0.02707190
9144.00   1.27995086   0.02702901
9146.00   1.31278753   0.02875713
9148.00   1.33560383   0.02976058
9150.00   1.35222459   0.03032490
9152.00   1.36174560   0.03069584
9154.00   1.35940719   0.03093461
9156.00   1.34670770   0.03101867
9158.00   1.34755039   0.03091950
9160.00   1.36893594   0.03057814
9162.00   1.36153519   0.03020958
9164.00   1.32886124   0.02965755
9166.00   1.29103863   0.02918500
9168.00   1.24955487   0.02892572
9170.00   1.20652092   0.02879333
9172.00   1.19380331   0.02866320
9174.00   1.19642568   0.02739714
9176.00   1.22611368   0.02914314
9178.00   1.31379640   0.03444662
9180.00   1.36324084   0.03709718
9182.00   1.35281146   0.03639540
9184.00   1.31068635   0.03400962
9186.00   1.25932837   0.03149725
9188.00   1.16965473   0.02701537
9190.00   1.14031732   0.02512676
9192.00   1.15116453   0.02576701
9194.00   1.17055547   0.02611479
9196.00   1.21049428   0.02635252
9198.00   1.25013363   0.02653354
9200.00   1.26261139   0.02638669
9202.00   1.25940108   0.02599469
9204.00   1.24556482   0.02569156
9206.00   1.19879866   0.02478082
9208.00   1.18420959   0.02510905
9210.00   1.20765722   0.02697025
9212.00   1.22728825   0.02865899
9214.00   1.21774006   0.02948836
9216.00   1.19274640   0.02990720
9218.00   1.16949546   0.02941098
9220.00   1.11410165   0.02693582
9222.00   1.11900353   0.02639551
9224.00   1.19568431   0.02739571
9226.00   1.24936652   0.02843648
9228.00   1.24132788   0.02922505
9230.00   1.20788157   0.02993681
9232.00   1.20434511   0.03021389
9234.00   1.21007621   0.03002666
9236.00   1.22433209   0.03007884
9238.00   1.26975703   0.03015277
9240.00   1.28198540   0.03026196
9242.00   1.23461223   0.03047451
9244.00   1.17721117   0.03065941
9246.00   1.18068504   0.03063911
9248.00   1.23119807   0.03057021
9250.00   1.23679602   0.02995863
9252.00   1.21933627   0.02846646
9254.00   1.20134330   0.02747538
9256.00   1.17826045   0.02701411
9258.00   1.15463352   0.02678305
9260.00   1.13509870   0.02664175
9262.00   1.11689198   0.02668281
9264.00   1.10897040   0.02656542
9266.00   1.11403501   0.02642777
9268.00   1.11370409   0.02619086
9270.00   1.11040735   0.02557063
9272.00   1.10772860   0.02531500
9274.00   1.10760283   0.02583019
9276.00   1.10866582   0.02683448
9278.00   1.10732985   0.02801640
9280.00   1.10026324   0.02989243
9282.00   1.10306811   0.03092057
9284.00   1.12101901   0.03146932
9286.00   1.12723005   0.03191594
9288.00   1.10716093   0.03227529
9290.00   1.08054626   0.03258132
9292.00   1.08455741   0.03303969
9294.00   1.10896933   0.03344046
9296.00   1.13483489   0.03433737
9298.00   1.17944419   0.03541705
9300.00   1.20910597   0.03698473
9302.00   1.22332990   0.03895971
9304.00   1.22606921   0.04130078
9306.00   1.21679914   0.04398840
9308.00   1.19437516   0.04691324
9310.00   1.16926968   0.05027704
9312.00   1.13451934   0.05361382
9314.00   1.10122836   0.05783516
9316.00   1.04735112   0.06450810
9318.00   1.02105331   0.06899689
9320.00   1.07601964   0.06821629
9322.00   1.18771613   0.06382846
9324.00   1.19640243   0.06211466
9326.00   1.09783435   0.06184310
9328.00   1.08632255   0.06019877
9330.00   1.15522707   0.05660383
9332.00   1.19910884   0.05405716
9334.00   1.16186213   0.05316697
9336.00   1.09313977   0.05412138
9338.00   1.10207677   0.06027167
9340.00   1.20109308   0.07461300
9342.00   1.19714165   0.07669795
9344.00   1.10939407   0.07033791
9346.00   1.04682863   0.06425992
9348.00   1.00528216   0.05878587
9350.00   0.99927408   0.05445508
9352.00   1.10533321   0.05660756
9354.00   1.37089026   0.06576508
9356.00   1.38504803   0.06612034
9358.00   1.17128098   0.05853659
9360.00   1.04751861   0.05561160
9362.00   0.99493986   0.05955002
9364.00   0.99406385   0.06401658
9366.00   1.07326901   0.06334211
9368.00   1.23825848   0.05861401
9370.00   1.28145587   0.06687760
9372.00   1.25516665   0.08684303
9374.00   1.21201932   0.09535808
9376.00   1.13159096   0.09894918
9378.00   1.03979886   0.09822509
9380.00   0.93363631   0.09120392
9382.00   0.81878757   0.07778333
9384.00   0.81874889   0.06801036
9386.00   0.95777690   0.05817539
9388.00   1.00913692   0.04927225
9390.00   1.02694416   0.04186045
9392.00   1.03129506   0.03595836
9394.00   1.01395679   0.03267878
9396.00   0.99037516   0.03222952
9398.00   1.01930082   0.03259145
9400.00   1.11489391   0.03537704
9402.00   1.12696004   0.03696077
9404.00   1.07961917   0.03877471
9406.00   1.03558707   0.03991587
9408.00   0.98783052   0.03979175
9410.00   0.94842780   0.03972336
9412.00   0.95346892   0.04164338
9414.00   1.00497770   0.04505614
9416.00   0.99138892   0.04668129
9418.00   0.91425949   0.04787423
9420.00   0.87881696   0.04807239
9422.00   0.88537925   0.04682540
9424.00   0.90210420   0.04532228
9426.00   0.89881825   0.04407490
9428.00   0.88572007   0.04263111
9430.00   0.96077675   0.04547660
9432.00   1.18098533   0.05375765
9434.00   1.25380540   0.05675815
9436.00   1.21951973   0.05557292
9438.00   1.14151645   0.05504306
9440.00   1.01721203   0.05821981
9442.00   0.86018872   0.06239441
9444.00   0.81303656   0.06149042
9446.00   0.85281754   0.05547155
9448.00   0.88024700   0.05147188
9450.00   0.94748175   0.04563639
9452.00   0.99116611   0.04263016
9454.00   0.99394774   0.04494666
9456.00   0.97801530   0.04958495
9458.00   0.96895421   0.05300729
9460.00   0.95698625   0.05794461
9462.00   0.94057047   0.05798027
9464.00   0.91312695   0.05279492
9466.00   0.89561230   0.04919696
9468.00   0.87928647   0.04709118
9470.00   0.87985742   0.04658140
9472.00   0.92882508   0.04893968
9474.00   1.02804625   0.05377063
9476.00   1.04062843   0.05678059
9478.00   1.00155663   0.06070351
9480.00   0.94169313   0.06168276
9482.00   0.82049865   0.05985200
9484.00   0.72317255   0.05664711
9486.00   0.70938373   0.05223826
9488.00   0.74783224   0.04604264
9490.00   0.80184054   0.04279477
9492.00   0.92001003   0.04061133
9494.00   0.98394287   0.04200310
9496.00   1.03424883   0.04797332
9498.00   1.04286051   0.05292583
9500.00   0.98356611   0.05666685
9502.00   0.88581377   0.05925141
9504.00   0.83026934   0.05706978
9506.00   0.77401531   0.04797866
9508.00   0.76572728   0.04293255
9510.00   0.80835080   0.03876113
9512.00   0.85161477   0.03646711
9514.00   0.89763153   0.03674337
9516.00   0.94096184   0.03897019
9518.00   0.96006483   0.04237460
9520.00   0.96271229   0.04772911
9522.00   0.95496953   0.05009381
9524.00   0.93289536   0.05162533
9526.00   0.90262610   0.05149025
9528.00   0.84863478   0.04891725
9530.00   0.80410838   0.04558992
9532.00   0.80329436   0.04292183
9534.00   0.83259171   0.03997586
9536.00   0.85897797   0.04084442
9538.00   0.90628523   0.04583234
9540.00   0.93356711   0.04895329
9542.00   0.93446583   0.05224001
9544.00   0.94564903   0.05400576
9546.00   0.99497336   0.05266956
9548.00   1.06292582   0.04935692
9550.00   1.08227241   0.04944369
9552.00   1.07204843   0.05269368
9554.00   1.04895842   0.05347028
9556.00   0.99625415   0.05307828
9558.00   0.94679624   0.05245405
9560.00   0.91243494   0.05154537
9562.00   0.87962437   0.05055692
9564.00   0.82526994   0.05062250
9566.00   0.72751009   0.05208290
9568.00   0.71951193   0.05158105
9570.00   0.80337495   0.04980168
9572.00   0.85334569   0.04760358
9574.00   0.85102719   0.04422212
9576.00   0.84184307   0.04085365
9578.00   0.87333000   0.03996982
9580.00   0.93842179   0.04112878
9582.00   0.94154364   0.04146324
9584.00   0.88864827   0.04181539
9586.00   0.85707277   0.04243533
9588.00   0.84399372   0.04348050
9590.00   0.82995450   0.04445694
9592.00   0.79716992   0.04502753
9594.00   0.75284964   0.04537368
9596.00   0.75832069   0.04565210
9598.00   0.81882209   0.04540623
9600.00   0.84863138   0.04596296
9602.00   0.85750079   0.04723307
9604.00   0.87237954   0.04855919
9606.00   0.91976076   0.05044188
9608.00   0.97295779   0.05213248
9610.00   0.93815017   0.04991026
9612.00   0.77271706   0.04101054
9614.00   0.75246644   0.03809508
9616.00   0.86687028   0.03957134
9618.00   0.91465199   0.04134621
9620.00   0.83322495   0.04325023
9622.00   0.71638805   0.04520269
9624.00   0.69316143   0.04596367
9626.00   0.73735130   0.04580870
9628.00   0.72022176   0.04619017
9630.00   0.63514799   0.04776181
9632.00   0.62262231   0.04719508
9634.00   0.71507305   0.04292071
9636.00   0.81907684   0.03818518
9638.00   0.84814155   0.03788468
9640.00   0.83920926   0.04070708
9642.00   0.81350559   0.04073278
9644.00   0.72168595   0.03928145
9646.00   0.69777387   0.03837599
9648.00   0.75319952   0.03764158
9650.00   0.80066562   0.03714272
9652.00   0.78500909   0.03684843
9654.00   0.73743629   0.03680604
9656.00   0.72088742   0.03794319
9658.00   0.71197838   0.04030177
9660.00   0.71495062   0.04229818
9662.00   0.72722274   0.04457693
9664.00   0.75270271   0.04649223
9666.00   0.79777938   0.04820744
9668.00   0.85396099   0.04946545
9670.00   0.89903510   0.04901426
9672.00   0.96481740   0.04670211
9674.00   0.95773089   0.04488446
9676.00   0.87775022   0.04213862
9678.00   0.80681789   0.04035649
9680.00   0.74058318   0.04041721
9682.00   0.68689090   0.04090942
9684.00   0.67603117   0.03989222
9686.00   0.69995642   0.03773327
9688.00   0.73038536   0.03672000
9690.00   0.80075097   0.03618967
9692.00   0.83630860   0.03610906
9694.00   0.83328050   0.03668395
9696.00   0.82065040   0.03745073
9698.00   0.82082182   0.03809975
9700.00   0.82455713   0.03881112
9702.00   0.80489522   0.03899290
9704.00   0.74638087   0.03867577
9706.00   0.72829646   0.03843218
9708.00   0.74443799   0.03784965
9710.00   0.76720124   0.03765891
9712.00   0.78886294   0.03825748
9714.00   0.81264687   0.03935910
9716.00   0.81944966   0.04059464
9718.00   0.81036037   0.04267858
9720.00   0.80504262   0.04352297
9722.00   0.79635310   0.04345456
9724.00   0.78808248   0.04341808
9726.00   0.77108908   0.04348002
9728.00   0.76097417   0.04365146
9730.00   0.80217588   0.04441103
9732.00   0.92050952   0.04606872
9734.00   0.91818416   0.04622653
9736.00   0.80844033   0.04499274
9738.00   0.73281372   0.04426875
9740.00   0.68647087   0.04410778
9742.00   0.66453165   0.04425048
9744.00   0.69040424   0.04483068
9746.00   0.77156430   0.04609577
9748.00   0.76521373   0.04543544
9750.00   0.68273896   0.04260331
9752.00   0.63402987   0.04076908
9754.00   0.60384214   0.03959563
9756.00   0.58693039   0.03891335
9758.00   0.58277994   0.03883562
9760.00   0.59156579   0.03932791
9762.00   0.62389708   0.03964770
9764.00   0.70662421   0.04040586
9766.00   0.73934382   0.04042759
9768.00   0.73743111   0.03979209
9770.00   0.72568047   0.03904760
9772.00   0.70525146   0.03824582
9774.00   0.67928648   0.03742376
9776.00   0.68001795   0.03719293
9778.00   0.70984286   0.03621728
9780.00   0.71516955   0.03864691
9782.00   0.70808822   0.04511893
9784.00   0.69992214   0.04871126
9786.00   0.68732673   0.04876547
9788.00   0.67698348   0.04749612
9790.00   0.68496740   0.04711282
9792.00   0.70909899   0.04650436
9794.00   0.72573817   0.04682048
9796.00   0.74045157   0.04867709
9798.00   0.75893867   0.04906221
9800.00   0.79448581   0.04763431
9802.00   0.81663752   0.04576751
9804.00   0.78744674   0.04465322
9806.00   0.71653169   0.04376775
9808.00   0.69971788   0.04318504
9810.00   0.72539294   0.04201896
9812.00   0.72879249   0.04307569
9814.00   0.72313058   0.04755222
9816.00   0.70689714   0.05052889
9818.00   0.66931129   0.04956637
9820.00   0.61873555   0.04627927
9822.00   0.61084288   0.04451958
9824.00   0.64995247   0.04226436
9826.00   0.65538478   0.04184007
9828.00   0.64169198   0.04390534
9830.00   0.62993675   0.04502461
9832.00   0.62179834   0.04419522
9834.00   0.61813825   0.04247423
9836.00   0.63296217   0.04117412
9838.00   0.66844094   0.03928963
9840.00   0.69287884   0.03889494
9842.00   0.71274090   0.03973497
9844.00   0.73740804   0.04081276
9846.00   0.78225046   0.04248022
9848.00   0.81630152   0.04400778
9850.00   0.79587436   0.04429520
9852.00   0.73546362   0.04374289
9854.00   0.66256279   0.04308913
9856.00   0.52436072   0.04063377
9858.00   0.45662144   0.04081236
9860.00   0.44876102   0.04399579
9862.00   0.48266411   0.04757318
9864.00   0.56245381   0.05034593
9866.00   0.68961906   0.05302871
9868.00   0.77019870   0.05417507
9870.00   0.86262655   0.05390479
9872.00   0.88100868   0.05380036
9874.00   0.80705088   0.05370818
9876.00   0.73839819   0.05309350
9878.00   0.71265596   0.05143995
9880.00   0.70628500   0.04913365
9882.00   0.72001094   0.04788551
9884.00   0.78730536   0.04722855
9886.00   0.79001153   0.04682362
9888.00   0.73937219   0.04702836
9890.00   0.70191985   0.04716600
9892.00   0.69775635   0.04660196
9894.00   0.69884825   0.04636277
9896.00   0.66607213   0.04862189
9898.00   0.59941918   0.05355424
9900.00   0.57459509   0.05483546
9902.00   0.56040817   0.05404433
9904.00   0.57954037   0.05291324
9906.00   0.65530658   0.05020941
9908.00   0.73484445   0.04814709
9910.00   0.75666654   0.05032087
9912.00   0.74136680   0.05558334
9914.00   0.75224221   0.05713123
9916.00   0.78758544   0.05723332
9918.00   0.78722090   0.05641792
9920.00   0.74628532   0.05382457
9922.00   0.70184094   0.05107804
9924.00   0.67367989   0.04935971
9926.00   0.65134490   0.04813275
9928.00   0.63959473   0.04739020
9930.00   0.63751394   0.04707224
9932.00   0.64262754   0.04751240
9934.00   0.65317005   0.04781879
9936.00   0.67555338   0.05006291
9938.00   0.73660290   0.05484546
9940.00   0.80012161   0.06085753
9942.00   0.74541903   0.06680493
9944.00   0.55807871   0.07527923
9946.00   0.47115865   0.07759789
9948.00   0.37134841   0.07446422
9950.00   0.38163868   0.07284126
9952.00   0.58520752   0.07101488
9954.00   0.82610840   0.07256770
9956.00   0.87755692   0.08572538
9958.00   0.83256263   0.10814504
9960.00   0.69576275   0.11226267
9962.00   0.28532276   0.10661572
9964.00   0.15100475   0.09778421
9966.00   0.37149552   0.07849935
9968.00   0.63235360   0.05550771
9970.00   0.68211555   0.04860217
9972.00   0.63140589   0.05651861
9974.00   0.60605007   0.05660957
9976.00   0.53650624   0.05651564
9978.00   0.51041794   0.05613225
9980.00   0.52146780   0.05535984
9982.00   0.53960794   0.05447870
9984.00   0.54928643   0.05304717
9986.00   0.56073081   0.05150909
9988.00   0.59249753   0.05347602
9990.00   0.66220123   0.05943300
9992.00   0.68793851   0.06232709
9994.00   0.68483824   0.06547302
9996.00   0.67603153   0.06590595
9998.00   0.66295218   0.06101213
10000.00   0.64659083   0.05387085
10002.00   0.64124519   0.05392726
10004.00   0.65405339   0.05891576
10006.00   0.62872499   0.06338798
10008.00   0.51376188   0.06920794
10010.00   0.51146632   0.07481389
10012.00   0.67141402   0.08098958
10014.00   0.87541187   0.08630536
10016.00   1.01720560   0.08949158
10018.00   1.17258000   0.09202277
10020.00   1.11679494   0.08910834
10022.00   0.77089757   0.07671589
10024.00   0.60761058   0.06984895
10026.00   0.61244059   0.07030356
10028.00   0.65147752   0.07147894
10030.00   0.65925664   0.06889579
10032.00   0.67002124   0.06452868
10034.00   0.62412316   0.06263196
10036.00   0.48508012   0.06204199
10038.00   0.43966705   0.06228862
10040.00   0.45897079   0.06417980
10042.00   0.50126952   0.06583336
10044.00   0.58321291   0.06644326
10046.00   0.67633486   0.06670734
10048.00   0.62301403   0.06772186
10050.00   0.36785048   0.07013283
10052.00   0.32471269   0.07003073
10054.00   0.42898890   0.06703269
10056.00   0.51392680   0.06545712
10058.00   0.57076049   0.06682581
10060.00   0.60390329   0.06885078
10062.00   0.56708193   0.06851636
10064.00   0.44967151   0.06623039
10066.00   0.40415928   0.06619409
10068.00   0.38682681   0.06612401
10070.00   0.38519827   0.06892275
10072.00   0.40839997   0.07593738
10074.00   0.43889609   0.08247342
10076.00   0.45618263   0.08508611
10078.00   0.46806166   0.08565092
10080.00   0.49138203   0.08580895
10082.00   0.54170161   0.08405415
10084.00   0.55185884   0.08347557
10086.00   0.53624755   0.08516590
10088.00   0.49036595   0.08504078
10090.00   0.38200462   0.07948064
10092.00   0.23465975   0.06984202
10094.00   0.23806241   0.06655008
10096.00   0.37340930   0.06814060
10098.00   0.47999677   0.06948443
10100.00   0.62340772   0.07256537
10102.00   0.74391383   0.07550090
10104.00   0.83534133   0.07871433
10106.00   0.89584404   0.08130460
10108.00   0.88092941   0.07954872
10110.00   0.77399921   0.07154594
10112.00   0.71212453   0.06986025
10114.00   0.62884176   0.06982775
10116.00   0.59580570   0.07461124
10118.00   0.67378676   0.08726504
10120.00   0.74227035   0.09856824
10122.00   0.60649955   0.09945340
10124.00   0.27155325   0.09291069
10126.00   0.23005506   0.09012509
10128.00   0.46324641   0.08797979
10130.00   0.54382294   0.08512431
10132.00   0.46904612   0.08059797
10134.00   0.36969465   0.07674370
10136.00   0.32231987   0.07608882
10138.00   0.28825992   0.07774055
10140.00   0.30050054   0.07845294
10142.00   0.35164300   0.07948968
10144.00   0.42942384   0.08030023
10146.00   0.58204937   0.08066797
10148.00   0.69310087   0.08147132
10150.00   0.71980286   0.08344513
10152.00   0.68528438   0.08589040
10154.00   0.55249935   0.08660439
10156.00   0.17068216   0.08274417
10158.00   0.10310314   0.08692021
10160.00   0.26749143   0.09945586
10162.00   0.42999285   0.10659488
10164.00   0.54509819   0.10544182
10166.00   0.66224742   0.10149091
10168.00   0.81348383   0.10260885
10170.00   1.04284894   0.10597926
10172.00   1.08396137   0.10996573
10174.00   0.96884406   0.11936952
10176.00   0.84762579   0.12090393
10178.00   0.69785094   0.11098270
10180.00   0.54811811   0.09785491
10182.00   0.43613383   0.09321508
10184.00   0.32408792   0.09350926
10186.00   0.39300370   0.09428593
10188.00   0.68258291   0.09899876
10190.00   0.88243300   0.10116381
10192.00   1.08971286   0.10151415
10194.00   1.19420266   0.10114537
10196.00   1.07697308   0.09990873
10198.00   0.80008245   0.09784693
10200.00   0.64742923   0.09961303
10202.00   0.48465773   0.10531896
10204.00   0.42967510   0.10872225
10206.00   0.50235474   0.11186360
10208.00   0.57135856   0.11375589
10210.00   0.56558096   0.11384080
10212.00   0.55460453   0.11274190
10214.00   0.69708270   0.11177047
10216.00   1.11879754   0.11018045
10218.00   1.11627507   0.10888999
10220.00   0.67038411   0.10643523
10222.00   0.43959048   0.10620512
10224.00   0.58806044   0.10970979
10226.00   0.83241504   0.11408942
10228.00   0.83306420   0.11565665
10230.00   0.68346137   0.11571732
10232.00   0.64015728   0.11602001
10234.00   0.64477766   0.11690620
10236.00   0.62819338   0.11567449
10238.00   0.57226634   0.11066787
10240.00   0.53304034   0.10581739
10242.00   0.57072902   0.10545942
10244.00   0.66770792   0.10800044
10246.00   0.68409044   0.10969004
10248.00   0.62573135   0.10874952
10250.00   0.62361485   0.11477077
10252.00   0.68163705   0.13035360
10254.00   0.72427791   0.14110437
10256.00   0.68971646   0.14163391
10258.00   0.62191492   0.13632257
10260.00   0.69220167   0.13035995
10262.00   0.98077399   0.11647491
10264.00   1.01269341   0.11082557
10266.00   0.78270525   0.11108469
10268.00   0.67002136   0.11344000
10270.00   0.85282856   0.11798335
10272.00   1.11136782   0.12361211
10274.00   1.04112709   0.12612569
10276.00   0.71172047   0.12519418
10278.00   0.49521407   0.12985727
10280.00   0.15473273   0.13761400
10282.00   0.04930621   0.14636251
10284.00   0.30436257   0.15786684
10286.00   0.64521867   0.16806893
10288.00   0.74829292   0.17217882
10290.00   0.73080218   0.17238684
10292.00   0.74420917   0.17183535
10294.00   0.69790900   0.16907729
10296.00   0.72114462   0.16536565
10298.00   0.84013420   0.15863810
10300.00   0.95055610   0.15293373
10302.00   0.97864962   0.15288664
10304.00   0.96032280   0.15662727
10306.00   0.92360944   0.15457483
10308.00   0.78570420   0.14556326
10310.00   0.78550577   0.14357208
10312.00   1.03658116   0.14516912
10314.00   1.09963524   0.15120880
10316.00   0.63662970   0.16572088
10318.00   -0.03976319   0.18219484
10320.00   0.01601645   0.18134932
10322.00   0.82873988   0.16232777
10324.00   1.07417452   0.15374386
10326.00   0.98938197   0.14566827
10328.00   1.01536119   0.14353254
10330.00   1.27670217   0.15182194
10332.00   1.59238541   0.16269441
10334.00   1.74727952   0.16437104
10336.00   1.86880732   0.16014858
10338.00   1.74982572   0.15902728
10340.00   1.19201386   0.15282935
10342.00   0.98274279   0.15764149
10344.00   1.27196550   0.18022600
10346.00   1.60867870   0.19901857
10348.00   1.56676853   0.19620623
10350.00   1.30816817   0.17682025
10352.00   1.13049889   0.17736946
10354.00   0.77370971   0.19604366
10356.00   0.74983615   0.20024851
10358.00   1.19484675   0.19193871
10360.00   1.55212092   0.18172038
10362.00   1.44141948   0.17420162
10364.00   1.07782686   0.16721278
10366.00   0.97728544   0.17082700
10368.00   0.93575335   0.18930174
10370.00   1.02968085   0.19490220
10372.00   1.39817905   0.19366936
10374.00   1.61440408   0.19081876
10376.00   1.47354794   0.18700688
10378.00   1.18934572   0.18207274
10380.00   1.16825736   0.17906341
10382.00   1.34144950   0.17718810
10384.00   1.37114048   0.17528220
10386.00   1.40341556   0.17338596
10388.00   1.31244290   0.17245235
10390.00   0.98393118   0.17023942
10392.00   0.63795340   0.17109710
10394.00   0.60465407   0.18381730
10396.00   0.78352010   0.20848310
10398.00   0.94862437   0.21099754
10400.00   1.34323072   0.19349845
10402.00   1.44344783   0.18488538
10404.00   1.04212058   0.18563302
10406.00   0.75017983   0.18896174
10408.00   1.19655120   0.19014367
10410.00   2.15967607   0.19090323
10412.00   2.26162171   0.20037879
10414.00   1.74899578   0.22082789
10416.00   1.32585144   0.23150264
10418.00   0.54709911   0.23999035
10420.00   0.16057019   0.24078640
10422.00   0.71423680   0.22720335
10424.00   1.79661858   0.20276068
10426.00   2.20442367   0.19167355
10428.00   2.47796535   0.19140320
10430.00   2.25638914   0.18591937
10432.00   1.13938785   0.17732312
10434.00   0.52305114   0.17257383
10436.00   0.90277255   0.17543009
10438.00   1.64840198   0.18108474
10440.00   1.82767963   0.18128844
10442.00   1.66961193   0.17660886
10444.00   1.79154420   0.17933601
10446.00   2.17713046   0.18786974
10448.00   2.31174374   0.19496030
10450.00   2.07243061   0.20343897
10452.00   1.76551056   0.20844948
10454.00   1.72560525   0.20190649
10456.00   1.85228002   0.18363002
10458.00   1.78260124   0.17651531
10460.00   1.49653792   0.17483832
10462.00   1.42583716   0.17549975
10464.00   1.61956513   0.17947137
10466.00   1.79934287   0.18541545
10468.00   1.76065183   0.19434936
10470.00   1.60545480   0.20546275
10472.00   1.61034238   0.20369755
10474.00   1.73417425   0.18515952
10476.00   1.79800808   0.17886259
10478.00   1.87275732   0.18206429
10480.00   1.88760769   0.18505861
10482.00   1.81639040   0.18498729
10484.00   1.67756677   0.18379088
10486.00   1.47177148   0.18106234
10488.00   1.06573594   0.17466198
10490.00   0.95331419   0.17274137
10492.00   1.03006363   0.17072551
10494.00   1.17229366   0.17495149
10496.00   1.42683649   0.19142601
10498.00   1.70172226   0.20724557
10500.00   1.78752029   0.20432509
10502.00   1.73038459   0.18436630
10504.00   1.73969495   0.17762238
10506.00   1.79850352   0.17749378
10508.00   1.75884318   0.17714943
10510.00   1.55055404   0.17720382
10512.00   1.35808206   0.17773177
10514.00   1.36441362   0.17770247
10516.00   1.49955189   0.17713672
10518.00   1.59408939   0.18138292
10520.00   1.83376956   0.19161379
10522.00   1.80617881   0.19742644
10524.00   1.41009831   0.20277733
10526.00   1.09445286   0.20353164
10528.00   1.13900912   0.19476764
10530.00   1.37335718   0.17887411
10532.00   1.44136858   0.17324501
10534.00   1.46213269   0.17541674
10536.00   1.45964408   0.17533001
10538.00   1.38987803   0.17496774
10540.00   1.35429931   0.17649288
10542.00   1.43399727   0.17988043
10544.00   1.52287531   0.18532956
10546.00   1.35895050   0.19527191
10548.00   0.85230410   0.21525881
10550.00   0.79816931   0.21532451
10552.00   1.15395474   0.19557261
10554.00   1.33713901   0.18189095
10556.00   1.22494149   0.17873037
10558.00   1.08425713   0.17959358
10560.00   1.22251713   0.17982163
10562.00   1.57994616   0.18169796
10564.00   1.68401825   0.18312086
10566.00   1.64814019   0.18458733
10568.00   1.59102261   0.18662201
10570.00   1.44941247   0.18992864
10572.00   1.33292472   0.19264852
10574.00   1.34285605   0.19292149
10576.00   1.43297088   0.19151109
10578.00   1.51577616   0.19307926
10580.00   1.64273608   0.19732586
10582.00   1.74341488   0.19990140
10584.00   1.82756054   0.20214497
10586.00   1.91117108   0.20324016
10588.00   2.01590633   0.20254205
10590.00   2.12012148   0.20059516
10592.00   2.13428092   0.19896032
10594.00   2.06581068   0.19690254
10596.00   2.00264478   0.19496605
10598.00   1.86567247   0.19142832
10600.00   1.80288875   0.19063698
10602.00   1.92259538   0.19445363
10604.00   2.05397177   0.20002767
10606.00   1.86006975   0.20351955
10608.00   1.33356678   0.20798758
10610.00   1.15618837   0.20627104
10612.00   1.14897501   0.19706148
10614.00   1.21293426   0.19033763
10616.00   1.46691084   0.18639652
10618.00   1.67287743   0.18378267
10620.00   1.49192858   0.18186773
10622.00   0.99344707   0.18083656
10624.00   0.91994441   0.18202084
10626.00   1.15793884   0.18784478
10628.00   1.29711401   0.18913215
10630.00   1.41620612   0.18593700
10632.00   1.49512351   0.18203524
10634.00   1.47183895   0.17914574
10636.00   1.38150907   0.17640211
10638.00   1.48988533   0.17676078
10640.00   1.93414390   0.18159313
10642.00   1.95299268   0.18290138
10644.00   1.59239292   0.18082500
10646.00   1.25194740   0.18058369
10648.00   0.97602952   0.18521459
10650.00   0.77924663   0.19131359
10652.00   1.01106358   0.19190949
10654.00   1.86267972   0.18950969
10656.00   2.08347178   0.18482472
10658.00   1.89081216   0.17406125
10660.00   1.74385309   0.16643862
10662.00   1.67615581   0.16438149
10664.00   1.63232875   0.16459471
10666.00   1.63425744   0.16375686
10668.00   1.70350671   0.16380571
10670.00   1.66213703   0.16146323
10672.00   1.49853289   0.15633617
10674.00   1.42010570   0.15248060
10676.00   1.43902457   0.14985050
10678.00   1.47701705   0.14775534
10680.00   1.46779263   0.14535369
10682.00   1.43493152   0.14270349
10684.00   1.49286354   0.14492150
10686.00   1.70899224   0.15459822
10688.00   1.74341547   0.15724103
10690.00   1.59781086   0.15526265
10692.00   1.44484878   0.15069909
10694.00   1.34210610   0.14253786
10696.00   1.26266932   0.13122775
10698.00   1.31654072   0.12732716
10700.00   1.64938438   0.12812045
10702.00   1.63710093   0.13195737
10704.00   1.30229104   0.14240113
10706.00   1.07329261   0.14965481
10708.00   1.05065298   0.15297034
10710.00   1.13585615   0.15327725
10712.00   1.28980827   0.14794575
10714.00   1.64276969   0.13395013
10716.00   1.68751729   0.12581345
10718.00   1.44111669   0.11962634
10720.00   1.31167400   0.11510917
10722.00   1.34563315   0.11310615
10724.00   1.41596794   0.11249203
10726.00   1.41039670   0.11144671
10728.00   1.36207318   0.11054676
10730.00   1.38525319   0.11144565
10732.00   1.47613704   0.11548150
10734.00   1.53137100   0.11668003
10736.00   1.58433902   0.11561544
10738.00   1.59265661   0.11316217
10740.00   1.50306606   0.10852174
10742.00   1.33924365   0.10157260
10744.00   1.25386226   0.10199550
10746.00   1.16559196   0.11149132
10748.00   1.16889775   0.11349040
10750.00   1.25307369   0.10963403
10752.00   1.38713789   0.10651825
10754.00   1.62977850   0.10645330
10756.00   1.90253937   0.10810288
10758.00   1.84152544   0.11229821
10760.00   1.39910614   0.12369373
10762.00   1.23488307   0.12308818
10764.00   1.20303404   0.11129114
10766.00   1.15932906   0.10125400
10768.00   1.06285238   0.09525102
10770.00   0.97646499   0.09221004
10772.00   0.97617656   0.09476561
10774.00   1.02166951   0.10481519
10776.00   1.16304541   0.10548611
10778.00   1.51149249   0.09933750
10780.00   1.68568385   0.09492526
10782.00   1.61513388   0.09156474
10784.00   1.52220738   0.08962669
10786.00   1.63987541   0.09114446
10788.00   1.90557456   0.09584738
10790.00   1.85474873   0.09584599
10792.00   1.46558523   0.09245832
10794.00   1.29559004   0.08980679
10796.00   1.32425213   0.08632277
10798.00   1.34734750   0.08394548
10800.00   1.20948601   0.08498041
10802.00   1.00683498   0.08798627
10804.00   1.12845612   0.08660232
10806.00   1.74761868   0.08106068
10808.00   1.82905138   0.07751326
10810.00   1.43512189   0.07257406
10812.00   1.14843488   0.07107683
10814.00   1.16040969   0.07621407
10816.00   1.29210711   0.08372345
10818.00   1.34766293   0.08664461
10820.00   1.38951290   0.08826783
10822.00   1.46671426   0.08744008
10824.00   1.60293508   0.08225559
