# File created by shivutils (I.Shivvers)
# 
# wl(A)   flm    er(optional)
3450.00   0.69233012   0.13820417
3452.00   0.78930271   0.13591789
3454.00   0.91251761   0.14312281
3456.00   0.53690344   0.13507806
3458.00   0.74428838   0.13836889
3460.00   0.52015138   0.13689071
3462.00   0.89333403   0.14446244
3464.00   0.65571249   0.13525569
3466.00   1.06578839   0.14771868
3468.00   0.64508426   0.13859847
3470.00   0.59503466   0.13796264
3472.00   0.27799153   0.13858131
3474.00   0.64018238   0.14008017
3476.00   0.57107443   0.14286309
3478.00   0.86197996   0.14844039
3480.00   0.54019809   0.14664249
3482.00   0.63908935   0.14299132
3484.00   0.73213452   0.14552769
3486.00   0.71404642   0.14354707
3488.00   0.16682111   0.13894139
3490.00   0.26588508   0.13630450
3492.00   0.69018602   0.14367320
3494.00   0.58059621   0.13863465
3496.00   0.52087331   0.13796060
3498.00   0.74081624   0.14201678
3500.00   0.39532384   0.13977626
3502.00   0.63487166   0.13888903
3504.00   0.68151766   0.13859130
3506.00   0.47561243   0.13795649
3508.00   0.29024488   0.13601501
3510.00   0.52463514   0.14051345
3512.00   0.42410204   0.13681127
3514.00   0.41911751   0.13560514
3516.00   0.66649836   0.13954730
3518.00   0.63565660   0.13836542
3520.00   0.69759285   0.14216582
3522.00   0.59191048   0.13691106
3524.00   0.84330446   0.14258754
3526.00   0.58358556   0.13313299
3528.00   0.82054192   0.13744867
3530.00   0.65233618   0.13644998
3532.00   0.66000193   0.13647059
3534.00   0.63388634   0.13497111
3536.00   0.67532158   0.13412590
3538.00   0.78281707   0.13949764
3540.00   0.60706002   0.13576216
3542.00   0.64503771   0.13595541
3544.00   1.07154596   0.14525798
3546.00   0.70153707   0.13611451
3548.00   0.97207594   0.14111055
3550.00   0.55983025   0.13315549
3552.00   0.76233524   0.13508819
3554.00   0.62748486   0.13366407
3556.00   0.65859330   0.13363220
3558.00   0.82304537   0.13624123
3560.00   0.29516959   0.12749425
3562.00   0.51343381   0.12481478
3564.00   0.76767230   0.12854341
3566.00   0.81374657   0.13061073
3568.00   0.99736369   0.13257168
3570.00   0.62310416   0.12420015
3572.00   0.93064934   0.13052954
3574.00   1.00472951   0.12757266
3576.00   0.66185421   0.12289391
3578.00   1.11380315   0.12955652
3580.00   0.74712849   0.12321500
3582.00   0.81769657   0.12214399
3584.00   0.79876387   0.11835323
3586.00   0.93961513   0.12279107
3588.00   0.90082341   0.11996893
3590.00   0.85779822   0.11942875
3592.00   1.17347682   0.12477908
3594.00   1.16561735   0.12386746
3596.00   1.08601606   0.12343797
3598.00   0.96341240   0.12157497
3600.00   0.64482760   0.10957244
3602.00   0.94833159   0.11741304
3604.00   0.96907854   0.11772175
3606.00   1.27234066   0.11936073
3608.00   1.24407685   0.11870331
3610.00   0.88348806   0.11383789
3612.00   1.06871879   0.11810356
3614.00   1.11176026   0.11732727
3616.00   0.84573317   0.11414195
3618.00   0.91413802   0.11368714
3620.00   1.26158404   0.11989370
3622.00   0.94999295   0.11417073
3624.00   0.83381844   0.10932778
3626.00   1.07584524   0.11087268
3628.00   0.90766895   0.11019561
3630.00   1.00404239   0.11117519
3632.00   1.22814500   0.11395780
3634.00   0.96583164   0.11100177
3636.00   1.16696727   0.11384442
3638.00   1.09145606   0.10989383
3640.00   0.87274987   0.10555407
3642.00   0.93597519   0.10926645
3644.00   0.96251249   0.10990830
3646.00   0.89776355   0.10733071
3648.00   1.20726132   0.12666692
3650.00   0.64952642   0.13069503
3652.00   1.19667864   0.13595270
3654.00   0.97086477   0.12230063
3656.00   0.99421740   0.11820991
3658.00   0.93615901   0.10788693
3660.00   1.23782957   0.11013334
3662.00   1.28013217   0.11700702
3664.00   1.06751633   0.11365981
3666.00   0.92402613   0.10341901
3668.00   1.00489533   0.09949934
3670.00   1.14218688   0.10432487
3672.00   1.10436821   0.10045182
3674.00   1.06595504   0.10155737
3676.00   1.09288704   0.10004314
3678.00   1.04085028   0.09809257
3680.00   1.13957477   0.09833120
3682.00   1.17775369   0.09992480
3684.00   1.01591265   0.09408595
3686.00   1.07830369   0.09609290
3688.00   1.02691221   0.09394333
3690.00   1.17872059   0.09785007
3692.00   1.36630106   0.10010403
3694.00   0.95970231   0.09419668
3696.00   1.18633151   0.09793390
3698.00   1.22143734   0.09640771
3700.00   1.18735945   0.09597213
3702.00   1.23021436   0.09682445
3704.00   1.06800163   0.09337799
3706.00   1.10417557   0.09413751
3708.00   1.15471554   0.09164333
3710.00   1.10762548   0.09186663
3712.00   1.41835856   0.09679007
3714.00   1.28794575   0.09559690
3716.00   1.23034060   0.09231684
3718.00   1.11385989   0.09237325
3720.00   1.15327692   0.09410640
3722.00   1.35184145   0.09480182
3724.00   1.23470426   0.09110586
3726.00   1.22268987   0.08922608
3728.00   1.34520209   0.09209853
3730.00   1.25936759   0.09134650
3732.00   1.46581912   0.09542146
3734.00   1.25165498   0.09256869
3736.00   1.30193985   0.09332075
3738.00   1.32781208   0.09205057
3740.00   1.21261919   0.09142737
3742.00   1.19833362   0.09289716
3744.00   1.42602718   0.09828750
3746.00   1.68370795   0.10220251
3748.00   1.48310423   0.09681597
3750.00   1.54852521   0.09442902
3752.00   1.47330415   0.09203689
3754.00   1.48177922   0.09244490
3756.00   1.29575491   0.08869973
3758.00   1.31593251   0.08994463
3760.00   1.43727040   0.09233698
3762.00   1.50260496   0.09134734
3764.00   1.45536757   0.08913566
3766.00   1.49293089   0.08981545
3768.00   1.32394397   0.08656560
3770.00   1.43517470   0.08950210
3772.00   1.35002995   0.08823916
3774.00   1.19756138   0.08607755
3776.00   1.22051024   0.08593119
3778.00   1.39739621   0.08896323
3780.00   1.08209646   0.08449362
3782.00   0.95842344   0.08127014
3784.00   1.02493382   0.08034470
3786.00   1.10419571   0.08117652
3788.00   0.91686821   0.07781874
3790.00   1.05303133   0.07969159
3792.00   0.85131794   0.07765741
3794.00   0.88579434   0.07690730
3796.00   0.64725286   0.07281253
3798.00   0.80724663   0.07498500
3800.00   0.82582158   0.07691307
3802.00   0.56777346   0.07306253
3804.00   0.69462204   0.07390998
3806.00   0.52144027   0.07012704
3808.00   0.48342600   0.06768176
3810.00   0.72007477   0.07114364
3812.00   0.48563325   0.06718169
3814.00   0.41384473   0.06623347
3816.00   0.50784528   0.06644601
3818.00   0.57233644   0.06766146
3820.00   0.53320640   0.06825125
3822.00   0.51667589   0.06730118
3824.00   0.50103730   0.06727106
3826.00   0.47642407   0.06731931
3828.00   0.43386501   0.06816185
3830.00   0.38005850   0.06869136
3832.00   0.43101370   0.06819683
3834.00   0.38654935   0.06596373
3836.00   0.46166891   0.06764686
3838.00   0.56687582   0.06642969
3840.00   0.47955135   0.06621129
3842.00   0.60741991   0.06761294
3844.00   0.45250776   0.06544645
3846.00   0.45557001   0.06348750
3848.00   0.56096965   0.06519946
3850.00   0.51103503   0.06272721
3852.00   0.56187528   0.06514672
3854.00   0.73813385   0.06727023
3856.00   0.46790400   0.06212779
3858.00   0.63348436   0.06465898
3860.00   0.62699115   0.06442040
3862.00   0.71568626   0.06781746
3864.00   0.85727561   0.07123463
3866.00   0.81974763   0.07066835
3868.00   0.84179556   0.06868898
3870.00   0.94078171   0.07056956
3872.00   0.92720306   0.07182477
3874.00   1.04840720   0.07452760
3876.00   1.03341556   0.07359106
3878.00   1.11115217   0.07300827
3880.00   1.34216130   0.07648896
3882.00   1.10323000   0.07329529
3884.00   1.16584420   0.07434896
3886.00   1.23044777   0.07539069
3888.00   1.10019934   0.07401123
3890.00   1.51306164   0.07891410
3892.00   1.41007900   0.07762824
3894.00   1.38651216   0.07613767
3896.00   1.48647118   0.07943598
3898.00   1.37019932   0.07598820
3900.00   1.47064340   0.07734261
3902.00   1.48545671   0.07786073
3904.00   1.22562182   0.07534124
3906.00   1.65656853   0.08300158
3908.00   1.39664352   0.08142978
3910.00   1.32745790   0.08102039
3912.00   1.54995441   0.08434328
3914.00   1.55500209   0.08212141
3916.00   1.60707676   0.08093014
3918.00   1.44223416   0.07822710
3920.00   1.65880573   0.08119442
3922.00   1.56719112   0.07818050
3924.00   1.56916285   0.07825356
3926.00   1.61373305   0.07840959
3928.00   1.70430839   0.07988223
3930.00   1.79392481   0.07997011
3932.00   1.77044165   0.08019958
3934.00   1.64312756   0.07944965
3936.00   1.89410985   0.08009764
3938.00   1.76637506   0.07889142
3940.00   1.79738283   0.08063244
3942.00   1.87303603   0.08130962
3944.00   1.93227291   0.08204705
3946.00   1.86423016   0.08055078
3948.00   1.85147130   0.07833485
3950.00   1.81267440   0.07689064
3952.00   1.77690887   0.07654208
3954.00   1.83221340   0.07655439
3956.00   2.16175389   0.07999136
3958.00   1.93297148   0.07940660
3960.00   1.96036410   0.08087568
3962.00   2.07427168   0.08247155
3964.00   2.29067779   0.08330422
3966.00   2.07208252   0.07930914
3968.00   1.91607583   0.07829615
3970.00   2.03806186   0.07989176
3972.00   2.12939477   0.08105407
3974.00   2.24879456   0.08227354
3976.00   2.17970705   0.08159444
3978.00   2.00173783   0.07860854
3980.00   2.08088136   0.07995459
3982.00   2.24317956   0.08005897
3984.00   2.22461367   0.07954866
3986.00   1.93838930   0.07580737
3988.00   1.87177503   0.07450114
3990.00   2.11412001   0.07747725
3992.00   2.17591810   0.07744120
3994.00   2.13270283   0.07900833
3996.00   2.10934901   0.08010001
3998.00   2.20057845   0.08087130
4000.00   2.05374384   0.07862639
4002.00   2.04289794   0.07828426
4004.00   2.16237640   0.07987612
4006.00   2.03116608   0.07822853
4008.00   2.13689923   0.07996579
4010.00   2.12030578   0.08048777
4012.00   2.01023769   0.07911061
4014.00   2.13997269   0.07939313
4016.00   2.03538775   0.07947785
4018.00   2.15999651   0.08213893
4020.00   2.01155305   0.08410094
4022.00   2.01815653   0.08466537
4024.00   2.05784822   0.08276724
4026.00   1.95933342   0.07987670
4028.00   2.19037747   0.08056547
4030.00   2.09711933   0.07965631
4032.00   2.06683135   0.07954068
4034.00   2.03257298   0.07835044
4036.00   2.19631720   0.07995953
4038.00   2.01742125   0.07738569
4040.00   1.92942762   0.07673878
4042.00   1.96862948   0.07689853
4044.00   2.00902653   0.09198480
4046.00   1.88942862   0.10589194
4048.00   1.79394484   0.10090431
4050.00   1.81162584   0.08189096
4052.00   1.81295109   0.07636874
4054.00   1.88654375   0.07692233
4056.00   1.75110209   0.07522359
4058.00   1.78115928   0.07416946
4060.00   1.59578896   0.07142481
4062.00   1.76173282   0.07271384
4064.00   1.76857221   0.07235122
4066.00   1.84978771   0.07234658
4068.00   1.71089721   0.07123691
4070.00   1.59607458   0.06995819
4072.00   1.70014000   0.07077760
4074.00   1.71829259   0.07089079
4076.00   1.70857263   0.07409184
4078.00   1.59021330   0.07487889
4080.00   1.45363331   0.07143317
4082.00   1.55097699   0.07063694
4084.00   1.49633086   0.06991982
4086.00   1.48115826   0.07001320
4088.00   1.39934909   0.06745077
4090.00   1.42702293   0.06619784
4092.00   1.38942301   0.06446546
4094.00   1.53409207   0.06597634
4096.00   1.48499680   0.06560735
4098.00   1.09284008   0.06181212
4100.00   1.16542912   0.06103053
4102.00   1.22650945   0.06241205
4104.00   1.27830064   0.06244805
4106.00   1.31486452   0.06281515
4108.00   1.32882619   0.06279399
4110.00   1.27831149   0.06246001
4112.00   1.31438935   0.06232040
4114.00   1.26642787   0.06162474
4116.00   1.47766769   0.06378358
4118.00   1.36253870   0.06198277
4120.00   1.41094983   0.06292673
4122.00   1.31192517   0.06175587
4124.00   1.43999219   0.06249082
4126.00   1.31770897   0.06124507
4128.00   1.34681284   0.06155360
4130.00   1.28855073   0.06186945
4132.00   1.28576446   0.06217730
4134.00   1.41510022   0.06331923
4136.00   1.32813406   0.06257525
4138.00   1.41090500   0.06299349
4140.00   1.35683668   0.06293187
4142.00   1.36425149   0.06298336
4144.00   1.30424404   0.06073953
4146.00   1.39010072   0.06133845
4148.00   1.26672685   0.06059522
4150.00   1.41264451   0.06281075
4152.00   1.35487401   0.06305340
4154.00   1.30517733   0.06205807
4156.00   1.44129407   0.06256155
4158.00   1.46395159   0.06256165
4160.00   1.39024794   0.06181899
4162.00   1.45303273   0.06195835
4164.00   1.42335987   0.06375189
4166.00   1.43130541   0.06416977
4168.00   1.43773198   0.06255531
4170.00   1.39811528   0.06128974
4172.00   1.54722667   0.06235567
4174.00   1.40652668   0.06068652
4176.00   1.39811492   0.06014958
4178.00   1.48084402   0.06181606
4180.00   1.60960531   0.06312888
4182.00   1.53552806   0.06186558
4184.00   1.62692678   0.06253985
4186.00   1.59406650   0.06191655
4188.00   1.55922079   0.06139384
4190.00   1.57138729   0.06173987
4192.00   1.57342994   0.06173403
4194.00   1.62731373   0.06174379
4196.00   1.61827362   0.06166403
4198.00   1.85521305   0.06349788
4200.00   1.78672540   0.06275848
4202.00   1.80154300   0.06341226
4204.00   1.59318674   0.06131932
4206.00   1.74335086   0.06261845
4208.00   1.75741410   0.06340221
4210.00   1.66007912   0.06275448
4212.00   1.76855850   0.06360258
4214.00   1.87089837   0.06421919
4216.00   1.74527967   0.06267915
4218.00   1.77536130   0.06220795
4220.00   1.66432512   0.06143348
4222.00   1.80937123   0.06226941
4224.00   1.79884672   0.06211418
4226.00   1.80402935   0.06209135
4228.00   1.75898206   0.06185867
4230.00   1.78540683   0.06272708
4232.00   1.75420344   0.06198194
4234.00   1.80128717   0.06312235
4236.00   1.89827025   0.06395400
4238.00   1.75529528   0.06314848
4240.00   1.90512586   0.06365801
4242.00   1.79934168   0.06271509
4244.00   1.54791379   0.06120289
4246.00   1.90823543   0.06572028
4248.00   1.59665036   0.06260559
4250.00   1.85095060   0.06332919
4252.00   1.74192047   0.06122511
4254.00   1.79705346   0.06201851
4256.00   1.75457644   0.06099598
4258.00   1.89785433   0.06214048
4260.00   1.73768365   0.06123898
4262.00   1.74624681   0.06087285
4264.00   1.81691861   0.06114146
4266.00   1.72722828   0.06053600
4268.00   1.67933536   0.06015880
4270.00   1.76014757   0.06092523
4272.00   1.80080116   0.06065207
4274.00   1.85182118   0.06123851
4276.00   1.62251580   0.05903705
4278.00   1.81127453   0.06121746
4280.00   1.84518898   0.06120305
4282.00   1.80350411   0.06105933
4284.00   1.86558616   0.06149217
4286.00   1.74652457   0.06074388
4288.00   1.86082697   0.06122519
4290.00   1.94908190   0.06154047
4292.00   1.93505347   0.06088385
4294.00   1.83653545   0.06063676
4296.00   1.86761963   0.06070377
4298.00   1.85377800   0.06065087
4300.00   1.97413576   0.06143431
4302.00   1.84162080   0.06054536
4304.00   1.98724949   0.06137929
4306.00   1.87895548   0.06117289
4308.00   1.98271894   0.06140185
4310.00   1.95805514   0.06138675
4312.00   1.95860696   0.06240340
4314.00   2.00497675   0.06359404
4316.00   2.08271480   0.06355020
4318.00   1.95852673   0.06211136
4320.00   2.04269481   0.06347211
4322.00   1.90707922   0.06246508
4324.00   1.94640470   0.06168906
4326.00   2.05269551   0.06232479
4328.00   2.08555865   0.06188951
4330.00   2.13240457   0.06190050
4332.00   2.10140133   0.06166622
4334.00   2.01591444   0.06169450
4336.00   2.05458331   0.06225147
4338.00   2.17130971   0.06385814
4340.00   2.09482980   0.06291820
4342.00   2.10475898   0.06329128
4344.00   2.05459476   0.06301076
4346.00   2.11359477   0.06397381
4348.00   2.14166570   0.06466698
4350.00   1.91679692   0.06228918
4352.00   2.13725138   0.06365959
4354.00   2.16080666   0.06673896
4356.00   2.13677216   0.08980145
4358.00   2.34372091   0.10335082
4360.00   2.31367350   0.09399483
4362.00   2.13895464   0.07523077
4364.00   2.09905529   0.06554230
4366.00   2.09149981   0.06375661
4368.00   1.98999453   0.06320386
4370.00   2.06491852   0.06270286
4372.00   2.14160252   0.06352349
4374.00   1.97602129   0.06298502
4376.00   2.17279959   0.06401692
4378.00   2.01672721   0.06197431
4380.00   1.84907746   0.06080539
4382.00   2.03139806   0.06159553
4384.00   2.05173445   0.06195155
4386.00   1.93819451   0.06075982
4388.00   2.01342034   0.06080859
4390.00   2.01827908   0.06106903
4392.00   2.02469540   0.06089160
4394.00   1.92664444   0.05988040
4396.00   1.93446898   0.05989727
4398.00   1.90796852   0.06052097
4400.00   1.81377506   0.06026034
4402.00   1.84374595   0.05951817
4404.00   1.74332702   0.05784095
4406.00   1.73578465   0.05767867
4408.00   1.75672555   0.05751753
4410.00   1.65054452   0.05771827
4412.00   1.77618647   0.05847058
4414.00   1.61376357   0.05785161
4416.00   1.62224925   0.05796676
4418.00   1.56374240   0.05634454
4420.00   1.52321208   0.05550018
4422.00   1.53561687   0.05624449
4424.00   1.43525457   0.05499439
4426.00   1.47146106   0.05495333
4428.00   1.51478398   0.05496319
4430.00   1.49619222   0.05534242
4432.00   1.40643859   0.05453878
4434.00   1.34020472   0.05408041
4436.00   1.39404905   0.05414763
4438.00   1.30591929   0.05381813
4440.00   1.36966932   0.05401933
4442.00   1.16211677   0.05211717
4444.00   1.30031109   0.05355182
4446.00   1.19844830   0.05269586
4448.00   1.25689161   0.05328446
4450.00   1.28594196   0.05258269
4452.00   1.30694842   0.05269615
4454.00   1.26396108   0.05227779
4456.00   1.33947945   0.05350822
4458.00   1.31167316   0.05248635
4460.00   1.33091021   0.05268991
4462.00   1.31903362   0.05356027
4464.00   1.23257768   0.05214047
4466.00   1.34012485   0.05303217
4468.00   1.37411582   0.05334143
4470.00   1.31665802   0.05284919
4472.00   1.34434271   0.05321150
4474.00   1.32039952   0.05284661
4476.00   1.23475897   0.05205418
4478.00   1.35253191   0.05296507
4480.00   1.35038483   0.05295247
4482.00   1.42909956   0.05330809
4484.00   1.47948420   0.05416423
4486.00   1.40352046   0.05337137
4488.00   1.45928884   0.05412067
4490.00   1.35946512   0.05385114
4492.00   1.41883194   0.05441702
4494.00   1.38868678   0.05409430
4496.00   1.46059990   0.05536330
4498.00   1.62284279   0.05573923
4500.00   1.48041534   0.05457320
4502.00   1.59607458   0.05518639
4504.00   1.66967845   0.05613913
4506.00   1.66866767   0.05615186
4508.00   1.77908707   0.05709383
4510.00   1.75619066   0.05600543
4512.00   1.76856673   0.05622247
4514.00   1.58719826   0.05502567
4516.00   1.67373443   0.05562578
4518.00   1.71193743   0.05602716
4520.00   1.85633695   0.05711579
4522.00   1.85850918   0.05727046
4524.00   1.88318062   0.05747588
4526.00   1.82979989   0.05765755
4528.00   1.97308779   0.05822344
4530.00   2.02866077   0.05871538
4532.00   2.21305466   0.05988951
4534.00   2.28270078   0.06054672
4536.00   2.29635048   0.06042152
4538.00   2.24428058   0.06005040
4540.00   2.36578655   0.06136135
4542.00   2.41205382   0.06196820
4544.00   2.45509243   0.06182959
4546.00   2.46768618   0.06129599
4548.00   2.56895137   0.06195031
4550.00   2.62122679   0.06270969
4552.00   2.58931613   0.06175276
4554.00   2.82203507   0.06401785
4556.00   2.85292768   0.06438321
4558.00   2.76537776   0.06382348
4560.00   2.95513725   0.06469238
4562.00   2.90454841   0.06434704
4564.00   2.92810917   0.06465898
4566.00   2.89297676   0.06453007
4568.00   3.08637857   0.06544230
4570.00   3.08318424   0.06598689
4572.00   3.14540410   0.06589115
4574.00   3.15085220   0.06631777
4576.00   3.20335460   0.06656360
4578.00   3.49488831   0.06840153
4580.00   3.35262299   0.06753781
4582.00   3.42507458   0.06818647
4584.00   3.50653100   0.06865326
4586.00   3.53580666   0.06887043
4588.00   3.57530499   0.06922166
4590.00   3.72976708   0.06967641
4592.00   3.73118567   0.07003997
4594.00   3.78468776   0.07052986
4596.00   3.73605776   0.07035030
4598.00   3.78754973   0.07031874
4600.00   3.97115827   0.07151102
4602.00   3.96049452   0.07126546
4604.00   4.14352798   0.07215415
4606.00   4.07176590   0.07221397
4608.00   4.15361071   0.07239494
4610.00   4.28819036   0.07322264
4612.00   4.25068140   0.07306921
4614.00   4.40966606   0.07406102
4616.00   4.47903061   0.07446437
4618.00   4.47484303   0.07414176
4620.00   4.41061258   0.07398404
4622.00   4.50080776   0.07419444
4624.00   4.50995111   0.07443110
4626.00   4.51176977   0.07443794
4628.00   4.76212883   0.07609125
4630.00   4.82765675   0.07660947
4632.00   4.65274096   0.07521008
4634.00   4.87874317   0.07670707
4636.00   4.90925217   0.07679540
4638.00   4.94756413   0.07714044
4640.00   4.86814833   0.07686057
4642.00   4.96155548   0.07703283
4644.00   5.00166035   0.07724331
4646.00   5.14913940   0.07816813
4648.00   5.01285458   0.07772694
4650.00   5.14272213   0.07835039
4652.00   5.31855059   0.07931839
4654.00   5.05780172   0.07776090
4656.00   5.27557516   0.07871184
4658.00   5.29482222   0.07922621
4660.00   5.18942118   0.07852694
4662.00   5.37157917   0.07962082
4664.00   5.21307898   0.07921810
4666.00   5.19490194   0.07920642
4668.00   5.45183420   0.08042625
4670.00   5.36745977   0.08013064
4672.00   5.23668957   0.07938793
4674.00   5.21520615   0.07918576
4676.00   5.34808254   0.07951099
4678.00   5.37628460   0.07949176
4680.00   5.08215523   0.07806278
4682.00   5.07094479   0.07782049
4684.00   5.02509260   0.07722515
4686.00   5.07815933   0.07745459
4688.00   5.03470564   0.07727686
4690.00   5.19715405   0.07782313
4692.00   5.03575325   0.07673854
4694.00   4.99405050   0.07648020
4696.00   5.13024664   0.07713747
4698.00   5.11475229   0.07700571
4700.00   5.09464884   0.07714743
4702.00   4.91631937   0.07610756
4704.00   5.02316570   0.07647192
4706.00   4.97649431   0.07658648
4708.00   4.82206631   0.07626012
4710.00   5.00362635   0.07681832
4712.00   4.93178272   0.07605357
4714.00   4.84378433   0.07542305
4716.00   4.83607674   0.07551604
4718.00   4.76622772   0.07480782
4720.00   4.76764536   0.07496308
4722.00   4.81553507   0.07487509
4724.00   4.74178982   0.07456537
4726.00   4.51740837   0.07382233
4728.00   4.72925472   0.07521103
4730.00   4.67737293   0.07505882
4732.00   4.66874838   0.07528579
4734.00   4.53032541   0.07451973
4736.00   4.71763325   0.07594583
4738.00   4.62872267   0.07552534
4740.00   4.59776497   0.07570378
4742.00   4.67423153   0.07669542
4744.00   4.56033707   0.07517307
4746.00   4.35656166   0.07302250
4748.00   4.49701834   0.07322578
4750.00   4.31034708   0.07211998
4752.00   4.07997513   0.07070684
4754.00   4.02525091   0.07011767
4756.00   4.04467869   0.06994486
4758.00   3.95270991   0.06862152
4760.00   3.69552207   0.06697562
4762.00   3.51518273   0.06574199
4764.00   3.40545893   0.06477427
4766.00   3.36564565   0.06441418
4768.00   3.04476714   0.06239781
4770.00   3.00471520   0.06174821
4772.00   2.81026649   0.06045166
4774.00   2.76666999   0.05989883
4776.00   2.67045760   0.05973237
4778.00   2.59700608   0.05947708
4780.00   2.62344098   0.05913031
4782.00   2.38715005   0.05744935
4784.00   2.35465646   0.05681017
4786.00   2.51369691   0.05713686
4788.00   2.47075701   0.05704320
4790.00   2.49720001   0.05729003
4792.00   2.33289146   0.05617867
4794.00   2.18335485   0.05505077
4796.00   2.25490212   0.05593455
4798.00   2.17302132   0.05484813
4800.00   2.06322098   0.05427264
4802.00   2.03162789   0.05363714
4804.00   2.04209542   0.05360014
4806.00   2.02479196   0.05325701
4808.00   1.90492022   0.05256706
4810.00   1.87773860   0.05213642
4812.00   1.75660038   0.05139534
4814.00   1.81055129   0.05177652
4816.00   1.88694000   0.05228360
4818.00   1.76995313   0.05127146
4820.00   1.69426048   0.05092105
4822.00   1.78700137   0.05157674
4824.00   1.73111784   0.05142512
4826.00   1.69141579   0.05112289
4828.00   1.63130879   0.05043896
4830.00   1.78722465   0.05148805
4832.00   1.75054336   0.05148405
4834.00   1.72760797   0.05098947
4836.00   1.72328985   0.05142135
4838.00   1.69625950   0.05111728
4840.00   1.71660912   0.05160356
4842.00   1.58592331   0.05063285
4844.00   1.64726579   0.05078724
4846.00   1.64470804   0.05057447
4848.00   1.58212519   0.04999474
4850.00   1.70699465   0.05085371
4852.00   1.61209571   0.04971988
4854.00   1.57274938   0.04950581
4856.00   1.50971961   0.04903977
4858.00   1.54981959   0.04930836
4860.00   1.42592525   0.04786618
4862.00   1.45747530   0.04813866
4864.00   1.46739352   0.04780395
4866.00   1.53506398   0.04825574
4868.00   1.47895420   0.04817100
4870.00   1.64821267   0.04944182
4872.00   1.57167172   0.04916164
4874.00   1.62459409   0.04940499
4876.00   1.72160244   0.05002030
4878.00   1.65196812   0.04932247
4880.00   1.87135530   0.05174198
4882.00   1.99194372   0.05489762
4884.00   2.15065122   0.05568258
4886.00   1.97301829   0.05317184
4888.00   1.88953233   0.05117995
4890.00   1.78834724   0.05020275
4892.00   1.67519069   0.04937796
4894.00   1.87270808   0.05011291
4896.00   1.88230038   0.05052648
4898.00   1.69302225   0.04957155
4900.00   1.84106922   0.05007473
4902.00   1.79466617   0.05000555
4904.00   1.83641541   0.05034981
4906.00   1.77017844   0.04992273
4908.00   1.77881694   0.05039328
4910.00   1.80582094   0.05019232
4912.00   1.85255885   0.05037059
4914.00   1.85867012   0.05053899
4916.00   1.83529997   0.05028497
4918.00   1.94747424   0.05148654
4920.00   1.96937263   0.05173032
4922.00   1.93172348   0.05128337
4924.00   1.87370300   0.05107375
4926.00   1.94359887   0.05135117
4928.00   2.11441064   0.05258107
4930.00   2.07617879   0.05224380
4932.00   2.05833793   0.05215283
4934.00   1.93523824   0.05113358
4936.00   2.06971741   0.05224507
4938.00   2.20954847   0.05296619
4940.00   2.17780447   0.05282388
4942.00   2.21720147   0.05284729
4944.00   2.20766783   0.05255129
4946.00   2.27915549   0.05303929
4948.00   2.29495406   0.05359071
4950.00   2.33692145   0.05425423
4952.00   2.40752602   0.05491353
4954.00   2.46015453   0.05518929
4956.00   2.66285133   0.05631989
4958.00   2.53457165   0.05507031
4960.00   2.54399514   0.05572547
4962.00   2.60455775   0.05589904
4964.00   2.55293560   0.05547895
4966.00   2.68662286   0.05684557
4968.00   2.76784515   0.05741086
4970.00   2.67281818   0.05780759
4972.00   2.71554089   0.05808697
4974.00   2.69534326   0.05857963
4976.00   2.84747863   0.06004454
4978.00   2.89970374   0.06103606
4980.00   2.96419430   0.06225313
4982.00   2.92626476   0.06233469
4984.00   2.92771387   0.06254408
4986.00   2.89190698   0.06145239
4988.00   2.87119007   0.06071717
4990.00   2.89449811   0.06018266
4992.00   2.86553836   0.05915577
4994.00   2.77792645   0.05848904
4996.00   2.64876199   0.05696375
4998.00   2.81796861   0.05771102
5000.00   2.57932925   0.05598974
5002.00   2.55863547   0.05563837
5004.00   2.37915730   0.05387165
5006.00   2.36455798   0.05343014
5008.00   2.43329501   0.05360311
5010.00   2.34581923   0.05311066
5012.00   2.39178085   0.05352565
5014.00   2.27549481   0.05292023
5016.00   2.25940776   0.05305349
5018.00   2.48026538   0.05454485
5020.00   2.33576655   0.05354318
5022.00   2.28035951   0.05337002
5024.00   2.34750175   0.05343145
5026.00   2.46178699   0.05395611
5028.00   2.49739766   0.05486969
5030.00   2.40679598   0.05443762
5032.00   2.32029700   0.05378299
5034.00   2.35493588   0.05348735
5036.00   2.19963908   0.05230709
5038.00   2.15216517   0.05158685
5040.00   2.16624641   0.05144913
5042.00   2.04770899   0.05069650
5044.00   2.05167770   0.05078143
5046.00   1.91827679   0.05002489
5048.00   2.09500217   0.05096981
5050.00   1.99354792   0.05054623
5052.00   1.97733867   0.05022353
5054.00   1.90476596   0.04981868
5056.00   1.94381583   0.05012692
5058.00   1.85137081   0.04964157
5060.00   1.97262621   0.05039110
5062.00   1.84428740   0.04993946
5064.00   1.79511857   0.04956409
5066.00   1.85814798   0.04992082
5068.00   1.80803525   0.05005515
5070.00   1.76495826   0.05006928
5072.00   1.83002341   0.05033572
5074.00   1.72176206   0.04957944
5076.00   1.84802401   0.05009940
5078.00   1.73186874   0.04992479
5080.00   1.80100000   0.05173104
5082.00   1.69923246   0.05299719
5084.00   1.79761899   0.05405799
5086.00   1.97215533   0.05480896
5088.00   1.69899642   0.05234767
5090.00   1.78660405   0.05132031
5092.00   1.73605561   0.05034823
5094.00   1.87300205   0.05057835
5096.00   1.82746053   0.05106249
5098.00   2.01955032   0.05240715
5100.00   1.91387391   0.05178007
5102.00   1.82460928   0.05056771
5104.00   1.94398463   0.05085041
5106.00   1.86679959   0.05030408
5108.00   1.88290501   0.05049457
5110.00   1.99872804   0.05163638
5112.00   1.92483473   0.05111899
5114.00   1.98209214   0.05169300
5116.00   1.99028456   0.05179984
5118.00   1.90874004   0.05137550
5120.00   1.96351397   0.05146281
5122.00   2.06860805   0.05190299
5124.00   2.06008029   0.05200594
5126.00   2.09062481   0.05244669
5128.00   2.02105355   0.05173225
5130.00   2.15650105   0.05269954
5132.00   2.08148289   0.05254475
5134.00   2.17509341   0.05315941
5136.00   2.23596406   0.05399159
5138.00   2.23159194   0.05409557
5140.00   2.23205853   0.05391819
5142.00   2.23200989   0.05424863
5144.00   2.08344460   0.05340989
5146.00   2.23811960   0.05484533
5148.00   2.26319861   0.05501599
5150.00   2.28892589   0.05537632
5152.00   2.41428113   0.05632995
5154.00   2.39938498   0.05683158
5156.00   2.28816962   0.05619782
5158.00   2.23938441   0.05526680
5160.00   2.37996912   0.05594303
5162.00   2.28535843   0.05515739
5164.00   2.38089252   0.05590967
5166.00   2.48429751   0.05635788
5168.00   2.43172002   0.05570539
5170.00   2.31868744   0.05523339
5172.00   2.46955204   0.05652282
5174.00   2.52715039   0.05651027
5176.00   2.56514955   0.05723890
5178.00   2.53194380   0.05720379
5180.00   2.45617723   0.05637281
5182.00   2.54663372   0.05708681
5184.00   2.52530456   0.05739423
5186.00   2.48878574   0.05707870
5188.00   2.56720233   0.05763320
5190.00   2.59545159   0.05753063
5192.00   2.56605458   0.05721964
5194.00   2.59806275   0.05740914
5196.00   2.47296786   0.05674044
5198.00   2.56704974   0.05733829
5200.00   2.59059334   0.05812281
5202.00   2.62884593   0.05877457
5204.00   2.51817393   0.05819283
5206.00   2.56330657   0.05823983
5208.00   2.54935288   0.05775147
5210.00   2.52671289   0.05819469
5212.00   2.73955536   0.05998225
5214.00   2.75798678   0.06009481
5216.00   2.63979673   0.05935680
5218.00   2.69288659   0.06018135
5220.00   2.64371324   0.05999699
5222.00   2.59338260   0.05970470
5224.00   2.62561870   0.06057200
5226.00   2.60964966   0.06014726
5228.00   2.69272256   0.06094254
5230.00   2.79522777   0.06128923
5232.00   2.62943435   0.05980762
5234.00   2.64405656   0.06018239
5236.00   2.75095248   0.06112023
5238.00   2.73591661   0.06149050
5240.00   2.74792266   0.06211480
5242.00   2.87397790   0.06269880
5244.00   2.77568030   0.06224424
5246.00   2.73935699   0.06226935
5248.00   2.67950130   0.06161652
5250.00   2.76781011   0.06213318
5252.00   2.82169032   0.06277079
5254.00   2.77875900   0.06307178
5256.00   2.80222249   0.06311678
5258.00   2.76852489   0.06330524
5260.00   2.87890196   0.06416748
5262.00   2.93462467   0.06481324
5264.00   2.85973263   0.06435089
5266.00   2.93102741   0.06508880
5268.00   2.99996328   0.06557459
5270.00   2.90500188   0.06523759
5272.00   2.97770381   0.06552377
5274.00   2.96821713   0.06560257
5276.00   2.98093677   0.06604802
5278.00   3.02590632   0.06694392
5280.00   3.15964985   0.06727594
5282.00   3.03227949   0.06672860
5284.00   3.10586643   0.06728869
5286.00   3.09470487   0.06783516
5288.00   3.13990211   0.06815983
5290.00   3.19500208   0.06827747
5292.00   3.07340145   0.06812651
5294.00   3.07045054   0.06775659
5296.00   3.13974595   0.06878358
5298.00   3.26106858   0.07002022
5300.00   3.12078238   0.06909729
5302.00   3.19644427   0.06983231
5304.00   3.28243113   0.07071561
5306.00   3.26451302   0.07030997
5308.00   3.23877096   0.07092636
5310.00   3.35046434   0.07211825
5312.00   3.26819277   0.07210074
5314.00   3.37081695   0.07274303
5316.00   3.27000356   0.07251669
5318.00   3.34350204   0.07314337
5320.00   3.46611810   0.07416809
5322.00   3.26129985   0.07266271
5324.00   3.26055574   0.07289730
5326.00   3.58018374   0.07490564
5328.00   3.40481400   0.07433132
5330.00   3.25981998   0.07363742
5332.00   3.27288747   0.07425838
5334.00   3.47975731   0.07593905
5336.00   3.53902483   0.07647853
5338.00   3.40937209   0.07585652
5340.00   3.52843237   0.07668462
5342.00   3.50505400   0.07766784
5344.00   3.43727589   0.07679982
5346.00   3.46837473   0.07747636
5348.00   3.39037442   0.07731779
5350.00   3.58075953   0.07818298
5352.00   3.44194555   0.07758839
5354.00   3.41116428   0.07828785
5356.00   3.47676945   0.07871237
5358.00   3.51811719   0.07934783
5360.00   3.40276742   0.07813474
5362.00   3.49683428   0.07920932
5364.00   3.45119190   0.07867996
5366.00   3.59045172   0.07980558
5368.00   3.34292507   0.07835141
5370.00   3.52121353   0.07954205
5372.00   3.71470785   0.08124166
5374.00   3.55216026   0.08105946
5376.00   3.52826047   0.08097389
5378.00   3.66764593   0.08233744
5380.00   3.60847998   0.08219668
5382.00   3.66697812   0.08333076
5384.00   3.66660833   0.08328174
5386.00   3.75083733   0.08387141
5388.00   3.52376342   0.08251234
5390.00   3.52599859   0.08290137
5392.00   3.58477807   0.08404052
5394.00   3.55515170   0.08346020
5396.00   3.54873586   0.08329850
5398.00   3.63716221   0.08389837
5400.00   3.37574124   0.08271213
5402.00   3.55063534   0.08405808
5404.00   3.41930604   0.08385429
5406.00   3.72899747   0.08599883
5408.00   3.55603552   0.08528192
5410.00   3.45583868   0.08509241
5412.00   3.39466596   0.08480802
5414.00   3.56856894   0.08649877
5416.00   3.44845772   0.08610070
5418.00   3.49592161   0.08650725
5420.00   3.61284781   0.08777554
5422.00   3.54434848   0.08722257
5424.00   3.53455877   0.08715877
5426.00   3.51020956   0.08694882
5428.00   3.34010339   0.08612508
5430.00   3.33215857   0.08595331
5432.00   3.41743803   0.08605480
5434.00   3.28137136   0.08602661
5436.00   3.37397456   0.08696146
5438.00   3.21345663   0.08659821
5440.00   3.46290445   0.08870830
5442.00   3.47278523   0.08866061
5444.00   3.28458476   0.08813859
5446.00   3.07348466   0.08682727
5448.00   3.15759134   0.08748135
5450.00   3.17725348   0.08770057
5452.00   3.07429457   0.08706725
5454.00   3.12284756   0.08752647
5456.00   3.21314955   0.09119772
5458.00   3.16843700   0.09865801
5460.00   3.00513387   0.03502891
5462.00   2.96837687   0.03844643
5464.00   2.93851852   0.03902603
5466.00   2.92144489   0.03576147
5468.00   2.90464711   0.03139635
5470.00   2.87653565   0.02948985
5472.00   2.84432244   0.02894804
5474.00   2.78837895   0.02819574
5476.00   2.67379165   0.02790473
5478.00   2.63134599   0.02772838
5480.00   2.66848636   0.02784249
5482.00   2.71017337   0.02798226
5484.00   2.71636844   0.02800664
5486.00   2.70852065   0.02798942
5488.00   2.68517375   0.02775774
5490.00   2.62409592   0.02715623
5492.00   2.60061741   0.02687964
5494.00   2.60142303   0.02685816
5496.00   2.60994196   0.02681516
5498.00   2.62306309   0.02648332
5500.00   2.64210534   0.02617476
5502.00   2.66049528   0.02681908
5504.00   2.68325305   0.02851458
5506.00   2.70057893   0.02933214
5508.00   2.72737360   0.03014371
5510.00   2.72954726   0.03022847
5512.00   2.69044828   0.02906261
5514.00   2.64009738   0.02752925
5516.00   2.62108064   0.02730135
5518.00   2.61343360   0.02809290
5520.00   2.63100982   0.02792014
5522.00   2.68756008   0.02698572
5524.00   2.72820973   0.02654165
5526.00   2.75184226   0.02671530
5528.00   2.77289844   0.02699590
5530.00   2.80390954   0.02698116
5532.00   2.84193826   0.02683565
5534.00   2.85237074   0.02683156
5536.00   2.84001064   0.02694967
5538.00   2.82629800   0.02696245
5540.00   2.79509449   0.02647435
5542.00   2.77608371   0.02657317
5544.00   2.78803921   0.02828219
5546.00   2.81993628   0.03072890
5548.00   2.85487533   0.03100535
5550.00   2.92062068   0.02943490
5552.00   2.94446421   0.02860948
5554.00   2.93355989   0.02772103
5556.00   2.92183423   0.02706227
5558.00   2.91364717   0.02657731
5560.00   2.90843916   0.02644327
5562.00   2.92419720   0.02742117
5564.00   2.95181799   0.02989137
5566.00   3.00041556   0.03072231
5568.00   3.09958577   0.03054515
5570.00   3.15598011   0.03053465
5572.00   3.15896749   0.03081668
5574.00   3.12999439   0.03113324
5576.00   3.07926583   0.03130651
5578.00   2.99028897   0.03135368
5580.00   2.93718123   0.03163210
5582.00   2.88061762   0.03277032
5584.00   2.86849999   0.03248600
5586.00   2.92234778   0.03010940
5588.00   2.98108459   0.02743612
5590.00   2.99384975   0.02646048
5592.00   2.98416758   0.02651614
5594.00   2.96173120   0.02622683
5596.00   2.90404677   0.02611639
5598.00   2.87287545   0.02600979
5600.00   2.87167788   0.02599286
5602.00   2.85954189   0.02594335
5604.00   2.81057453   0.02577718
5606.00   2.74237394   0.02554890
5608.00   2.70171952   0.02539563
5610.00   2.67662072   0.02527916
5612.00   2.65111542   0.02516572
5614.00   2.63216567   0.02507002
5616.00   2.61311388   0.02497882
5618.00   2.59363151   0.02489664
5620.00   2.57318926   0.02481446
5622.00   2.54657769   0.02470052
5624.00   2.51152539   0.02456085
5626.00   2.48623276   0.02442008
5628.00   2.47634840   0.02410358
5630.00   2.44916916   0.02409733
5632.00   2.39680767   0.02461804
5634.00   2.33658099   0.02519552
5636.00   2.28563142   0.02529409
5638.00   2.23283005   0.02515449
5640.00   2.20384312   0.02474458
5642.00   2.21205878   0.02369599
5644.00   2.19080329   0.02310618
5646.00   2.13537121   0.02306234
5648.00   2.07694554   0.02309951
5650.00   2.03697610   0.02267665
5652.00   2.00522828   0.02194368
5654.00   1.97671402   0.02303900
5656.00   1.96017826   0.02662326
5658.00   1.93279839   0.02755727
5660.00   1.89999115   0.02655897
5662.00   1.86080825   0.02516233
5664.00   1.80818987   0.02379254
5666.00   1.74923217   0.02223488
5668.00   1.72070885   0.02180727
5670.00   1.72909141   0.02249112
5672.00   1.70736873   0.02296587
5674.00   1.67230344   0.02390791
5676.00   1.63213992   0.02447438
5678.00   1.57969606   0.02435021
5680.00   1.52780819   0.02399605
5682.00   1.51185787   0.02411339
5684.00   1.52942288   0.02398219
5686.00   1.52904499   0.02556681
5688.00   1.53741145   0.02980796
5690.00   1.52274895   0.03132661
5692.00   1.47222126   0.02969423
5694.00   1.41499066   0.02683502
5696.00   1.38535631   0.02483321
5698.00   1.37159777   0.02264035
5700.00   1.35013580   0.02140787
5702.00   1.32633114   0.02119735
5704.00   1.30729568   0.02118379
5706.00   1.29460955   0.02187586
5708.00   1.28208137   0.02236027
5710.00   1.26426756   0.02181804
5712.00   1.24360633   0.02058164
5714.00   1.23118269   0.02013524
5716.00   1.22265208   0.02009408
5718.00   1.21978486   0.02015673
5720.00   1.22252631   0.02056792
5722.00   1.22994363   0.02086812
5724.00   1.24336040   0.02073359
5726.00   1.26105356   0.02045739
5728.00   1.27401090   0.02091687
5730.00   1.28366613   0.02249084
5732.00   1.29658985   0.02258843
5734.00   1.31611073   0.02124328
5736.00   1.32747877   0.02052746
5738.00   1.32112098   0.02128736
5740.00   1.31205368   0.02235033
5742.00   1.32741332   0.02207388
5744.00   1.35870600   0.02039582
5746.00   1.39495826   0.02066331
5748.00   1.44507039   0.02274060
5750.00   1.49274731   0.02376982
5752.00   1.54514074   0.02367403
5754.00   1.58938742   0.02325848
5756.00   1.60493290   0.02306932
5758.00   1.59526694   0.02275919
5760.00   1.60826421   0.02322527
5762.00   1.62991023   0.02506308
5764.00   1.65502167   0.02535419
5766.00   1.68967032   0.02385836
5768.00   1.72136343   0.02228926
5770.00   1.73922420   0.02202557
5772.00   1.74875391   0.02244248
5774.00   1.76977718   0.02238987
5776.00   1.79552448   0.02215492
5778.00   1.82566929   0.02210093
5780.00   1.85688829   0.02214493
5782.00   1.89812028   0.02227104
5784.00   1.95686817   0.02240572
5786.00   2.02534699   0.02263875
5788.00   2.08118844   0.02332080
5790.00   2.14523053   0.02461753
5792.00   2.17141318   0.02530075
5794.00   2.15490746   0.02598641
5796.00   2.14830112   0.02605909
5798.00   2.15156555   0.02485247
5800.00   2.16808677   0.02344239
5802.00   2.22240353   0.02422026
5804.00   2.31817269   0.02697449
5806.00   2.38561201   0.02732562
5808.00   2.46028662   0.02617011
5810.00   2.50119805   0.02513119
5812.00   2.48840547   0.02388669
5814.00   2.47210431   0.02282814
5816.00   2.50298047   0.02273795
5818.00   2.56039286   0.02341826
5820.00   2.62143993   0.02368175
5822.00   2.72503424   0.02327905
5824.00   2.77211475   0.02423873
5826.00   2.74708009   0.02721974
5828.00   2.73108196   0.02923983
5830.00   2.77461982   0.02871273
5832.00   2.85004735   0.02660498
5834.00   2.91597342   0.02570160
5836.00   3.00428367   0.02502875
5838.00   3.05735493   0.02472755
5840.00   3.07373548   0.02498374
5842.00   3.09709620   0.02525196
5844.00   3.14683318   0.02533093
5846.00   3.20444608   0.02539845
5848.00   3.23639369   0.02567601
5850.00   3.23473120   0.02618200
5852.00   3.27836776   0.02650336
5854.00   3.36811042   0.02679550
5856.00   3.43369269   0.02698015
5858.00   3.45691037   0.02699867
5860.00   3.46972036   0.02696295
5862.00   3.51432443   0.02706357
5864.00   3.58892894   0.02728979
5866.00   3.60720801   0.02726175
5868.00   3.56999063   0.02697632
5870.00   3.55741572   0.02680437
5872.00   3.55577254   0.02666196
5874.00   3.57778645   0.02665741
5876.00   3.65399766   0.02682634
5878.00   3.78061533   0.02706414
5880.00   3.83218670   0.02837191
5882.00   3.82163048   0.03007625
5884.00   3.84098625   0.03279793
5886.00   3.88860464   0.03726594
5888.00   3.92447829   0.04059735
5890.00   3.93006468   0.04176881
5892.00   3.91558051   0.04172057
5894.00   3.87777257   0.04099995
5896.00   3.79198551   0.03881357
5898.00   3.74436188   0.03690517
5900.00   3.70250225   0.03410043
5902.00   3.69065285   0.03211068
5904.00   3.74512124   0.03189069
5906.00   3.81690097   0.03268633
5908.00   3.77109218   0.03328779
5910.00   3.62884831   0.03520853
5912.00   3.51192403   0.03411191
5914.00   3.35520864   0.02917636
5916.00   3.23973322   0.02545877
5918.00   3.15738654   0.02443370
5920.00   3.12289310   0.02473369
5922.00   3.18515110   0.02516393
5924.00   3.35219717   0.02644197
5926.00   3.45142102   0.02702597
5928.00   3.52643538   0.02719296
5930.00   3.61218786   0.02766139
5932.00   3.72561359   0.02859059
5934.00   3.81933570   0.02938839
5936.00   3.85402346   0.02970294
5938.00   3.84801841   0.02976579
5940.00   3.80660415   0.02890637
5942.00   3.68059278   0.02622880
5944.00   3.62224531   0.02497649
5946.00   3.62024069   0.02497073
5948.00   3.62355876   0.02534168
5950.00   3.60921264   0.02586517
5952.00   3.59105253   0.02660322
5954.00   3.57822299   0.02670589
5956.00   3.56390309   0.02617645
5958.00   3.56002665   0.02605447
5960.00   3.57384729   0.02617316
5962.00   3.57634163   0.02618975
5964.00   3.55710626   0.02603578
5966.00   3.52790070   0.02576387
5968.00   3.50594616   0.02532986
5970.00   3.48686886   0.02456195
5972.00   3.46100950   0.02421650
5974.00   3.43434334   0.02403639
5976.00   3.39808345   0.02413313
5978.00   3.34314704   0.02474370
5980.00   3.28803420   0.02536718
5982.00   3.26039290   0.02534139
5984.00   3.25596333   0.02488544
5986.00   3.22454357   0.02445613
5988.00   3.17309475   0.02370148
5990.00   3.12992239   0.02321970
5992.00   3.09433722   0.02303800
5994.00   3.05927324   0.02294866
5996.00   3.01824737   0.02282199
5998.00   2.97339582   0.02272366
6000.00   2.94720125   0.02261178
6002.00   2.94395900   0.02250679
6004.00   2.92504454   0.02238859
6006.00   2.89417338   0.02197291
6008.00   2.86367655   0.02199602
6010.00   2.83970547   0.02315910
6012.00   2.81788564   0.02475504
6014.00   2.78992057   0.02465465
6016.00   2.75377035   0.02275195
6018.00   2.72652173   0.02200808
6020.00   2.70591235   0.02168937
6022.00   2.68427801   0.02153570
6024.00   2.66613770   0.02149363
6026.00   2.64309645   0.02162146
6028.00   2.58859921   0.02198662
6030.00   2.48800325   0.02288087
6032.00   2.45417595   0.02280902
6034.00   2.48159289   0.02184151
6036.00   2.48394060   0.02109757
6038.00   2.45391774   0.02059707
6040.00   2.41439342   0.02025132
6042.00   2.38482642   0.02011453
6044.00   2.36165738   0.02017660
6046.00   2.30831265   0.02039412
6048.00   2.20860863   0.02103615
6050.00   2.14971423   0.02128434
6052.00   2.12603331   0.02121441
6054.00   2.12026215   0.02095900
6056.00   2.13127947   0.02047911
6058.00   2.16125154   0.01975374
6060.00   2.14951968   0.01958689
6062.00   2.10257244   0.02007335
6064.00   2.06712747   0.02004507
6066.00   2.02623558   0.01951750
6068.00   1.99542773   0.01914800
6070.00   1.98323023   0.01925899
6072.00   1.98303163   0.01961536
6074.00   1.98307192   0.01987583
6076.00   1.99101818   0.02041937
6078.00   1.99503815   0.02034627
6080.00   2.00943232   0.01958353
6082.00   2.00408077   0.01905603
6084.00   1.96173048   0.01902440
6086.00   1.90913081   0.01918021
6088.00   1.89339006   0.01919215
6090.00   1.90062511   0.01918179
6092.00   1.90761268   0.01919773
6094.00   1.93216014   0.01926789
6096.00   1.94283485   0.01926424
6098.00   1.93160188   0.01899647
6100.00   1.91956151   0.01887996
6102.00   1.92906749   0.01944839
6104.00   1.95276153   0.02051836
6106.00   1.96892917   0.02126726
6108.00   1.99079978   0.02244234
6110.00   1.99918783   0.02257279
6112.00   1.98919272   0.02137510
6114.00   1.98007870   0.02006640
6116.00   1.98494923   0.01952093
6118.00   1.99707663   0.01934802
6120.00   2.00633407   0.01960983
6122.00   2.01878715   0.02060780
6124.00   2.02603030   0.02120438
6126.00   2.02702689   0.02202090
6128.00   2.02995920   0.02219889
6130.00   2.03717613   0.02107809
6132.00   2.04728317   0.01919988
6134.00   2.06199050   0.01862616
6136.00   2.08207464   0.01882070
6138.00   2.10235453   0.01928026
6140.00   2.13421249   0.02045093
6142.00   2.14988303   0.02136800
6144.00   2.14170146   0.02213228
6146.00   2.12165594   0.02258675
6148.00   2.10323429   0.02209419
6150.00   2.07510710   0.02044875
6152.00   2.06758738   0.01976039
6154.00   2.07449007   0.01955400
6156.00   2.08583784   0.01941832
6158.00   2.10833406   0.01945824
6160.00   2.12928176   0.01952717
6162.00   2.13383627   0.01941800
6164.00   2.12810755   0.01921004
6166.00   2.11818933   0.01903119
6168.00   2.09944510   0.01880985
6170.00   2.08016753   0.01863687
6172.00   2.04875922   0.01848152
6174.00   2.02984428   0.01838215
6176.00   2.04242253   0.01838089
6178.00   2.07587385   0.01845418
6180.00   2.09932947   0.01848629
6182.00   2.14053321   0.01858899
6184.00   2.14337802   0.01852625
6186.00   2.11450434   0.01799246
6188.00   2.07502747   0.01795769
6190.00   2.01925588   0.01906643
6192.00   1.95892394   0.02050561
6194.00   1.95001531   0.02068358
6196.00   1.98935461   0.01996542
6198.00   2.00832295   0.01942032
6200.00   2.03312969   0.01837369
6202.00   2.04806471   0.01776282
6204.00   2.04774833   0.01788418
6206.00   2.04177403   0.01830083
6208.00   2.04108238   0.01852075
6210.00   2.03508830   0.01879581
6212.00   2.05772090   0.01884967
6214.00   2.12635159   0.01872352
6216.00   2.15590549   0.01856280
6218.00   2.12870431   0.01802964
6220.00   2.10244441   0.01783002
6222.00   2.13393426   0.01894189
6224.00   2.20448637   0.02098622
6226.00   2.22134924   0.02122724
6228.00   2.20465374   0.02004167
6230.00   2.18876004   0.01932446
6232.00   2.15784216   0.01866152
6234.00   2.13460636   0.01820808
6236.00   2.13210750   0.01804682
6238.00   2.14301348   0.01816325
6240.00   2.16567874   0.01896306
6242.00   2.21864104   0.02105963
6244.00   2.24195981   0.02162138
6246.00   2.24864626   0.02124749
6248.00   2.24755192   0.02062401
6250.00   2.23325372   0.01965838
6252.00   2.21518898   0.01854235
6254.00   2.22800922   0.01852489
6256.00   2.27543831   0.01959317
6258.00   2.28920007   0.01995559
6260.00   2.28103137   0.02029274
6262.00   2.27696586   0.02025134
6264.00   2.27905178   0.01957234
6266.00   2.28304219   0.01871700
6268.00   2.28876925   0.01843432
6270.00   2.29969049   0.01847472
6272.00   2.29523325   0.01860551
6274.00   2.27277136   0.01898226
6276.00   2.26037049   0.01933987
6278.00   2.26042485   0.01979177
6280.00   2.26015544   0.02014772
6282.00   2.24988723   0.02011378
6284.00   2.23390889   0.01975458
6286.00   2.21702814   0.02029114
6288.00   2.18969154   0.02222949
6290.00   2.17738914   0.02245242
6292.00   2.17521572   0.02086575
6294.00   2.18218827   0.01932237
6296.00   2.20794582   0.01901427
6298.00   2.24356127   0.01930876
6300.00   2.22918344   0.01933966
6302.00   2.15994573   0.01957086
6304.00   2.12426090   0.01948288
6306.00   2.10071659   0.01915191
6308.00   2.07932305   0.01875925
6310.00   2.05998945   0.01828984
6312.00   2.04138899   0.01778636
6314.00   2.01451898   0.01748011
6316.00   1.97575498   0.01729836
6318.00   1.95531881   0.01721348
6320.00   1.95730507   0.01730125
6322.00   1.94279230   0.01737272
6324.00   1.90168238   0.01745475
6326.00   1.85605383   0.01750399
6328.00   1.83060145   0.01741780
6330.00   1.81561196   0.01721283
6332.00   1.80577195   0.01705985
6334.00   1.81197464   0.01690389
6336.00   1.80592179   0.01674460
6338.00   1.79441285   0.01656781
6340.00   1.77044773   0.01640584
6342.00   1.72185779   0.01629620
6344.00   1.65250957   0.01622630
6346.00   1.60802758   0.01609735
6348.00   1.57111168   0.01565415
6350.00   1.54759288   0.01582824
6352.00   1.54131532   0.01622957
6354.00   1.53916478   0.01726465
6356.00   1.54139447   0.01967594
6358.00   1.54529369   0.02234252
6360.00   1.51762509   0.02198428
6362.00   1.44609118   0.01782040
6364.00   1.41313219   0.01616764
6366.00   1.40700376   0.01600226
6368.00   1.39297533   0.01588700
6370.00   1.35352290   0.01539443
6372.00   1.31302619   0.01501923
6374.00   1.31755304   0.01534581
6376.00   1.36804271   0.01618888
6378.00   1.37889302   0.01719720
6380.00   1.37403309   0.01940496
6382.00   1.36084521   0.01988216
6384.00   1.32982767   0.01784781
6386.00   1.29975259   0.01499475
6388.00   1.29657364   0.01423728
6390.00   1.31102955   0.01488240
6392.00   1.32812440   0.01493060
6394.00   1.35662496   0.01506415
6396.00   1.38440800   0.01517805
6398.00   1.41780961   0.01530606
6400.00   1.44618309   0.01540573
6402.00   1.45921493   0.01540619
6404.00   1.46162212   0.01533556
6406.00   1.47123361   0.01550010
6408.00   1.49206507   0.01581278
6410.00   1.49105489   0.01619391
6412.00   1.45292270   0.01686978
6414.00   1.43735695   0.01727523
6416.00   1.47471678   0.01714277
6418.00   1.54125130   0.01669588
6420.00   1.59305239   0.01637933
6422.00   1.64920509   0.01587390
6424.00   1.69913793   0.01572100
6426.00   1.75262761   0.01582598
6428.00   1.79114103   0.01602638
6430.00   1.80562246   0.01634344
6432.00   1.80986524   0.01671442
6434.00   1.82665157   0.01698476
6436.00   1.84688377   0.01730446
6438.00   1.87077093   0.01726389
6440.00   1.90350306   0.01674312
6442.00   1.92946398   0.01646764
6444.00   1.94618642   0.01651471
6446.00   1.96095765   0.01664775
6448.00   1.98005831   0.01667348
6450.00   2.00028467   0.01666420
6452.00   2.02525163   0.01673612
6454.00   2.05657148   0.01686951
6456.00   2.08548069   0.01700421
6458.00   2.11475277   0.01719211
6460.00   2.14119720   0.01733143
6462.00   2.16144705   0.01732730
6464.00   2.17720103   0.01722850
6466.00   2.19597435   0.01726021
6468.00   2.21265388   0.01745229
6470.00   2.23548770   0.01744857
6472.00   2.27492952   0.01687576
6474.00   2.29815602   0.01694383
6476.00   2.28269863   0.01839938
6478.00   2.25074911   0.02031325
6480.00   2.26092625   0.02101218
6482.00   2.29709268   0.02114013
6484.00   2.33865809   0.02101141
6486.00   2.40670919   0.02007785
6488.00   2.45910144   0.01958508
6490.00   2.48069978   0.02002702
6492.00   2.49601030   0.02064393
6494.00   2.54223776   0.02036730
6496.00   2.61660767   0.01928482
6498.00   2.65597630   0.01907868
6500.00   2.67808557   0.01970321
6502.00   2.68915510   0.01976195
6504.00   2.68110132   0.01899993
6506.00   2.67026258   0.01818335
6508.00   2.67581391   0.01815150
6510.00   2.69072270   0.01863301
6512.00   2.69844675   0.01873669
6514.00   2.70237017   0.01833293
6516.00   2.70906639   0.01876823
6518.00   2.71331692   0.02031766
6520.00   2.72496128   0.02153074
6522.00   2.75210834   0.02172065
6524.00   2.79018903   0.02133740
6526.00   2.82381296   0.02077898
6528.00   2.87298441   0.01932132
6530.00   2.88927817   0.01875876
6532.00   2.87125778   0.01898875
6534.00   2.85625196   0.01918342
6536.00   2.85553026   0.01879074
6538.00   2.86055613   0.01841581
6540.00   2.86932659   0.01965290
6542.00   2.89426112   0.02259949
6544.00   2.89048147   0.02372539
6546.00   2.85385704   0.02430468
6548.00   2.83485317   0.02421083
6550.00   2.84290004   0.02308591
6552.00   2.86176062   0.02147548
6554.00   2.87715983   0.02050890
6556.00   2.89997196   0.01979255
6558.00   2.90225291   0.01921708
6560.00   2.88534641   0.01875946
6562.00   2.87195063   0.01867526
6564.00   2.85575485   0.01920713
6566.00   2.84570432   0.01975626
6568.00   2.85512757   0.01977422
6570.00   2.88040853   0.01948764
6572.00   2.89033842   0.01934225
6574.00   2.90739775   0.01921303
6576.00   2.89310431   0.01902400
6578.00   2.80824661   0.01778031
6580.00   2.76841092   0.01797536
6582.00   2.85028911   0.02116796
6584.00   3.00729346   0.02550902
6586.00   3.12928176   0.02858572
6588.00   3.32217073   0.03233119
6590.00   3.36251736   0.03380571
6592.00   3.29323721   0.03416148
6594.00   3.16248631   0.03323290
6596.00   2.94947481   0.02985801
6598.00   2.69290853   0.02488480
6600.00   2.53458166   0.02361430
6602.00   2.40229511   0.02604643
6604.00   2.36968470   0.02608670
6606.00   2.48299146   0.02545333
6608.00   2.54418993   0.02454534
6610.00   2.53677535   0.02315461
6612.00   2.49494529   0.02154925
6614.00   2.42612362   0.02040223
6616.00   2.31076074   0.01953788
6618.00   2.24887276   0.01865618
6620.00   2.22422194   0.01780048
6622.00   2.18894053   0.01719237
6624.00   2.14577293   0.01695789
6626.00   2.10112786   0.01683155
6628.00   2.05279732   0.01644936
6630.00   1.99901235   0.01588836
6632.00   1.98386157   0.01649641
6634.00   2.03119349   0.01845741
6636.00   2.01674604   0.01938868
6638.00   1.94286311   0.01994289
6640.00   1.86866105   0.01997753
6642.00   1.82060361   0.01917763
6644.00   1.78308332   0.01770595
6646.00   1.75203252   0.01681694
6648.00   1.73473001   0.01606916
6650.00   1.71158957   0.01557277
6652.00   1.69031429   0.01545388
6654.00   1.66504693   0.01537666
6656.00   1.63238406   0.01527261
6658.00   1.59672678   0.01519600
6660.00   1.56716907   0.01511984
6662.00   1.54341280   0.01505814
6664.00   1.51177406   0.01499667
6666.00   1.46681356   0.01493759
6668.00   1.43660772   0.01488759
6670.00   1.43002653   0.01486229
6672.00   1.42796874   0.01483054
6674.00   1.40782976   0.01474732
6676.00   1.37779665   0.01462609
6678.00   1.34748173   0.01449980
6680.00   1.30766869   0.01418076
6682.00   1.27722776   0.01421262
6684.00   1.25333631   0.01479587
6686.00   1.23670995   0.01527578
6688.00   1.23148715   0.01514992
6690.00   1.23667264   0.01463868
6692.00   1.22957861   0.01436246
6694.00   1.22091341   0.01373677
6696.00   1.20096314   0.01397948
6698.00   1.16114318   0.01545405
6700.00   1.12887895   0.01637503
6702.00   1.12044370   0.01593121
6704.00   1.12380445   0.01475110
6706.00   1.11136532   0.01444365
6708.00   1.08588922   0.01436557
6710.00   1.07187581   0.01483542
6712.00   1.06136131   0.01638871
6714.00   1.05637181   0.01709910
6716.00   1.06363237   0.01645735
6718.00   1.07234406   0.01517693
6720.00   1.05681932   0.01443398
6722.00   1.01967490   0.01369520
6724.00   0.99450928   0.01340892
6726.00   0.96773374   0.01376394
6728.00   0.94880021   0.01388746
6730.00   0.93917775   0.01370197
6732.00   0.93497926   0.01345373
6734.00   0.93352240   0.01331476
6736.00   0.93769127   0.01315611
6738.00   0.93455219   0.01340031
6740.00   0.93384856   0.01408672
6742.00   0.91834170   0.01459957
6744.00   0.87875992   0.01519366
6746.00   0.84293634   0.01550939
6748.00   0.83145148   0.01516621
6750.00   0.83427554   0.01430491
6752.00   0.83912158   0.01394167
6754.00   0.86599791   0.01364975
6756.00   0.86337006   0.01374961
6758.00   0.83513445   0.01443886
6760.00   0.80255055   0.01496943
6762.00   0.77104062   0.01514295
6764.00   0.73824131   0.01509197
6766.00   0.71530116   0.01460395
6768.00   0.69077843   0.01321200
6770.00   0.69061071   0.01262350
6772.00   0.72273088   0.01232125
6774.00   0.74342871   0.01251257
6776.00   0.74272048   0.01361459
6778.00   0.73359919   0.01477866
6780.00   0.72822362   0.01461078
6782.00   0.71975553   0.01325114
6784.00   0.71784216   0.01270121
6786.00   0.71868944   0.01242332
6788.00   0.72464722   0.01228084
6790.00   0.74537301   0.01237752
6792.00   0.76022780   0.01252473
6794.00   0.74177718   0.01246455
6796.00   0.69634277   0.01226974
6798.00   0.67398536   0.01228904
6800.00   0.65829039   0.01254172
6802.00   0.64933640   0.01260733
6804.00   0.65207469   0.01249438
6806.00   0.65462059   0.01235166
6808.00   0.64585471   0.01225259
6810.00   0.63138688   0.01215901
6812.00   0.63762903   0.01214726
6814.00   0.67076731   0.01218949
6816.00   0.68035150   0.01229125
6818.00   0.67087948   0.01250551
6820.00   0.66335732   0.01268289
6822.00   0.66465807   0.01275239
6824.00   0.66998482   0.01278014
6826.00   0.67829382   0.01289114
6828.00   0.69156080   0.01303948
6830.00   0.70394313   0.01321793
6832.00   0.72838688   0.01358162
6834.00   0.73326182   0.01369213
6836.00   0.70603120   0.01338405
6838.00   0.66722482   0.01292274
6840.00   0.64629155   0.01273701
6842.00   0.62953860   0.01269784
6844.00   0.62625635   0.01262225
6846.00   0.63873523   0.01257417
6848.00   0.65135628   0.01253604
6850.00   0.66183770   0.01248024
6852.00   0.67787474   0.01246978
6854.00   0.71082753   0.01257336
6856.00   0.76113725   0.01276300
6858.00   0.77263671   0.01298282
6860.00   0.75279456   0.01314923
6862.00   0.73665166   0.01357205
6864.00   0.70853543   0.01437690
6866.00   0.69130009   0.01504748
6868.00   0.70372039   0.01536446
6870.00   0.73526555   0.01547549
6872.00   0.75467587   0.01524597
6874.00   0.78051645   0.01438405
6876.00   0.78754890   0.01394168
6878.00   0.77248508   0.01369559
6880.00   0.76155597   0.01356722
6882.00   0.76385999   0.01357173
6884.00   0.77178174   0.01367918
6886.00   0.77794474   0.01373630
6888.00   0.78423494   0.01381777
6890.00   0.79405975   0.01385728
6892.00   0.81990802   0.01390589
6894.00   0.82317901   0.01387576
6896.00   0.78370488   0.01370263
6898.00   0.73806435   0.01349994
6900.00   0.74161810   0.01345331
6902.00   0.77934033   0.01350447
6904.00   0.80824155   0.01356411
6906.00   0.85514367   0.01374276
6908.00   0.88002354   0.01378895
6910.00   0.87279856   0.01363268
6912.00   0.86456859   0.01348448
6914.00   0.88668698   0.01356018
6916.00   0.92896903   0.01378446
6918.00   0.93824303   0.01384104
6920.00   0.92338264   0.01372009
6922.00   0.91260129   0.01379302
6924.00   0.89454895   0.01404873
6926.00   0.88377774   0.01432622
6928.00   0.89336216   0.01462575
6930.00   0.91490310   0.01492876
6932.00   0.91683644   0.01476860
6934.00   0.90102524   0.01393199
6936.00   0.89856166   0.01363401
6938.00   0.90582651   0.01368589
6940.00   0.90976083   0.01375700
6942.00   0.90284300   0.01373336
6944.00   0.89393276   0.01372753
6946.00   0.90304279   0.01390382
6948.00   0.93512696   0.01439332
6950.00   0.93935716   0.01438905
6952.00   0.91705513   0.01392132
6954.00   0.90901417   0.01360585
6956.00   0.92383254   0.01339622
6958.00   0.94441879   0.01339990
6960.00   0.95164311   0.01402086
6962.00   0.95081168   0.01535321
6964.00   0.95828491   0.01539521
6966.00   0.97640663   0.01417503
6968.00   0.98206913   0.01358209
6970.00   0.96603060   0.01328242
6972.00   0.95525986   0.01367723
6974.00   0.98027617   0.01560420
6976.00   1.03199434   0.01848554
6978.00   1.02521861   0.01849400
6980.00   0.95686895   0.01564962
6982.00   0.92894816   0.01413729
6984.00   0.92916870   0.01349777
6986.00   0.93502766   0.01325654
6988.00   0.93905699   0.01334728
6990.00   0.94512451   0.01377991
6992.00   0.94477439   0.01395275
6994.00   0.93582505   0.01409399
6996.00   0.93579870   0.01417043
6998.00   0.94149584   0.01417898
7000.00   0.94807130   0.01415763
7002.00   0.95796967   0.01407633
7004.00   0.96664143   0.01398706
7006.00   0.95838708   0.01405334
7008.00   0.92728829   0.01425440
7010.00   0.92442012   0.01440307
7012.00   0.94758487   0.01472571
7014.00   0.95755643   0.01472881
7016.00   0.94562560   0.01421527
7018.00   0.93117964   0.01357398
7020.00   0.93679237   0.01335410
7022.00   0.95768774   0.01338672
7024.00   0.96138585   0.01336754
7026.00   0.95500243   0.01343646
7028.00   0.94881737   0.01346523
7030.00   0.93831795   0.01344963
7032.00   0.93074816   0.01343920
7034.00   0.93406355   0.01347032
7036.00   0.94505870   0.01352685
7038.00   0.94858360   0.01356843
7040.00   0.94722772   0.01361455
7042.00   0.94927555   0.01364657
7044.00   0.95181799   0.01366864
7046.00   0.95759374   0.01368098
7048.00   0.97191679   0.01368661
7050.00   0.98974234   0.01368229
7052.00   0.98771751   0.01364968
7054.00   0.96374607   0.01350654
7056.00   0.95361131   0.01355346
7058.00   0.93889594   0.01351018
7060.00   0.94130337   0.01390162
7062.00   0.98042327   0.01515211
7064.00   1.02677143   0.01645584
7066.00   1.01647425   0.01650531
7068.00   0.95146883   0.01553331
7070.00   0.93603629   0.01500958
7072.00   0.95025891   0.01432400
7074.00   0.95794106   0.01393110
7076.00   0.95803535   0.01395504
7078.00   0.95606995   0.01415270
7080.00   0.95258504   0.01429335
7082.00   0.94477415   0.01450333
7084.00   0.95200652   0.01457332
7086.00   0.97494310   0.01460162
7088.00   0.99198675   0.01449909
7090.00   1.00264049   0.01413833
7092.00   1.01565373   0.01383635
7094.00   1.03924918   0.01379403
7096.00   1.06992197   0.01390835
7098.00   1.08308101   0.01448655
7100.00   1.08545208   0.01610099
7102.00   1.08262539   0.01634839
7104.00   1.06907713   0.01530631
7106.00   1.05571949   0.01430604
7108.00   1.04688156   0.01398522
7110.00   1.03970039   0.01397883
7112.00   1.03323233   0.01406540
7114.00   1.02480316   0.01459131
7116.00   1.02506566   0.01460647
7118.00   1.02750325   0.01416644
7120.00   1.04147458   0.01390404
7122.00   1.07310736   0.01383654
7124.00   1.11274171   0.01401735
7126.00   1.14482772   0.01485950
7128.00   1.18429971   0.01663664
7130.00   1.18901241   0.01676704
7132.00   1.14743018   0.01543758
7134.00   1.13284695   0.01456658
7136.00   1.15490103   0.01429321
7138.00   1.18338072   0.01423783
7140.00   1.19125092   0.01420386
7142.00   1.18918669   0.01430765
7144.00   1.18840945   0.01431154
7146.00   1.17482293   0.01425967
7148.00   1.18110025   0.01425769
7150.00   1.21745062   0.01432000
7152.00   1.24653459   0.01437022
7154.00   1.24000585   0.01433033
7156.00   1.21233928   0.01423907
7158.00   1.20514929   0.01435204
7160.00   1.20253336   0.01468379
7162.00   1.20934665   0.01488174
7164.00   1.23234975   0.01505299
7166.00   1.25061488   0.01515245
7168.00   1.25497174   0.01513558
7170.00   1.25300062   0.01505070
7172.00   1.25596619   0.01504002
7174.00   1.25880432   0.01501406
7176.00   1.26477194   0.01510820
7178.00   1.27555013   0.01501144
7180.00   1.28363240   0.01548207
7182.00   1.28657961   0.01701627
7184.00   1.28830743   0.01853625
7186.00   1.29356110   0.01862031
7188.00   1.29811847   0.01762201
7190.00   1.31388903   0.01703022
7192.00   1.34770823   0.01612383
7194.00   1.36785042   0.01562916
7196.00   1.36972606   0.01566784
7198.00   1.36888874   0.01593113
7200.00   1.37865055   0.01618930
7202.00   1.39315557   0.01656781
7204.00   1.41064358   0.01679040
7206.00   1.43822420   0.01712759
7208.00   1.45526135   0.01702591
7210.00   1.46423852   0.01631510
7212.00   1.46814263   0.01560450
7214.00   1.46963727   0.01518900
7216.00   1.46713305   0.01494457
7218.00   1.44974828   0.01558005
7220.00   1.41360092   0.01667381
7222.00   1.38418996   0.01845194
7224.00   1.33694410   0.02192635
7226.00   1.31962562   0.02358328
7228.00   1.36373591   0.02212361
7230.00   1.43493879   0.01897669
7232.00   1.44967628   0.01840137
7234.00   1.41901302   0.01994258
7236.00   1.42125440   0.01989016
7238.00   1.43956387   0.01905717
7240.00   1.45452082   0.01829100
7242.00   1.46447802   0.01763700
7244.00   1.47201526   0.01706291
7246.00   1.47630870   0.01676596
7248.00   1.47556138   0.01676847
7250.00   1.48169863   0.01659904
7252.00   1.50296891   0.01637931
7254.00   1.50296748   0.01618944
7256.00   1.47314727   0.01577197
7258.00   1.44044352   0.01567908
7260.00   1.42358458   0.01668171
7262.00   1.41048348   0.01847851
7264.00   1.44280422   0.01871962
7266.00   1.53637636   0.01755631
7268.00   1.59647322   0.01718819
7270.00   1.64788759   0.01744475
7272.00   1.67478323   0.01775562
7274.00   1.65588903   0.01791454
7276.00   1.60559630   0.01803193
7278.00   1.59527552   0.01789848
7280.00   1.60952473   0.01742006
7282.00   1.61538553   0.01713811
7284.00   1.62940407   0.01691661
7286.00   1.63115895   0.01673454
7288.00   1.60517001   0.01658475
7290.00   1.57065821   0.01647753
7292.00   1.57380176   0.01643050
7294.00   1.60901189   0.01643048
7296.00   1.62776625   0.01650694
7298.00   1.64830554   0.01672768
7300.00   1.66058064   0.01686659
7302.00   1.65767038   0.01688080
7304.00   1.65305686   0.01686055
7306.00   1.66730595   0.01683063
7308.00   1.69702280   0.01658048
7310.00   1.71050799   0.01731731
7312.00   1.71513283   0.01951355
7314.00   1.71928096   0.02022205
7316.00   1.72286510   0.01937485
7318.00   1.72386551   0.01814154
7320.00   1.71860433   0.01743692
7322.00   1.70728660   0.01683346
7324.00   1.71425188   0.01666530
7326.00   1.74170756   0.01709469
7328.00   1.75624084   0.01729160
7330.00   1.75690925   0.01737764
7332.00   1.76360416   0.01748921
7334.00   1.79428494   0.01772442
7336.00   1.83530843   0.01800519
7338.00   1.83007812   0.01802969
7340.00   1.78246045   0.01787291
7342.00   1.74762356   0.01765095
7344.00   1.69783843   0.01721959
7346.00   1.66603196   0.01686408
7348.00   1.66465521   0.01665951
7350.00   1.67930949   0.01654794
7352.00   1.68833756   0.01651469
7354.00   1.70155346   0.01658986
7356.00   1.71275878   0.01667366
7358.00   1.72151864   0.01677469
7360.00   1.73463976   0.01695425
7362.00   1.76197195   0.01727331
7364.00   1.78354585   0.01759797
7366.00   1.76894534   0.01777633
7368.00   1.72252762   0.01790746
7370.00   1.70212376   0.01778977
7372.00   1.69536197   0.01734681
7374.00   1.68301153   0.01699494
7376.00   1.66494453   0.01666463
7378.00   1.64737892   0.01639462
7380.00   1.63451552   0.01621219
7382.00   1.62445581   0.01609590
7384.00   1.61374629   0.01632501
7386.00   1.60565805   0.01716220
7388.00   1.59339809   0.01740035
7390.00   1.57482374   0.01715957
7392.00   1.55926228   0.01685779
7394.00   1.54649127   0.01655358
7396.00   1.53847480   0.01625798
7398.00   1.55874979   0.01660748
7400.00   1.63419855   0.01799322
7402.00   1.64470160   0.01819021
7404.00   1.60687912   0.01743913
7406.00   1.57277286   0.01695132
7408.00   1.54904687   0.01714928
7410.00   1.53128290   0.01753873
7412.00   1.53144240   0.01749546
7414.00   1.55341637   0.01722821
7416.00   1.55842030   0.01689725
7418.00   1.55952585   0.01597470
7420.00   1.55352402   0.01583374
7422.00   1.53238845   0.01689093
7424.00   1.51287174   0.01810057
7426.00   1.51799929   0.01856722
7428.00   1.54200995   0.01875509
7430.00   1.55295789   0.01850764
7432.00   1.56280816   0.01747611
7434.00   1.56660080   0.01681830
7436.00   1.56935155   0.01623425
7438.00   1.56101012   0.01609834
7440.00   1.52431202   0.01699312
7442.00   1.46586227   0.01856449
7444.00   1.46761179   0.01879456
7446.00   1.53242195   0.01810631
7448.00   1.55915165   0.01753474
7450.00   1.56647587   0.01658586
7452.00   1.56763399   0.01584530
7454.00   1.56471050   0.01549788
7456.00   1.55738521   0.01552766
7458.00   1.55598247   0.01649550
7460.00   1.55974007   0.01902193
7462.00   1.55799365   0.01963437
7464.00   1.55223000   0.01919475
7466.00   1.54715717   0.01853635
7468.00   1.54383469   0.01753257
7470.00   1.54088402   0.01640564
7472.00   1.53605032   0.01615942
7474.00   1.52504587   0.01669966
7476.00   1.53285837   0.01679405
7478.00   1.56107926   0.01680109
7480.00   1.58184659   0.01680092
7482.00   1.59645176   0.01679762
7484.00   1.60596311   0.01677169
7486.00   1.60666037   0.01669959
7488.00   1.59771228   0.01657581
7490.00   1.60048747   0.01653268
7492.00   1.61083162   0.01654975
7494.00   1.61982989   0.01655680
7496.00   1.62899268   0.01656099
7498.00   1.63822472   0.01657292
7500.00   1.64842165   0.01660349
7502.00   1.65917313   0.01664723
7504.00   1.66061163   0.01665292
7506.00   1.64779437   0.01661487
7508.00   1.64823222   0.01661035
7510.00   1.66060150   0.01660066
7512.00   1.67045212   0.01663721
7514.00   1.67535710   0.01676130
7516.00   1.67564774   0.01692868
7518.00   1.65943301   0.01700619
7520.00   1.60752869   0.01670264
7522.00   1.60681593   0.01727183
7524.00   1.65076041   0.01887093
7526.00   1.68426895   0.01978192
7528.00   1.70444477   0.01987386
7530.00   1.71312165   0.01947948
7532.00   1.69494438   0.01863936
7534.00   1.64198303   0.01681213
7536.00   1.62731779   0.01623494
7538.00   1.63998759   0.01675089
7540.00   1.64404345   0.01698930
7542.00   1.63914704   0.01700000
7544.00   1.63244784   0.01693913
7546.00   1.62830281   0.01681100
7548.00   1.62520409   0.01658052
7550.00   1.61844039   0.01656215
7552.00   1.60338998   0.01667023
7554.00   1.59958661   0.01684900
7556.00   1.61041975   0.01724849
7558.00   1.61906099   0.01751590
7560.00   1.61605489   0.01739236
7562.00   1.60650730   0.01702359
7564.00   1.59189522   0.01687687
7566.00   1.56032515   0.01677068
7568.00   1.54950237   0.01677285
7570.00   1.56198537   0.01698940
7572.00   1.56481051   0.01708988
7574.00   1.54356050   0.01687175
7576.00   1.51199031   0.01655009
7578.00   1.49405158   0.01666153
7580.00   1.48806655   0.01713852
7582.00   1.46581256   0.01744498
7584.00   1.43776691   0.01786423
7586.00   1.39833796   0.01805056
7588.00   1.33530903   0.01754278
7590.00   1.27132225   0.01719479
7592.00   1.24429989   0.01826582
7594.00   1.24125206   0.01961667
7596.00   1.24770772   0.02353915
7598.00   1.29475486   0.03050452
7600.00   1.30211556   0.03382121
7602.00   1.25339639   0.03438115
7604.00   1.20262647   0.03396823
7606.00   1.19844663   0.03371643
7608.00   1.22160280   0.03314731
7610.00   1.23139381   0.03151039
7612.00   1.25185370   0.02803766
7614.00   1.24963713   0.02517548
7616.00   1.22179317   0.02211766
7618.00   1.19170177   0.01983277
7620.00   1.17206275   0.01952149
7622.00   1.15550768   0.02075341
7624.00   1.13426042   0.02186413
7626.00   1.10066772   0.02407501
7628.00   1.08948529   0.02495096
7630.00   1.10573328   0.02539880
7632.00   1.11032438   0.02504156
7634.00   1.08449864   0.02321401
7636.00   1.04919899   0.02050726
7638.00   1.04509294   0.01950945
7640.00   1.06897581   0.01995838
7642.00   1.07112408   0.01975833
7644.00   1.05652678   0.01957716
7646.00   1.05444181   0.01933054
7648.00   1.07469785   0.01902141
7650.00   1.09792995   0.01863705
7652.00   1.09972978   0.01809727
7654.00   1.08900642   0.01729432
7656.00   1.07366097   0.01699432
7658.00   1.03885150   0.01716677
7660.00   1.02222514   0.01722436
7662.00   1.02625811   0.01722178
7664.00   1.03537798   0.01719290
7666.00   1.03760755   0.01706862
7668.00   1.03799105   0.01684343
7670.00   1.04688430   0.01709575
7672.00   1.06895173   0.01817442
7674.00   1.07800424   0.01827527
7676.00   1.06642854   0.01717780
7678.00   1.06713712   0.01636396
7680.00   1.10385513   0.01698724
7682.00   1.15973938   0.01822068
7684.00   1.18133867   0.01799426
7686.00   1.17577851   0.01620090
7688.00   1.18348634   0.01557380
7690.00   1.19594884   0.01563994
7692.00   1.20504022   0.01575772
7694.00   1.20575476   0.01581940
7696.00   1.20471609   0.01589684
7698.00   1.21565866   0.01586303
7700.00   1.23448420   0.01568306
7702.00   1.25604653   0.01571374
7704.00   1.29308653   0.01577110
7706.00   1.31305408   0.01606955
7708.00   1.30823660   0.01668007
7710.00   1.29573452   0.01740052
7712.00   1.29216027   0.01806756
7714.00   1.28632832   0.01885161
7716.00   1.30594802   0.01906838
7718.00   1.35149503   0.01868435
7720.00   1.39401174   0.01854287
7722.00   1.45613396   0.01877824
7724.00   1.49458206   0.01882769
7726.00   1.45870245   0.01814306
7728.00   1.36723900   0.01686324
7730.00   1.35557902   0.01643005
7732.00   1.40373194   0.01658205
7734.00   1.42740965   0.01673189
7736.00   1.44762182   0.01706168
7738.00   1.45851827   0.01742577
7740.00   1.44334316   0.01776248
7742.00   1.41823232   0.01810730
7744.00   1.45909846   0.01843743
7746.00   1.59745300   0.01864941
7748.00   1.63300431   0.01912342
7750.00   1.59519053   0.01997346
7752.00   1.56604898   0.02052496
7754.00   1.56253767   0.02074256
7756.00   1.56702197   0.02065506
7758.00   1.57230759   0.01998166
7760.00   1.58801293   0.01835001
7762.00   1.58336222   0.01762145
7764.00   1.55548787   0.01746910
7766.00   1.54083407   0.01735478
7768.00   1.54545915   0.01723119
7770.00   1.55349624   0.01725077
7772.00   1.54818654   0.01759154
7774.00   1.53345883   0.01828073
7776.00   1.53461134   0.01840612
7778.00   1.55724502   0.01770244
7780.00   1.55840814   0.01794383
7782.00   1.53115749   0.01933866
7784.00   1.50694931   0.02060987
7786.00   1.50811946   0.02114191
7788.00   1.52381682   0.02132393
7790.00   1.53841388   0.02086573
7792.00   1.55638564   0.01910629
7794.00   1.58063471   0.01832893
7796.00   1.62437689   0.01841437
7798.00   1.65157509   0.01847987
7800.00   1.64168549   0.01813419
7802.00   1.61166060   0.01765974
7804.00   1.59951305   0.01749528
7806.00   1.59684503   0.01759582
7808.00   1.58410752   0.01757928
7810.00   1.56191421   0.01743344
7812.00   1.54480064   0.01751021
7814.00   1.53631818   0.01780606
7816.00   1.53171921   0.01834325
7818.00   1.52829111   0.01931785
7820.00   1.53985512   0.02080222
7822.00   1.50494289   0.02173350
7824.00   1.40114307   0.02311203
7826.00   1.35200250   0.02307594
7828.00   1.37054265   0.02081609
7830.00   1.41247272   0.01788807
7832.00   1.44566810   0.01677791
7834.00   1.49065411   0.01682880
7836.00   1.49320316   0.01684174
7838.00   1.44713688   0.01744055
7840.00   1.42751896   0.01789915
7842.00   1.43470502   0.01832597
7844.00   1.43814015   0.01875230
7846.00   1.41880417   0.01924307
7848.00   1.38649690   0.01976348
7850.00   1.35704625   0.01979789
7852.00   1.32881165   0.01936341
7854.00   1.28913498   0.01900498
7856.00   1.22423375   0.01852013
7858.00   1.17859566   0.01806927
7860.00   1.17117023   0.01768672
7862.00   1.18647540   0.01737350
7864.00   1.20365727   0.01729294
7866.00   1.24904454   0.01750384
7868.00   1.25415087   0.01758381
7870.00   1.21482277   0.01760886
7872.00   1.20079780   0.01772216
7874.00   1.23977542   0.01788457
7876.00   1.28621483   0.01816966
7878.00   1.27116990   0.01883285
7880.00   1.21025181   0.02008980
7882.00   1.16686165   0.02010197
7884.00   1.10195172   0.01887944
7886.00   1.07297385   0.01812106
7888.00   1.09702396   0.01795976
7890.00   1.12688601   0.01792001
7892.00   1.11517668   0.01763481
7894.00   1.07912850   0.01722845
7896.00   1.06171656   0.01706815
7898.00   1.04300380   0.01716565
7900.00   1.04112446   0.01711843
7902.00   1.06433058   0.01688428
7904.00   1.08454132   0.01673952
7906.00   1.08323300   0.01686400
7908.00   1.07065856   0.01715610
7910.00   1.06598973   0.01743272
7912.00   1.07023799   0.01793677
7914.00   1.05778193   0.01806446
7916.00   1.02532303   0.01790152
7918.00   0.99943095   0.01765431
7920.00   0.99324024   0.01735054
7922.00   0.99356246   0.01698343
7924.00   0.97372997   0.01669006
7926.00   0.93299699   0.01639945
7928.00   0.91289091   0.01619498
7930.00   0.90046543   0.01605225
7932.00   0.89688885   0.01597988
7934.00   0.90587962   0.01601629
7936.00   0.92052907   0.01609158
7938.00   0.92935449   0.01607297
7940.00   0.93699503   0.01595663
7942.00   0.94389254   0.01606865
7944.00   0.95374388   0.01634445
7946.00   0.95492846   0.01665426
7948.00   0.94269675   0.01718586
7950.00   0.93013245   0.01754080
7952.00   0.93249333   0.01718428
7954.00   0.94595116   0.01618405
7956.00   0.93042570   0.01645391
7958.00   0.88494146   0.01802836
7960.00   0.85522008   0.01863086
7962.00   0.83196551   0.01871805
7964.00   0.81616324   0.01841523
7966.00   0.81294847   0.01743924
7968.00   0.81860405   0.01590176
7970.00   0.80946815   0.01580871
7972.00   0.78425151   0.01732794
7974.00   0.77525181   0.01763115
7976.00   0.78013957   0.01739072
7978.00   0.78144431   0.01695636
7980.00   0.77362502   0.01623159
7982.00   0.76187992   0.01536885
7984.00   0.75108850   0.01518057
7986.00   0.73331726   0.01548177
7988.00   0.73317361   0.01588055
7990.00   0.75288218   0.01684437
7992.00   0.76441008   0.01729427
7994.00   0.76023573   0.01682768
7996.00   0.75527543   0.01629769
7998.00   0.76950395   0.01697589
8000.00   0.80208594   0.01850968
8002.00   0.80709177   0.01930511
8004.00   0.79722095   0.02032156
8006.00   0.77846307   0.02031481
8008.00   0.73693836   0.01883736
8010.00   0.70242721   0.01706965
8012.00   0.70675409   0.01628585
8014.00   0.73828155   0.01602880
8016.00   0.74127328   0.01585242
8018.00   0.72945619   0.01591847
8020.00   0.71901816   0.01623031
8022.00   0.70282346   0.01707007
8024.00   0.69033438   0.01766273
8026.00   0.68848854   0.01766839
8028.00   0.69247442   0.01731876
8030.00   0.68877327   0.01678932
8032.00   0.67545986   0.01556119
8034.00   0.67530507   0.01503692
8036.00   0.68752068   0.01507248
8038.00   0.69657564   0.01510286
8040.00   0.69725627   0.01498475
8042.00   0.69537985   0.01485539
8044.00   0.69864929   0.01478021
8046.00   0.70304704   0.01451100
8048.00   0.71302766   0.01499917
8050.00   0.73680156   0.01633213
8052.00   0.74644327   0.01720751
8054.00   0.73740852   0.01777937
8056.00   0.72025847   0.01796743
8058.00   0.70477843   0.01730643
8060.00   0.68620753   0.01557376
8062.00   0.66854596   0.01498299
8064.00   0.65085608   0.01529506
8066.00   0.63205880   0.01529933
8068.00   0.60211325   0.01496722
8070.00   0.58452046   0.01473630
8072.00   0.60415906   0.01496176
8074.00   0.65144646   0.01548537
8076.00   0.66792959   0.01574179
8078.00   0.67423493   0.01599063
8080.00   0.66791040   0.01603308
8082.00   0.63775569   0.01574316
8084.00   0.61379457   0.01555726
8086.00   0.60931396   0.01574759
8088.00   0.61590952   0.01610726
8090.00   0.62977886   0.01617191
8092.00   0.66269380   0.01581533
8094.00   0.67935652   0.01604739
8096.00   0.69757485   0.01703754
8098.00   0.69693202   0.01743299
8100.00   0.66426980   0.01677716
8102.00   0.61871922   0.01566271
8104.00   0.59728432   0.01517138
8106.00   0.58847129   0.01498868
8108.00   0.57866430   0.01478647
8110.00   0.57113451   0.01470199
8112.00   0.56863856   0.01464661
8114.00   0.57332927   0.01462233
8116.00   0.58052891   0.01463454
8118.00   0.58495033   0.01469070
8120.00   0.58932269   0.01481210
8122.00   0.59037322   0.01480902
8124.00   0.59240389   0.01465473
8126.00   0.58534127   0.01462371
8128.00   0.56282365   0.01467639
8130.00   0.54337090   0.01480972
8132.00   0.54031390   0.01507302
8134.00   0.54706657   0.01544262
8136.00   0.55850589   0.01558792
8138.00   0.59035981   0.01549479
8140.00   0.59702492   0.01559706
8142.00   0.58233815   0.01556570
8144.00   0.56419712   0.01598307
8146.00   0.54687089   0.01732765
8148.00   0.52868694   0.01896880
8150.00   0.52049595   0.01943596
8152.00   0.52382994   0.01935774
8154.00   0.51922166   0.01873000
8156.00   0.51085359   0.01679784
8158.00   0.50321984   0.01534308
8160.00   0.50068337   0.01504357
8162.00   0.49614090   0.01529508
8164.00   0.47407901   0.01541594
8166.00   0.42903289   0.01580434
8168.00   0.41718492   0.01582519
8170.00   0.42589161   0.01544752
8172.00   0.44071618   0.01535384
8174.00   0.47846064   0.01559886
8176.00   0.50569934   0.01597471
8178.00   0.47465995   0.01632836
8180.00   0.39515156   0.01671831
8182.00   0.36557460   0.01718999
8184.00   0.36200458   0.01795572
8186.00   0.35839352   0.01827711
8188.00   0.35746679   0.01790014
8190.00   0.36301550   0.01777277
8192.00   0.38403568   0.01884304
8194.00   0.41614118   0.02050598
8196.00   0.40177187   0.02022276
8198.00   0.32844618   0.01781089
8200.00   0.30289999   0.01654324
8202.00   0.31225723   0.01584406
8204.00   0.32069585   0.01540170
8206.00   0.31623819   0.01520374
8208.00   0.30754629   0.01524211
8210.00   0.29905158   0.01516609
8212.00   0.29519117   0.01487965
8214.00   0.27354613   0.01521599
8216.00   0.23069493   0.01634724
8218.00   0.19529960   0.01696904
8220.00   0.16314539   0.01687651
8222.00   0.14353578   0.01647171
8224.00   0.16759993   0.01616518
8226.00   0.24690121   0.01577506
8228.00   0.25635183   0.01535389
8230.00   0.20610131   0.01469032
8232.00   0.18357059   0.01434842
8234.00   0.19401282   0.01428190
8236.00   0.21037172   0.01453805
8238.00   0.21304446   0.01533545
8240.00   0.21101132   0.01664244
8242.00   0.20333712   0.01697823
8244.00   0.19011192   0.01677330
8246.00   0.17202826   0.01637057
8248.00   0.14302462   0.01518385
8250.00   0.11757708   0.01438427
8252.00   0.10518039   0.01516896
8254.00   0.10061005   0.01676858
8256.00   0.09638642   0.01686644
8258.00   0.08942187   0.01578763
8260.00   0.09864185   0.01525409
8262.00   0.12430506   0.01480529
8264.00   0.15257663   0.01451222
8266.00   0.18100424   0.01418623
8268.00   0.21040025   0.01412411
8270.00   0.23464657   0.01540753
8272.00   0.26976475   0.01824462
8274.00   0.26281184   0.01924292
8276.00   0.20734355   0.01950605
8278.00   0.16744684   0.01936842
8280.00   0.15061541   0.01852411
8282.00   0.14438735   0.01747841
8284.00   0.14227201   0.01734642
8286.00   0.14526334   0.01773822
8288.00   0.16273777   0.01843959
8290.00   0.20431621   0.02022442
8292.00   0.23186441   0.02076426
8294.00   0.24723966   0.01980160
8296.00   0.25482860   0.01853804
8298.00   0.25295624   0.01817553
8300.00   0.24005310   0.01827244
8302.00   0.24512236   0.01802400
8304.00   0.25922352   0.01772838
8306.00   0.28001791   0.01727328
8308.00   0.31423116   0.01622282
8310.00   0.34631905   0.01565336
8312.00   0.36896041   0.01649076
8314.00   0.38603616   0.01805785
8316.00   0.39168939   0.01863441
8318.00   0.37947842   0.01913819
8320.00   0.37785041   0.01874401
8322.00   0.38073286   0.01700939
8324.00   0.38357344   0.01546169
8326.00   0.38637227   0.01475046
8328.00   0.38838342   0.01448782
8330.00   0.38509071   0.01434546
8332.00   0.38069621   0.01442317
8334.00   0.36514109   0.01487265
8336.00   0.32582808   0.01569149
8338.00   0.30796352   0.01662528
8340.00   0.32277569   0.01779373
8342.00   0.34791800   0.01890836
8344.00   0.35864234   0.01961102
8346.00   0.36692864   0.02017705
8348.00   0.36281046   0.02013447
8350.00   0.34066579   0.01947382
8352.00   0.32740137   0.01866755
8354.00   0.33021510   0.01729228
8356.00   0.32567289   0.01604667
8358.00   0.28853562   0.01591730
8360.00   0.22664434   0.01660575
8362.00   0.20656645   0.01656074
8364.00   0.21250802   0.01609328
8366.00   0.22319481   0.01587478
8368.00   0.25470376   0.01572398
8370.00   0.27773443   0.01575943
8372.00   0.27263546   0.01618982
8374.00   0.25279561   0.01682022
8376.00   0.25201672   0.01679748
8378.00   0.26475206   0.01594572
8380.00   0.26892084   0.01588864
8382.00   0.27098039   0.01651223
8384.00   0.27045089   0.01687018
8386.00   0.26538110   0.01667075
8388.00   0.25874072   0.01625719
8390.00   0.25804996   0.01610037
8392.00   0.26037756   0.01581438
8394.00   0.26583567   0.01628562
8396.00   0.27844483   0.01774848
8398.00   0.28637865   0.01854159
8400.00   0.28799295   0.01863182
8402.00   0.28720957   0.01835540
8404.00   0.28712183   0.01781339
8406.00   0.28551185   0.01672126
8408.00   0.28846195   0.01645315
8410.00   0.29680231   0.01693842
8412.00   0.30193606   0.01712036
8414.00   0.30320740   0.01708664
8416.00   0.30479228   0.01697610
8418.00   0.31111234   0.01677172
8420.00   0.32064486   0.01645033
8422.00   0.31882420   0.01663382
8424.00   0.29545179   0.01736098
8426.00   0.29960659   0.01777655
8428.00   0.33144018   0.01816246
8430.00   0.36265171   0.01831333
8432.00   0.37987021   0.01810501
8434.00   0.39221141   0.01762125
8436.00   0.41181529   0.01702974
8438.00   0.44165015   0.01586259
8440.00   0.45668554   0.01540242
8442.00   0.46109694   0.01545091
8444.00   0.46377087   0.01563202
8446.00   0.46139789   0.01596637
8448.00   0.46054402   0.01635960
8450.00   0.48266742   0.01643608
8452.00   0.53662038   0.01611766
8454.00   0.54415244   0.01644947
8456.00   0.50806373   0.01702544
8458.00   0.49133214   0.01800082
8460.00   0.50066036   0.01994092
8462.00   0.51627493   0.02144024
8464.00   0.52230853   0.02092571
8466.00   0.52619392   0.01863625
8468.00   0.52384967   0.01765707
8470.00   0.51116699   0.01736873
8472.00   0.50504601   0.01685326
8474.00   0.50434452   0.01605590
8476.00   0.50577986   0.01539790
8478.00   0.50765979   0.01524568
8480.00   0.51081222   0.01545662
8482.00   0.51624030   0.01551059
8484.00   0.52626568   0.01549707
8486.00   0.53218418   0.01570551
8488.00   0.53649235   0.01600587
8490.00   0.53803468   0.01653320
8492.00   0.53663588   0.01753888
8494.00   0.53222561   0.01867580
8496.00   0.52271318   0.01885360
8498.00   0.49507928   0.01815147
8500.00   0.49805543   0.01783215
8502.00   0.53102446   0.01743232
8504.00   0.55518258   0.01719834
8506.00   0.56106669   0.01723407
8508.00   0.56137180   0.01739611
8510.00   0.57011050   0.01749377
8512.00   0.58433372   0.01773795
8514.00   0.59134901   0.01747391
8516.00   0.58606219   0.01651994
8518.00   0.59538007   0.01594675
8520.00   0.62938052   0.01589136
8522.00   0.66311896   0.01600484
8524.00   0.66805553   0.01601224
8526.00   0.65230966   0.01603804
8528.00   0.65523213   0.01605955
8530.00   0.67073286   0.01593704
8532.00   0.67748296   0.01613188
8534.00   0.68163860   0.01651338
8536.00   0.67690849   0.01717512
8538.00   0.65075088   0.01846470
8540.00   0.60940528   0.02009436
8542.00   0.61204511   0.01998827
8544.00   0.67041641   0.01785989
8546.00   0.67834300   0.01697806
8548.00   0.63663334   0.01690396
8550.00   0.61253065   0.01690850
8552.00   0.63625997   0.01675629
8554.00   0.68194497   0.01661295
8556.00   0.70574439   0.01652302
8558.00   0.72167480   0.01627291
8560.00   0.73806548   0.01659201
8562.00   0.76313043   0.01753946
8564.00   0.76659065   0.01823802
8566.00   0.73462772   0.01875384
8568.00   0.69028729   0.01898824
8570.00   0.66751111   0.01843609
8572.00   0.64883810   0.01687335
8574.00   0.65365994   0.01616730
8576.00   0.69755131   0.01591837
8578.00   0.71548009   0.01574008
8580.00   0.69716233   0.01536851
8582.00   0.67654461   0.01545661
8584.00   0.68533772   0.01690210
8586.00   0.71221352   0.01934918
8588.00   0.72611153   0.01972946
8590.00   0.73989743   0.01851530
8592.00   0.74535167   0.01778824
8594.00   0.73837394   0.01701124
8596.00   0.73258358   0.01662343
8598.00   0.73776627   0.01716647
8600.00   0.74841923   0.01828492
8602.00   0.74954081   0.01867663
8604.00   0.74338341   0.01886243
8606.00   0.73991203   0.01872666
8608.00   0.74088275   0.01803267
8610.00   0.73468894   0.01745377
8612.00   0.71298051   0.01708364
8614.00   0.68515819   0.01696405
8616.00   0.67493427   0.01775097
8618.00   0.67441225   0.01971047
8620.00   0.67965662   0.02045312
8622.00   0.69391501   0.02071689
8624.00   0.71130276   0.02069126
8626.00   0.73553467   0.02024190
8628.00   0.75953704   0.01960303
8630.00   0.77085263   0.01925155
8632.00   0.77780509   0.01898184
8634.00   0.76242995   0.01890176
8636.00   0.70644021   0.01896796
8638.00   0.68246633   0.01921777
8640.00   0.69819432   0.01990927
8642.00   0.72040004   0.02043092
8644.00   0.72164679   0.02014474
8646.00   0.71309352   0.01923777
8648.00   0.71434861   0.01891183
8650.00   0.71748400   0.01879327
8652.00   0.72692150   0.01884467
8654.00   0.74711037   0.01923801
8656.00   0.76488006   0.01955543
8658.00   0.77386707   0.01955914
8660.00   0.77752596   0.01939458
8662.00   0.77298880   0.01927132
8664.00   0.75074625   0.01888754
8666.00   0.74595916   0.01900012
8668.00   0.75680792   0.01973031
8670.00   0.76230448   0.02016424
8672.00   0.75552213   0.02005717
8674.00   0.74312454   0.01964931
8676.00   0.73228133   0.01911328
8678.00   0.71405786   0.01795154
8680.00   0.71361303   0.01781612
8682.00   0.72814304   0.01872837
8684.00   0.74363852   0.01921499
8686.00   0.76246744   0.01916214
8688.00   0.78026581   0.01887659
8690.00   0.78809679   0.01846193
8692.00   0.79116529   0.01760689
8694.00   0.78049052   0.01785421
8696.00   0.74688351   0.01923809
8698.00   0.72719640   0.02003342
8700.00   0.71729964   0.02048057
8702.00   0.71670341   0.02062474
8704.00   0.72991365   0.02030783
8706.00   0.75627786   0.01953769
8708.00   0.77189648   0.01911837
8710.00   0.79129881   0.01896409
8712.00   0.79365307   0.01850864
8714.00   0.77310723   0.01715464
8716.00   0.75537157   0.01663014
8718.00   0.75256765   0.01823496
8720.00   0.75748575   0.02078183
8722.00   0.76767629   0.02203944
8724.00   0.78111881   0.02362396
8726.00   0.80756730   0.02325332
8728.00   0.85600322   0.02013251
8730.00   0.89430231   0.01770231
8732.00   0.92037743   0.01781879
8734.00   0.93263960   0.01896288
8736.00   0.90861464   0.01908079
8738.00   0.83238512   0.01879507
8740.00   0.80922484   0.01888499
8742.00   0.81012267   0.01916702
8744.00   0.82553768   0.01946991
8746.00   0.87038773   0.01964637
8748.00   0.91545230   0.01999854
8750.00   0.91500992   0.02104542
8752.00   0.88030928   0.02281571
8754.00   0.86709195   0.02304765
8756.00   0.85927558   0.02155097
8758.00   0.85111195   0.02129005
8760.00   0.83872867   0.02258181
8762.00   0.83284861   0.02376692
8764.00   0.84449667   0.02377672
8766.00   0.86943430   0.02312868
8768.00   0.88119465   0.02289190
8770.00   0.88323390   0.02266322
8772.00   0.89350933   0.02257943
8774.00   0.91232157   0.02271124
8776.00   0.92867881   0.02280387
8778.00   0.93664771   0.02277194
8780.00   0.94055545   0.02265937
8782.00   0.94932258   0.02235692
8784.00   0.96526808   0.02180225
8786.00   0.96952015   0.02130756
8788.00   0.96482909   0.02069489
8790.00   0.95899719   0.02018947
8792.00   0.94709831   0.01977142
8794.00   0.93823135   0.01952372
8796.00   0.96002758   0.01977624
8798.00   1.02380097   0.02069395
8800.00   1.02908599   0.02087451
8802.00   0.98587859   0.02057856
8804.00   0.95619994   0.02035058
8806.00   0.95086598   0.01996549
8808.00   0.94171339   0.01983586
8810.00   0.89338005   0.02078797
8812.00   0.80554920   0.02274939
8814.00   0.79728550   0.02274575
8816.00   0.86188608   0.02035152
8818.00   0.89993471   0.01989702
8820.00   0.92818266   0.02157232
8822.00   0.94237870   0.02343816
8824.00   0.93133748   0.02466459
8826.00   0.89994788   0.02575010
8828.00   0.87889594   0.02608163
8830.00   0.83942366   0.02575061
8832.00   0.84102589   0.02526760
8834.00   0.90316451   0.02432915
8836.00   0.93895501   0.02333307
8838.00   0.90152109   0.02241450
8840.00   0.82907218   0.02150935
8842.00   0.80185348   0.02083696
8844.00   0.78025538   0.02012912
8846.00   0.80028600   0.02014267
8848.00   0.88600349   0.02120838
8850.00   0.94017583   0.02175500
8852.00   0.94070363   0.02138536
8854.00   0.91667634   0.02070078
8856.00   0.89547569   0.02051890
8858.00   0.86182821   0.02054504
8860.00   0.83689892   0.02067814
8862.00   0.80547988   0.02108243
8864.00   0.79319251   0.02135019
8866.00   0.80646503   0.02154320
8868.00   0.82820433   0.02159865
8870.00   0.84360027   0.02135078
8872.00   0.86180049   0.02079564
8874.00   0.86044443   0.02052732
8876.00   0.82327300   0.01986844
8878.00   0.82426554   0.02035132
8880.00   0.87817258   0.02230709
8882.00   0.92023206   0.02403111
8884.00   0.90737826   0.02464418
8886.00   0.86187547   0.02472129
8888.00   0.81550145   0.02509730
8890.00   0.72704732   0.02585238
8892.00   0.69583857   0.02576743
8894.00   0.72127795   0.02488608
8896.00   0.73998874   0.02384352
8898.00   0.71971047   0.02272749
8900.00   0.68973249   0.02152992
8902.00   0.71194375   0.02094067
8904.00   0.80539238   0.02054384
8906.00   0.81498468   0.02111992
8908.00   0.75659078   0.02308865
8910.00   0.71677428   0.02433728
8912.00   0.70541382   0.02458604
8914.00   0.70986569   0.02447069
8916.00   0.73543590   0.02457706
8918.00   0.80062354   0.02460968
8920.00   0.79827040   0.02487143
8922.00   0.74090922   0.02586217
8924.00   0.69194704   0.02577535
8926.00   0.63593167   0.02421157
8928.00   0.59480768   0.02217957
8930.00   0.60050291   0.02069556
8932.00   0.64187390   0.01921825
8934.00   0.68485898   0.01907076
8936.00   0.77542746   0.02062879
8938.00   0.80379838   0.02142826
8940.00   0.76761353   0.02199321
8942.00   0.72101980   0.02224082
8944.00   0.68898976   0.02190371
8946.00   0.65844041   0.02112898
8948.00   0.65270156   0.02106145
8950.00   0.67932898   0.02132099
8952.00   0.68615305   0.02185670
8954.00   0.68241006   0.02267171
8956.00   0.67977649   0.02370465
8958.00   0.68500972   0.02530574
8960.00   0.69080353   0.02688485
8962.00   0.67969453   0.02676731
8964.00   0.64944571   0.02510602
8966.00   0.63406974   0.02376341
8968.00   0.62508714   0.02156402
8970.00   0.61737567   0.02001804
8972.00   0.60912573   0.01970871
8974.00   0.60360104   0.01996835
8976.00   0.60603154   0.01992927
8978.00   0.61745256   0.01985824
8980.00   0.61997724   0.02025602
8982.00   0.61579615   0.02076635
8984.00   0.61543161   0.02190309
8986.00   0.61934096   0.02414695
8988.00   0.62415624   0.02599714
8990.00   0.62853450   0.02632110
8992.00   0.63394260   0.02568587
8994.00   0.62990332   0.02514812
8996.00   0.60180551   0.02375337
8998.00   0.60738778   0.02333250
9000.00   0.65556425   0.02408597
9002.00   0.69627637   0.02470730
9004.00   0.70054615   0.02452041
9006.00   0.68558443   0.02393008
9008.00   0.67855537   0.02351100
9010.00   0.65635490   0.02289054
9012.00   0.66401345   0.02262480
9014.00   0.70746309   0.02271275
9016.00   0.73749816   0.02277539
9018.00   0.74302292   0.02276669
9020.00   0.73200542   0.02269040
9022.00   0.69793576   0.02230594
9024.00   0.62391376   0.02131924
9026.00   0.58860463   0.02123016
9028.00   0.56524581   0.02177479
9030.00   0.56199151   0.02241493
9032.00   0.59501028   0.02346824
9034.00   0.63291955   0.02429283
9036.00   0.62557840   0.02376171
9038.00   0.58337426   0.02184439
9040.00   0.57126993   0.02128600
9042.00   0.58390945   0.02172288
9044.00   0.57425916   0.02176909
9046.00   0.52788478   0.02139298
9048.00   0.49000815   0.02103419
9050.00   0.50399858   0.02107228
9052.00   0.55380374   0.02137507
9054.00   0.56535554   0.02120253
9056.00   0.55291963   0.02053725
9058.00   0.55082536   0.02020768
9060.00   0.55594653   0.02011107
9062.00   0.55806482   0.02009684
9064.00   0.55241513   0.02008938
9066.00   0.54198009   0.02013954
9068.00   0.53025752   0.02035986
9070.00   0.50728220   0.02088289
9072.00   0.50237834   0.02110568
9074.00   0.51776922   0.02122604
9076.00   0.52455914   0.02118933
9078.00   0.51013696   0.02088448
9080.00   0.48994383   0.02046785
9082.00   0.49075672   0.02032979
9084.00   0.50389469   0.02015447
9086.00   0.52222061   0.02066633
9088.00   0.55868071   0.02169807
9090.00   0.58189243   0.02293647
9092.00   0.59191316   0.02480313
9094.00   0.59037197   0.02635047
9096.00   0.56935465   0.02634812
9098.00   0.52083492   0.02507852
9100.00   0.52207243   0.02455821
9102.00   0.57031900   0.02421617
9104.00   0.59732807   0.02384306
9106.00   0.60842246   0.02350464
9108.00   0.61252320   0.02311480
9110.00   0.61308354   0.02254291
9112.00   0.60850263   0.02182136
9114.00   0.59671384   0.02136734
9116.00   0.57735986   0.02102959
9118.00   0.55387557   0.02088288
9120.00   0.51330245   0.02105270
9122.00   0.48682690   0.02118777
9124.00   0.49378216   0.02096138
9126.00   0.51953322   0.02065302
9128.00   0.52847630   0.02132366
9130.00   0.53720981   0.02272533
9132.00   0.53317153   0.02413176
9134.00   0.51689959   0.02686843
9136.00   0.49716374   0.02769448
9138.00   0.45980769   0.02508867
9140.00   0.42929295   0.02083088
9142.00   0.47190267   0.02025521
9144.00   0.60059214   0.02265197
9146.00   0.63855088   0.02322310
9148.00   0.60817701   0.02257591
9150.00   0.60449249   0.02340719
9152.00   0.64745539   0.02668348
9154.00   0.68689841   0.02951117
9156.00   0.66685963   0.02940111
9158.00   0.60057378   0.02719074
9160.00   0.57238090   0.02587241
9162.00   0.55903816   0.02403528
9164.00   0.54763776   0.02297506
9166.00   0.54593146   0.02270154
9168.00   0.54024339   0.02298414
9170.00   0.51398230   0.02398206
9172.00   0.47425228   0.02558273
9174.00   0.47329959   0.02548164
9176.00   0.50526458   0.02361172
9178.00   0.53068811   0.02274288
9180.00   0.56689328   0.02240753
9182.00   0.59309274   0.02227044
9184.00   0.59236073   0.02229300
9186.00   0.58032912   0.02246811
9188.00   0.60466427   0.02245748
9190.00   0.67369086   0.02228560
9192.00   0.69608212   0.02230481
9194.00   0.68738997   0.02250985
9196.00   0.68010998   0.02262084
9198.00   0.68028510   0.02256555
9200.00   0.68049300   0.02244516
9202.00   0.67581654   0.02237703
9204.00   0.66662949   0.02230201
9206.00   0.66059768   0.02228080
9208.00   0.64684111   0.02213282
9210.00   0.65061885   0.02233941
9212.00   0.68151248   0.02300395
9214.00   0.71580929   0.02379826
9216.00   0.72461301   0.02443907
9218.00   0.71386737   0.02505918
9220.00   0.74343258   0.02563618
9222.00   0.82246882   0.02621269
9224.00   0.86071050   0.02669010
9226.00   0.85643971   0.02713664
9228.00   0.84969783   0.02744310
9230.00   0.86152923   0.02749117
9232.00   0.88093418   0.02734519
9234.00   0.91846597   0.02737932
9236.00   1.00735760   0.02781591
9238.00   1.02619469   0.02749475
9240.00   0.98669255   0.02637738
9242.00   0.93748933   0.02523063
9244.00   0.88307613   0.02425094
9246.00   0.82690269   0.02337241
9248.00   0.82382154   0.02307816
9250.00   0.88098675   0.02349021
9252.00   0.89676911   0.02360104
9254.00   0.90613323   0.02379433
9256.00   0.89634937   0.02383933
9258.00   0.85616267   0.02365484
9260.00   0.80508864   0.02337177
9262.00   0.77482021   0.02317132
9264.00   0.74683201   0.02295097
9266.00   0.75077868   0.02286572
9268.00   0.79314297   0.02272376
9270.00   0.82649356   0.02295947
9272.00   0.85771930   0.02360897
9274.00   0.88052297   0.02446783
9276.00   0.87909043   0.02549998
9278.00   0.85531920   0.02681992
9280.00   0.86314547   0.02712566
9282.00   0.88762242   0.02610414
9284.00   0.91962260   0.02621712
9286.00   0.97101778   0.02718437
9288.00   1.01686895   0.02853041
9290.00   1.04719448   0.03042550
9292.00   1.06683207   0.03262466
9294.00   1.04214227   0.03270302
9296.00   0.94816643   0.03022715
9298.00   0.90677887   0.02956907
9300.00   0.88665187   0.02920976
9302.00   0.88644332   0.03031563
9304.00   0.91482127   0.03353141
9306.00   0.95982140   0.03754972
9308.00   0.98151892   0.04036444
9310.00   0.99693263   0.04312896
9312.00   0.99832439   0.04488618
9314.00   0.98864239   0.04612910
9316.00   0.96614015   0.04664988
9318.00   0.91514957   0.04634153
9320.00   0.86491585   0.04543265
9322.00   0.86973715   0.04418315
9324.00   0.92572206   0.04219012
9326.00   0.92922974   0.04080257
9328.00   0.88126850   0.03936193
9330.00   0.87823176   0.03866287
9332.00   0.93439394   0.03887511
9334.00   0.99652135   0.03953124
9336.00   1.01745903   0.04017172
9338.00   1.01519585   0.04093319
9340.00   1.03863311   0.04259700
9342.00   1.06690145   0.04563754
9344.00   1.11451900   0.04736552
9346.00   1.22864664   0.04899943
9348.00   1.28525651   0.04910355
9350.00   1.18065262   0.04593679
9352.00   0.98246408   0.04012683
9354.00   0.94993240   0.03823430
9356.00   1.06810999   0.03968518
9358.00   1.07996798   0.03998852
9360.00   1.02758050   0.04053842
9362.00   0.98695689   0.04088823
9364.00   0.97177082   0.03992013
9366.00   0.97450912   0.03920101
9368.00   1.01910901   0.04323610
9370.00   1.13527274   0.05092259
9372.00   1.16530442   0.05596021
9374.00   1.14428747   0.06283042
9376.00   1.10951126   0.06489130
9378.00   1.04927504   0.06061145
9380.00   0.98560596   0.05318086
9382.00   0.96089983   0.04738547
9384.00   0.96138811   0.04047296
9386.00   0.96266109   0.03608409
9388.00   0.96833712   0.03482958
9390.00   0.99118376   0.03400915
9392.00   1.04839897   0.03462192
9394.00   1.09764957   0.03531693
9396.00   1.10049367   0.03451007
9398.00   1.07347941   0.03273875
9400.00   1.04520941   0.03266271
9402.00   0.99185002   0.03436163
9404.00   0.95905066   0.03473831
9406.00   0.93516344   0.03417872
9408.00   0.92545456   0.03339911
9410.00   0.93366957   0.03236771
9412.00   0.95745021   0.03119020
9414.00   0.99384487   0.03194935
9416.00   1.07681358   0.03452792
9418.00   1.09559727   0.03644338
9420.00   1.07209945   0.03906281
9422.00   1.03270924   0.04053830
9424.00   0.95427185   0.04029408
9426.00   0.87706023   0.03917158
9428.00   0.92528111   0.03839620
9430.00   1.10677314   0.03630940
9432.00   1.18221080   0.03792638
9434.00   1.24549091   0.04274775
9436.00   1.23682117   0.04661648
9438.00   1.11189437   0.05082012
9440.00   0.96247888   0.05347834
9442.00   0.90917361   0.05121154
9444.00   0.90840304   0.04357542
9446.00   0.90692699   0.04005063
9448.00   0.94160050   0.03803221
9450.00   0.95162946   0.03764188
9452.00   0.93854284   0.03925759
9454.00   0.91773909   0.04198357
9456.00   0.89063787   0.04591505
9458.00   0.85374266   0.05091447
9460.00   0.87184584   0.05076321
9462.00   0.98397225   0.04446070
9464.00   0.99225903   0.04208730
9466.00   0.86902779   0.04309332
9468.00   0.79794532   0.04404800
9470.00   0.88515544   0.04323398
9472.00   1.05126083   0.04190012
9474.00   1.11395144   0.04287214
9476.00   1.14095950   0.04575923
9478.00   1.12669277   0.04801663
9480.00   1.02723968   0.05204917
9482.00   0.96860492   0.05319329
9484.00   0.99503207   0.04954414
9486.00   1.04899752   0.04331628
9488.00   1.04729891   0.03979570
9490.00   1.02502131   0.03715818
9492.00   0.97099847   0.03587195
9494.00   0.82461572   0.03630318
9496.00   0.77464747   0.03753953
9498.00   0.86705476   0.03982171
9500.00   0.98907733   0.04245418
9502.00   1.02660215   0.04502768
9504.00   1.03184509   0.04834935
9506.00   0.98503804   0.04748340
9508.00   0.81828731   0.04073575
9510.00   0.76278895   0.03749257
9512.00   0.83933288   0.03831307
9514.00   0.91689116   0.04004150
9516.00   0.90601313   0.04121321
9518.00   0.85042375   0.04259936
9520.00   0.80853027   0.04226011
9522.00   0.74992448   0.03948680
9524.00   0.70839709   0.03864789
9526.00   0.64717698   0.03946527
9528.00   0.64098287   0.04016371
9530.00   0.73922753   0.04008320
9532.00   0.89860809   0.03969946
9534.00   1.00581884   0.03939750
9536.00   1.13531423   0.03821355
9538.00   1.17065179   0.03904962
9540.00   1.10638416   0.04232091
9542.00   1.05466318   0.04411153
9544.00   1.04289865   0.04354580
9546.00   1.03407431   0.04211916
9548.00   0.98335737   0.04184893
9550.00   0.88114548   0.04208246
9552.00   0.86044437   0.04216689
9554.00   0.90991890   0.04257242
9556.00   0.93999827   0.04250392
9558.00   0.95881522   0.04166940
9560.00   0.96168077   0.04076988
9562.00   0.92502362   0.04052040
9564.00   0.84792620   0.04055653
9566.00   0.82958263   0.04140802
9568.00   0.84488833   0.04401660
9570.00   0.87062383   0.04469985
9572.00   0.92582172   0.04356517
9574.00   0.97408533   0.04194234
9576.00   0.99178213   0.04040473
9578.00   0.99123520   0.03861532
9580.00   0.96847695   0.03818784
9582.00   0.87994123   0.03950401
9584.00   0.87354368   0.03962017
9586.00   0.97275525   0.03849838
9588.00   1.01893997   0.03817061
9590.00   0.92799217   0.03967429
9592.00   0.77738822   0.04196835
9594.00   0.73199266   0.04332764
9596.00   0.73006868   0.04518798
9598.00   0.77348351   0.04478836
9600.00   0.92090577   0.04139738
9602.00   1.00481737   0.03916722
9604.00   0.98884392   0.03917026
9606.00   0.92873001   0.04018345
9608.00   0.87964463   0.04126730
9610.00   0.80883420   0.04333378
9612.00   0.77057534   0.04338362
9614.00   0.74434537   0.04165466
9616.00   0.74057567   0.04027010
9618.00   0.77726698   0.03924990
9620.00   0.81358087   0.03822163
9622.00   0.80260545   0.03688528
9624.00   0.75939542   0.03522039
9626.00   0.74785954   0.03454381
9628.00   0.75524819   0.03499803
9630.00   0.75504386   0.03492359
9632.00   0.75694197   0.03454376
9634.00   0.74899954   0.03403948
9636.00   0.71204245   0.03324587
9638.00   0.65774584   0.03225710
9640.00   0.66769183   0.03270236
9642.00   0.75103700   0.03509628
9644.00   0.78254461   0.03568804
9646.00   0.79333985   0.03509245
9648.00   0.78769922   0.03442591
9650.00   0.75606209   0.03395833
9652.00   0.71219575   0.03352974
9654.00   0.70444983   0.03334679
9656.00   0.71876508   0.03279644
9658.00   0.73916858   0.03395914
9660.00   0.78768051   0.03687694
9662.00   0.81514245   0.03915752
9664.00   0.81340933   0.04127365
9666.00   0.79663771   0.04255256
9668.00   0.77417433   0.04110261
9670.00   0.73158395   0.03626500
9672.00   0.72845966   0.03476651
9674.00   0.76621205   0.03539709
9676.00   0.78337067   0.03609785
9678.00   0.77680254   0.03737062
9680.00   0.76727587   0.03850866
9682.00   0.77356559   0.03872579
9684.00   0.79041529   0.03838322
9686.00   0.77443874   0.03790033
9688.00   0.73322481   0.03682601
9690.00   0.68874776   0.03609542
9692.00   0.62527955   0.03555865
9694.00   0.57118303   0.03516868
9696.00   0.53475064   0.03494203
9698.00   0.51305521   0.03487088
9700.00   0.55226773   0.03483603
9702.00   0.69783771   0.03492285
9704.00   0.74320877   0.03498861
9706.00   0.73123091   0.03506654
9708.00   0.69867945   0.03517181
9710.00   0.63444543   0.03519715
9712.00   0.56105649   0.03530414
9714.00   0.56817991   0.03597979
9716.00   0.65525919   0.03712444
9718.00   0.68561888   0.03826411
9720.00   0.69401461   0.03986396
9722.00   0.70021969   0.04093965
9724.00   0.70021319   0.04138600
9726.00   0.70144570   0.04152190
9728.00   0.72471040   0.04167385
9730.00   0.77691907   0.04185250
9732.00   0.76207304   0.04116014
9734.00   0.67151088   0.03915453
9736.00   0.62546021   0.03790442
9738.00   0.62369657   0.03743524
9740.00   0.63445944   0.03728765
9742.00   0.64039201   0.03725120
9744.00   0.65089965   0.03746221
9746.00   0.64768827   0.03737082
9748.00   0.63105488   0.03688614
9750.00   0.61985892   0.03689169
9752.00   0.61036956   0.03760631
9754.00   0.60202885   0.03800351
9756.00   0.59840858   0.03737128
9758.00   0.59616452   0.03619779
9760.00   0.57374799   0.03617087
9762.00   0.50916642   0.03758838
9764.00   0.50246257   0.03742980
9766.00   0.55982322   0.03590322
9768.00   0.58637750   0.03472687
9770.00   0.53533864   0.03434718
9772.00   0.46601337   0.03443300
9774.00   0.49185708   0.03496516
9776.00   0.60262001   0.03618250
9778.00   0.65416384   0.03697704
9780.00   0.70178604   0.03692681
9782.00   0.71314204   0.03827973
9784.00   0.66647571   0.04207643
9786.00   0.60704941   0.04554105
9788.00   0.59525943   0.04573955
9790.00   0.61251312   0.04337745
9792.00   0.61011517   0.04335001
9794.00   0.62483281   0.04435988
9796.00   0.59162647   0.04555068
9798.00   0.45687157   0.04778041
9800.00   0.36474657   0.04923418
9802.00   0.46213457   0.04837713
9804.00   0.69169056   0.04583121
9806.00   0.71323878   0.04367463
9808.00   0.54159617   0.03984205
9810.00   0.50372237   0.03847035
9812.00   0.57222337   0.04021420
9814.00   0.63051260   0.04151216
9816.00   0.62197655   0.04075458
9818.00   0.58678985   0.03906706
9820.00   0.59438193   0.03834042
9822.00   0.65701592   0.03815339
9824.00   0.64724761   0.03770209
9826.00   0.57890457   0.03633634
9828.00   0.51785707   0.03650689
9830.00   0.46339959   0.03944261
9832.00   0.42481527   0.04302438
9834.00   0.45582148   0.04439993
9836.00   0.57498831   0.04499597
9838.00   0.60205859   0.04427930
9840.00   0.56238550   0.04105696
9842.00   0.54547971   0.03900949
9844.00   0.55191171   0.03846544
9846.00   0.57175899   0.03880312
9848.00   0.61196923   0.03993039
9850.00   0.68237561   0.04218499
9852.00   0.68492544   0.04268959
9854.00   0.60262728   0.04165406
9856.00   0.58745527   0.04148536
9858.00   0.64732504   0.04211191
9860.00   0.70955807   0.04285008
9862.00   0.72513783   0.04299654
9864.00   0.71793538   0.04284651
9866.00   0.72448033   0.04521153
9868.00   0.75176060   0.05070616
9870.00   0.73596519   0.05311633
9872.00   0.66563636   0.05395058
9874.00   0.60965568   0.05388491
9876.00   0.59744525   0.05298666
9878.00   0.60765374   0.05122225
9880.00   0.61676574   0.04907054
9882.00   0.63797915   0.04499983
9884.00   0.65510505   0.04337219
9886.00   0.68452245   0.04367173
9888.00   0.69388562   0.04425578
9890.00   0.66836393   0.04523186
9892.00   0.63063538   0.04623212
9894.00   0.61742836   0.04596535
9896.00   0.61581445   0.04459460
9898.00   0.61756104   0.04378289
9900.00   0.62379557   0.04267101
9902.00   0.63879675   0.04228348
9904.00   0.67804223   0.04205675
9906.00   0.70826578   0.04307524
9908.00   0.68638623   0.04707447
9910.00   0.62335891   0.05340721
9912.00   0.59058100   0.05564034
9914.00   0.56448853   0.05565059
9916.00   0.54559851   0.05541921
9918.00   0.52110386   0.05461157
9920.00   0.52152354   0.05321210
9922.00   0.58596224   0.05098366
9924.00   0.69460589   0.04790706
9926.00   0.69812834   0.04615749
9928.00   0.56192791   0.04462834
9930.00   0.57046854   0.04485262
9932.00   0.72477674   0.04719825
9934.00   0.83567983   0.04954708
9936.00   0.84030753   0.05132857
9938.00   0.78324670   0.05297659
9940.00   0.67374206   0.05445739
9942.00   0.40884227   0.05564087
9944.00   0.35643563   0.05712576
9946.00   0.48026392   0.05917457
9948.00   0.57089502   0.06049407
9950.00   0.59472799   0.06078140
9952.00   0.60019070   0.06061631
9954.00   0.61877722   0.06071069
9956.00   0.63464057   0.06081375
9958.00   0.66393995   0.06073154
9960.00   0.72640306   0.06079794
9962.00   0.74753571   0.06019062
9964.00   0.69927973   0.05852029
9966.00   0.65594381   0.05668613
9968.00   0.70524937   0.05560238
9970.00   0.82741511   0.05485366
9972.00   0.81663197   0.05483108
9974.00   0.68425655   0.05657187
9976.00   0.60969263   0.05639134
9978.00   0.55044663   0.05375147
9980.00   0.53086221   0.05144568
9982.00   0.58891630   0.05165196
9984.00   0.70190752   0.05321275
9986.00   0.73682225   0.05320976
9988.00   0.72697759   0.05151803
9990.00   0.71658421   0.05195314
9992.00   0.69025159   0.05358504
9994.00   0.65819144   0.05608765
9996.00   0.60681230   0.06029937
9998.00   0.55710363   0.06465486
10000.00   0.58971268   0.06484425
10002.00   0.71370423   0.06044397
10004.00   0.77655375   0.05982522
10006.00   0.84451890   0.06052047
10008.00   0.85989457   0.06250393
10010.00   0.78746134   0.06679457
10012.00   0.69187373   0.07103317
10014.00   0.67345738   0.07191154
10016.00   0.70767057   0.07063229
10018.00   0.70024335   0.06914273
10020.00   0.68088377   0.06567802
10022.00   0.65004659   0.06342865
10024.00   0.58856952   0.06283485
10026.00   0.53879488   0.06248706
10028.00   0.54209673   0.06089354
10030.00   0.58045328   0.05835768
10032.00   0.63861710   0.05899448
10034.00   0.76584673   0.06342335
10036.00   0.82124960   0.06503800
10038.00   0.80770516   0.06461236
10040.00   0.78650630   0.06377761
10042.00   0.79131269   0.06320813
10044.00   0.80204856   0.06253260
10046.00   0.78637886   0.06200366
10048.00   0.74953413   0.06102108
10050.00   0.71234149   0.06130010
10052.00   0.64916992   0.06274864
10054.00   0.61385381   0.06428854
10056.00   0.64740926   0.06573307
10058.00   0.69824940   0.06718650
10060.00   0.64148939   0.06834743
10062.00   0.47794735   0.06883184
10064.00   0.39796522   0.07071899
10066.00   0.31129310   0.07554781
10068.00   0.31127360   0.07676445
10070.00   0.46841303   0.07098152
10072.00   0.64464331   0.06453528
10074.00   0.62882811   0.06892789
10076.00   0.45595029   0.08058600
10078.00   0.45483926   0.08629801
10080.00   0.54579961   0.09367096
10082.00   0.65138018   0.09390433
10084.00   0.84968495   0.08379770
10086.00   0.98472303   0.07135885
10088.00   0.88376379   0.06678413
10090.00   0.60895431   0.06701819
10092.00   0.48913077   0.06634618
10094.00   0.41363591   0.06744714
10096.00   0.38204744   0.06806035
10098.00   0.39988911   0.06889980
10100.00   0.45345867   0.06936156
10102.00   0.55735111   0.06901267
10104.00   0.69546884   0.06814771
10106.00   0.73877060   0.06752269
10108.00   0.71056128   0.06640930
10110.00   0.68812013   0.06634379
10112.00   0.61994606   0.06695940
10114.00   0.58657426   0.06806245
10116.00   0.63326705   0.06950472
10118.00   0.70099354   0.07143315
10120.00   0.67088759   0.07419308
10122.00   0.55746013   0.07785656
10124.00   0.49567968   0.08107031
10126.00   0.41386482   0.08574320
10128.00   0.40037626   0.08752747
10130.00   0.49391067   0.08563631
10132.00   0.61213988   0.08212061
10134.00   0.65405267   0.07904829
10136.00   0.65852988   0.07488939
10138.00   0.65421784   0.07360733
10140.00   0.61046517   0.07557049
10142.00   0.59336793   0.07611042
10144.00   0.59873074   0.07523073
10146.00   0.61559296   0.07441667
10148.00   0.64351070   0.07455534
10150.00   0.68440819   0.07519736
10152.00   0.69835222   0.07674244
10154.00   0.68556225   0.08030352
10156.00   0.68935573   0.08161093
10158.00   0.70884788   0.08089906
10160.00   0.72154707   0.08021227
10162.00   0.72086591   0.08008246
10164.00   0.70980883   0.08031859
10166.00   0.67535657   0.08250847
10168.00   0.55821419   0.08650527
10170.00   0.57642329   0.09030864
10172.00   0.73017055   0.09578097
10174.00   0.84076548   0.09917746
10176.00   0.88776129   0.10022332
10178.00   0.88303089   0.09937111
10180.00   0.77324528   0.09561300
10182.00   0.51330113   0.08595522
10184.00   0.40367827   0.08382937
10186.00   0.33427477   0.08825696
10188.00   0.35577628   0.09093881
10190.00   0.53873444   0.09179030
10192.00   0.73314267   0.09210748
10194.00   0.74559546   0.09212406
10196.00   0.63762593   0.09124357
10198.00   0.58197093   0.09324373
10200.00   0.47739464   0.09927791
10202.00   0.46428150   0.10144889
10204.00   0.57622772   0.09966900
10206.00   0.68408567   0.09737943
10208.00   0.70468032   0.09691571
10210.00   0.68032992   0.09715743
10212.00   0.59691697   0.09694536
10214.00   0.36112875   0.09626002
10216.00   0.29361838   0.09646399
10218.00   0.37587550   0.09797568
10220.00   0.45909184   0.09884893
10222.00   0.49380913   0.09811108
10224.00   0.51043367   0.09654234
10226.00   0.49338678   0.09573627
10228.00   0.41206062   0.09549506
10230.00   0.39520162   0.09447448
10232.00   0.38703695   0.09033039
10234.00   0.43641621   0.09067762
10236.00   0.62649649   0.09898862
10238.00   0.81781507   0.10877328
10240.00   0.71243632   0.11236309
10242.00   0.29862508   0.11419792
10244.00   0.20929219   0.11035483
10246.00   0.31813517   0.09481189
10248.00   0.41403642   0.08617362
10250.00   0.52386981   0.08932128
10252.00   0.62052029   0.09516713
10254.00   0.62728190   0.09592748
10256.00   0.54723656   0.09440006
10258.00   0.65150154   0.09750003
10260.00   1.02960730   0.10728337
10262.00   1.12173450   0.10918434
10264.00   0.90234232   0.10182045
10266.00   0.65645158   0.09456933
10268.00   0.53842008   0.09449409
10270.00   0.46758789   0.09827936
10272.00   0.50274754   0.10373014
10274.00   0.77001899   0.11285120
10276.00   0.78706211   0.11981334
10278.00   0.55373126   0.12523825
10280.00   0.38685477   0.13175356
10282.00   0.41096020   0.14079700
10284.00   0.52630478   0.15041515
10286.00   0.61939210   0.15667155
10288.00   0.87578356   0.16217230
10290.00   0.76508391   0.16408081
10292.00   0.18198891   0.16509280
10294.00   -0.12565781   0.16042311
10296.00   0.04830358   0.14419794
10298.00   0.37509230   0.12315866
10300.00   0.44103977   0.11736534
10302.00   0.38070640   0.12499902
10304.00   0.36525750   0.12451585
10306.00   0.29137340   0.12153446
10308.00   0.30786529   0.11944324
10310.00   0.47758397   0.11726153
10312.00   0.63724601   0.11658156
10314.00   0.59942275   0.12023627
10316.00   0.41269070   0.12755638
10318.00   0.45314229   0.12922402
10320.00   0.69031435   0.12667854
10322.00   0.82701164   0.12566088
10324.00   0.90890968   0.12485006
10326.00   0.95616418   0.12496929
10328.00   0.96360463   0.12753323
10330.00   0.93501842   0.13150461
10332.00   0.92933446   0.13042270
10334.00   0.98850513   0.12175281
10336.00   0.90481275   0.12109698
10338.00   0.60742193   0.12585837
10340.00   0.43020442   0.13211434
10342.00   0.54804552   0.14111742
10344.00   0.78000176   0.14997284
10346.00   0.74269265   0.14854570
10348.00   0.43222836   0.13571984
10350.00   0.42240334   0.13015541
10352.00   0.66438854   0.12710105
10354.00   0.80209935   0.12498324
10356.00   0.78120619   0.12344941
10358.00   0.69596273   0.12323852
10360.00   0.60478950   0.12548783
10362.00   0.42378289   0.13080047
10364.00   0.49051759   0.13244633
10366.00   0.86248112   0.13107093
10368.00   1.04127443   0.13145742
10370.00   0.99231786   0.13353503
10372.00   0.90492642   0.13630573
10374.00   0.94913173   0.13901746
10376.00   1.07235324   0.14181699
10378.00   0.94131875   0.14692052
10380.00   0.44163486   0.15856749
10382.00   0.29311633   0.16012336
10384.00   0.55436414   0.14912143
10386.00   0.72986132   0.13969497
10388.00   0.50460660   0.14210482
10390.00   0.07348092   0.15044890
10392.00   -0.08000638   0.15438130
10394.00   -0.08164091   0.15948617
10396.00   -0.08396526   0.15968950
10398.00   -0.09180041   0.15617137
10400.00   0.02064445   0.15020411
10402.00   0.35598662   0.13860212
10404.00   0.78314269   0.12494475
10406.00   0.98355383   0.12622824
10408.00   1.02691901   0.14313212
10410.00   1.12401724   0.14676531
10412.00   1.27150154   0.14344877
10414.00   1.29362917   0.14181386
10416.00   1.15352786   0.14288114
10418.00   0.92569739   0.14461681
10420.00   0.66648096   0.14572138
10422.00   0.28868291   0.14684801
10424.00   0.18420662   0.14735349
10426.00   0.34994018   0.14611006
10428.00   0.41253737   0.14721644
10430.00   0.30336079   0.15394682
10432.00   0.27846897   0.15751438
10434.00   0.61333549   0.14832763
10436.00   1.22453976   0.12729535
10438.00   1.32883692   0.12481891
10440.00   1.01327503   0.13698873
10442.00   0.84663999   0.14594851
10444.00   0.69828397   0.16029224
10446.00   0.59657216   0.16727129
10448.00   0.58293295   0.15791231
10450.00   0.62649792   0.13753726
10452.00   0.61456174   0.13366880
10454.00   0.52104956   0.14402884
10456.00   0.56982517   0.14652859
10458.00   0.79107100   0.14773068
10460.00   0.92757261   0.14726034
10462.00   0.92940181   0.14431086
10464.00   0.83670825   0.13993789
10466.00   0.61250180   0.13692984
10468.00   0.10558669   0.13366239
10470.00   0.02676719   0.13264541
10472.00   0.29454347   0.13499150
10474.00   0.51027268   0.13535546
10476.00   0.68525761   0.13258037
10478.00   0.81990451   0.12922321
10480.00   0.84284985   0.12846829
10482.00   0.76966208   0.12970798
10484.00   0.70176160   0.12818789
10486.00   0.54691505   0.12336241
10488.00   0.48889819   0.12141033
10490.00   0.52842349   0.12020145
10492.00   0.60630810   0.12298923
10494.00   0.69213289   0.13428280
10496.00   0.80292130   0.15086904
10498.00   0.88905889   0.15588385
10500.00   1.02757311   0.15496615
10502.00   1.02349961   0.15166831
10504.00   0.86290526   0.14210908
10506.00   0.69298428   0.13305400
10508.00   0.56446606   0.12755728
10510.00   0.45001158   0.12455153
10512.00   0.39629611   0.12772013
10514.00   0.37514701   0.13957176
10516.00   0.42488387   0.14546862
10518.00   0.60476226   0.15188923
10520.00   0.71951622   0.15366603
10522.00   0.69399709   0.14777726
10524.00   0.62868291   0.13829325
10526.00   0.68638927   0.13438351
10528.00   0.85285425   0.13323988
10530.00   0.90206158   0.13276662
10532.00   0.85369611   0.13455659
10534.00   0.85574114   0.13589126
10536.00   0.94280392   0.13639322
10538.00   1.02909517   0.13713619
10540.00   1.02160895   0.13909668
10542.00   0.94997364   0.14185284
10544.00   0.89718181   0.14502400
10546.00   0.79561627   0.15116470
10548.00   0.77178359   0.15254308
10550.00   0.84158206   0.14744756
10552.00   0.92242348   0.14275096
10554.00   0.95206392   0.14428693
10556.00   0.96010321   0.14927807
10558.00   1.02585840   0.15068349
10560.00   1.21397173   0.15038836
10562.00   1.22422993   0.15032236
10564.00   1.02731693   0.14964628
10566.00   0.88383341   0.14935343
10568.00   0.91135055   0.14954346
10570.00   1.02106535   0.15030879
10572.00   1.08738267   0.15321457
10574.00   1.22979748   0.16000749
10576.00   1.18802214   0.16201118
10578.00   0.94972825   0.16100891
10580.00   0.76620948   0.15958217
10582.00   0.68370521   0.15744737
10584.00   0.64506131   0.15530039
10586.00   0.61559552   0.15565789
10588.00   0.61263704   0.15810600
10590.00   0.61912340   0.15977731
10592.00   0.63632596   0.16191190
10594.00   0.67628819   0.16346036
10596.00   0.75245124   0.16416746
10598.00   0.83472961   0.16476262
10600.00   0.89473778   0.16606072
10602.00   0.95146084   0.16785924
10604.00   0.94905668   0.16866189
10606.00   0.84975231   0.16835608
10608.00   0.82954651   0.16887161
10610.00   0.88830477   0.17018215
10612.00   0.95591253   0.17155769
10614.00   0.98830223   0.17264991
10616.00   1.00831509   0.17364514
10618.00   1.05869579   0.17425856
10620.00   1.12202013   0.17398016
10622.00   1.20680261   0.17483047
10624.00   1.38592541   0.17647646
10626.00   1.46193528   0.17842706
10628.00   1.33701742   0.18108259
10630.00   1.09847021   0.18380716
10632.00   0.90806520   0.18390045
10634.00   0.59403050   0.18193698
10636.00   0.56961602   0.17954783
10638.00   0.81836241   0.17374319
10640.00   1.03620732   0.17140980
10642.00   1.21042621   0.17544794
10644.00   1.34664094   0.18109150
10646.00   1.36469603   0.18196641
10648.00   1.26981068   0.18065183
10650.00   1.20399070   0.17758794
10652.00   1.08578110   0.16985886
10654.00   1.02583611   0.16528679
10656.00   1.06059992   0.16504867
10658.00   1.09084713   0.16571727
10660.00   1.00649476   0.16446683
10662.00   0.83738983   0.16254897
10664.00   0.79151493   0.16008678
10666.00   0.78306842   0.15540555
10668.00   0.86586845   0.15353455
10670.00   1.14848125   0.15545769
10672.00   1.34189200   0.15673019
10674.00   1.22577405   0.15456888
10676.00   0.92580980   0.15045175
10678.00   0.83269477   0.14733374
10680.00   0.80521750   0.14220354
10682.00   0.85717851   0.14161022
10684.00   1.05118573   0.14655592
10686.00   1.21059728   0.14983636
10688.00   1.28474236   0.14954415
10690.00   1.31084442   0.14724068
10692.00   1.28872323   0.14319459
10694.00   1.20305991   0.13532634
10696.00   1.11347878   0.13033260
10698.00   0.97443980   0.12602822
10700.00   0.86466336   0.12333870
10702.00   0.80102962   0.12321834
10704.00   0.75353521   0.12413093
10706.00   0.68121099   0.12382972
10708.00   0.57048708   0.12384659
10710.00   0.59316838   0.12071206
10712.00   0.76761079   0.11361168
10714.00   0.87316239   0.10745218
10716.00   0.93272269   0.10061780
10718.00   0.94555706   0.09577649
10720.00   0.86976671   0.09760560
10722.00   0.70518559   0.10485979
10724.00   0.69974589   0.10526130
10726.00   0.86669195   0.10234936
10728.00   0.89969909   0.09810798
10730.00   0.83095199   0.08923459
10732.00   0.72968405   0.08172475
10734.00   0.58884060   0.08116551
10736.00   0.42143011   0.08477127
10738.00   0.46548384   0.08514804
10740.00   0.75307488   0.08537208
10742.00   0.89487135   0.08397366
10744.00   1.04000235   0.08014651
10746.00   1.07362187   0.07682798
10748.00   0.89395171   0.07480373
10750.00   0.63200647   0.07368400
10752.00   0.61073083   0.07406054
10754.00   0.77693385   0.07651579
10756.00   0.84556699   0.07769752
10758.00   0.92949790   0.07919419
10760.00   0.95335978   0.07941480
10762.00   0.86594027   0.07776665
10764.00   0.76781565   0.07537677
10766.00   0.80978483   0.07371934
10768.00   0.96393734   0.07201029
10770.00   1.01270318   0.07138803
10772.00   0.98606551   0.07215589
10774.00   1.00490904   0.07236624
10776.00   1.08988798   0.07258537
10778.00   1.16156745   0.07206453
10780.00   1.14581716   0.06945193
10782.00   1.06963050   0.06483795
10784.00   1.07036507   0.06379274
10786.00   1.15762794   0.06697045
10788.00   1.15164685   0.06667400
10790.00   1.03510773   0.06313961
10792.00   0.94693482   0.05958625
10794.00   0.96625584   0.05744701
10796.00   1.04043627   0.05612023
10798.00   1.06250024   0.05706420
10800.00   1.07071984   0.06204415
10802.00   1.06538689   0.06299103
10804.00   0.99838793   0.06085822
10806.00   1.00107205   0.05962633
10808.00   1.15195560   0.06076179
10810.00   1.34703958   0.06261781
10812.00   1.37052536   0.06294092
10814.00   1.23712409   0.06159793
10816.00   1.24235630   0.06300226
10818.00   1.44542909   0.06728964
10820.00   1.40880644   0.06968932
10822.00   0.94379085   0.07059286
10824.00   0.45297593   0.06991412
10826.00   0.46162173   0.06623682
10828.00   0.84113044   0.05861085
10830.00   0.93919230   0.05366575
10832.00   0.90364271   0.04930562
10834.00   0.92678714   0.04627946
10836.00   1.01132488   0.04568926
10838.00   1.09069991   0.04557870
10840.00   1.11656356   0.04363081
10842.00   1.10995615   0.04055368
10844.00   1.13419938   0.04310410
10846.00   1.18423152   0.05109922
10848.00   1.20661342   0.05541172
10850.00   1.23567665   0.05957827
10852.00   1.21412826   0.06101563
10854.00   1.09161532   0.05782070
10856.00   0.91089213   0.05107438
10858.00   0.81947917   0.04577611
10860.00   0.75974214   0.03828180
