# File created by shivutils (I.Shivvers)
# Blotched regions marked with a #.
# wl(A)   flm    er(optional)
3422.00   0.20325969
3424.00   0.13182271
3426.00   0.13581745
3428.00   0.17775838
3430.00   0.18364170
3432.00   0.10997146
3434.00   0.15056704
3436.00   0.13371503
3438.00   0.16837627
3440.00   0.13627297
3442.00   0.11567321
3444.00   0.11066207
3446.00   0.18301196
3448.00   0.14094028
3450.00   0.10619331
3452.00   0.17112249
3454.00   0.20338684
3456.00   0.12855375
3458.00   0.19986598
3460.00   0.18001774
3462.00   0.18022770
3464.00   0.21151519
3466.00   0.19074337
3468.00   0.21869370
3470.00   0.16956122
3472.00   0.13823009
3474.00   0.14858963
3476.00   0.17343612
3478.00   0.18158939
3480.00   0.17855790
3482.00   0.18056779
3484.00   0.14636482
3486.00   0.15808655
3488.00   0.19064361
3490.00   0.17500399
3492.00   0.19119130
3494.00   0.19655408
3496.00   0.16399279
3498.00   0.15628304
3500.00   0.17297985
3502.00   0.13658758
3504.00   0.15905564
3506.00   0.18734553
3508.00   0.19858105
3510.00   0.15835424
3512.00   0.17869292
3514.00   0.20165943
3516.00   0.14928013
3518.00   0.18188092
3520.00   0.15989597
3522.00   0.15533200
3524.00   0.14349535
3526.00   0.14785315
3528.00   0.19567335
3530.00   0.16201890
3532.00   0.19508745
3534.00   0.13159485
3536.00   0.14052553
3538.00   0.16633594
3540.00   0.13476478
3542.00   0.14529505
3544.00   0.16974093
3546.00   0.18426895
3548.00   0.18943720
3550.00   0.16795631
3552.00   0.14611362
3554.00   0.15117708
3556.00   0.15263292
3558.00   0.15625010
3560.00   0.16222912
3562.00   0.19636139
3564.00   0.17311703
3566.00   0.16945808
3568.00   0.18207595
3570.00   0.12981094
3572.00   0.15330431
3574.00   0.17344843
3576.00   0.17364004
3578.00   0.16438980
3580.00   0.18408160
3582.00   0.17732047
3584.00   0.15027870
3586.00   0.16908818
3588.00   0.21842782
3590.00   0.20661603
3592.00   0.16093518
3594.00   0.18150389
3596.00   0.18811539
3598.00   0.18300581
3600.00   0.18187813
3602.00   0.17236766
3604.00   0.19367382
3606.00   0.20022625
3608.00   0.17637657
3610.00   0.18915173
3612.00   0.18083322
3614.00   0.17663738
3616.00   0.17184943
3618.00   0.14536712
3620.00   0.16933933
3622.00   0.18435004
3624.00   0.20264111
3626.00   0.19010988
3628.00   0.19109426
3630.00   0.20068300
3632.00   0.17383905
3634.00   0.18707637
3636.00   0.19161741
3638.00   0.17360386
3640.00   0.19279777
3642.00   0.21631885
3644.00   0.21992747
3646.00   0.20765281
3648.00   0.16370323
3650.00   0.21337271
3652.00   0.22878155
3654.00   0.22875205
3656.00   0.20568164
3658.00   0.21080372
3660.00   0.23495157
3662.00   0.21853386
3664.00   0.23617035
3666.00   0.22079916
3668.00   0.23990628
3670.00   0.24800435
3672.00   0.23837684
3674.00   0.23035829
3676.00   0.22193432
3678.00   0.24440758
3680.00   0.23074546
3682.00   0.24421230
3684.00   0.22981329
3686.00   0.23571834
3688.00   0.24685706
3690.00   0.22864887
3692.00   0.24060433
3694.00   0.22599538
3696.00   0.22276315
3698.00   0.23124166
3700.00   0.25636899
#3702.00   0.23324004
#3704.00   0.30838698
#3706.00   0.26903182
#3708.00   0.27562338
3710.00   0.24336827
3712.00   0.23604026
3714.00   0.24645199
3716.00   0.27171382
3718.00   0.26710734
3720.00   0.25730816
3722.00   0.25629747
3724.00   0.27860805
3726.00   0.26473618
3728.00   0.27678564
3730.00   0.25219715
3732.00   0.27148032
3734.00   0.27782243
3736.00   0.23869354
3738.00   0.26272321
3740.00   0.25752458
3742.00   0.26687351
3744.00   0.23959689
3746.00   0.24988951
3748.00   0.27079579
3750.00   0.25861603
3752.00   0.25538072
3754.00   0.24637693
3756.00   0.24007489
3758.00   0.25400072
3760.00   0.25247443
3762.00   0.23727438
3764.00   0.26131183
3766.00   0.24820350
3768.00   0.21445942
3770.00   0.23309973
3772.00   0.26012206
3774.00   0.22438696
3776.00   0.24318676
3778.00   0.24954978
3780.00   0.23564760
3782.00   0.23453711
3784.00   0.24831159
3786.00   0.23622304
3788.00   0.22896606
3790.00   0.23139012
3792.00   0.21613804
3794.00   0.21356180
3796.00   0.20637253
3798.00   0.20646766
3800.00   0.23345309
3802.00   0.22866823
3804.00   0.20671664
3806.00   0.21888216
3808.00   0.23086070
3810.00   0.23143683
3812.00   0.22438665
3814.00   0.23749346
3816.00   0.21390693
3818.00   0.23357329
3820.00   0.23114498
3822.00   0.23879097
3824.00   0.24153931
3826.00   0.24923088
3828.00   0.25014684
3830.00   0.22751045
3832.00   0.24838181
3834.00   0.22208384
3836.00   0.25056216
3838.00   0.26749644
3840.00   0.24360982
3842.00   0.22853677
3844.00   0.24880016
3846.00   0.24089083
3848.00   0.24010165
3850.00   0.23404245
3852.00   0.21629831
3854.00   0.21751335
3856.00   0.19791505
3858.00   0.20195016
3860.00   0.23294397
3862.00   0.24664047
3864.00   0.21676183
3866.00   0.23560102
3868.00   0.23276334
3870.00   0.21800089
3872.00   0.21575132
3874.00   0.22596051
3876.00   0.22631851
3878.00   0.21957429
3880.00   0.21436834
3882.00   0.20763744
3884.00   0.20552854
3886.00   0.21047638
3888.00   0.21629043
3890.00   0.21615936
3892.00   0.22033270
3894.00   0.21948820
3896.00   0.19925575
3898.00   0.20033734
3900.00   0.21927880
3902.00   0.22202446
3904.00   0.20367999
3906.00   0.19369084
3908.00   0.21421362
3910.00   0.17888968
3912.00   0.21234506
3914.00   0.16771801
3916.00   0.21538277
3918.00   0.21893732
3920.00   0.20006338
3922.00   0.21430528
3924.00   0.21974282
3926.00   0.18748187
3928.00   0.21163657
3930.00   0.20355473
3932.00   0.17298257
3934.00   0.17538428
3936.00   0.18822792
3938.00   0.19914009
3940.00   0.18971582
3942.00   0.20133153
3944.00   0.22711413
3946.00   0.18970296
3948.00   0.19349362
3950.00   0.20779270
3952.00   0.20299621
3954.00   0.20739722
3956.00   0.21982612
3958.00   0.19967358
3960.00   0.20915528
3962.00   0.20970567
3964.00   0.20019053
3966.00   0.19076623
3968.00   0.20288204
3970.00   0.20724355
3972.00   0.21150111
3974.00   0.19927329
3976.00   0.18340015
3978.00   0.20796083
3980.00   0.20648170
3982.00   0.20443028
3984.00   0.19098601
3986.00   0.18987107
3988.00   0.19179645
3990.00   0.20513366
3992.00   0.19185413
3994.00   0.19655134
3996.00   0.18351437
3998.00   0.18958524
4000.00   0.19822085
4002.00   0.18674400
4004.00   0.18352169
4006.00   0.18723474
4008.00   0.19589022
4010.00   0.19194849
4012.00   0.18828201
4014.00   0.18406421
4016.00   0.18898615
4018.00   0.19049110
4020.00   0.19076642
4022.00   0.18412896
4024.00   0.18703465
4026.00   0.19120637
4028.00   0.20398009
4030.00   0.19735044
4032.00   0.20195512
4034.00   0.20601051
4036.00   0.19533552
4038.00   0.22592752
4040.00   0.21766114
4042.00   0.20516941
4044.00   0.24146387
4046.00   0.23753259
4048.00   0.21469441
4050.00   0.23029028
4052.00   0.20863816
4054.00   0.20576207
4056.00   0.21476512
4058.00   0.22405855
4060.00   0.22295819
4062.00   0.21225202
4064.00   0.22912751
4066.00   0.22296545
4068.00   0.21206747
4070.00   0.22363156
4072.00   0.23708887
4074.00   0.23080334
4076.00   0.22660127
4078.00   0.23711507
4080.00   0.23094214
4082.00   0.23218067
4084.00   0.22848481
4086.00   0.24260475
4088.00   0.23108649
4090.00   0.23247322
4092.00   0.22358307
4094.00   0.23385051
4096.00   0.20945881
4098.00   0.23126346
4100.00   0.23093972
4102.00   0.21753453
4104.00   0.20760828
4106.00   0.22557077
4108.00   0.21827190
4110.00   0.21557166
4112.00   0.22009629
4114.00   0.20833752
4116.00   0.21942054
4118.00   0.21576624
4120.00   0.24489793
4122.00   0.21016671
4124.00   0.22156093
4126.00   0.22046196
4128.00   0.23655863
4130.00   0.20804498
4132.00   0.20760594
4134.00   0.20691581
4136.00   0.19216375
4138.00   0.22365345
4140.00   0.21917799
4142.00   0.19887897
4144.00   0.21739428
4146.00   0.21298118
4148.00   0.21009672
4150.00   0.21567018
4152.00   0.20861478
4154.00   0.19122824
4156.00   0.19308108
4158.00   0.20015660
4160.00   0.18027653
4162.00   0.20826365
4164.00   0.20427558
4166.00   0.19224444
4168.00   0.19291142
4170.00   0.18410915
4172.00   0.19576861
4174.00   0.19666278
4176.00   0.19149244
4178.00   0.20030338
4180.00   0.19138351
4182.00   0.18248503
4184.00   0.19117193
4186.00   0.20272696
4188.00   0.18868321
4190.00   0.19855700
4192.00   0.18717436
4194.00   0.17451315
4196.00   0.19456984
4198.00   0.19278425
4200.00   0.17729634
4202.00   0.17725819
4204.00   0.18754566
4206.00   0.18810518
4208.00   0.17387103
4210.00   0.17196505
4212.00   0.19164479
4214.00   0.19149543
4216.00   0.18698241
4218.00   0.18166980
4220.00   0.18482263
4222.00   0.17799412
4224.00   0.19399497
4226.00   0.19498734
4228.00   0.18477137
4230.00   0.19550414
4232.00   0.19131863
4234.00   0.20807883
4236.00   0.21408325
4238.00   0.20351484
4240.00   0.20089971
4242.00   0.20516245
4244.00   0.18532747
4246.00   0.22212061
4248.00   0.22453040
4250.00   0.21920100
4252.00   0.21823387
4254.00   0.23226723
4256.00   0.21867864
4258.00   0.20276013
4260.00   0.19985917
4262.00   0.21701540
4264.00   0.21388739
4266.00   0.22149451
4268.00   0.20844701
4270.00   0.21251038
4272.00   0.21356036
4274.00   0.21805626
4276.00   0.22940601
4278.00   0.24055944
4280.00   0.21673441
4282.00   0.22746144
4284.00   0.21981581
4286.00   0.22279443
4288.00   0.20945986
4290.00   0.21740454
4292.00   0.22037743
4294.00   0.21592513
4296.00   0.21780853
4298.00   0.23091953
4300.00   0.23907289
4302.00   0.21595472
4304.00   0.22722395
4306.00   0.22970375
4308.00   0.21715263
4310.00   0.21837758
4312.00   0.21554634
4314.00   0.22264177
4316.00   0.20851085
4318.00   0.20857708
4320.00   0.21309826
4322.00   0.20962180
4324.00   0.20195104
4326.00   0.21565188
4328.00   0.20754185
4330.00   0.21814708
4332.00   0.20083112
4334.00   0.21172446
4336.00   0.19363484
4338.00   0.19988376
4340.00   0.20718366
4342.00   0.18510930
4344.00   0.19626556
4346.00   0.20991716
4348.00   0.20507902
4350.00   0.19322076
4352.00   0.19750167
4354.00   0.18294157
4356.00   0.19853020
4358.00   0.19503883
4360.00   0.19963624
4362.00   0.19502448
4364.00   0.20384982
4366.00   0.19123003
4368.00   0.18052484
4370.00   0.19042151
4372.00   0.20827386
4374.00   0.18210246
4376.00   0.19012390
4378.00   0.20399415
4380.00   0.18835348
4382.00   0.19234750
4384.00   0.19886909
4386.00   0.19710119
4388.00   0.19798881
4390.00   0.19953915
4392.00   0.19814017
4394.00   0.19860311
4396.00   0.19963440
4398.00   0.19021082
4400.00   0.18279941
4402.00   0.20328327
4404.00   0.18122414
4406.00   0.20585012
4408.00   0.20064060
4410.00   0.19393554
4412.00   0.20429198
4414.00   0.19948550
4416.00   0.21235211
4418.00   0.19932157
4420.00   0.19912860
4422.00   0.20880045
4424.00   0.20513991
4426.00   0.18732168
4428.00   0.19307971
4430.00   0.19506375
4432.00   0.17897086
4434.00   0.17759390
4436.00   0.18348099
4438.00   0.19128790
4440.00   0.17061047
4442.00   0.19033982
4444.00   0.16051082
4446.00   0.17003027
4448.00   0.17719938
4450.00   0.18939662
4452.00   0.18890807
4454.00   0.17362019
4456.00   0.17975694
4458.00   0.17186338
4460.00   0.18018088
4462.00   0.16178049
4464.00   0.16499303
4466.00   0.17982550
4468.00   0.18833728
4470.00   0.17523097
4472.00   0.16698276
4474.00   0.16382419
4476.00   0.17254935
4478.00   0.16566496
4480.00   0.17322028
4482.00   0.16907084
4484.00   0.16526642
4486.00   0.17971110
4488.00   0.16844392
4490.00   0.16989134
4492.00   0.16801004
4494.00   0.16163051
4496.00   0.15263008
4498.00   0.18703809
4500.00   0.16462302
4502.00   0.18411335
4504.00   0.17515774
4506.00   0.17057012
4508.00   0.17596321
4510.00   0.16196957
4512.00   0.16019817
4514.00   0.16000156
4516.00   0.16123249
4518.00   0.16416402
4520.00   0.14542438
4522.00   0.17193681
4524.00   0.17817873
4526.00   0.15693180
4528.00   0.16146220
4530.00   0.16008204
4532.00   0.15490395
4534.00   0.16462500
4536.00   0.14948972
4538.00   0.15883406
4540.00   0.17185664
4542.00   0.15587698
4544.00   0.16239479
4546.00   0.16609363
4548.00   0.15635958
4550.00   0.16519909
4552.00   0.16879551
4554.00   0.15875000
4556.00   0.15867321
4558.00   0.16733384
4560.00   0.16220656
4562.00   0.16924621
4564.00   0.17127869
4566.00   0.15836564
4568.00   0.17242226
4570.00   0.16382626
4572.00   0.16648602
4574.00   0.16046132
4576.00   0.18418378
4578.00   0.17215765
4580.00   0.15451498
4582.00   0.16736862
4584.00   0.17400168
4586.00   0.16359311
4588.00   0.17293699
4590.00   0.16728047
4592.00   0.16827232
4594.00   0.17080542
4596.00   0.16554053
4598.00   0.16812943
4600.00   0.15261866
4602.00   0.15554179
4604.00   0.16908742
4606.00   0.15696324
4608.00   0.17306754
4610.00   0.16634834
4612.00   0.16370134
4614.00   0.16913477
4616.00   0.18142150
4618.00   0.18363020
4620.00   0.17859596
4622.00   0.18321164
4624.00   0.15864909
4626.00   0.18472871
4628.00   0.16977677
4630.00   0.17980033
4632.00   0.17877604
4634.00   0.16250578
4636.00   0.17813271
4638.00   0.18088943
4640.00   0.17957474
4642.00   0.17606814
4644.00   0.18533282
4646.00   0.17911373
4648.00   0.17875008
4650.00   0.17500839
4652.00   0.17556728
4654.00   0.17945181
4656.00   0.17644383
4658.00   0.16508114
4660.00   0.17515007
4662.00   0.18642028
4664.00   0.17015447
4666.00   0.17643560
4668.00   0.17506438
4670.00   0.19330925
4672.00   0.18423823
4674.00   0.18817694
4676.00   0.18947838
4678.00   0.18617277
4680.00   0.18559645
4682.00   0.19497935
4684.00   0.18991025
4686.00   0.19707094
4688.00   0.19652982
4690.00   0.20358986
4692.00   0.20224440
4694.00   0.19767627
4696.00   0.20168331
4698.00   0.19370629
4700.00   0.21415977
4702.00   0.19759241
4704.00   0.20503384
4706.00   0.20072030
4708.00   0.19906753
4710.00   0.20804639
4712.00   0.21605402
4714.00   0.20105828
4716.00   0.20312619
4718.00   0.20120721
4720.00   0.21495239
4722.00   0.20107761
4724.00   0.20274405
4726.00   0.20864747
4728.00   0.20649238
4730.00   0.21740282
4732.00   0.21168578
4734.00   0.20513886
4736.00   0.21580942
4738.00   0.20880626
4740.00   0.19891815
4742.00   0.20234454
4744.00   0.21057150
4746.00   0.20526779
4748.00   0.19758870
4750.00   0.19624582
4752.00   0.19363379
4754.00   0.20940968
4756.00   0.19019654
4758.00   0.19752257
4760.00   0.19466554
4762.00   0.19610852
4764.00   0.19690543
4766.00   0.18304674
4768.00   0.19560000
4770.00   0.19015907
4772.00   0.18989253
4774.00   0.18773128
4776.00   0.18540859
4778.00   0.18736325
4780.00   0.19488285
4782.00   0.19215910
4784.00   0.18423615
4786.00   0.18992649
4788.00   0.19594920
4790.00   0.18837318
4792.00   0.19288209
4794.00   0.19022197
4796.00   0.18290986
4798.00   0.19510753
4800.00   0.18534532
4802.00   0.17911433
4804.00   0.18955499
4806.00   0.17943811
4808.00   0.18413918
4810.00   0.18866456
4812.00   0.19019154
4814.00   0.19683972
4816.00   0.17318857
4818.00   0.16890049
4820.00   0.18132049
4822.00   0.17776434
4824.00   0.18835415
4826.00   0.16485120
4828.00   0.17781979
4830.00   0.16807623
4832.00   0.17389104
4834.00   0.15402806
4836.00   0.17545831
4838.00   0.17754783
4840.00   0.15811218
4842.00   0.15758410
4844.00   0.15372068
4846.00   0.15979378
4848.00   0.15167877
4850.00   0.15530828
4852.00   0.15938719
4854.00   0.17616595
4856.00   0.16065714
4858.00   0.16630492
4860.00   0.16846234
4862.00   0.14386171
4864.00   0.15537660
4866.00   0.16054595
4868.00   0.15211533
4870.00   0.15632665
4872.00   0.16187333
4874.00   0.14662844
4876.00   0.14719690
4878.00   0.14922172
4880.00   0.15285981
4882.00   0.15540698
4884.00   0.15250023
4886.00   0.14449093
4888.00   0.14320324
4890.00   0.15011977
4892.00   0.14146243
4894.00   0.14839041
4896.00   0.14769360
4898.00   0.13897489
4900.00   0.15681325
4902.00   0.15015812
4904.00   0.15064977
4906.00   0.14074475
4908.00   0.14075524
4910.00   0.13655199
4912.00   0.13644566
4914.00   0.13297775
4916.00   0.14173923
4918.00   0.13979904
4920.00   0.13433933
4922.00   0.13921426
4924.00   0.14099446
4926.00   0.14437675
4928.00   0.14523223
4930.00   0.13527451
4932.00   0.12699246
4934.00   0.14703070
4936.00   0.13562481
4938.00   0.14029318
4940.00   0.14408059
4942.00   0.13763590
4944.00   0.14547874
4946.00   0.13727325
4948.00   0.14257495
4950.00   0.13890447
4952.00   0.14011376
4954.00   0.13399601
4956.00   0.13333562
4958.00   0.14299098
4960.00   0.14204693
4962.00   0.13864438
4964.00   0.14013720
4966.00   0.13586219
4968.00   0.12803537
4970.00   0.13768046
4972.00   0.13285922
4974.00   0.14938965
4976.00   0.14955223
4978.00   0.14762630
4980.00   0.13458437
4982.00   0.13332036
4984.00   0.12818997
4986.00   0.12730786
4988.00   0.13839458
4990.00   0.13880543
4992.00   0.15139525
4994.00   0.13869755
4996.00   0.14342071
4998.00   0.13532031
5000.00   0.14005025
5002.00   0.12726353
5004.00   0.13611822
5006.00   0.14112753
5008.00   0.13610370
5010.00   0.13870296
5012.00   0.13515964
5014.00   0.14000264
5016.00   0.13565342
5018.00   0.12735988
5020.00   0.13548389
5022.00   0.13566957
5024.00   0.14702101
5026.00   0.12789936
5028.00   0.12712768
5030.00   0.12189438
5032.00   0.14055158
5034.00   0.12781380
5036.00   0.13688244
5038.00   0.12851313
5040.00   0.12485901
5042.00   0.13182366
5044.00   0.14540872
5046.00   0.14160398
5048.00   0.12769277
5050.00   0.12521321
5052.00   0.12694122
5054.00   0.13704067
5056.00   0.13391204
5058.00   0.13012052
5060.00   0.13705812
5062.00   0.13070193
5064.00   0.12784982
5066.00   0.13431664
5068.00   0.11735616
5070.00   0.13388671
5072.00   0.13162372
5074.00   0.12505218
5076.00   0.11547232
5078.00   0.13531542
5080.00   0.12714067
5082.00   0.12836874
5084.00   0.12263957
5086.00   0.11591706
5088.00   0.11877771
5090.00   0.11905716
5092.00   0.12409716
5094.00   0.12289165
5096.00   0.11786158
5098.00   0.12635536
5100.00   0.12714840
5102.00   0.12434153
5104.00   0.12298907
5106.00   0.12475784
5108.00   0.12930802
5110.00   0.12587053
5112.00   0.13520679
5114.00   0.11627536
5116.00   0.11767123
5118.00   0.11116075
5120.00   0.11572602
5122.00   0.12024345
5124.00   0.12676968
5126.00   0.12793127
5128.00   0.12852536
5130.00   0.12422064
5132.00   0.12962055
5134.00   0.12342419
5136.00   0.12853438
5138.00   0.11505166
5140.00   0.12358758
5142.00   0.12724291
5144.00   0.11719283
5146.00   0.12859714
5148.00   0.12557115
5150.00   0.12412231
5152.00   0.12980752
5154.00   0.11688681
5156.00   0.12889111
5158.00   0.13119070
5160.00   0.12822001
5162.00   0.11398619
5164.00   0.11812124
5166.00   0.11076486
5168.00   0.13003026
5170.00   0.12179111
5172.00   0.11856460
5174.00   0.12362264
5176.00   0.13322316
5178.00   0.12707017
5180.00   0.12789591
5182.00   0.12036712
5184.00   0.12417629
5186.00   0.12609516
5188.00   0.12680048
5190.00   0.12950227
5192.00   0.13109715
5194.00   0.13289875
5196.00   0.13385873
5198.00   0.13338120
5200.00   0.13392618
5202.00   0.13135289
5204.00   0.14419353
5206.00   0.13460486
5208.00   0.13797177
5210.00   0.13400447
5212.00   0.12937364
5214.00   0.12259796
5216.00   0.14396884
5218.00   0.13721445
5220.00   0.13105962
5222.00   0.13058440
5224.00   0.12885471
5226.00   0.12366096
5228.00   0.12564529
5230.00   0.13549982
5232.00   0.12858281
5234.00   0.11974014
5236.00   0.13545084
5238.00   0.13281615
5240.00   0.12948398
5242.00   0.12342838
5244.00   0.13650447
5246.00   0.12932427
5248.00   0.13668928
5250.00   0.12938982
5252.00   0.12601618
5254.00   0.12935659
5256.00   0.13593958
5258.00   0.13542600
5260.00   0.12574726
5262.00   0.13125749
5264.00   0.14505669
5266.00   0.14402020
5268.00   0.14122027
5270.00   0.13052590
5272.00   0.11510547
5274.00   0.13903196
5276.00   0.12959760
5278.00   0.13004626
5280.00   0.13840127
5282.00   0.13666657
5284.00   0.13648196
5286.00   0.13685118
5288.00   0.13459226
5290.00   0.14424455
5292.00   0.14550275
5294.00   0.12362859
5296.00   0.14043675
5298.00   0.12804709
5300.00   0.13849936
5302.00   0.13813868
5304.00   0.13762605
5306.00   0.13803832
5308.00   0.14261705
5310.00   0.13913879
5312.00   0.14205442
5314.00   0.14230271
5316.00   0.15000772
5318.00   0.14134257
5320.00   0.13513748
5322.00   0.14396781
5324.00   0.13929370
5326.00   0.14051063
5328.00   0.15638155
5330.00   0.13414423
5332.00   0.14718176
5334.00   0.15047169
5336.00   0.12664671
5338.00   0.13239960
5340.00   0.14105648
5342.00   0.14088841
5344.00   0.14677553
5346.00   0.14663616
5348.00   0.13303281
5350.00   0.15560752
5352.00   0.13930117
5354.00   0.15214293
5356.00   0.14310218
5358.00   0.14984302
5360.00   0.12187131
5362.00   0.13947836
5364.00   0.14993811
5366.00   0.15795198
5368.00   0.15399323
5370.00   0.13088107
5372.00   0.14980526
5374.00   0.14853396
5376.00   0.15848880
5378.00   0.16428357
5380.00   0.16834274
5382.00   0.15673326
5384.00   0.13346609
5386.00   0.15400630
5388.00   0.13427715
5390.00   0.14486882
5392.00   0.15935773
5394.00   0.13864638
5396.00   0.15321176
5398.00   0.14554743
5400.00   0.14591944
5402.00   0.14520656
5404.00   0.15671274
5406.00   0.15289941
5408.00   0.13945752
5410.00   0.13772057
5412.00   0.13903581
5414.00   0.14187203
5416.00   0.14555989
5418.00   0.15307656
5420.00   0.14561914
5422.00   0.11693165
5424.00   0.10511511
5426.00   0.11177389
5428.00   0.12088536
5430.00   0.12058660
5432.00   0.11617242
5434.00   0.12209799
5436.00   0.13984402
5438.00   0.14860578
5440.00   0.15478097
5442.00   0.15402378
5444.00   0.13977675
5446.00   0.11824607
5448.00   0.11509199
5450.00   0.13057232
5452.00   0.13181500
5454.00   0.12616336
5456.00   0.12021528
5458.00   0.11312857
5460.00   0.10708258
5462.00   0.11015163
5464.00   0.12280524
5466.00   0.12829758
5468.00   0.13045225
5470.00   0.13328475
5472.00   0.13828839
5474.00   0.14196299
5476.00   0.14024656
5478.00   0.13442922
5480.00   0.12825260
5482.00   0.11862292
5484.00   0.11138562
5486.00   0.10436105
5488.00   0.10058341
5490.00   0.10389135
5492.00   0.11259766
5494.00   0.11471640
5496.00   0.11257714
5498.00   0.11203974
5500.00   0.11144195
5502.00   0.11148418
5504.00   0.11237992
5506.00   0.11404413
5508.00   0.11705449
5510.00   0.12394818
5512.00   0.12495568
5514.00   0.11991835
5516.00   0.11742415
5518.00   0.12065052
5520.00   0.12485784
5522.00   0.12296049
5524.00   0.11717802
5526.00   0.11045276
5528.00   0.09552304
5530.00   0.09127162
5532.00   0.10372968
5534.00   0.11748617
5536.00   0.11548536
5538.00   0.10285001
5540.00   0.10109864
5542.00   0.10560674
5544.00   0.10875066
5546.00   0.11211231
5548.00   0.11494298
5550.00   0.11660142
5552.00   0.11742508
5554.00   0.11656808
5556.00   0.11358476
5558.00   0.11090780
5560.00   0.10707638
5562.00   0.10434030
5564.00   0.10332818
5566.00   0.10368852
5568.00   0.10618310
5570.00   0.11362553
5572.00   0.11459083
5574.00   0.11022296
5576.00   0.10696875
5578.00   0.10599296
5580.00   0.10558569
5582.00   0.10423283
5584.00   0.10206513
5586.00   0.10157507
5588.00   0.10206436
5590.00   0.10327994
5592.00   0.10567982
5594.00   0.10832037
5596.00   0.11007190
5598.00   0.11130950
5600.00   0.11341400
5602.00   0.11710490
5604.00   0.11866564
5606.00   0.11873608
5608.00   0.11738484
5610.00   0.11391344
5612.00   0.10876038
5614.00   0.10642751
5616.00   0.10498826
5618.00   0.10560162
5620.00   0.11093177
5622.00   0.11308627
5624.00   0.10763288
5626.00   0.09916978
5628.00   0.09788706
5630.00   0.10237116
5632.00   0.10335344
5634.00   0.10349197
5636.00   0.10318229
5638.00   0.10309775
5640.00   0.10199773
5642.00   0.09702823
5644.00   0.08640216
5646.00   0.08652343
5648.00   0.09815721
5650.00   0.10329342
5652.00   0.10083754
5654.00   0.09711184
5656.00   0.09666391
5658.00   0.09736407
5660.00   0.09951846
5662.00   0.10532655
5664.00   0.10746090
5666.00   0.10732217
5668.00   0.10493582
5670.00   0.09812724
5672.00   0.08854103
5674.00   0.08968651
5676.00   0.10171873
5678.00   0.10818867
5680.00   0.11431041
5682.00   0.11802872
5684.00   0.11990000
5686.00   0.11871494
5688.00   0.10873697
5690.00   0.08350533
5692.00   0.07766222
5694.00   0.08764721
5696.00   0.09340446
5698.00   0.09088542
5700.00   0.08796946
5702.00   0.09402391
5704.00   0.10854311
5706.00   0.11120894
5708.00   0.10742057
5710.00   0.10045239
5712.00   0.08606619
5714.00   0.07295436
5716.00   0.06972246
5718.00   0.07276975
5720.00   0.07516233
5722.00   0.08104828
5724.00   0.08459405
5726.00   0.08646343
5728.00   0.08799078
5730.00   0.09035511
5732.00   0.09267184
5734.00   0.09089905
5736.00   0.08282740
5738.00   0.08072004
5740.00   0.08138831
5742.00   0.08413301
5744.00   0.09069060
5746.00   0.09828846
5748.00   0.09871627
5750.00   0.09211413
5752.00   0.09115021
5754.00   0.09355848
5756.00   0.09466407
5758.00   0.09458643
5760.00   0.09328083
5762.00   0.08906819
5764.00   0.08069717
5766.00   0.08094072
5768.00   0.08901685
5770.00   0.09472972
5772.00   0.09894480
5774.00   0.10267381
5776.00   0.10687181
5778.00   0.11142667
5780.00   0.10951391
5782.00   0.10283099
5784.00   0.09336080
5786.00   0.07425861
5788.00   0.06182458
5790.00   0.06557866
5792.00   0.07886855
5794.00   0.08803707
5796.00   0.10159012
5798.00   0.10742606
5800.00   0.10725033
5802.00   0.10606150
5804.00   0.10417902
5806.00   0.10176832
5808.00   0.10159329
5810.00   0.10399365
5812.00   0.10272125
5814.00   0.09686758
5816.00   0.09473825
5818.00   0.09848868
5820.00   0.10311832
5822.00   0.10286518
5824.00   0.09934584
5826.00   0.09874488
5828.00   0.10060395
5830.00   0.10014865
5832.00   0.09627534
5834.00   0.09314182
5836.00   0.09436149
5838.00   0.09836396
5840.00   0.09867525
5842.00   0.09559442
5844.00   0.09534100
5846.00   0.09721256
5848.00   0.09935179
5850.00   0.10040201
5852.00   0.10155074
5854.00   0.10668755
5856.00   0.12063093
5858.00   0.12181409
5860.00   0.11035635
5862.00   0.10367987
5864.00   0.10699558
5866.00   0.11346593
5868.00   0.11439522
5870.00   0.11352940
5872.00   0.10940095
5874.00   0.09933248
5876.00   0.09258780
5878.00   0.08961689
5880.00   0.08843648
5882.00   0.08758198
5884.00   0.08725747
5886.00   0.09095486
5888.00   0.10350571
5890.00   0.10628335
5892.00   0.09778184
5894.00   0.08847131
5896.00   0.08464743
5898.00   0.08308748
5900.00   0.08451153
5902.00   0.08715130
5904.00   0.09598366
5906.00   0.11742365
5908.00   0.13163054
5910.00   0.12928243
5912.00   0.11776289
5914.00   0.10878668
5916.00   0.09286322
5918.00   0.08855032
5920.00   0.09562470
5922.00   0.09918177
5924.00   0.09578098
5926.00   0.09021074
5928.00   0.08730987
5930.00   0.08457429
5932.00   0.08481216
5934.00   0.08921944
5936.00   0.09161405
5938.00   0.09118568
5940.00   0.09058572
5942.00   0.09246892
5944.00   0.09617550
5946.00   0.09695396
5948.00   0.09573852
5950.00   0.09449807
5952.00   0.09310546
5954.00   0.09106191
5956.00   0.08780330
5958.00   0.08362667
5960.00   0.08093078
5962.00   0.07631726
5964.00   0.07823828
5966.00   0.09038568
5968.00   0.09740978
5970.00   0.09187786
5972.00   0.08052249
5974.00   0.07608564
5976.00   0.07496367
5978.00   0.07290845
5980.00   0.07036806
5982.00   0.06968652
5984.00   0.07178120
5986.00   0.07511100
5988.00   0.07743660
5990.00   0.07950287
5992.00   0.08217004
5994.00   0.08761586
5996.00   0.08847850
5998.00   0.08197092
6000.00   0.07552772
6002.00   0.07691963
6004.00   0.08353192
6006.00   0.08568031
6008.00   0.08673058
6010.00   0.08617712
6012.00   0.08196236
6014.00   0.07934317
6016.00   0.08221362
6018.00   0.08834855
6020.00   0.09141194
6022.00   0.09373936
6024.00   0.09496120
6026.00   0.09466642
6028.00   0.09421095
6030.00   0.09330975
6032.00   0.09261630
6034.00   0.09538976
6036.00   0.10261995
6038.00   0.10570486
6040.00   0.10769241
6042.00   0.10730053
6044.00   0.10283294
6046.00   0.09744143
6048.00   0.09636909
6050.00   0.09830853
6052.00   0.09845561
6054.00   0.09656961
6056.00   0.09799378
6058.00   0.10449813
6060.00   0.11095271
6062.00   0.11282799
6064.00   0.11212382
6066.00   0.11017746
6068.00   0.10361608
6070.00   0.10177337
6072.00   0.10495392
6074.00   0.10787317
6076.00   0.10771225
6078.00   0.10611574
6080.00   0.10487586
6082.00   0.10338067
6084.00   0.10155264
6086.00   0.09949293
6088.00   0.09698566
6090.00   0.09333488
6092.00   0.08953325
6094.00   0.08834596
6096.00   0.08805430
6098.00   0.09135379
6100.00   0.10009702
6102.00   0.10656849
6104.00   0.10960688
6106.00   0.11156385
6108.00   0.11481988
6110.00   0.11923655
6112.00   0.11958628
6114.00   0.11570183
6116.00   0.11319142
6118.00   0.11285999
6120.00   0.11140616
6122.00   0.10544761
6124.00   0.09602990
6126.00   0.09197851
6128.00   0.08968187
6130.00   0.09120024
6132.00   0.09927590
6134.00   0.10593268
6136.00   0.10653051
6138.00   0.10407165
6140.00   0.10408334
6142.00   0.10560480
6144.00   0.10521488
6146.00   0.10422570
6148.00   0.10170303
6150.00   0.09610941
6152.00   0.08969309
6154.00   0.08808418
6156.00   0.09014018
6158.00   0.09148976
6160.00   0.09393238
6162.00   0.09612734
6164.00   0.09838362
6166.00   0.10015420
6168.00   0.10015297
6170.00   0.09824321
6172.00   0.09897142
6174.00   0.10255202
6176.00   0.10382367
6178.00   0.10322414
6180.00   0.10130980
6182.00   0.09730557
6184.00   0.09119223
6186.00   0.09135532
6188.00   0.10059923
6190.00   0.10064675
6192.00   0.09075416
6194.00   0.08306894
6196.00   0.08368794
6198.00   0.08843564
6200.00   0.09074009
6202.00   0.09448103
6204.00   0.09456787
6206.00   0.09090760
6208.00   0.08787628
6210.00   0.08622320
6212.00   0.08529864
6214.00   0.08542992
6216.00   0.08687190
6218.00   0.08791453
6220.00   0.08817433
6222.00   0.09032796
6224.00   0.09585667
6226.00   0.10151452
6228.00   0.10330191
6230.00   0.10256705
6232.00   0.10210467
6234.00   0.10206039
6236.00   0.09917323
6238.00   0.09135545
6240.00   0.08460631
6242.00   0.08422162
6244.00   0.08783147
6246.00   0.08636414
6248.00   0.08024319
6250.00   0.07820491
6252.00   0.07889891
6254.00   0.08058446
6256.00   0.08254087
6258.00   0.08529417
6260.00   0.08965399
6262.00   0.09951556
6264.00   0.10026087
6266.00   0.09300900
6268.00   0.08672475
6270.00   0.08288070
6272.00   0.07991005
6274.00   0.07758167
6276.00   0.07582080
6278.00   0.07541215
6280.00   0.07676993
6282.00   0.07794434
6284.00   0.07927478
6286.00   0.08029118
6288.00   0.07984561
6290.00   0.07788697
6292.00   0.07898188
6294.00   0.08370905
6296.00   0.08559890
6298.00   0.08420292
6300.00   0.08304507
6302.00   0.08525047
6304.00   0.08932021
6306.00   0.08717088
6308.00   0.07682357
6310.00   0.07392454
6312.00   0.07654125
6314.00   0.07978046
6316.00   0.08291068
6318.00   0.08592582
6320.00   0.08434051
6322.00   0.07728335
6324.00   0.07389739
6326.00   0.07097316
6328.00   0.06985649
6330.00   0.07130064
6332.00   0.07407741
6334.00   0.07625653
6336.00   0.07901774
6338.00   0.08033106
6340.00   0.08027802
6342.00   0.08051264
6344.00   0.08178478
6346.00   0.08222943
6348.00   0.07952628
6350.00   0.07411975
6352.00   0.07158479
6354.00   0.07133683
6356.00   0.06943971
6358.00   0.06489172
6360.00   0.06175981
6362.00   0.06260146
6364.00   0.06605786
6366.00   0.07069509
6368.00   0.08185724
6370.00   0.08354999
6372.00   0.07684565
6374.00   0.06966584
6376.00   0.06292463
6378.00   0.05690524
6380.00   0.05904621
6382.00   0.07277704
6384.00   0.07475757
6386.00   0.06946232
6388.00   0.06411545
6390.00   0.05784007
6392.00   0.05255944
6394.00   0.05425816
6396.00   0.06304462
6398.00   0.06531043
6400.00   0.06314032
6402.00   0.06317124
6404.00   0.06617752
6406.00   0.06916013
6408.00   0.06947851
6410.00   0.06810378
6412.00   0.06762478
6414.00   0.06660689
6416.00   0.06687681
6418.00   0.06917959
6420.00   0.07085349
6422.00   0.06979593
6424.00   0.06725895
6426.00   0.06782544
6428.00   0.07234946
6430.00   0.07263254
6432.00   0.06937800
6434.00   0.06651944
6436.00   0.06509236
6438.00   0.06433793
6440.00   0.06437326
6442.00   0.06545188
6444.00   0.06640665
6446.00   0.06709114
6448.00   0.06893796
6450.00   0.07329422
6452.00   0.07763460
6454.00   0.07768699
6456.00   0.07376059
6458.00   0.07422304
6460.00   0.07770819
6462.00   0.08029984
6464.00   0.08319275
6466.00   0.08464974
6468.00   0.08203544
6470.00   0.07600726
6472.00   0.07412667
6474.00   0.07555096
6476.00   0.07489347
6478.00   0.07184678
6480.00   0.06983930
6482.00   0.07093693
6484.00   0.07385682
6486.00   0.07579000
6488.00   0.07884645
6490.00   0.07930487
6492.00   0.07689574
6494.00   0.07512382
6496.00   0.07512502
6498.00   0.07578441
6500.00   0.07580575
6502.00   0.07542904
6504.00   0.07570071
6506.00   0.07612848
6508.00   0.07721391
6510.00   0.07985415
6512.00   0.08229420
6514.00   0.08133265
6516.00   0.07651346
6518.00   0.07903852
6520.00   0.08893945
6522.00   0.09515668
6524.00   0.09906077
6526.00   0.10057003
6528.00   0.09822589
6530.00   0.09234034
6532.00   0.08935483
6534.00   0.08621929
6536.00   0.08575819
6538.00   0.08884901
6540.00   0.09177382
6542.00   0.09299700
6544.00   0.09336755
6546.00   0.09202528
6548.00   0.08661124
6550.00   0.08611017
6552.00   0.09003957
6554.00   0.09269310
6556.00   0.09166157
6558.00   0.08989703
6560.00   0.09285294
6562.00   0.10256980
6564.00   0.10120827
6566.00   0.08824889
6568.00   0.08118603
6570.00   0.08187193
6572.00   0.08559214
6574.00   0.08907697
6576.00   0.09455239
6578.00   0.09636442
6580.00   0.09633575
6582.00   0.09446198
6584.00   0.08842994
6586.00   0.08358441
6588.00   0.08516280
6590.00   0.09101381
6592.00   0.09155232
6594.00   0.08679687
6596.00   0.08724996
6598.00   0.09256561
6600.00   0.09764266
6602.00   0.10074162
6604.00   0.10280571
6606.00   0.10231235
6608.00   0.09908251
6610.00   0.09559936
6612.00   0.08885431
6614.00   0.08513626
6616.00   0.08718104
6618.00   0.09126531
6620.00   0.09103807
6622.00   0.08785085
6624.00   0.08685008
6626.00   0.08613507
6628.00   0.08662011
6630.00   0.08849832
6632.00   0.09128778
6634.00   0.09502199
6636.00   0.10064998
6638.00   0.10091694
6640.00   0.09664237
6642.00   0.09259818
6644.00   0.08718283
6646.00   0.08248690
6648.00   0.08062700
6650.00   0.08062733
6652.00   0.07912116
6654.00   0.07596670
6656.00   0.07539501
6658.00   0.07611987
6660.00   0.07890274
6662.00   0.08588369
6664.00   0.09473914
6666.00   0.09561948
6668.00   0.08887692
6670.00   0.08596251
6672.00   0.08383743
6674.00   0.08148383
6676.00   0.07819235
6678.00   0.07508077
6680.00   0.07427157
6682.00   0.07547822
6684.00   0.07603825
6686.00   0.07735108
6688.00   0.07772125
6690.00   0.07672574
6692.00   0.07547479
6694.00   0.07507738
6696.00   0.07507487
6698.00   0.07519964
6700.00   0.07538703
6702.00   0.07611366
6704.00   0.07764715
6706.00   0.07916282
6708.00   0.07995886
6710.00   0.08038574
6712.00   0.08183900
6714.00   0.08470146
6716.00   0.08612873
6718.00   0.08695334
6720.00   0.08682594
6722.00   0.08515192
6724.00   0.08260031
6726.00   0.08154647
6728.00   0.08271551
6730.00   0.08025014
6732.00   0.07229199
6734.00   0.06902156
6736.00   0.07379761
6738.00   0.08133311
6740.00   0.08437637
6742.00   0.08568078
6744.00   0.08609313
6746.00   0.08393790
6748.00   0.08343741
6750.00   0.08552489
6752.00   0.08748506
6754.00   0.08642570
6756.00   0.08313511
6758.00   0.08259914
6760.00   0.08344660
6762.00   0.08481751
6764.00   0.08828133
6766.00   0.09039792
6768.00   0.08808931
6770.00   0.08305996
6772.00   0.08250712
6774.00   0.08577580
6776.00   0.08671699
6778.00   0.08676924
6780.00   0.08630671
6782.00   0.08545157
6784.00   0.08409138
6786.00   0.08187041
6788.00   0.07575967
6790.00   0.07776708
6792.00   0.08846661
6794.00   0.09592989
6796.00   0.09909753
6798.00   0.09948438
6800.00   0.09618850
6802.00   0.08740695
6804.00   0.08494798
6806.00   0.08639076
6808.00   0.08779254
6810.00   0.08934072
6812.00   0.09143879
6814.00   0.09488852
6816.00   0.10004161
6818.00   0.09870721
6820.00   0.09003226
6822.00   0.08537754
6824.00   0.08336354
6826.00   0.08209860
6828.00   0.08039329
6830.00   0.07898392
6832.00   0.08087812
6834.00   0.08734418
6836.00   0.09062859
6838.00   0.09410424
6840.00   0.09428874
6842.00   0.08831414
6844.00   0.07965520
6846.00   0.07699836
6848.00   0.07742541
6850.00   0.07946541
6852.00   0.08634616
6854.00   0.09007517
6856.00   0.08878350
6858.00   0.08599619
6860.00   0.08593784
6862.00   0.08771943
6864.00   0.08628843
6866.00   0.08068942
6868.00   0.07871746
6870.00   0.08096519
6872.00   0.08419996
6874.00   0.08584946
6876.00   0.08695827
6878.00   0.08980647
6880.00   0.09713658
6882.00   0.09772650
6884.00   0.09030978
6886.00   0.08370042
6888.00   0.08306324
6890.00   0.08516321
6892.00   0.08361829
6894.00   0.07721025
6896.00   0.07763770
6898.00   0.08428265
6900.00   0.08999428
6902.00   0.09395584
6904.00   0.09624314
6906.00   0.09288781
6908.00   0.08154872
6910.00   0.07822997
6912.00   0.07956555
6914.00   0.08114997
6916.00   0.08365154
6918.00   0.08589947
6920.00   0.08505741
6922.00   0.08153588
6924.00   0.08032011
6926.00   0.08064578
6928.00   0.07996015
6930.00   0.07772716
6932.00   0.07589083
6934.00   0.07646403
6936.00   0.07877171
6938.00   0.07757049
6940.00   0.07149754
6942.00   0.07065564
6944.00   0.07525382
6946.00   0.07929334
6948.00   0.08006154
6950.00   0.07922556
6952.00   0.07773077
6954.00   0.07358307
6956.00   0.07236268
6958.00   0.07293269
6960.00   0.07399862
6962.00   0.07575927
6964.00   0.07771466
6966.00   0.07799797
6968.00   0.07718959
6970.00   0.07591608
6972.00   0.07249808
6974.00   0.07128448
6976.00   0.07384010
6978.00   0.07672939
6980.00   0.07550591
6982.00   0.07100978
6984.00   0.07065850
6986.00   0.07288760
6988.00   0.07513447
6990.00   0.07879354
6992.00   0.08145376
6994.00   0.08066242
6996.00   0.07746380
6998.00   0.07605954
7000.00   0.07531393
7002.00   0.07426537
7004.00   0.07241825
7006.00   0.07160072
7008.00   0.07315114
7010.00   0.07595927
7012.00   0.07661192
7014.00   0.07485212
7016.00   0.07580828
7018.00   0.08073009
7020.00   0.08195278
7022.00   0.07514673
7024.00   0.06661057
7026.00   0.06835259
7028.00   0.07942969
7030.00   0.08252190
7032.00   0.08273253
7034.00   0.08082067
7036.00   0.07580902
7038.00   0.06963395
7040.00   0.06425639
7042.00   0.05785287
7044.00   0.05791048
7046.00   0.06520871
7048.00   0.06973910
7050.00   0.07319524
7052.00   0.07518287
7054.00   0.07412190
7056.00   0.07065509
7058.00   0.07188642
7060.00   0.07979730
7062.00   0.07993094
7064.00   0.07168344
7066.00   0.06553466
7068.00   0.06667494
7070.00   0.07095369
7072.00   0.07055185
7074.00   0.06591726
7076.00   0.06564890
7078.00   0.06857958
7080.00   0.07081193
7082.00   0.07187048
7084.00   0.07222497
7086.00   0.07138330
7088.00   0.06859980
7090.00   0.06844612
7092.00   0.06970546
7094.00   0.07175864
7096.00   0.07670020
7098.00   0.08019640
7100.00   0.07601898
7102.00   0.06517090
7104.00   0.06302142
7106.00   0.06762581
7108.00   0.06928379
7110.00   0.06840833
7112.00   0.06787230
7114.00   0.06967205
7116.00   0.07278583
7118.00   0.07336101
7120.00   0.07152121
7122.00   0.07125724
7124.00   0.07216071
7126.00   0.07269742
7128.00   0.07199618
7130.00   0.07088675
7132.00   0.07140166
7134.00   0.07461908
7136.00   0.07378651
7138.00   0.06900620
7140.00   0.06570752
7142.00   0.06459349
7144.00   0.06473126
7146.00   0.06624802
7148.00   0.07063789
7150.00   0.06991614
7152.00   0.06348978
7154.00   0.06065755
7156.00   0.06231217
7158.00   0.06487451
7160.00   0.06516963
7162.00   0.06424219
7164.00   0.06603720
7166.00   0.07196414
7168.00   0.07345063
7170.00   0.07014098
7172.00   0.06664342
7174.00   0.06558543
7176.00   0.06553993
7178.00   0.06523794
7180.00   0.06541494
7182.00   0.06510645
7184.00   0.06461781
7186.00   0.06380259
7188.00   0.06177931
7190.00   0.05972880
7192.00   0.06175746
7194.00   0.06903367
7196.00   0.07116464
7198.00   0.06973876
7200.00   0.06916881
7202.00   0.07100705
7204.00   0.07249842
7206.00   0.06938530
7208.00   0.06130155
7210.00   0.05992869
7212.00   0.06518368
7214.00   0.06614694
7216.00   0.06147278
7218.00   0.05648127
7220.00   0.05538895
7222.00   0.05624971
7224.00   0.05902392
7226.00   0.06665979
7228.00   0.06981502
7230.00   0.06924260
7232.00   0.06751665
7234.00   0.06551249
7236.00   0.06280410
7238.00   0.06126863
7240.00   0.06010049
7242.00   0.05977352
7244.00   0.06015323
7246.00   0.06125703
7248.00   0.06373380
7250.00   0.06664138
7252.00   0.06705024
7254.00   0.06535911
7256.00   0.06442554
7258.00   0.06284767
7260.00   0.06216323
7262.00   0.06276937
7264.00   0.06389841
7266.00   0.06469957
7268.00   0.06564552
7270.00   0.06602939
7272.00   0.06536905
7274.00   0.06582068
7276.00   0.06689762
7278.00   0.06914575
7280.00   0.07423596
7282.00   0.08208222
7284.00   0.08237866
7286.00   0.07483689
7288.00   0.07147462
7290.00   0.07127219
7292.00   0.07062357
7294.00   0.06734304
7296.00   0.06289609
7298.00   0.06143826
7300.00   0.06093629
7302.00   0.06323673
7304.00   0.07021961
7306.00   0.07536132
7308.00   0.07681210
7310.00   0.07637291
7312.00   0.07553934
7314.00   0.07302009
7316.00   0.07181790
7318.00   0.07166348
7320.00   0.07067157
7322.00   0.06780554
7324.00   0.06518197
7326.00   0.06596150
7328.00   0.06991383
7330.00   0.06985664
7332.00   0.06678584
7334.00   0.06472227
7336.00   0.06302063
7338.00   0.06198270
7340.00   0.06257118
7342.00   0.06454962
7344.00   0.06350196
7346.00   0.05861472
7348.00   0.05734158
7350.00   0.05904320
7352.00   0.06124049
7354.00   0.06350052
7356.00   0.06585626
7358.00   0.06503473
7360.00   0.05913742
7362.00   0.05856576
7364.00   0.06226963
7366.00   0.06482165
7368.00   0.06480251
7370.00   0.06375428
7372.00   0.06310367
7374.00   0.06223223
7376.00   0.06141787
7378.00   0.06075862
7380.00   0.05971637
7382.00   0.05758719
7384.00   0.05583555
7386.00   0.05658314
7388.00   0.05946630
7390.00   0.06056764
7392.00   0.06180744
7394.00   0.06116148
7396.00   0.05735196
7398.00   0.05402482
7400.00   0.05416910
7402.00   0.05641287
7404.00   0.05760714
7406.00   0.05889818
7408.00   0.06005590
7410.00   0.06141676
7412.00   0.06225028
7414.00   0.06186537
7416.00   0.06088787
7418.00   0.06153812
7420.00   0.06376825
7422.00   0.06495009
7424.00   0.06530807
7426.00   0.06638106
7428.00   0.06900763
7430.00   0.07195047
7432.00   0.07299215
7434.00   0.07282571
7436.00   0.07229406
7438.00   0.07031008
7440.00   0.06931522
7442.00   0.07028797
7444.00   0.07092611
7446.00   0.06832648
7448.00   0.06304301
7450.00   0.06077555
7452.00   0.05938116
7454.00   0.05975199
7456.00   0.06299658
7458.00   0.06615973
7460.00   0.06680960
7462.00   0.06612125
7464.00   0.06766087
7466.00   0.07237961
7468.00   0.07314203
7470.00   0.07022882
7472.00   0.06737093
7474.00   0.06560614
7476.00   0.06439064
7478.00   0.06505220
7480.00   0.06922919
7482.00   0.06930574
7484.00   0.06571733
7486.00   0.06361236
7488.00   0.06436276
7490.00   0.06600196
7492.00   0.06610896
7494.00   0.06527166
7496.00   0.06536116
7498.00   0.06625715
7500.00   0.06657666
7502.00   0.06626853
7504.00   0.06564765
7506.00   0.06476742
7508.00   0.06340508
7510.00   0.06335066
7512.00   0.06391087
7514.00   0.06541740
7516.00   0.06876408
7518.00   0.07166443
7520.00   0.07271282
7522.00   0.07264624
7524.00   0.07132249
7526.00   0.06677298
7528.00   0.06564823
7530.00   0.06779222
7532.00   0.06921083
7534.00   0.06875183
7536.00   0.06715435
7538.00   0.06387599
7540.00   0.05704211
7542.00   0.05437621
7544.00   0.05401267
7546.00   0.05466978
7548.00   0.05684299
7550.00   0.05956704
7552.00   0.06075375
7554.00   0.06142681
7556.00   0.06065668
7558.00   0.05656629
7560.00   0.05567683
7562.00   0.05853242
7564.00   0.06273426
7566.00   0.06697340
7568.00   0.07243365
7570.00   0.07298747
7572.00   0.06898690
7574.00   0.06573755
7576.00   0.06175211
7578.00   0.05830018
7580.00   0.05622382
7582.00   0.05507219
7584.00   0.05510132
7586.00   0.05812992
7588.00   0.05782581
7590.00   0.05412286
7592.00   0.05162520
7594.00   0.05189738
7596.00   0.05361012
7598.00   0.05564119
7600.00   0.06103970
7602.00   0.05963008
7604.00   0.05058818
7606.00   0.04506201
7608.00   0.04462919
7610.00   0.04657016
7612.00   0.04912732
7614.00   0.05380812
7616.00   0.05619765
7618.00   0.05833918
7620.00   0.05827834
7622.00   0.05417830
7624.00   0.05054475
7626.00   0.05202421
7628.00   0.05692305
7630.00   0.05944801
7632.00   0.06188659
7634.00   0.06310853
7636.00   0.06313711
7638.00   0.06246152
7640.00   0.06129538
7642.00   0.05952322
7644.00   0.05725651
7646.00   0.05278647
7648.00   0.05168840
7650.00   0.05323804
7652.00   0.05528719
7654.00   0.05803485
7656.00   0.06082194
7658.00   0.06034736
7660.00   0.05664807
7662.00   0.05466212
7664.00   0.05168185
7666.00   0.05118619
7668.00   0.05491075
7670.00   0.05946361
7672.00   0.06015456
7674.00   0.05849278
7676.00   0.05722047
7678.00   0.05567421
7680.00   0.05320797
7682.00   0.04940274
7684.00   0.04537422
7686.00   0.04139275
7688.00   0.03691785
7690.00   0.03835034
7692.00   0.04691944
7694.00   0.05176238
7696.00   0.05484077
7698.00   0.05689085
7700.00   0.05791371
7702.00   0.05796080
7704.00   0.05798290
7706.00   0.05794212
7708.00   0.05682222
7710.00   0.05397989
7712.00   0.05195415
7714.00   0.05133526
7716.00   0.05159786
7718.00   0.05275605
7720.00   0.05626075
7722.00   0.05593650
7724.00   0.05205168
7726.00   0.04933209
7728.00   0.04809666
7730.00   0.04748560
7732.00   0.04709787
7734.00   0.04711604
7736.00   0.04745889
7738.00   0.04665078
7740.00   0.04931441
7742.00   0.05708947
7744.00   0.06481292
7746.00   0.06859109
7748.00   0.07030093
7750.00   0.07031200
7752.00   0.06738506
7754.00   0.06512213
7756.00   0.06254134
7758.00   0.06012911
7760.00   0.05829740
7762.00   0.05673244
7764.00   0.05455124
7766.00   0.05139331
7768.00   0.04955848
7770.00   0.04846687
7772.00   0.04785841
7774.00   0.04807394
7776.00   0.04852450
7778.00   0.04760744
7780.00   0.04540201
7782.00   0.04434560
7784.00   0.04291718
7786.00   0.04337658
7788.00   0.04636984
7790.00   0.05039201
7792.00   0.05405418
7794.00   0.05841251
7796.00   0.06013216
7798.00   0.05996829
7800.00   0.05892890
7802.00   0.05663794
7804.00   0.05363235
7806.00   0.04970098
7808.00   0.04477759
7810.00   0.04439866
7812.00   0.04886794
7814.00   0.05102601
7816.00   0.05285127
7818.00   0.05351191
7820.00   0.05138186
7822.00   0.04810984
7824.00   0.05048750
7826.00   0.06028517
7828.00   0.06269642
7830.00   0.06047100
7832.00   0.05818324
7834.00   0.05667408
7836.00   0.05499833
7838.00   0.05257522
7840.00   0.04867325
7842.00   0.04782033
7844.00   0.05063521
7846.00   0.05111915
7848.00   0.04812540
7850.00   0.04477060
7852.00   0.04398744
7854.00   0.04444186
7856.00   0.04649421
7858.00   0.05319859
7860.00   0.05464306
7862.00   0.04950274
7864.00   0.04467871
7866.00   0.04494938
7868.00   0.04792257
7870.00   0.04931862
7872.00   0.05109650
7874.00   0.05167858
7876.00   0.05063240
7878.00   0.05008882
7880.00   0.05182888
7882.00   0.05407006
7884.00   0.05128407
7886.00   0.04202069
7888.00   0.03889010
7890.00   0.03756141
7892.00   0.03962362
7894.00   0.04738940
7896.00   0.05690296
7898.00   0.06085831
7900.00   0.06239386
7902.00   0.06046908
7904.00   0.05130569
7906.00   0.04716298
7908.00   0.04919188
7910.00   0.05299694
7912.00   0.05522079
7914.00   0.05755484
7916.00   0.05826539
7918.00   0.05730894
7920.00   0.05661799
7922.00   0.05530783
7924.00   0.05471046
7926.00   0.05623961
7928.00   0.05913265
7930.00   0.05944825
7932.00   0.05811473
7934.00   0.05660121
7936.00   0.05392402
7938.00   0.05169821
7940.00   0.05102191
7942.00   0.05075822
7944.00   0.04791344
7946.00   0.04067689
7948.00   0.04004340
7950.00   0.04462978
7952.00   0.04897901
7954.00   0.05325926
7956.00   0.05691516
7958.00   0.05715756
7960.00   0.05369838
7962.00   0.05412883
7964.00   0.05798148
7966.00   0.05946212
7968.00   0.05810731
7970.00   0.05606304
7972.00   0.05469847
7974.00   0.05311576
7976.00   0.05425936
7978.00   0.05911252
7980.00   0.06146071
7982.00   0.06203095
7984.00   0.06186761
7986.00   0.06141784
7988.00   0.06043376
7990.00   0.05872756
7992.00   0.05584279
7994.00   0.05351580
7996.00   0.05000970
7998.00   0.04874133
8000.00   0.05211201
8002.00   0.05736227
8004.00   0.05767954
8006.00   0.05347062
8008.00   0.05320810
8010.00   0.05652199
8012.00   0.05712424
8014.00   0.05353157
8016.00   0.04845956
8018.00   0.04457625
8020.00   0.03946000
8022.00   0.04067501
8024.00   0.05021664
8026.00   0.05473975
8028.00   0.05414157
8030.00   0.05177497
8032.00   0.04921988
8034.00   0.04534823
8036.00   0.04525310
8038.00   0.04789120
8040.00   0.05115617
8042.00   0.05752663
8044.00   0.06187424
8046.00   0.06058397
8048.00   0.05594517
8050.00   0.05411341
8052.00   0.05197333
8054.00   0.05263431
8056.00   0.05632304
8058.00   0.06011126
8060.00   0.06407414
8062.00   0.06760581
8064.00   0.06726097
8066.00   0.06383144
8068.00   0.05946185
8070.00   0.05072580
8072.00   0.04564286
8074.00   0.04574854
8076.00   0.04788985
8078.00   0.04895648
8080.00   0.05054356
8082.00   0.05084918
8084.00   0.04974759
8086.00   0.04938611
8088.00   0.04894520
8090.00   0.04969792
8092.00   0.05338948
8094.00   0.05948937
8096.00   0.06297676
8098.00   0.06674952
8100.00   0.06693080
8102.00   0.06269570
8104.00   0.05818343
8106.00   0.05489169
8108.00   0.05207498
8110.00   0.05195284
8112.00   0.05545440
8114.00   0.05677057
8116.00   0.05800959
8118.00   0.05794232
8120.00   0.05556898
8122.00   0.05227474
8124.00   0.05106293
8126.00   0.05070760
8128.00   0.05148565
8130.00   0.05441116
8132.00   0.05627724
8134.00   0.05749353
8136.00   0.05742443
8138.00   0.05427217
8140.00   0.04791259
8142.00   0.04438766
8144.00   0.04085628
8146.00   0.04007973
8148.00   0.04298632
8150.00   0.04657481
8152.00   0.04899491
8154.00   0.05128700
8156.00   0.05038164
8158.00   0.04365752
8160.00   0.04298631
8162.00   0.04766678
8164.00   0.05274091
8166.00   0.05636443
8168.00   0.05962321
8170.00   0.06201107
8172.00   0.06273323
8174.00   0.06510922
8176.00   0.06862203
8178.00   0.07199263
8180.00   0.07489099
8182.00   0.07769934
8184.00   0.08039691
#8186.00   0.08021975
#8188.00   0.08969002
#8190.00   0.11450510
#8192.00   0.12650953
#8194.00   0.12468784
#8196.00   0.11373582
#8198.00   0.09326380
#8200.00   0.05895722
#8202.00   0.04444461
8204.00   0.04209613
8206.00   0.04171227
8208.00   0.04771423
8210.00   0.05328046
8212.00   0.05243785
8214.00   0.04804922
8216.00   0.04523223
8218.00   0.04072518
8220.00   0.03944163
8222.00   0.04139239
8224.00   0.04357149
8226.00   0.04468760
8228.00   0.04566925
8230.00   0.04759235
8232.00   0.05012233
8234.00   0.05305088
8236.00   0.05582064
8238.00   0.06015992
8240.00   0.06831305
8242.00   0.07660473
8244.00   0.07758190
8246.00   0.07295440
8248.00   0.06868460
8250.00   0.06095868
8252.00   0.05559220
8254.00   0.05203132
8256.00   0.05068231
8258.00   0.05358845
8260.00   0.06118053
8262.00   0.06223449
8264.00   0.05914876
8266.00   0.05590554
8268.00   0.05092482
8270.00   0.04643491
8272.00   0.04392234
8274.00   0.04260993
8276.00   0.04350974
8278.00   0.04710486
8280.00   0.05065862
8282.00   0.05737621
8284.00   0.06061790
8286.00   0.05582831
8288.00   0.04740326
8290.00   0.04700595
8292.00   0.05210197
8294.00   0.05619612
8296.00   0.06368133
8298.00   0.06765173
8300.00   0.06622598
8302.00   0.06227176
8304.00   0.05914455
8306.00   0.05475941
8308.00   0.05284442
8310.00   0.05340281
8312.00   0.05292883
8314.00   0.05107780
8316.00   0.04917557
8318.00   0.04824734
8320.00   0.04778660
8322.00   0.04822425
8324.00   0.05076809
8326.00   0.05116103
8328.00   0.04885297
8330.00   0.04699114
8332.00   0.04868494
8334.00   0.05219730
8336.00   0.04767956
8338.00   0.03015829
8340.00   0.02744893
8342.00   0.03759253
8344.00   0.04686344
8346.00   0.05125434
8348.00   0.05359545
8350.00   0.05366023
8352.00   0.04944704
8354.00   0.04886733
8356.00   0.05057070
8358.00   0.05162116
8360.00   0.05181764
8362.00   0.05141924
8364.00   0.05001727
8366.00   0.04730237
8368.00   0.04585785
8370.00   0.04384708
8372.00   0.04435267
8374.00   0.04870574
8376.00   0.05335777
8378.00   0.05515700
8380.00   0.05562786
8382.00   0.05391461
8384.00   0.04838065
8386.00   0.04512827
8388.00   0.04235242
8390.00   0.04166311
8392.00   0.04505989
8394.00   0.05126939
8396.00   0.05372452
8398.00   0.05392788
8400.00   0.05458377
8402.00   0.05423039
8404.00   0.05485009
8406.00   0.05839719
8408.00   0.06243400
8410.00   0.06033908
8412.00   0.05174689
8414.00   0.04801558
8416.00   0.04575296
8418.00   0.04481307
8420.00   0.04572015
8422.00   0.04747811
8424.00   0.04814908
8426.00   0.04758754
8428.00   0.05133247
8430.00   0.06185744
8432.00   0.06628233
8434.00   0.06377621
8436.00   0.05933013
8438.00   0.05618129
8440.00   0.05256327
8442.00   0.05185927
8444.00   0.05530285
8446.00   0.05532106
8448.00   0.05185421
8450.00   0.04885446
8452.00   0.04785607
8454.00   0.04806968
8456.00   0.05135212
8458.00   0.05872228
8460.00   0.06455175
8462.00   0.07365146
8464.00   0.07721353
8466.00   0.07041131
8468.00   0.05909505
8470.00   0.05524434
8472.00   0.05679893
8474.00   0.05329575
8476.00   0.04481573
8478.00   0.04037952
8480.00   0.04219049
8482.00   0.04567236
8484.00   0.04540296
8486.00   0.04279109
8488.00   0.04337671
8490.00   0.04730679
8492.00   0.04869201
8494.00   0.04651316
8496.00   0.04474996
8498.00   0.04683084
8500.00   0.05136471
8502.00   0.05381046
8504.00   0.05618110
8506.00   0.05693332
8508.00   0.05520404
8510.00   0.05401097
8512.00   0.05565923
8514.00   0.05841666
8516.00   0.05649782
8518.00   0.04892261
8520.00   0.04601124
8522.00   0.04503815
8524.00   0.04532780
8526.00   0.04750428
8528.00   0.05048195
8530.00   0.05127678
8532.00   0.05162029
8534.00   0.04901945
8536.00   0.04096388
8538.00   0.03703437
8540.00   0.03902351
8542.00   0.04270474
8544.00   0.04378724
8546.00   0.04392492
8548.00   0.04439044
8550.00   0.04392245
8552.00   0.04514945
8554.00   0.04977242
8556.00   0.05300663
8558.00   0.05023449
8560.00   0.04334726
8562.00   0.04196221
8564.00   0.04430341
8566.00   0.04550121
8568.00   0.04738010
8570.00   0.04807489
8572.00   0.04610391
8574.00   0.04268762
8576.00   0.04154096
8578.00   0.04161481
8580.00   0.04188241
8582.00   0.04308718
8584.00   0.04401090
8586.00   0.04458059
8588.00   0.04477209
8590.00   0.04388192
8592.00   0.04105124
8594.00   0.04147534
8596.00   0.04577782
8598.00   0.04737785
8600.00   0.04509258
8602.00   0.04202805
8604.00   0.04102614
8606.00   0.04061761
8608.00   0.04258080
8610.00   0.05011459
8612.00   0.05146103
8614.00   0.04574764
8616.00   0.03924687
8618.00   0.03525101
8620.00   0.03198440
8622.00   0.03434617
8624.00   0.04817110
8626.00   0.04889511
8628.00   0.03433905
8630.00   0.02527006
8632.00   0.03301861
8634.00   0.04817178
8636.00   0.04994515
8638.00   0.04033965
8640.00   0.03930050
8642.00   0.04132630
8644.00   0.04520123
8646.00   0.05404243
8648.00   0.06234717
8650.00   0.05723744
8652.00   0.03836298
8654.00   0.03226348
8656.00   0.03146487
8658.00   0.03359990
8660.00   0.04171151
8662.00   0.04971145
8664.00   0.04956111
8666.00   0.04365547
8668.00   0.04217112
8670.00   0.04198328
8672.00   0.04243531
8674.00   0.04401413
8676.00   0.04581350
8678.00   0.04744054
8680.00   0.04910804
8682.00   0.04917268
8684.00   0.04674472
8686.00   0.04662556
8688.00   0.04816202
8690.00   0.04993941
8692.00   0.05193777
8694.00   0.05391929
8696.00   0.05375031
8698.00   0.05135863
8700.00   0.04992290
8702.00   0.04860847
8704.00   0.04708306
8706.00   0.04495786
8708.00   0.04290967
8710.00   0.04210715
8712.00   0.04199716
8714.00   0.04299829
8716.00   0.04581987
8718.00   0.04794041
8720.00   0.04927282
8722.00   0.05044973
8724.00   0.05180183
8726.00   0.05308048
8728.00   0.05527340
8730.00   0.05934034
8732.00   0.06121857
8734.00   0.06129010
8736.00   0.06039327
8738.00   0.05864422
8740.00   0.05600418
8742.00   0.05431467
8744.00   0.05274826
8746.00   0.05191056
8748.00   0.05198975
8750.00   0.05206812
8752.00   0.05209002
8754.00   0.05195711
8756.00   0.05056692
8758.00   0.04668807
8760.00   0.04662038
8762.00   0.05067845
8764.00   0.05254625
8766.00   0.05084362
8768.00   0.04794106
8770.00   0.04614761
8772.00   0.04360637
8774.00   0.04534264
8776.00   0.05319834
8778.00   0.05680116
8780.00   0.05506322
8782.00   0.05260279
8784.00   0.05335401
8786.00   0.05581309
8788.00   0.05627837
8790.00   0.05473961
8792.00   0.05515100
8794.00   0.05756265
8796.00   0.05997914
8798.00   0.06154438
8800.00   0.06270745
8802.00   0.06265654
8804.00   0.06253078
8806.00   0.05948882
8808.00   0.05177118
8810.00   0.04617210
8812.00   0.04558264
8814.00   0.04700541
8816.00   0.04525325
8818.00   0.04047686
8820.00   0.03994425
8822.00   0.04319210
8824.00   0.04520185
8826.00   0.04491114
8828.00   0.04436963
8830.00   0.04636987
8832.00   0.05157451
8834.00   0.04912934
8836.00   0.03677407
8838.00   0.03193104
8840.00   0.03533444
8842.00   0.04093578
8844.00   0.04462238
8846.00   0.04835004
8848.00   0.05191910
8850.00   0.05701691
8852.00   0.05845037
8854.00   0.05482493
8856.00   0.05228912
8858.00   0.05418438
8860.00   0.05845589
8862.00   0.06235586
8864.00   0.06882511
8866.00   0.07128448
8868.00   0.07142800
8870.00   0.06966280
8872.00   0.06510746
8874.00   0.05917278
8876.00   0.05603780
8878.00   0.05511965
8880.00   0.05213843
8882.00   0.04926869
8884.00   0.04399447
8886.00   0.03355227
8888.00   0.02347693
8890.00   0.02159237
8892.00   0.02525674
8894.00   0.03016166
8896.00   0.04122353
8898.00   0.04758611
8900.00   0.04972259
8902.00   0.04970880
8904.00   0.04796002
8906.00   0.04396978
8908.00   0.04356189
8910.00   0.04400614
8912.00   0.04775173
8914.00   0.05854817
8916.00   0.06553093
8918.00   0.06249198
8920.00   0.05371637
8922.00   0.04766741
8924.00   0.03795901
8926.00   0.03586103
8928.00   0.04186957
8930.00   0.04562712
8932.00   0.04339799
8934.00   0.03975932
8936.00   0.04186729
8938.00   0.04983840
8940.00   0.05092006
8942.00   0.04647037
8944.00   0.04401185
8946.00   0.04371453
8948.00   0.04467747
8950.00   0.04726647
8952.00   0.05218131
8954.00   0.05332984
8956.00   0.05105240
8958.00   0.05039024
8960.00   0.05042722
8962.00   0.05163590
8964.00   0.05543553
8966.00   0.06137333
8968.00   0.06243631
8970.00   0.05912746
8972.00   0.05759411
8974.00   0.05868939
8976.00   0.05661226
8978.00   0.04691523
8980.00   0.03343933
8982.00   0.02845815
8984.00   0.02847166
8986.00   0.03013777
8988.00   0.03650759
8990.00   0.04185764
8992.00   0.04552254
8994.00   0.04797259
8996.00   0.04794750
8998.00   0.04491068
9000.00   0.04365445
9002.00   0.04145768
9004.00   0.04197277
9006.00   0.04678885
9008.00   0.05220957
9010.00   0.05416290
9012.00   0.05435591
9014.00   0.05338210
9016.00   0.04901787
9018.00   0.04759501
9020.00   0.04887633
9022.00   0.05109478
9024.00   0.05442540
9026.00   0.05894711
9028.00   0.05557999
9030.00   0.04331915
9032.00   0.03568801
9034.00   0.02904585
9036.00   0.02443527
9038.00   0.02215720
9040.00   0.02212238
9042.00   0.02537525
9044.00   0.03272698
9046.00   0.03990292
9048.00   0.05115142
9050.00   0.05813199
9052.00   0.05804614
9054.00   0.05507106
9056.00   0.05505591
9058.00   0.05579466
9060.00   0.05664378
9062.00   0.05951541
9064.00   0.05930907
9066.00   0.05501841
9068.00   0.04953143
9070.00   0.04511367
9072.00   0.04020052
9074.00   0.03975726
9076.00   0.04605480
9078.00   0.04683741
9080.00   0.04163849
9082.00   0.03655787
9084.00   0.03456085
9086.00   0.03409144
9088.00   0.03856663
9090.00   0.05287799
9092.00   0.05699592
9094.00   0.05339122
9096.00   0.04879319
9098.00   0.04447513
9100.00   0.04003684
9102.00   0.03938439
9104.00   0.04234823
9106.00   0.04416060
9108.00   0.04756471
9110.00   0.04884382
9112.00   0.04626385
9114.00   0.04275916
9116.00   0.04287843
9118.00   0.04533968
9120.00   0.04720372
9122.00   0.05082802
9124.00   0.05190474
9126.00   0.04831396
9128.00   0.04544909
9130.00   0.04980301
9132.00   0.05991113
9134.00   0.06035641
9136.00   0.05270240
9138.00   0.04814501
9140.00   0.04380597
9142.00   0.04173984
9144.00   0.04515332
9146.00   0.05210739
9148.00   0.05053574
9150.00   0.03864812
9152.00   0.03642344
9154.00   0.04147453
9156.00   0.04622316
9158.00   0.05026541
9160.00   0.05278162
9162.00   0.04533000
9164.00   0.02225556
9166.00   0.01771974
9168.00   0.02604850
9170.00   0.03396313
9172.00   0.04270642
9174.00   0.04966408
9176.00   0.04629038
9178.00   0.03255375
9180.00   0.02836461
9182.00   0.02675853
9184.00   0.02973443
9186.00   0.04277576
9188.00   0.05330568
9190.00   0.04706601
9192.00   0.02852960
9194.00   0.02423359
9196.00   0.02767019
9198.00   0.03136681
9200.00   0.03870418
9202.00   0.04490961
9204.00   0.04708920
9206.00   0.04691016
9208.00   0.04579821
9210.00   0.03974263
9212.00   0.04044983
9214.00   0.04695036
9216.00   0.05326045
9218.00   0.05936413
9220.00   0.06425837
9222.00   0.06113160
9224.00   0.04859031
9226.00   0.04274100
9228.00   0.03741658
9230.00   0.03627725
9232.00   0.04311538
9234.00   0.05058302
9236.00   0.04688352
9238.00   0.03354883
9240.00   0.03117041
9242.00   0.03619452
9244.00   0.03941622
9246.00   0.04230648
9248.00   0.04395739
9250.00   0.04243248
9252.00   0.03832225
9254.00   0.03669192
9256.00   0.03591582
9258.00   0.03574361
9260.00   0.03626933
9262.00   0.03738695
9264.00   0.03914593
9266.00   0.04148230
9268.00   0.04374332
9270.00   0.04893816
9272.00   0.04773679
9274.00   0.03903981
9276.00   0.03303545
9278.00   0.03203491
9280.00   0.03402860
9282.00   0.03922230
9284.00   0.05241820
9286.00   0.05295254
9288.00   0.03988139
9290.00   0.03436990
9292.00   0.03968495
9294.00   0.04836336
9296.00   0.05436426
9298.00   0.06240479
9300.00   0.05825238
9302.00   0.03572031
9304.00   0.02792257
9306.00   0.03866031
9308.00   0.04926160
9310.00   0.04362148
9312.00   0.02820892
9314.00   0.03108752
9316.00   0.05705793
9318.00   0.05982381
9320.00   0.04103123
9322.00   0.02233124
9324.00   0.01101674
9326.00   0.00329991
9328.00   0.00755401
9330.00   0.02946863
9332.00   0.03955948
9334.00   0.04870584
9336.00   0.05072061
9338.00   0.04045213
9340.00   0.02545089
9342.00   0.02089642
9344.00   0.01764226
9346.00   0.03003282
9348.00   0.07240170
9350.00   0.08967299
9352.00   0.07192306
9354.00   0.04389279
9356.00   0.02878134
9358.00   0.01486222
9360.00   0.01459257
9362.00   0.03072321
9364.00   0.04221595
9366.00   0.04779090
9368.00   0.05756342
9370.00   0.08182550
9372.00   0.11648750
9374.00   0.12857080
9376.00   0.13537827
9378.00   0.11731424
9380.00   0.05703261
9382.00   0.01095906
9384.00   0.00705921
9386.00   0.02462506
9388.00   0.03003258
9390.00   0.03722409
9392.00   0.04039261
9394.00   0.03738837
9396.00   0.03898859
9398.00   0.05152448
9400.00   0.06541123
9402.00   0.06301969
9404.00   0.04805423
9406.00   0.03587165
9408.00   0.01342393
9410.00   0.00523381
9412.00   0.01616970
9414.00   0.03315523
9416.00   0.04532497
9418.00   0.06016268
9420.00   0.05563155
9422.00   0.02380403
9424.00   0.01191396
9426.00   0.02024667
9428.00   0.03031611
9430.00   0.03164177
9432.00   0.02960185
9434.00   0.02360300
9436.00   0.00411500
9438.00   0.00304785
9440.00   0.02073759
9442.00   0.03610699
9444.00   0.04126010
9446.00   0.04184635
9448.00   0.04173923
9450.00   0.04030548
9452.00   0.03467393
9454.00   0.02159305
9456.00   0.01261238
9458.00   0.00580860
9460.00   0.00546457
9462.00   0.02694351
9464.00   0.08012544
9466.00   0.08500762
9468.00   0.04704621
9470.00   0.02465204
9472.00   0.01483866
9474.00   0.01480709
9476.00   0.03257902
9478.00   0.07089041
9480.00   0.07116455
9482.00   0.03180781
9484.00   0.01846987
9486.00   0.02862367
9488.00   0.04110207
9490.00   0.04514573
9492.00   0.04642745
9494.00   0.04404070
9496.00   0.03439876
9498.00   0.03038040
9500.00   0.02763466
9502.00   0.02903372
9504.00   0.04019370
9506.00   0.05427777
9508.00   0.04786635
9510.00   0.01453534
9512.00   0.01113507
9514.00   0.02918553
9516.00   0.04426068
9518.00   0.05700782
9520.00   0.06510726
9522.00   0.05489550
9524.00   0.01975700
9526.00   0.02447321
9528.00   0.07502263
9530.00   0.09197647
9532.00   0.06464643
9534.00   0.03177615
9536.00   0.02725036
9538.00   0.03771847
9540.00   0.04017543
9542.00   0.04140637
9544.00   0.04407890
9546.00   0.05031850
9548.00   0.05370517
9550.00   0.04968917
9552.00   0.04089818
9554.00   0.03432595
9556.00   0.02588693
9558.00   0.02098499
9560.00   0.01931276
9562.00   0.01787284
9564.00   0.01572236
9566.00   0.01364762
9568.00   0.01211762
9570.00   0.00911709
9572.00   0.01182986
9574.00   0.02259261
9576.00   0.02848396
9578.00   0.02499500
9580.00   0.02043501
9582.00   0.02617002
9584.00   0.03931189
9586.00   0.04955286
9588.00   0.06480625
9590.00   0.07097717
9592.00   0.06584452
9594.00   0.05762586
9596.00   0.05290144
9598.00   0.04863876
9600.00   0.04432958
9602.00   0.03912198
9604.00   0.03627881
9606.00   0.03531535
9608.00   0.03583268
9610.00   0.03844588
9612.00   0.04261278
9614.00   0.04343739
9616.00   0.04001448
9618.00   0.04118433
9620.00   0.04751495
9622.00   0.05089993
9624.00   0.04728742
9626.00   0.04136005
9628.00   0.04246044
9630.00   0.04994551
9632.00   0.05187194
9634.00   0.05414441
9636.00   0.05021005
9638.00   0.03514028
9640.00   0.01862669
9642.00   0.01408183
9644.00   0.01590506
9646.00   0.02395605
9648.00   0.04871861
9650.00   0.05825670
9652.00   0.04856002
9654.00   0.03737037
9656.00   0.03926574
9658.00   0.04819144
9660.00   0.04930485
9662.00   0.04754115
9664.00   0.04311620
9666.00   0.03197521
9668.00   0.02422745
9670.00   0.02461103
9672.00   0.03035000
9674.00   0.04136008
9676.00   0.07027321
9678.00   0.07466424
9680.00   0.06231800
9682.00   0.04502494
9684.00   0.01864819
9686.00   -0.00856933
9688.00   -0.00832480
9690.00   0.01861828
9692.00   0.02867170
9694.00   0.03693820
9696.00   0.03835979
9698.00   0.02734633
9700.00   0.01532390
9702.00   0.01866012
9704.00   0.03348093
9706.00   0.03881954
9708.00   0.04079448
9710.00   0.04135321
9712.00   0.04034138
9714.00   0.03751244
9716.00   0.03158976
9718.00   0.02272284
9720.00   0.02159198
9722.00   0.02733103
9724.00   0.03098855
9726.00   0.03394602
9728.00   0.03775184
9730.00   0.04423741
9732.00   0.05170727
9734.00   0.05267382
9736.00   0.04812582
9738.00   0.04390305
9740.00   0.03433227
9742.00   0.03032211
9744.00   0.03749325
9746.00   0.04799299
9748.00   0.04719783
9750.00   0.03701848
9752.00   0.03465214
9754.00   0.03867433
9756.00   0.03764870
9758.00   0.02858122
9760.00   0.01864472
9762.00   0.01522692
9764.00   0.01488341
9766.00   0.01941595
9768.00   0.03519902
9770.00   0.04061407
9772.00   0.03524511
9774.00   0.02758885
9776.00   0.02091902
9778.00   0.01317006
9780.00   0.01973103
9782.00   0.04621870
9784.00   0.05711133
9786.00   0.06251520
9788.00   0.05775949
9790.00   0.03262997
9792.00   -0.00214355
9794.00   -0.00245210
9796.00   0.03054661
9798.00   0.04427256
9800.00   0.05802604
9802.00   0.06153945
9804.00   0.04833560
9806.00   0.02847485
9808.00   0.01989413
9810.00   0.01549788
9812.00   0.01518910
9814.00   0.02159848
9816.00   0.02700855
9818.00   0.03155286
9820.00   0.03594354
9822.00   0.04088696
9824.00   0.04732289
9826.00   0.04476264
9828.00   0.03095226
9830.00   0.02367859
9832.00   0.01973608
9834.00   0.01990234
9836.00   0.02625917
9838.00   0.03780234
9840.00   0.04759560
9842.00   0.06598678
9844.00   0.06687988
9846.00   0.04455934
9848.00   0.03075081
9850.00   0.04281830
9852.00   0.06519651
9854.00   0.06318485
9856.00   0.03675916
9858.00   0.03274051
9860.00   0.04741579
9862.00   0.05179738
9864.00   0.03799842
9866.00   0.01798905
9868.00   0.00565029
9870.00   -0.00818777
9872.00   -0.00536388
9874.00   0.01735323
9876.00   0.03327243
9878.00   0.04566103
9880.00   0.05194704
9882.00   0.04244548
9884.00   0.01633825
9886.00   0.02320692
9888.00   0.06798097
9890.00   0.08360596
9892.00   0.07219391
9894.00   0.05709779
9896.00   0.05007185
9898.00   0.04488220
9900.00   0.04317949
9902.00   0.05054304
9904.00   0.04662556
9906.00   0.02970310
9908.00   0.01815970
9910.00   0.01506081
9912.00   0.01979473
9914.00   0.04566317
9916.00   0.11744571
9918.00   0.12247631
9920.00   0.06951322
9922.00   0.03012172
9924.00   0.01107928
9926.00   0.00271405
9928.00   0.00783002
9930.00   0.03205577
9932.00   0.03874182
9934.00   0.03418182
9936.00   0.03426857
9938.00   0.03864968
9940.00   0.04485698
9942.00   0.05219066
9944.00   0.06130819
9946.00   0.06843655
9948.00   0.07964620
9950.00   0.07963807
9952.00   0.05972011
9954.00   0.04835404
9956.00   0.06973368
9958.00   0.10899739
9960.00   0.10511768
9962.00   0.05999331
9964.00   0.03887295
9966.00   0.02814754
9968.00   0.01761508
9970.00   0.00076784
9972.00   -0.01479319
9974.00   -0.01036003
9976.00   0.01620138
9978.00   0.02851271
9980.00   0.03869722
9982.00   0.04360086
9984.00   0.04205173
9986.00   0.03625420
9988.00   0.02882759
9990.00   0.01784552
9992.00   0.00820547
9994.00   -0.00629355
9996.00   -0.01152632
9998.00   -0.00839147
10000.00   0.00169993
10002.00   0.02032666
10004.00   0.04809874
10006.00   0.06658294
10008.00   0.08801231
10010.00   0.09300321
10012.00   0.07857330
10014.00   0.06187249
10016.00   0.05140907
10018.00   0.04226303
10020.00   0.03253343
10022.00   0.01535413
10024.00   0.01599134
10026.00   0.03570372
10028.00   0.05207865
10030.00   0.05786108
10032.00   0.06033407
10034.00   0.06878509
10036.00   0.08749535
10038.00   0.08409346
10040.00   0.05770240
10042.00   0.03948169
10044.00   0.03470903
10046.00   0.03218694
10048.00   0.01903005
10050.00   -0.00489675
10052.00   -0.00449359
10054.00   0.01718182
10056.00   0.03506180
10058.00   0.06261715
10060.00   0.07621733
10062.00   0.04632556
10064.00   -0.01730989
10066.00   -0.03698529
10068.00   -0.03551249
10070.00   -0.02393898
10072.00   0.00760280
10074.00   0.04010369
10076.00   0.06478586
10078.00   0.08680441
10080.00   0.10572267
10082.00   0.13748452
10084.00   0.12885723
10086.00   0.07068797
10088.00   0.03001140
10090.00   0.02698411
10092.00   0.03928681
10094.00   0.04083299
10096.00   0.04137328
10098.00   0.04248221
10100.00   0.04635869
10102.00   0.04516082
10104.00   0.03646268
10106.00   0.02563461
10108.00   0.01884320
10110.00   0.01370973
10112.00   0.00843474
10114.00   -0.01716379
10116.00   0.00104390
10118.00   0.09194219
10120.00   0.16817090
10122.00   0.15410742
10124.00   0.08270541
10126.00   0.05929688
10128.00   0.05529692
10130.00   0.04705029
10132.00   0.04259219
10134.00   0.03496214
10136.00   0.01662580
10138.00   -0.00574285
10140.00   -0.00730642
10142.00   0.00324209
10144.00   0.02479486
10146.00   0.07658209
10148.00   0.10626756
10150.00   0.09778247
10152.00   0.07149662
10154.00   0.05251963
10156.00   0.02262678
10158.00   0.02001926
10160.00   0.04850805
10162.00   0.06201065
10164.00   0.05250532
10166.00   0.04112989
10168.00   0.04747550
10170.00   0.06211931
10172.00   0.09190088
10174.00   0.17278022
10176.00   0.18592423
10178.00   0.11494750
10180.00   0.04090329
10182.00   0.01254894
10184.00   0.00466476
10186.00   0.04270296
10188.00   0.18110998
10190.00   0.21348299
10192.00   0.15375762
10194.00   0.09244256
10196.00   0.05814304
10198.00   0.03408764
10200.00   0.03732860
10202.00   0.08378488
10204.00   0.09496340
10206.00   0.07793038
10208.00   0.07824094
10210.00   0.11816601
10212.00   0.16346747
10214.00   0.15484118
10216.00   0.09941979
10218.00   0.07683041
10220.00   0.06726834
10222.00   0.05586148
10224.00   0.03849838
10226.00   0.02588751
10228.00   0.02837608
10230.00   0.04108606
10232.00   0.06651054
10234.00   0.12964450
10236.00   0.14955674
10238.00   0.13013752
10240.00   0.09407946
10242.00   0.04367742
10244.00   -0.02267911
10246.00   -0.03274342
10248.00   0.01442793
10250.00   0.03335971
10252.00   0.04122954
10254.00   0.04854275
10256.00   0.06154315
10258.00   0.07399430
10260.00   0.06867593
10262.00   0.04028235
10264.00   0.03177795
10266.00   0.03482262
10268.00   0.03662745
10270.00   0.03231851
10272.00   0.02982206
10274.00   0.04304193
10276.00   0.07748749
10278.00   0.07596563
10280.00   0.03005539
10282.00   0.01880922
10284.00   0.06016589
10286.00   0.10163809
10288.00   0.09232107
10290.00   0.05118049
10292.00   0.01846632
10294.00   -0.05717191
10296.00   -0.05551315
10298.00   0.05115489
10300.00   0.14327151
10302.00   0.13960741
10304.00   0.08489937
10306.00   0.08163407
10308.00   0.11677714
10310.00   0.11475563
10312.00   0.08680705
10314.00   0.05503725
10316.00   0.01920429
10318.00   -0.01632971
10320.00   -0.01961857
10322.00   0.02012129
10324.00   0.01583423
10326.00   -0.03219005
10328.00   -0.04993929
10330.00   -0.01577625
10332.00   0.03251873
10334.00   0.04629403
10336.00   0.04074287
10338.00   0.04190919
10340.00   0.03263637
10342.00   0.03990702
10344.00   0.07671827
10346.00   0.10873108
10348.00   0.09910705
10350.00   0.05947230
10352.00   0.05289336
10354.00   0.05099439
10356.00   0.07727446
10358.00   0.15915218
10360.00   0.21785389
10362.00   0.20267706
10364.00   0.14348359
10366.00   0.09976924
10368.00   0.01448459
10370.00   0.00773343
10372.00   0.09151381
10374.00   0.14656512
10376.00   0.12029695
10378.00   0.06792829
10380.00   0.08890141
10382.00   0.17314467
10384.00   0.21026841
10386.00   0.24784756
10388.00   0.24540611
10390.00   0.17864025
10392.00   0.09407818
10394.00   0.05711284
10396.00   0.04100481
10398.00   0.04306233
10400.00   0.07026820
10402.00   0.10395720
10404.00   0.16769339
10406.00   0.21329676
10408.00   0.19166538
10410.00   0.12261055
10412.00   0.05448484
10414.00   -0.07013071
10416.00   -0.11924493
10418.00   -0.09367757
10420.00   -0.05869141
10422.00   -0.04927973
10424.00   -0.04365990
10426.00   -0.00673798
10428.00   0.07707907
10430.00   0.11347856
10432.00   0.13217936
10434.00   0.12414911
10436.00   0.06791846
10438.00   -0.00519380
10440.00   -0.01043655
10442.00   0.05171887
10444.00   0.04727137
10446.00   -0.00391125
10448.00   -0.04060234
10450.00   -0.07098103
10452.00   -0.08123599
10454.00   -0.03045647
10456.00   0.08911021
10458.00   0.11599296
10460.00   0.06211947
10462.00   0.04987857
10464.00   0.07769009
10466.00   0.11372915
10468.00   0.13984255
10470.00   0.16505000
10472.00   0.18458673
10474.00   0.20572089
10476.00   0.21020259
10478.00   0.19849138
10480.00   0.17941836
10482.00   0.15330453
10484.00   0.12130325
10486.00   0.10328296
10488.00   0.10247096
10490.00   0.08379545
10492.00   0.05013319
10494.00   0.02152651
10496.00   0.00340990
10498.00   -0.01016147
10500.00   -0.02655919
10502.00   -0.05423475
10504.00   -0.04352014
10506.00   0.01052955
10508.00   0.04865577
10510.00   0.07288350
10512.00   0.08343818
10514.00   0.06585340
10516.00   0.01448401
10518.00   0.01334417
10520.00   0.05800702
10522.00   0.07816687
10524.00   0.07883897
10526.00   0.07141264
10528.00   0.05607078
10530.00   0.03120578
10532.00   0.03858659
10534.00   0.08963794
10536.00   0.10091345
10538.00   0.08082864
10540.00   0.05659628
10542.00   0.03692390
10544.00   0.01700811
10546.00   0.00401521
10548.00   0.00225123
10550.00   -0.01210929
10552.00   -0.04044079
10554.00   -0.05935027
10556.00   -0.06698071
10558.00   -0.06377949
10560.00   -0.04036905
10562.00   0.00932638
10564.00   0.04008488
10566.00   0.07383220
10568.00   0.08718869
10570.00   0.07780093
10572.00   0.05309699
10574.00   0.01073120
10576.00   -0.06265020
10578.00   -0.05372704
10580.00   0.04891140
10582.00   0.09464612
10584.00   0.09390942
10586.00   0.07720410
10588.00   0.05142000
10590.00   0.01184848
10592.00   0.02154474
10594.00   0.08624377
10596.00   0.11614629
10598.00   0.13211985
10600.00   0.13576141
10602.00   0.12018488
10604.00   0.09359017
10606.00   0.09156489
10608.00   0.11500742
10610.00   0.11396412
10612.00   0.10099430
10614.00   0.08262344
10616.00   0.05350279
10618.00   0.02351492
10620.00   0.01634455
10622.00   0.02982994
10624.00   0.02818581
10626.00   0.01728945
10628.00   0.01290260
10630.00   0.01513449
10632.00   0.02144398
10634.00   0.03185249
10636.00   0.04789532
10638.00   0.05580295
10640.00   0.06242781
10642.00   0.06043925
10644.00   0.04659306
10646.00   0.03165607
10648.00   0.01879279
10650.00   0.00630902
10652.00   0.01981594
10654.00   0.07335424
10656.00   0.09136148
10658.00   0.09021148
10660.00   0.07661967
10662.00   0.04332051
10664.00   0.00081480
10666.00   -0.00567567
10668.00   0.02144370
10670.00   0.02871737
10672.00   0.03350782
10674.00   0.03206152
10676.00   0.01535229
10678.00   -0.00052341
10680.00   0.01494026
10682.00   0.05633802
10684.00   0.08735917
10686.00   0.13925236
10688.00   0.15242270
10690.00   0.11279684
10692.00   0.06182770
10694.00   0.03462011
10696.00   0.01298024
10698.00   0.01999384
10700.00   0.07883469
10702.00   0.09201761
10704.00   0.05826702
10706.00   0.02388699
10708.00   0.01497027
10710.00   0.01718964
10712.00   0.01549752
10714.00   0.01956490
10716.00   0.01482054
10718.00   -0.01129684
10720.00   -0.01515270
10722.00   0.02752939
10724.00   0.09127267
10726.00   0.12092555
10728.00   0.13778435
10730.00   0.13971397
10732.00   0.11751521
10734.00   0.09931765
10736.00   0.08622896
10738.00   0.07683264
10740.00   0.07602055
10742.00   0.08411831
10744.00   0.08804163
10746.00   0.10430887
10748.00   0.09543671
10750.00   0.04124892
10752.00   -0.00532541
10754.00   0.01165483
10756.00   0.07376510
10758.00   0.08858926
10760.00   0.06820564
10762.00   0.07233670
10764.00   0.11191252
10766.00   0.13112195
10768.00   0.08920333
10770.00   0.01184620
10772.00   -0.01634187
10774.00   -0.03471275
10776.00   -0.01189366
10778.00   0.08266146
10780.00   0.14360654
10782.00   0.13006815
10784.00   0.08377147
10786.00   0.06771261
10788.00   0.06004208
10790.00   0.05219343
10792.00   0.03907063
10794.00   0.04288187
10796.00   0.07461464
10798.00   0.11289175
10800.00   0.12897396
10802.00   0.13467188
10804.00   0.13110875
10806.00   0.11945153
10808.00   0.09504434
10810.00   0.04474202
10812.00   -0.00061458
10814.00   -0.01413475
10816.00   -0.00839529
10818.00   0.01384658
10820.00   0.06987739
10822.00   0.10718918
10824.00   0.13906994
10826.00   0.15940031
10828.00   0.16265452
10830.00   0.15257205
10832.00   0.13929676
