# File created by shivutils (I.Shivvers)
# wl(A)   flm    er(optional)
3438.00   2.37168860   0.10700023
3440.00   2.23243356   0.10655213
3442.00   2.21386933   0.10510811
3444.00   2.25126648   0.10599789
3446.00   2.21054745   0.10683885
3448.00   2.08814478   0.10573936
3450.00   1.93252742   0.10627381
3452.00   2.10812497   0.11069764
3454.00   1.98242247   0.10888287
3456.00   2.36860275   0.11271583
3458.00   2.19919109   0.11064404
3460.00   1.99265158   0.10838833
3462.00   2.18931413   0.10947096
3464.00   2.02916813   0.10749547
3466.00   1.81863093   0.10505554
3468.00   2.04171419   0.10890426
3470.00   2.05757046   0.10886893
3472.00   1.94927418   0.10672549
3474.00   1.79952753   0.10523497
3476.00   2.14193463   0.11091391
3478.00   1.97518432   0.11275847
3480.00   2.34776473   0.11973362
3482.00   2.32435393   0.11940695
3484.00   2.24965525   0.11628015
3486.00   2.07746100   0.11453173
3488.00   2.13343716   0.11422402
3490.00   2.22792959   0.11438995
3492.00   2.31309605   0.11386561
3494.00   2.42381811   0.11525322
3496.00   2.43585539   0.11394884
3498.00   2.38717628   0.11479312
3500.00   2.19347763   0.11200257
3502.00   2.37874985   0.11246246
3504.00   2.16588140   0.11005727
3506.00   2.25437903   0.11032014
3508.00   2.21914649   0.11083286
3510.00   2.22890091   0.11044180
3512.00   2.19485044   0.10946566
3514.00   2.20282578   0.10816022
3516.00   2.15963602   0.10769704
3518.00   2.22683144   0.10914706
3520.00   2.15803981   0.10742569
3522.00   2.10647464   0.10503840
3524.00   2.32893348   0.10803694
3526.00   2.02579546   0.10391824
3528.00   2.26187873   0.10721727
3530.00   2.20275259   0.10652817
3532.00   2.39485312   0.10759653
3534.00   2.40631509   0.10897207
3536.00   2.51359320   0.10981554
3538.00   2.42883658   0.10961622
3540.00   2.65020919   0.11406428
3542.00   2.74196053   0.11712318
3544.00   2.78799534   0.11863846
3546.00   2.41112447   0.11391304
3548.00   2.60985708   0.11447193
3550.00   2.62688160   0.11373619
3552.00   2.55048800   0.11364637
3554.00   2.69452596   0.11377291
3556.00   2.76171112   0.11457009
3558.00   2.77377105   0.11503279
3560.00   2.64729404   0.11209448
3562.00   2.60423183   0.10918096
3564.00   2.61225414   0.10792056
3566.00   2.47082043   0.10677780
3568.00   2.56003237   0.10733350
3570.00   2.50936079   0.10639894
3572.00   2.55088234   0.10630707
3574.00   2.35916495   0.10447961
3576.00   2.63454103   0.10523900
3578.00   2.63143516   0.10410895
3580.00   2.65476871   0.10329738
3582.00   2.97911406   0.10615604
3584.00   3.03258443   0.10487249
3586.00   2.88320589   0.10197289
3588.00   2.90986037   0.10380305
3590.00   2.89296675   0.10407356
3592.00   3.01627517   0.10422003
3594.00   2.92374969   0.10546841
3596.00   3.12190175   0.10425556
3598.00   3.17021704   0.10486159
3600.00   3.09878421   0.10302398
3602.00   3.24513459   0.10351979
3604.00   3.23182964   0.10192215
3606.00   3.41017938   0.10340059
3608.00   3.43646288   0.10373829
3610.00   3.38645077   0.10330633
3612.00   3.52738714   0.10677772
3614.00   3.48518872   0.10763156
3616.00   3.49541879   0.10632113
3618.00   3.36348867   0.10376295
3620.00   3.54466867   0.10346250
3622.00   3.43095636   0.10159594
3624.00   3.19136906   0.09905125
3626.00   3.34677243   0.10062440
3628.00   3.74829507   0.10468891
3630.00   3.61835623   0.10475256
3632.00   3.66048837   0.10494584
3634.00   3.74395967   0.10382237
3636.00   3.72961092   0.10351923
3638.00   3.96399164   0.10416104
3640.00   3.87919235   0.10455240
3642.00   4.03408861   0.10803632
3644.00   4.07016659   0.10950693
3646.00   3.89306521   0.10939870
3648.00   3.96776986   0.12538652
3650.00   4.09539366   0.13471077
3652.00   4.30909777   0.12754075
3654.00   4.00536871   0.11949874
3656.00   4.16205406   0.11418894
3658.00   4.11582947   0.10619515
3660.00   4.15100384   0.10738792
3662.00   4.04637718   0.11198524
3664.00   4.36628008   0.11151498
3666.00   4.21603155   0.10210995
3668.00   4.37749052   0.10063367
3670.00   4.24559355   0.09864071
3672.00   4.43452787   0.09920428
3674.00   4.40621042   0.09876793
3676.00   4.52856302   0.09844349
3678.00   4.53994131   0.09767997
3680.00   4.54491806   0.09717938
3682.00   4.51915646   0.09676918
3684.00   4.52907228   0.09620312
3686.00   4.37365007   0.09371913
3688.00   4.20111847   0.09313259
3690.00   4.41192341   0.09525461
3692.00   4.30468559   0.09394981
3694.00   4.32256269   0.09376398
3696.00   4.38661957   0.09397824
3698.00   4.30520821   0.09423047
3700.00   4.26162720   0.09338732
3702.00   4.42908049   0.09416552
3704.00   4.22610283   0.09212393
3706.00   4.15397024   0.09053179
3708.00   4.25102615   0.09097730
3710.00   4.15496969   0.08972941
3712.00   4.14469099   0.08940040
3714.00   4.20821810   0.08872574
3716.00   3.89605951   0.08672412
3718.00   4.11923742   0.08747358
3720.00   4.01605892   0.08705166
3722.00   3.95418596   0.08552160
3724.00   3.82049394   0.08452005
3726.00   4.09043217   0.08645586
3728.00   3.85333276   0.08482226
3730.00   3.99008441   0.08495522
3732.00   3.89127064   0.08447351
3734.00   3.97492146   0.08487502
3736.00   3.68765283   0.08228050
3738.00   3.71313214   0.08308806
3740.00   3.52274370   0.08103380
3742.00   3.43099332   0.07970086
3744.00   3.42674494   0.07847311
3746.00   3.50348234   0.07790351
3748.00   3.51969385   0.07798865
3750.00   3.15057874   0.07508147
3752.00   3.22187805   0.07551863
3754.00   3.35584664   0.07555089
3756.00   3.23595238   0.07455435
3758.00   3.06848145   0.07257597
3760.00   3.06829643   0.07278112
3762.00   2.77016568   0.06952500
3764.00   2.88516545   0.07010433
3766.00   2.70656204   0.06816027
3768.00   2.84404349   0.06884591
3770.00   2.64230847   0.06727505
3772.00   2.85001254   0.06874049
3774.00   2.77763605   0.06803413
3776.00   2.81550336   0.06849935
3778.00   2.62753940   0.06643695
3780.00   2.56740928   0.06535390
3782.00   2.63963795   0.06574475
3784.00   2.49984860   0.06467385
3786.00   2.54158831   0.06454349
3788.00   2.49479103   0.06437676
3790.00   2.57306647   0.06528482
3792.00   2.46484900   0.06443907
3794.00   2.57808208   0.06467861
3796.00   2.45460916   0.06272481
3798.00   2.51148868   0.06316841
3800.00   2.39686537   0.06218324
3802.00   2.28255439   0.06136422
3804.00   2.20865607   0.06068318
3806.00   2.16539621   0.05963831
3808.00   2.10580993   0.05868220
3810.00   2.10456157   0.05849852
3812.00   2.17176962   0.05867179
3814.00   2.05796242   0.05814910
3816.00   2.09322190   0.05824946
3818.00   2.16007233   0.05859240
3820.00   2.08575058   0.05780751
3822.00   2.00402069   0.05683918
3824.00   1.98186255   0.05631759
3826.00   1.91311824   0.05620720
3828.00   2.02423859   0.05825658
3830.00   2.06301379   0.05942668
3832.00   2.06263423   0.05860164
3834.00   2.04702759   0.05809001
3836.00   2.07460690   0.05835266
3838.00   2.21143985   0.05880227
3840.00   2.42508721   0.06015316
3842.00   2.44222951   0.06022514
3844.00   2.46040559   0.06005497
3846.00   2.61510730   0.06086088
3848.00   2.55814743   0.06003780
3850.00   2.79211330   0.06158942
3852.00   2.79692173   0.06178484
3854.00   2.88821769   0.06241370
3856.00   2.92165375   0.06181557
3858.00   2.86233544   0.06140884
3860.00   3.02605343   0.06252277
3862.00   3.07946515   0.06334400
3864.00   2.91807795   0.06162237
3866.00   2.93477345   0.06114586
3868.00   2.93439102   0.06121453
3870.00   2.78283429   0.05947540
3872.00   2.69556642   0.05989379
3874.00   2.54928899   0.05952916
3876.00   2.50536299   0.05769384
3878.00   2.58522344   0.05749245
3880.00   2.47207308   0.05648175
3882.00   2.30957675   0.05498057
3884.00   2.35536766   0.05522035
3886.00   2.36975813   0.05542966
3888.00   2.40321517   0.05482893
3890.00   2.40351796   0.05490366
3892.00   2.29251981   0.05413723
3894.00   2.35779595   0.05515524
3896.00   2.29656363   0.05482568
3898.00   2.34901714   0.05466544
3900.00   2.31854320   0.05452586
3902.00   2.26786971   0.05469928
3904.00   2.31289363   0.05641456
3906.00   2.25830078   0.05922322
3908.00   2.27797413   0.06094461
3910.00   2.20803237   0.06109634
3912.00   2.15202427   0.05989992
3914.00   2.11677837   0.05759609
3916.00   2.21891642   0.05572136
3918.00   2.18711376   0.05482496
3920.00   2.18886662   0.05361686
3922.00   2.17480922   0.05264980
3924.00   2.29997492   0.05363676
3926.00   2.28223968   0.05292728
3928.00   2.30934548   0.05281341
3930.00   2.31907821   0.05333941
3932.00   2.56657839   0.05597419
3934.00   2.39851665   0.05453766
3936.00   2.44031143   0.05332674
3938.00   2.62863111   0.05417664
3940.00   2.69236660   0.05529232
3942.00   2.67630529   0.05643663
3944.00   2.63816404   0.05715854
3946.00   2.80825353   0.05700482
3948.00   2.77179050   0.05578691
3950.00   2.92479706   0.05642734
3952.00   2.97831178   0.05650464
3954.00   3.19262624   0.05777781
3956.00   3.22164559   0.05795005
3958.00   3.32308507   0.05907929
3960.00   3.38362646   0.06070407
3962.00   3.41503882   0.06105374
3964.00   3.57681465   0.06029483
3966.00   3.66553450   0.05996898
3968.00   3.74291372   0.06033717
3970.00   3.91932297   0.06128375
3972.00   4.09576607   0.06264438
3974.00   4.16543007   0.06305701
3976.00   4.22978878   0.06319101
3978.00   4.31044769   0.06366488
3980.00   4.31050158   0.06347338
3982.00   4.46807432   0.06454746
3984.00   4.50054741   0.06428481
3986.00   4.56261253   0.06482752
3988.00   4.57805395   0.06503492
3990.00   4.60553074   0.06481549
3992.00   4.74994612   0.06543961
3994.00   4.52295876   0.06541858
3996.00   4.74917984   0.06742878
3998.00   4.61387777   0.06602615
4000.00   4.64204836   0.06508688
4002.00   4.66885233   0.06465520
4004.00   4.68394947   0.06448311
4006.00   4.59991217   0.06419002
4008.00   4.67208910   0.06499054
4010.00   4.63787460   0.06494956
4012.00   4.61586332   0.06445244
4014.00   4.71983099   0.06481703
4016.00   4.55473232   0.06397116
4018.00   4.77900505   0.06751952
4020.00   4.79088593   0.06993885
4022.00   4.72085476   0.07027286
4024.00   4.74166441   0.06949954
4026.00   4.74653244   0.06714977
4028.00   4.80342674   0.06617352
4030.00   4.78066635   0.06579837
4032.00   4.83862686   0.06563426
4034.00   4.77879667   0.06466363
4036.00   4.95235395   0.06528517
4038.00   4.93591022   0.06457387
4040.00   4.75367403   0.06383885
4042.00   4.82380104   0.06638024
4044.00   5.02302074   0.08246500
4046.00   5.03145409   0.09282741
4048.00   4.90780354   0.08463034
4050.00   5.11078215   0.06956115
4052.00   5.14007807   0.06717788
4054.00   5.15002394   0.06753572
4056.00   5.09620285   0.06609461
4058.00   5.21078587   0.06522759
4060.00   5.33116484   0.06532633
4062.00   5.37037659   0.06539310
4064.00   5.23385859   0.06471142
4066.00   5.42274046   0.06530055
4068.00   5.01760387   0.06318970
4070.00   4.99393034   0.06229295
4072.00   4.87426138   0.06167075
4074.00   4.81583214   0.06243133
4076.00   4.71736097   0.06489289
4078.00   4.58254385   0.06468122
4080.00   4.51306152   0.06268483
4082.00   4.46329117   0.06170756
4084.00   4.43309164   0.06104628
4086.00   4.50106764   0.06077195
4088.00   4.37774324   0.05903259
4090.00   4.10596704   0.05627622
4092.00   4.11396599   0.05590130
4094.00   4.01027918   0.05543678
4096.00   4.03945684   0.05531869
4098.00   3.94662762   0.05486892
4100.00   3.89213967   0.05433363
4102.00   3.91653848   0.05405309
4104.00   3.79156876   0.05318160
4106.00   3.87618113   0.05346671
4108.00   3.99187469   0.05432033
4110.00   4.02269077   0.05431027
4112.00   4.04064894   0.05429373
4114.00   4.13210106   0.05465054
4116.00   4.07170773   0.05441318
4118.00   4.10441208   0.05388656
4120.00   4.12070084   0.05359832
4122.00   4.25140619   0.05434121
4124.00   4.20851946   0.05415894
4126.00   4.31207228   0.05474677
4128.00   4.39459753   0.05510014
4130.00   4.27768517   0.05516991
4132.00   4.30755329   0.05600901
4134.00   4.37276030   0.05575379
4136.00   4.33850574   0.05491665
4138.00   4.38566017   0.05553546
4140.00   4.50499916   0.05628302
4142.00   4.61019325   0.05581421
4144.00   4.58022070   0.05485894
4146.00   4.55669260   0.05469205
4148.00   4.51045179   0.05446763
4150.00   4.63145113   0.05590888
4152.00   4.73164654   0.05723934
4154.00   4.84781885   0.05695191
4156.00   4.72506285   0.05545580
4158.00   4.85220194   0.05604754
4160.00   4.88460541   0.05622400
4162.00   4.91231251   0.05707283
4164.00   4.94355202   0.05834504
4166.00   4.89349127   0.05761740
4168.00   4.80013895   0.05591917
4170.00   4.79768419   0.05517830
4172.00   4.82998276   0.05509004
4174.00   4.81942368   0.05466513
4176.00   4.89607286   0.05494351
4178.00   4.87044573   0.05509719
4180.00   4.80352640   0.05446483
4182.00   4.86218214   0.05439952
4184.00   4.77653742   0.05396669
4186.00   4.79585075   0.05396551
4188.00   4.77539062   0.05382594
4190.00   4.85344791   0.05404353
4192.00   4.79166174   0.05369282
4194.00   4.76814365   0.05344478
4196.00   4.71295214   0.05308559
4198.00   4.61535120   0.05236939
4200.00   4.54650736   0.05198050
4202.00   4.60725069   0.05208156
4204.00   4.51516294   0.05185714
4206.00   4.50233030   0.05177588
4208.00   4.48981857   0.05230618
4210.00   4.44153404   0.05199761
4212.00   4.40587044   0.05152952
4214.00   4.36663151   0.05121959
4216.00   4.50503731   0.05166559
4218.00   4.43756104   0.05120941
4220.00   4.32172537   0.05049554
4222.00   4.33911657   0.05041698
4224.00   4.34054947   0.05024118
4226.00   4.24720287   0.04985049
4228.00   4.27164555   0.05008033
4230.00   4.22636700   0.04985644
4232.00   4.21317196   0.05002551
4234.00   4.25512266   0.05023206
4236.00   4.19537449   0.05013515
4238.00   4.13823748   0.05005088
4240.00   4.03939533   0.04877815
4242.00   4.03431177   0.04836573
4244.00   4.12145042   0.05053337
4246.00   4.08282423   0.05217558
4248.00   3.98428774   0.05085345
4250.00   4.02047157   0.04886667
4252.00   4.03464842   0.04812739
4254.00   4.03563118   0.04815836
4256.00   4.01586914   0.04817694
4258.00   4.03031778   0.04807390
4260.00   4.14026356   0.04815158
4262.00   4.12106609   0.04787951
4264.00   4.03146505   0.04758574
4266.00   4.00652456   0.04720484
4268.00   4.10009766   0.04765654
4270.00   4.20235872   0.04829021
4272.00   4.20395708   0.04827612
4274.00   4.22859001   0.04842363
4276.00   4.28810167   0.04859928
4278.00   4.25733614   0.04866441
4280.00   4.31057167   0.04878588
4282.00   4.42355490   0.04921549
4284.00   4.40252352   0.04912047
4286.00   4.35039711   0.04858671
4288.00   4.26048756   0.04811744
4290.00   4.36958981   0.04837532
4292.00   4.29622412   0.04821544
4294.00   4.19829702   0.04789348
4296.00   4.27078676   0.04809907
4298.00   4.21549654   0.04774037
4300.00   4.16670465   0.04734297
4302.00   4.07200623   0.04690623
4304.00   4.13869143   0.04732111
4306.00   4.03028297   0.04712451
4308.00   4.10407829   0.04737438
4310.00   3.96353316   0.04726750
4312.00   4.05778217   0.04879797
4314.00   3.95680046   0.04897736
4316.00   3.96760702   0.04796811
4318.00   3.82760000   0.04739087
4320.00   3.82009435   0.04788971
4322.00   3.87161326   0.04792202
4324.00   3.86336422   0.04747626
4326.00   3.81182909   0.04675043
4328.00   3.83714962   0.04603969
4330.00   3.73083138   0.04538351
4332.00   3.78920245   0.04563151
4334.00   3.63865185   0.04527372
4336.00   3.61435962   0.04531807
4338.00   3.55182433   0.04536624
4340.00   3.61532474   0.04553746
4342.00   3.57037830   0.04531971
4344.00   3.56733871   0.04581653
4346.00   3.47997332   0.04638800
4348.00   3.41732216   0.04602635
4350.00   3.33640504   0.04517378
4352.00   3.23345399   0.04453031
4354.00   3.22398162   0.05053813
4356.00   3.30403399   0.07123850
4358.00   3.33401346   0.07973666
4360.00   3.09207034   0.06718526
4362.00   3.14731288   0.05110496
4364.00   3.08942652   0.04516646
4366.00   3.13612795   0.04433651
4368.00   3.08821774   0.04364927
4370.00   3.06110787   0.04349115
4372.00   2.97047448   0.04363251
4374.00   3.01973510   0.04417015
4376.00   2.97356534   0.04312098
4378.00   2.93612576   0.04199059
4380.00   2.85669184   0.04141800
4382.00   2.82755971   0.04092614
4384.00   2.82659340   0.04060870
4386.00   2.81516433   0.04045946
4388.00   2.80106735   0.04034641
4390.00   2.85060596   0.04058591
4392.00   2.73603535   0.03998694
4394.00   2.75855398   0.03985085
4396.00   2.73071980   0.03971333
4398.00   2.74328613   0.04049659
4400.00   2.62620807   0.04025542
4402.00   2.69433522   0.04032154
4404.00   2.73332191   0.03975946
4406.00   2.64276195   0.03929135
4408.00   2.61549759   0.03929735
4410.00   2.62836647   0.03926457
4412.00   2.53639913   0.03920373
4414.00   2.56434155   0.03975508
4416.00   2.50080585   0.03918203
4418.00   2.48370981   0.03871498
4420.00   2.47841597   0.03862656
4422.00   2.39528060   0.03813361
4424.00   2.52245617   0.03860707
4426.00   2.43249583   0.03805564
4428.00   2.52904248   0.03857224
4430.00   2.44763064   0.03818212
4432.00   2.58108544   0.03867960
4434.00   2.58657885   0.03841527
4436.00   2.51293945   0.03814350
4438.00   2.63208270   0.03872966
4440.00   2.64967370   0.03864733
4442.00   2.56899166   0.03832899
4444.00   2.64681244   0.03872764
4446.00   2.55900049   0.03827452
4448.00   2.60904980   0.03833901
4450.00   2.65802979   0.03844334
4452.00   2.68984318   0.03857452
4454.00   2.70815706   0.03860011
4456.00   2.72985196   0.03864294
4458.00   2.74338937   0.03881245
4460.00   2.78673339   0.03887048
4462.00   2.79178071   0.03884395
4464.00   2.78550506   0.03864265
4466.00   2.82873130   0.03894162
4468.00   2.91778994   0.04062357
4470.00   2.77219343   0.03850620
4472.00   2.86611938   0.03894186
4474.00   2.85791087   0.03883663
4476.00   2.81585693   0.03865027
4478.00   2.81697130   0.03858697
4480.00   2.80631828   0.03859524
4482.00   2.82086563   0.03859672
4484.00   2.84327221   0.03874851
4486.00   2.85660982   0.03878506
4488.00   2.86005855   0.03879451
4490.00   2.90613151   0.03903816
4492.00   2.88742590   0.03917584
4494.00   2.89721465   0.03913001
4496.00   2.84148169   0.03884204
4498.00   2.86608958   0.03900755
4500.00   2.89216089   0.03886227
4502.00   2.87321353   0.03856426
4504.00   2.96624351   0.03898128
4506.00   2.87280846   0.03848333
4508.00   2.92482448   0.03870920
4510.00   3.01327562   0.03895245
4512.00   2.98137212   0.03881730
4514.00   2.92973280   0.03844867
4516.00   2.94737291   0.03842292
4518.00   2.99562502   0.03844927
4520.00   2.93513799   0.03818801
4522.00   2.97824073   0.03842782
4524.00   2.93936467   0.03804760
4526.00   2.98293376   0.03814627
4528.00   3.01894832   0.03829465
4530.00   3.00971723   0.03829842
4532.00   3.05673313   0.03851528
4534.00   3.20805240   0.03896503
4536.00   3.11739087   0.03861906
4538.00   3.08753133   0.03832237
4540.00   3.12131596   0.03853799
4542.00   3.08492088   0.03863901
4544.00   3.18730879   0.03903355
4546.00   3.15327024   0.03876511
4548.00   3.14440942   0.03848311
4550.00   3.15653467   0.03827270
4552.00   3.09850001   0.03799127
4554.00   3.24264097   0.03856201
4556.00   3.30864120   0.03885326
4558.00   3.19574165   0.03830589
4560.00   3.27472782   0.03852131
4562.00   3.24093056   0.03827215
4564.00   3.33044577   0.03849946
4566.00   3.31254387   0.03845497
4568.00   3.26776481   0.03823848
4570.00   3.31109691   0.03828903
4572.00   3.37405801   0.03875763
4574.00   3.34946489   0.03870564
4576.00   3.32130075   0.03843519
4578.00   3.41617084   0.03872655
4580.00   3.36994886   0.03845297
4582.00   3.41051412   0.03850568
4584.00   3.35570264   0.03817905
4586.00   3.47395492   0.03867021
4588.00   3.49795771   0.03874802
4590.00   3.45629239   0.03874950
4592.00   3.50825000   0.03897512
4594.00   3.48759127   0.03874945
4596.00   3.49566698   0.03875486
4598.00   3.59985733   0.03897891
4600.00   3.58539772   0.03883845
4602.00   3.54262614   0.03874468
4604.00   3.50534201   0.03871403
4606.00   3.58658600   0.03894189
4608.00   3.66965485   0.03923108
4610.00   3.54696298   0.03874985
4612.00   3.57459402   0.03882464
4614.00   3.61003256   0.03876336
4616.00   3.69666243   0.03895881
4618.00   3.61890936   0.03868861
4620.00   3.62019539   0.03864484
4622.00   3.60311341   0.03854391
4624.00   3.55628204   0.03840691
4626.00   3.54223585   0.03824086
4628.00   3.64725804   0.03857756
4630.00   3.62935758   0.03855927
4632.00   3.66407537   0.03870673
4634.00   3.59203148   0.03830751
4636.00   3.63036513   0.03845432
4638.00   3.66123724   0.03847397
4640.00   3.63847876   0.03826315
4642.00   3.57465696   0.03814881
4644.00   3.56748295   0.03809275
4646.00   3.66284299   0.03828536
4648.00   3.59975982   0.03819729
4650.00   3.60365725   0.03821970
4652.00   3.59323835   0.03829524
4654.00   3.59665275   0.03829619
4656.00   3.56102467   0.03830348
4658.00   3.54215240   0.03839801
4660.00   3.57367325   0.03861154
4662.00   3.57390809   0.03889993
4664.00   3.54193783   0.03917588
4666.00   3.53578711   0.03931720
4668.00   3.40012836   0.03914647
4670.00   3.46643662   0.03929298
4672.00   3.32739758   0.03858792
4674.00   3.47073221   0.03886610
4676.00   3.39151192   0.03815582
4678.00   3.42346334   0.03800075
4680.00   3.42071128   0.03792126
4682.00   3.38432217   0.03753546
4684.00   3.34636045   0.03733603
4686.00   3.33655453   0.03710106
4688.00   3.34750223   0.03709828
4690.00   3.24275541   0.03658925
4692.00   3.30462074   0.03674100
4694.00   3.38743210   0.03699752
4696.00   3.41036844   0.03693125
4698.00   3.42998123   0.03692241
4700.00   3.42375994   0.03679748
4702.00   3.40049648   0.03679891
4704.00   3.48431206   0.03730585
4706.00   3.47546244   0.03728142
4708.00   3.49270749   0.03749982
4710.00   3.37790728   0.03698669
4712.00   3.46907854   0.03724083
4714.00   3.53141737   0.03739147
4716.00   3.54379368   0.03728445
4718.00   3.55975914   0.03726875
4720.00   3.56406403   0.03741054
4722.00   3.55460215   0.03726106
4724.00   3.51832891   0.03716263
4726.00   3.54208398   0.03787627
4728.00   3.54383707   0.03859087
4730.00   3.58633733   0.03870342
4732.00   3.58103895   0.03871144
4734.00   3.55745578   0.03894106
4736.00   3.53990507   0.03920704
4738.00   3.50469208   0.03949081
4740.00   3.60367656   0.04030729
4742.00   3.58333182   0.04053168
4744.00   3.55286241   0.03966223
4746.00   3.50364852   0.03799206
4748.00   3.45034075   0.03708168
4750.00   3.43426180   0.03706219
4752.00   3.38593435   0.03718396
4754.00   3.37386560   0.03676594
4756.00   3.41431284   0.03630827
4758.00   3.26251125   0.03553278
4760.00   3.29971290   0.03534660
4762.00   3.22066402   0.03491170
4764.00   3.18825483   0.03466525
4766.00   3.22753024   0.03464416
4768.00   3.07296586   0.03400093
4770.00   3.02060556   0.03367542
4772.00   2.99243569   0.03348951
4774.00   2.95386434   0.03343362
4776.00   2.92846894   0.03358306
4778.00   2.84886456   0.03360729
4780.00   2.88139153   0.03353857
4782.00   2.81791568   0.03284009
4784.00   2.78760743   0.03247401
4786.00   2.76012850   0.03236691
4788.00   2.79763412   0.03262790
4790.00   2.85852814   0.03291452
4792.00   2.78466129   0.03247657
4794.00   2.82038307   0.03250843
4796.00   2.73452139   0.03208258
4798.00   2.83058691   0.03240178
4800.00   2.81843495   0.03227175
4802.00   2.78460646   0.03213542
4804.00   2.78329110   0.03209163
4806.00   2.76701021   0.03217178
4808.00   2.79116344   0.03226174
4810.00   2.81118751   0.03227359
4812.00   2.82027793   0.03237226
4814.00   2.80082726   0.03225619
4816.00   2.77427411   0.03207986
4818.00   2.75432777   0.03214265
4820.00   2.80779719   0.03245517
4822.00   2.73951459   0.03231987
4824.00   2.88087940   0.03302887
4826.00   2.83975029   0.03286846
4828.00   2.84540296   0.03288784
4830.00   2.90098405   0.03312971
4832.00   2.85635328   0.03311125
4834.00   2.78996944   0.03272757
4836.00   2.76197338   0.03268453
4838.00   2.80638766   0.03331458
4840.00   2.84332323   0.03354907
4842.00   2.77835941   0.03294978
4844.00   2.77131319   0.03270675
4846.00   2.76475191   0.03272220
4848.00   2.74496961   0.03273580
4850.00   2.69077921   0.03235172
4852.00   2.68243504   0.03236224
4854.00   2.67161274   0.03203022
4856.00   2.65332389   0.03173237
4858.00   2.63903904   0.03170440
4860.00   2.67848682   0.03191282
4862.00   2.62329769   0.03182456
4864.00   2.50830507   0.03130241
4866.00   2.46818781   0.03112850
4868.00   2.49324417   0.03122464
4870.00   2.47055125   0.03096812
4872.00   2.46448612   0.03094481
4874.00   2.46831918   0.03083025
4876.00   2.43584657   0.03079900
4878.00   2.29662442   0.03024215
4880.00   2.28642702   0.03011153
4882.00   2.30469704   0.02994527
4884.00   2.29327440   0.02974506
4886.00   2.24724317   0.02942107
4888.00   2.25496316   0.02943807
4890.00   2.23394728   0.02934649
4892.00   2.22120595   0.02916982
4894.00   2.18268967   0.02910642
4896.00   2.20652485   0.02905964
4898.00   2.24038863   0.02915637
4900.00   2.28322792   0.02921953
4902.00   2.33955622   0.02947811
4904.00   2.31089997   0.02935175
4906.00   2.38508296   0.02990510
4908.00   2.39118719   0.02996238
4910.00   2.45901442   0.03022110
4912.00   2.48723125   0.03026598
4914.00   2.46552491   0.03019431
4916.00   2.45692086   0.03028380
4918.00   2.56790495   0.03052514
4920.00   2.58106089   0.03052243
4922.00   2.49859619   0.03016877
4924.00   2.55286551   0.03030048
4926.00   2.50607967   0.03005728
4928.00   2.55200434   0.02999100
4930.00   2.51959300   0.02982030
4932.00   2.49451137   0.02970263
4934.00   2.50389266   0.02990207
4936.00   2.42632103   0.02950387
4938.00   2.42318964   0.02943380
4940.00   2.40040517   0.02944734
4942.00   2.36818480   0.02930788
4944.00   2.36552000   0.02912828
4946.00   2.31463623   0.02860114
4948.00   2.30847454   0.02870937
4950.00   2.22948885   0.02838749
4952.00   2.24241662   0.02882896
4954.00   2.23553252   0.02886172
4956.00   2.19545674   0.02851897
4958.00   2.11214805   0.02799541
4960.00   2.11401796   0.02802562
4962.00   2.01462197   0.02755413
4964.00   2.05413413   0.02783708
4966.00   2.02999234   0.02796431
4968.00   1.96559954   0.02787707
4970.00   1.97860229   0.02816282
4972.00   1.97347426   0.02864598
4974.00   1.93451822   0.02896560
4976.00   1.90154290   0.02939588
4978.00   1.85181355   0.02992527
4980.00   1.88760495   0.03091209
4982.00   1.84926391   0.03099304
4984.00   1.86703265   0.03079018
4986.00   1.78942597   0.02980737
4988.00   1.74412966   0.02891514
4990.00   1.75434327   0.02850113
4992.00   1.75990105   0.02794626
4994.00   1.72999310   0.02724851
4996.00   1.74404526   0.02675345
4998.00   1.76778030   0.02656012
5000.00   1.77470922   0.02635146
5002.00   1.77905238   0.02629272
5004.00   1.79525316   0.02623732
5006.00   1.82699990   0.02614874
5008.00   1.88214254   0.02648648
5010.00   1.95028591   0.02659432
5012.00   1.95790839   0.02658562
5014.00   1.93740094   0.02663933
5016.00   2.00579715   0.02705701
5018.00   2.08331728   0.02765285
5020.00   2.07343626   0.02773863
5022.00   2.04900575   0.02740185
5024.00   2.06554079   0.02723819
5026.00   2.12117434   0.02741580
5028.00   2.15767884   0.02783843
5030.00   2.17896152   0.02817761
5032.00   2.26533651   0.02840839
5034.00   2.25029898   0.02819760
5036.00   2.26909328   0.02809448
5038.00   2.27404714   0.02806713
5040.00   2.29070783   0.02810097
5042.00   2.26067185   0.02804774
5044.00   2.23487663   0.02798668
5046.00   2.23970318   0.02805125
5048.00   2.25754762   0.02812759
5050.00   2.26023436   0.02797304
5052.00   2.22891879   0.02789040
5054.00   2.17965984   0.02766382
5056.00   2.15483093   0.02754101
5058.00   2.18714285   0.02763841
5060.00   2.17545915   0.02776240
5062.00   2.20533872   0.02832618
5064.00   2.20682812   0.02861374
5066.00   2.12552309   0.02860908
5068.00   2.18575358   0.02920126
5070.00   2.14587760   0.02909212
5072.00   2.09563422   0.02842873
5074.00   2.14419460   0.02842163
5076.00   2.08341551   0.02808305
5078.00   2.10756421   0.02867770
5080.00   2.11221433   0.03023693
5082.00   2.09232926   0.03163771
5084.00   2.09103441   0.03237395
5086.00   2.11100459   0.03228679
5088.00   2.01797962   0.03065490
5090.00   2.03016162   0.02923740
5092.00   1.91931736   0.02769965
5094.00   1.95889807   0.02755266
5096.00   1.86131310   0.02763397
5098.00   1.93083119   0.02854162
5100.00   1.91223061   0.02836906
5102.00   1.85651422   0.02744668
5104.00   1.88676238   0.02696197
5106.00   1.79991138   0.02619331
5108.00   1.87512434   0.02652537
5110.00   1.82515275   0.02651817
5112.00   1.86471617   0.02668265
5114.00   1.93961751   0.02722532
5116.00   1.84324539   0.02683043
5118.00   1.78990531   0.02633641
5120.00   1.80716610   0.02628033
5122.00   1.85772145   0.02626293
5124.00   1.86738920   0.02632018
5126.00   1.81174719   0.02602812
5128.00   1.80996263   0.02607152
5130.00   1.84703505   0.02623121
5132.00   1.80142164   0.02613276
5134.00   1.85667491   0.02637481
5136.00   1.85224462   0.02639108
5138.00   1.95189655   0.02821256
5140.00   1.93810809   0.02681101
5142.00   1.92260778   0.02691100
5144.00   1.90894711   0.02698037
5146.00   1.90989590   0.02714727
5148.00   1.97454488   0.02785995
5150.00   1.94062865   0.02815974
5152.00   1.95832324   0.02867210
5154.00   1.92782235   0.02851452
5156.00   1.96774828   0.02844135
5158.00   1.96651638   0.02807512
5160.00   1.99321139   0.02790694
5162.00   2.00680470   0.02771970
5164.00   2.06785512   0.02771573
5166.00   2.00290513   0.02744968
5168.00   2.02830815   0.02738285
5170.00   2.00575781   0.02734239
5172.00   2.05193973   0.02763629
5174.00   2.00732112   0.02746871
5176.00   2.03219867   0.02778477
5178.00   2.09058022   0.02793737
5180.00   2.04699278   0.02779771
5182.00   2.07119846   0.02786492
5184.00   2.12785172   0.02818877
5186.00   2.14477181   0.02837326
5188.00   2.13696337   0.02837609
5190.00   2.18081117   0.02860891
5192.00   2.16196537   0.02853871
5194.00   2.17405391   0.02863475
5196.00   2.17319536   0.02898408
5198.00   2.20063066   0.02917810
5200.00   2.22128344   0.02933968
5202.00   2.25743341   0.02955695
5204.00   2.30080318   0.02961163
5206.00   2.31570482   0.02969362
5208.00   2.32970619   0.03001285
5210.00   2.32484531   0.03036836
5212.00   2.36493778   0.03035249
5214.00   2.46770501   0.03075286
5216.00   2.42961669   0.03068401
5218.00   2.54772043   0.03125123
5220.00   2.51972866   0.03120863
5222.00   2.52261043   0.03127101
5224.00   2.56569910   0.03127630
5226.00   2.50262666   0.03092600
5228.00   2.61835432   0.03144625
5230.00   2.62402439   0.03161484
5232.00   2.58352613   0.03158774
5234.00   2.61559105   0.03163664
5236.00   2.61828756   0.03175221
5238.00   2.62963462   0.03192331
5240.00   2.62650943   0.03199759
5242.00   2.64714742   0.03196151
5244.00   2.65984249   0.03191778
5246.00   2.63805151   0.03189151
5248.00   2.63461447   0.03186940
5250.00   2.70852280   0.03222727
5252.00   2.70187187   0.03233618
5254.00   2.68133879   0.03244670
5256.00   2.72276878   0.03294937
5258.00   2.61794949   0.03262311
5260.00   2.65353203   0.03267316
5262.00   2.72258234   0.03263602
5264.00   2.65694690   0.03229840
5266.00   2.65964866   0.03226017
5268.00   2.62908769   0.03220710
5270.00   2.67641997   0.03243648
5272.00   2.63548279   0.03237090
5274.00   2.63664699   0.03246132
5276.00   2.54574919   0.03211807
5278.00   2.56519699   0.03218657
5280.00   2.58185649   0.03238111
5282.00   2.48378038   0.03200746
5284.00   2.57360220   0.03254340
5286.00   2.52180195   0.03235370
5288.00   2.44562364   0.03207770
5290.00   2.52340198   0.03234825
5292.00   2.54645252   0.03245508
5294.00   2.50868464   0.03238843
5296.00   2.53438377   0.03260054
5298.00   2.50672436   0.03266707
5300.00   2.51946402   0.03266563
5302.00   2.44044995   0.03249482
5304.00   2.48710752   0.03276105
5306.00   2.48499393   0.03279849
5308.00   2.48853588   0.03285672
5310.00   2.44642544   0.03282537
5312.00   2.53221989   0.03339162
5314.00   2.46923232   0.03315939
5316.00   2.51743340   0.03334004
5318.00   2.52824736   0.03348389
5320.00   2.53605032   0.03357020
5322.00   2.56568837   0.03383605
5324.00   2.54001403   0.03388091
5326.00   2.54063225   0.03399105
5328.00   2.65858960   0.03476306
5330.00   2.61606884   0.03449370
5332.00   2.56373191   0.03439169
5334.00   2.54664254   0.03442670
5336.00   2.57356167   0.03466468
5338.00   2.64589238   0.03525474
5340.00   2.57145929   0.03514621
5342.00   2.54196429   0.03525581
5344.00   2.62102389   0.03562514
5346.00   2.62606192   0.03581308
5348.00   2.58634114   0.03618145
5350.00   2.58342052   0.03623088
5352.00   2.64245415   0.03663003
5354.00   2.56986237   0.03662484
5356.00   2.55893183   0.03665336
5358.00   2.54762554   0.03621006
5360.00   2.53675103   0.03575296
5362.00   2.62657452   0.03589132
5364.00   2.50330997   0.03536702
5366.00   2.45316339   0.03508636
5368.00   2.49329090   0.03545615
5370.00   2.35661983   0.03485345
5372.00   2.34836745   0.03510958
5374.00   2.29353166   0.03521325
5376.00   2.32564521   0.03566605
5378.00   2.25952959   0.03494202
5380.00   2.23941970   0.03501889
5382.00   2.22553563   0.03479618
5384.00   2.13243389   0.03439749
5386.00   2.03964829   0.03403616
5388.00   2.03032398   0.03410621
5390.00   1.94585741   0.03425050
5392.00   1.92181408   0.03418035
5394.00   1.89413083   0.03390902
5396.00   1.88317597   0.03384187
5398.00   1.84383786   0.03349191
5400.00   1.83658135   0.03373421
5402.00   1.77844226   0.03345249
5404.00   1.70061469   0.03310121
5406.00   1.73917818   0.03331000
5408.00   1.71718514   0.03342940
5410.00   1.69709909   0.03371901
5412.00   1.66482604   0.03381396
5414.00   1.64540708   0.03441266
5416.00   1.71747565   0.03500679
5418.00   1.63671863   0.03468174
5420.00   1.57717133   0.03472086
5422.00   1.64236724   0.03502884
5424.00   1.60107315   0.03490658
5426.00   1.57665884   0.03439255
5428.00   1.62552929   0.03473800
5430.00   1.69125378   0.02076601
5432.00   1.72768414   0.01997100
5434.00   1.72372782   0.01713711
5436.00   1.74843419   0.01685579
5438.00   1.80449378   0.01929315
5440.00   1.82241023   0.02003998
5442.00   1.78102839   0.01833948
5444.00   1.72551298   0.01596873
5446.00   1.70754731   0.01573164
5448.00   1.70266652   0.01693992
5450.00   1.72724116   0.01735122
5452.00   1.81406140   0.01687527
5454.00   1.84659648   0.01801672
5456.00   1.81585526   0.02127998
5458.00   1.77499592   0.02391527
5460.00   1.76513362   0.02454796
5462.00   1.76873863   0.02411294
5464.00   1.75148237   0.02302824
5466.00   1.70941353   0.01982840
5468.00   1.69231260   0.01805822
5470.00   1.69558203   0.01785047
5472.00   1.70491552   0.01777753
5474.00   1.71700919   0.01704071
5476.00   1.73296463   0.01609237
5478.00   1.73532450   0.01575849
5480.00   1.72074223   0.01578093
5482.00   1.72124255   0.01615576
5484.00   1.72586596   0.01733018
5486.00   1.74023890   0.01798869
5488.00   1.77458084   0.01779948
5490.00   1.81475496   0.01713082
5492.00   1.81980491   0.01634471
5494.00   1.77598643   0.01477893
5496.00   1.80125666   0.01430213
5498.00   1.89396536   0.01492931
5500.00   1.95569718   0.01519831
5502.00   1.97410524   0.01475907
5504.00   1.97299206   0.01430067
5506.00   1.96794295   0.01475723
5508.00   1.94668818   0.01588839
5510.00   1.94261742   0.01656705
5512.00   1.95066929   0.01755830
5514.00   1.95402372   0.01768116
5516.00   1.95703256   0.01633014
5518.00   1.95395648   0.01502986
5520.00   1.93179882   0.01583892
5522.00   1.89098465   0.01799161
5524.00   1.89818776   0.01795962
5526.00   1.95892394   0.01608011
5528.00   1.98505616   0.01501251
5530.00   1.99237454   0.01437781
5532.00   1.98335600   0.01409543
5534.00   1.94604301   0.01433611
5536.00   1.88865709   0.01497657
5538.00   1.88826203   0.01505653
5540.00   1.93538797   0.01379435
5542.00   1.97146201   0.01491751
5544.00   2.03783655   0.01897790
5546.00   2.06546354   0.02073921
5548.00   2.01547694   0.01861227
5550.00   1.92816055   0.01396562
5552.00   1.89267480   0.01224153
5554.00   1.88604438   0.01297567
5556.00   1.86838555   0.01280794
5558.00   1.85028517   0.01285096
5560.00   1.83582520   0.01286457
5562.00   1.82919323   0.01251281
5564.00   1.82293332   0.01239461
5566.00   1.80503833   0.01354477
5568.00   1.78234363   0.01543070
5570.00   1.74463284   0.01738354
5572.00   1.67090166   0.02069901
5574.00   1.63378513   0.02175361
5576.00   1.64238882   0.02025941
5578.00   1.66403842   0.01794564
5580.00   1.67227376   0.01682051
5582.00   1.68022549   0.01619329
5584.00   1.67677855   0.01520600
5586.00   1.66830850   0.01393122
5588.00   1.64629018   0.01294300
5590.00   1.60710812   0.01211512
5592.00   1.56303048   0.01167700
5594.00   1.51733780   0.01198899
5596.00   1.46822906   0.01284759
5598.00   1.44649374   0.01300374
5600.00   1.45413041   0.01292279
5602.00   1.44937730   0.01256195
5604.00   1.44224453   0.01157215
5606.00   1.43371642   0.01076422
5608.00   1.42132652   0.01061237
5610.00   1.40818250   0.01081477
5612.00   1.40732789   0.01088505
5614.00   1.41877484   0.01108103
5616.00   1.42508483   0.01111672
5618.00   1.42843854   0.01100044
5620.00   1.43733239   0.01095121
5622.00   1.45584857   0.01104375
5624.00   1.47758532   0.01116629
5626.00   1.49093020   0.01115526
5628.00   1.49407852   0.01102149
5630.00   1.51808274   0.01102850
5632.00   1.56438732   0.01085533
5634.00   1.59999204   0.01120979
5636.00   1.62146640   0.01230097
5638.00   1.64028287   0.01340838
5640.00   1.66552222   0.01402272
5642.00   1.69241381   0.01451267
5644.00   1.72712541   0.01423264
5646.00   1.78282177   0.01270810
5648.00   1.81221366   0.01188000
5650.00   1.80808485   0.01179930
5652.00   1.80479896   0.01189028
5654.00   1.82806885   0.01177845
5656.00   1.86564827   0.01164231
5658.00   1.88683105   0.01187351
5660.00   1.89059603   0.01202860
5662.00   1.91463876   0.01304358
5664.00   1.96432376   0.01538468
5666.00   2.00310421   0.01674129
5668.00   2.01500654   0.01630614
5670.00   2.01115942   0.01485442
5672.00   2.00328588   0.01419909
5674.00   1.97443855   0.01359654
5676.00   1.96816456   0.01345526
5678.00   1.96834970   0.01379958
5680.00   1.98388505   0.01426633
5682.00   2.03036642   0.01483252
5684.00   2.08316755   0.01546951
5686.00   2.08517671   0.01604643
5688.00   2.03768396   0.01685758
5690.00   2.03520226   0.01682866
5692.00   2.06120968   0.01580431
5694.00   2.07854366   0.01518905
5696.00   2.08504772   0.01536133
5698.00   2.08812952   0.01554278
5700.00   2.09168649   0.01479194
5702.00   2.09335017   0.01309282
5704.00   2.09793782   0.01262293
5706.00   2.10225582   0.01321604
5708.00   2.11135411   0.01349181
5710.00   2.12444091   0.01361241
5712.00   2.14174461   0.01366534
5714.00   2.16661382   0.01355734
5716.00   2.19867277   0.01329194
5718.00   2.21164131   0.01368541
5720.00   2.21192694   0.01513663
5722.00   2.20766044   0.01531795
5724.00   2.18893433   0.01434000
5726.00   2.17636609   0.01322580
5728.00   2.18160224   0.01245373
5730.00   2.19681478   0.01179113
5732.00   2.20796728   0.01152977
5734.00   2.22194242   0.01185906
5736.00   2.23257375   0.01190523
5738.00   2.24710345   0.01190773
5740.00   2.25059199   0.01189855
5742.00   2.23289466   0.01189386
5744.00   2.20751023   0.01187281
5746.00   2.20302081   0.01172510
5748.00   2.20564175   0.01079038
5750.00   2.22694039   0.01196115
5752.00   2.28885198   0.01540478
5754.00   2.31752944   0.01683812
5756.00   2.30218458   0.01604219
5758.00   2.26642323   0.01450227
5760.00   2.22868514   0.01410212
5762.00   2.17296195   0.01423896
5764.00   2.15025783   0.01415127
5766.00   2.14430952   0.01405913
5768.00   2.15495563   0.01403679
5770.00   2.19851422   0.01395854
5772.00   2.23832130   0.01408851
5774.00   2.23768306   0.01486735
5776.00   2.21084332   0.01614910
5778.00   2.20308948   0.01591693
5780.00   2.20233846   0.01393405
5782.00   2.19858646   0.01291995
5784.00   2.19111490   0.01258861
5786.00   2.18674088   0.01263015
5788.00   2.18969512   0.01294081
5790.00   2.19733453   0.01355309
5792.00   2.20323825   0.01434282
5794.00   2.21297479   0.01592918
5796.00   2.21557307   0.01622767
5798.00   2.22582412   0.01559401
5800.00   2.21199632   0.01473831
5802.00   2.15105867   0.01360793
5804.00   2.07078838   0.01230874
5806.00   2.03831029   0.01206892
5808.00   2.03412175   0.01307043
5810.00   2.03467250   0.01305148
5812.00   2.05703211   0.01233679
5814.00   2.07277274   0.01194481
5816.00   2.07890701   0.01208144
5818.00   2.08073878   0.01242961
5820.00   2.08031416   0.01273927
5822.00   2.07553959   0.01319584
5824.00   2.07338834   0.01330760
5826.00   2.07343769   0.01298580
5828.00   2.07029033   0.01299250
5830.00   2.06270814   0.01354811
5832.00   2.05456209   0.01398410
5834.00   2.04980350   0.01362726
5836.00   2.04723048   0.01260685
5838.00   2.04002929   0.01256350
5840.00   2.02787971   0.01357365
5842.00   2.01896548   0.01369554
5844.00   2.00633383   0.01291214
5846.00   2.00326109   0.01213446
5848.00   2.02607536   0.01196936
5850.00   2.06509328   0.01212609
5852.00   2.05977535   0.01233962
5854.00   2.00520039   0.01258290
5856.00   1.98785245   0.01321210
5858.00   1.98852754   0.01450821
5860.00   1.99883771   0.01531246
5862.00   2.02448010   0.01531614
5864.00   2.05654311   0.01485815
5866.00   2.05642581   0.01428025
5868.00   2.02717662   0.01297346
5870.00   2.01126480   0.01255019
5872.00   1.99400640   0.01269392
5874.00   1.98082101   0.01309540
5876.00   1.97663069   0.01356827
5878.00   1.97289562   0.01437256
5880.00   1.95216477   0.01587989
5882.00   1.90857184   0.01789764
5884.00   1.90799046   0.01966260
5886.00   1.95870185   0.02161893
5888.00   1.97418058   0.02316675
5890.00   1.94554245   0.02451395
5892.00   1.90595233   0.02551096
5894.00   1.87952816   0.02607299
5896.00   1.85123158   0.02644950
5898.00   1.85908520   0.02512752
5900.00   1.91670597   0.02085832
5902.00   1.94217300   0.01782804
5904.00   1.94414580   0.01613075
5906.00   1.93480814   0.01501930
5908.00   1.91591287   0.01418871
5910.00   1.88630652   0.01393807
5912.00   1.87064612   0.01330775
5914.00   1.85932481   0.01236956
5916.00   1.85583389   0.01193828
5918.00   1.86376631   0.01206378
5920.00   1.87153053   0.01221770
5922.00   1.87597978   0.01221319
5924.00   1.87868607   0.01217968
5926.00   1.87472785   0.01216003
5928.00   1.86356735   0.01194585
5930.00   1.85354650   0.01221960
5932.00   1.83417559   0.01313897
5934.00   1.82780135   0.01360915
5936.00   1.84630656   0.01334618
5938.00   1.87146235   0.01280933
5940.00   1.87029731   0.01270577
5942.00   1.84623957   0.01290022
5944.00   1.84474802   0.01274800
5946.00   1.86068034   0.01230122
5948.00   1.86747015   0.01197028
5950.00   1.85767531   0.01177868
5952.00   1.84973145   0.01165323
5954.00   1.86492729   0.01156335
5956.00   1.89782059   0.01153773
5958.00   1.91873610   0.01147352
5960.00   1.94485188   0.01139701
5962.00   1.95280135   0.01133009
5964.00   1.93481374   0.01122512
5966.00   1.91727960   0.01118624
5968.00   1.92203581   0.01125870
5970.00   1.93919563   0.01140964
5972.00   1.93652523   0.01189649
5974.00   1.91372550   0.01298949
5976.00   1.90761006   0.01338706
5978.00   1.91215932   0.01326973
5980.00   1.92120779   0.01305783
5982.00   1.93670285   0.01295489
5984.00   1.95560849   0.01281375
5986.00   1.95496321   0.01236108
5988.00   1.92748117   0.01130447
5990.00   1.92609823   0.01083342
5992.00   1.93905914   0.01076762
5994.00   1.95566535   0.01076721
5996.00   1.97890401   0.01080949
5998.00   2.00258589   0.01088604
6000.00   2.00590205   0.01081265
6002.00   1.98834443   0.01053635
6004.00   1.98769772   0.01059538
6006.00   1.99725211   0.01072919
6008.00   2.00260973   0.01120076
6010.00   2.00404382   0.01241608
6012.00   2.00197387   0.01338311
6014.00   1.99334121   0.01289857
6016.00   1.97637606   0.01095392
6018.00   1.97170150   0.01049397
6020.00   1.98048162   0.01131431
6022.00   1.97871423   0.01145071
6024.00   1.96290755   0.01084825
6026.00   1.94824851   0.01022170
6028.00   1.94767475   0.01017277
6030.00   1.95595098   0.01045573
6032.00   1.95428884   0.01068372
6034.00   1.94893074   0.01126811
6036.00   1.94025242   0.01128334
6038.00   1.92477417   0.01060106
6040.00   1.91106451   0.01001067
6042.00   1.90432465   0.01005325
6044.00   1.90109169   0.01040061
6046.00   1.89386392   0.01038282
6048.00   1.88130867   0.01004206
6050.00   1.87692201   0.01004151
6052.00   1.87751734   0.01009430
6054.00   1.88140428   0.01046954
6056.00   1.88904023   0.01146527
6058.00   1.89947832   0.01252880
6060.00   1.90934432   0.01262076
6062.00   1.92154920   0.01196988
6064.00   1.92945397   0.01145610
6066.00   1.93350983   0.01054834
6068.00   1.93826509   0.00990456
6070.00   1.94711709   0.00966975
6072.00   1.95343149   0.00968409
6074.00   1.94600821   0.00983144
6076.00   1.92395794   0.01022830
6078.00   1.92060387   0.01041560
6080.00   1.92732894   0.01055561
6082.00   1.93801653   0.01061635
6084.00   1.96321774   0.01055985
6086.00   1.98091328   0.01048179
6088.00   1.96584511   0.01049786
6090.00   1.92608833   0.01057727
6092.00   1.91120994   0.01041155
6094.00   1.90541196   0.00976865
6096.00   1.90616643   0.00968131
6098.00   1.92138648   0.01019244
6100.00   1.93272269   0.01069345
6102.00   1.92674100   0.01093827
6104.00   1.91169977   0.01108155
6106.00   1.91248322   0.01108243
6108.00   1.92859697   0.01077826
6110.00   1.93240047   0.01076012
6112.00   1.93015373   0.01101346
6114.00   1.92495847   0.01115229
6116.00   1.91442645   0.01103710
6118.00   1.90242231   0.01080128
6120.00   1.90431440   0.01063847
6122.00   1.92812085   0.01032522
6124.00   1.92030394   0.01044455
6126.00   1.88047433   0.01115014
6128.00   1.85594034   0.01145724
6130.00   1.85388768   0.01120836
6132.00   1.86217237   0.01071567
6134.00   1.87258565   0.01030112
6136.00   1.89382780   0.00972047
6138.00   1.89700055   0.00953669
6140.00   1.88404775   0.00974837
6142.00   1.87659717   0.00988307
6144.00   1.87315989   0.00991290
6146.00   1.87267172   0.00999701
6148.00   1.87717342   0.01030806
6150.00   1.88700676   0.01081307
6152.00   1.88907504   0.01087317
6154.00   1.88898838   0.01055825
6156.00   1.88272560   0.01033803
6158.00   1.86727333   0.01011894
6160.00   1.85169804   0.00992471
6162.00   1.84078503   0.00979973
6164.00   1.83199918   0.00972303
6166.00   1.82895601   0.00959956
6168.00   1.83472741   0.00941703
6170.00   1.83501792   0.00932266
6172.00   1.83308303   0.00932758
6174.00   1.82991552   0.00930980
6176.00   1.82596529   0.00919923
6178.00   1.82079089   0.00906137
6180.00   1.81314492   0.00905688
6182.00   1.79870820   0.00915435
6184.00   1.79504287   0.00925162
6186.00   1.80517292   0.00935769
6188.00   1.80574763   0.00952915
6190.00   1.78799617   0.00981530
6192.00   1.76587796   0.01012025
6194.00   1.76093197   0.01030975
6196.00   1.76994836   0.01052970
6198.00   1.76587498   0.01035205
6200.00   1.75276017   0.00928535
6202.00   1.74375236   0.00911385
6204.00   1.73834908   0.01045978
6206.00   1.73565328   0.01163310
6208.00   1.73767114   0.01128573
6210.00   1.74580967   0.00976053
6212.00   1.74045241   0.00910485
6214.00   1.72380340   0.00866886
6216.00   1.70906925   0.00862103
6218.00   1.69442809   0.00927704
6220.00   1.67911756   0.00980136
6222.00   1.66539550   0.00965319
6224.00   1.65241134   0.00910583
6226.00   1.62212360   0.00885949
6228.00   1.56154430   0.00866894
6230.00   1.53347051   0.00857451
6232.00   1.53602850   0.00860840
6234.00   1.53509974   0.00867262
6236.00   1.51947021   0.00877147
6238.00   1.49595332   0.00887999
6240.00   1.45982814   0.00878237
6242.00   1.40278137   0.00843956
6244.00   1.35992563   0.00824261
6246.00   1.32240045   0.00806787
6248.00   1.28582788   0.00794531
6250.00   1.25095415   0.00788731
6252.00   1.21607113   0.00788155
6254.00   1.17524099   0.00790363
6256.00   1.12753081   0.00793378
6258.00   1.08800220   0.00810439
6260.00   1.05709136   0.00864256
6262.00   1.01976502   0.00872962
6264.00   0.96995717   0.00814212
6266.00   0.92157227   0.00737273
6268.00   0.89169276   0.00714023
6270.00   0.87584972   0.00725766
6272.00   0.85243601   0.00716731
6274.00   0.82938361   0.00701324
6276.00   0.80382961   0.00690441
6278.00   0.77277476   0.00683955
6280.00   0.74414915   0.00678980
6282.00   0.72446698   0.00672619
6284.00   0.71074295   0.00665872
6286.00   0.69686759   0.00669566
6288.00   0.68874842   0.00672072
6290.00   0.67400289   0.00698484
6292.00   0.64831150   0.00763779
6294.00   0.62976587   0.00806848
6296.00   0.62740368   0.00799586
6298.00   0.63508576   0.00765490
6300.00   0.64394653   0.00760422
6302.00   0.66754329   0.00776690
6304.00   0.67092365   0.00773238
6306.00   0.65752459   0.00755811
6308.00   0.64585745   0.00740872
6310.00   0.63781697   0.00736630
6312.00   0.63293254   0.00732959
6314.00   0.63928384   0.00708689
6316.00   0.66090792   0.00649003
6318.00   0.66704321   0.00644508
6320.00   0.65935087   0.00691481
6322.00   0.66049749   0.00721397
6324.00   0.67186731   0.00737328
6326.00   0.68954462   0.00741366
6328.00   0.71339303   0.00721325
6330.00   0.74738735   0.00670931
6332.00   0.76625556   0.00651446
6334.00   0.76956946   0.00653838
6336.00   0.78350818   0.00650508
6338.00   0.80933845   0.00632561
6340.00   0.83675337   0.00627856
6342.00   0.85752076   0.00659078
6344.00   0.87486976   0.00712367
6346.00   0.90043342   0.00775850
6348.00   0.94098037   0.00896703
6350.00   0.96220464   0.00921705
6352.00   0.96034408   0.00853940
6354.00   0.96270758   0.00776999
6356.00   0.98519182   0.00739707
6358.00   1.01763070   0.00718618
6360.00   1.03900194   0.00709827
6362.00   1.05238211   0.00724705
6364.00   1.07258296   0.00732784
6366.00   1.09608972   0.00748135
6368.00   1.12127578   0.00755353
6370.00   1.15066957   0.00743934
6372.00   1.18026924   0.00726918
6374.00   1.19704676   0.00736581
6376.00   1.20152926   0.00769777
6378.00   1.21163106   0.00786979
6380.00   1.22211456   0.00806319
6382.00   1.23236382   0.00811365
6384.00   1.24091423   0.00791222
6386.00   1.25055492   0.00766359
6388.00   1.26601160   0.00772807
6390.00   1.28658235   0.00808257
6392.00   1.30496740   0.00798510
6394.00   1.32498527   0.00739845
6396.00   1.34209371   0.00710551
6398.00   1.35570121   0.00718707
6400.00   1.36817598   0.00734628
6402.00   1.38153470   0.00736054
6404.00   1.39496744   0.00732255
6406.00   1.40692389   0.00737768
6408.00   1.41839671   0.00753228
6410.00   1.42787492   0.00760719
6412.00   1.43482232   0.00764591
6414.00   1.44126940   0.00763015
6416.00   1.44917905   0.00751482
6418.00   1.45733130   0.00732543
6420.00   1.45959747   0.00727349
6422.00   1.45846653   0.00734938
6424.00   1.45284438   0.00734577
6426.00   1.43590534   0.00730014
6428.00   1.42660415   0.00725817
6430.00   1.43310010   0.00723198
6432.00   1.44766343   0.00721320
6434.00   1.45750296   0.00720211
6436.00   1.46944201   0.00716047
6438.00   1.47580719   0.00723352
6440.00   1.47853637   0.00746264
6442.00   1.47869968   0.00759550
6444.00   1.47442400   0.00758844
6446.00   1.46916497   0.00752213
6448.00   1.46964014   0.00746295
6450.00   1.47395456   0.00732005
6452.00   1.47768259   0.00742537
6454.00   1.48711395   0.00785663
6456.00   1.48755682   0.00803841
6458.00   1.47470081   0.00795571
6460.00   1.46051407   0.00777543
6462.00   1.45633972   0.00759155
6464.00   1.45726919   0.00731849
6466.00   1.46109700   0.00732828
6468.00   1.47289014   0.00768382
6470.00   1.47898948   0.00779854
6472.00   1.48140919   0.00771556
6474.00   1.48103404   0.00759332
6476.00   1.47765410   0.00751198
6478.00   1.47137749   0.00742942
6480.00   1.46454811   0.00735622
6482.00   1.45093620   0.00729263
6484.00   1.44834578   0.00722661
6486.00   1.45630014   0.00713801
6488.00   1.46439958   0.00708757
6490.00   1.47216868   0.00701938
6492.00   1.47826123   0.00701687
6494.00   1.46745992   0.00747315
6496.00   1.43032074   0.00848865
6498.00   1.42133093   0.00891889
6500.00   1.43143666   0.00922328
6502.00   1.44033575   0.00922192
6504.00   1.44874942   0.00871339
6506.00   1.45383227   0.00797495
6508.00   1.44167101   0.00770031
6510.00   1.40919471   0.00776208
6512.00   1.39818501   0.00762292
6514.00   1.39874530   0.00737273
6516.00   1.40156901   0.00723338
6518.00   1.40864003   0.00722557
6520.00   1.41705287   0.00729002
6522.00   1.42300653   0.00740712
6524.00   1.42939532   0.00762109
6526.00   1.42636132   0.00761498
6528.00   1.41052222   0.00740146
6530.00   1.40245748   0.00726243
6532.00   1.40393353   0.00701063
6534.00   1.40317643   0.00698896
6536.00   1.39062774   0.00761459
6538.00   1.37068999   0.00859993
6540.00   1.36184251   0.00868067
6542.00   1.35425413   0.00785947
6544.00   1.35925722   0.00764889
6546.00   1.38299596   0.00779808
6548.00   1.40275609   0.00810120
6550.00   1.40968370   0.00865679
6552.00   1.40948176   0.00927707
6554.00   1.40308309   0.00910390
6556.00   1.38132870   0.00795674
6558.00   1.37459648   0.00740210
6560.00   1.37669456   0.00686649
6562.00   1.37983966   0.00678528
6564.00   1.38578546   0.00755069
6566.00   1.39074206   0.00845943
6568.00   1.38185251   0.00846048
6570.00   1.35738015   0.00776591
6572.00   1.34780657   0.00742427
6574.00   1.34548736   0.00706130
6576.00   1.34521294   0.00684322
6578.00   1.35073364   0.00685766
6580.00   1.35490263   0.00694472
6582.00   1.34557581   0.00690926
6584.00   1.32384300   0.00681864
6586.00   1.31880963   0.00678659
6588.00   1.33021152   0.00671973
6590.00   1.32982600   0.00679427
6592.00   1.31432092   0.00707699
6594.00   1.30037785   0.00733792
6596.00   1.30088866   0.00742607
6598.00   1.31012940   0.00742309
6600.00   1.31534481   0.00734869
6602.00   1.32670498   0.00709444
6604.00   1.32536852   0.00697639
6606.00   1.30805826   0.00689440
6608.00   1.29355299   0.00693878
6610.00   1.29178679   0.00725786
6612.00   1.29608989   0.00769612
6614.00   1.29510474   0.00764717
6616.00   1.29420722   0.00695561
6618.00   1.28906631   0.00686471
6620.00   1.27656364   0.00728978
6622.00   1.26861095   0.00751334
6624.00   1.26980770   0.00733501
6626.00   1.27474976   0.00698526
6628.00   1.27482367   0.00679184
6630.00   1.27307022   0.00661300
6632.00   1.27068222   0.00653425
6634.00   1.26910591   0.00609698
6636.00   1.26308739   0.00656946
6638.00   1.24616635   0.00849853
6640.00   1.23115313   0.01005868
6642.00   1.23840261   0.00979057
6644.00   1.26584697   0.00793734
6646.00   1.27296054   0.00708988
6648.00   1.27058494   0.00639925
6650.00   1.26522374   0.00628325
6652.00   1.25115180   0.00718172
6654.00   1.23952234   0.00794769
6656.00   1.24323916   0.00779328
6658.00   1.25804424   0.00704664
6660.00   1.25668669   0.00672234
6662.00   1.24085522   0.00649818
6664.00   1.23444641   0.00638049
6666.00   1.23212099   0.00631562
6668.00   1.23510623   0.00645487
6670.00   1.24782944   0.00701288
6672.00   1.26692116   0.00775194
6674.00   1.27069998   0.00776037
6676.00   1.26055562   0.00697198
6678.00   1.25756860   0.00672949
6680.00   1.25901759   0.00677684
6682.00   1.25670660   0.00688690
6684.00   1.24646449   0.00707811
6686.00   1.23296857   0.00728002
6688.00   1.22576487   0.00715994
6690.00   1.22139633   0.00665946
6692.00   1.21919572   0.00645956
6694.00   1.22178030   0.00640371
6696.00   1.22223032   0.00638752
6698.00   1.22045040   0.00642422
6700.00   1.21656442   0.00648808
6702.00   1.20822477   0.00650799
6704.00   1.19292343   0.00649468
6706.00   1.19015861   0.00655399
6708.00   1.20472968   0.00660376
6710.00   1.20344853   0.00678580
6712.00   1.17858458   0.00726631
6714.00   1.15431166   0.00760898
6716.00   1.15399384   0.00738365
6718.00   1.16941452   0.00668323
6720.00   1.17199552   0.00641190
6722.00   1.16999006   0.00634253
6724.00   1.16734970   0.00632947
6726.00   1.16132236   0.00648669
6728.00   1.15683711   0.00660212
6730.00   1.15720189   0.00652573
6732.00   1.16057873   0.00634077
6734.00   1.16417921   0.00628360
6736.00   1.17436409   0.00630875
6738.00   1.17332566   0.00629934
6740.00   1.16096914   0.00628588
6742.00   1.14979351   0.00626786
6744.00   1.14467895   0.00624274
6746.00   1.14139605   0.00621338
6748.00   1.13387597   0.00618821
6750.00   1.11821222   0.00615444
6752.00   1.11752081   0.00614827
6754.00   1.13295293   0.00617238
6756.00   1.14157212   0.00618854
6758.00   1.13904488   0.00619191
6760.00   1.13199449   0.00618939
6762.00   1.12625587   0.00617370
6764.00   1.11838770   0.00610429
6766.00   1.11391628   0.00620287
6768.00   1.11327708   0.00652195
6770.00   1.10997975   0.00667454
6772.00   1.10137856   0.00664043
6774.00   1.09420276   0.00654903
6776.00   1.09674072   0.00650963
6778.00   1.10746944   0.00648201
6780.00   1.10638618   0.00638666
6782.00   1.09674573   0.00618131
6784.00   1.08898079   0.00607082
6786.00   1.08024657   0.00602473
6788.00   1.07313943   0.00604360
6790.00   1.07048810   0.00613564
6792.00   1.07087135   0.00629328
6794.00   1.06815279   0.00649795
6796.00   1.06386268   0.00695837
6798.00   1.05995798   0.00698751
6800.00   1.05519366   0.00656456
6802.00   1.05156922   0.00617398
6804.00   1.04998577   0.00598453
6806.00   1.04974413   0.00592892
6808.00   1.04994035   0.00620535
6810.00   1.05365729   0.00705977
6812.00   1.05111170   0.00720689
6814.00   1.04203212   0.00688565
6816.00   1.03532648   0.00658100
6818.00   1.03395939   0.00633830
6820.00   1.03365958   0.00614116
6822.00   1.02797484   0.00615333
6824.00   1.01711702   0.00638107
6826.00   1.01219547   0.00649589
6828.00   1.01176715   0.00663211
6830.00   1.00988197   0.00669709
6832.00   1.00649774   0.00666614
6834.00   1.00240254   0.00660522
6836.00   0.99759799   0.00659823
6838.00   0.99174523   0.00663430
6840.00   0.98745626   0.00651410
6842.00   0.98370820   0.00618723
6844.00   0.98103732   0.00598435
6846.00   0.97768915   0.00587403
6848.00   0.97758669   0.00583743
6850.00   0.98606902   0.00587453
6852.00   1.00112247   0.00598449
6854.00   1.00166333   0.00616829
6856.00   0.98696125   0.00644265
6858.00   0.98285836   0.00672035
6860.00   0.98860556   0.00703443
6862.00   0.99089336   0.00733967
6864.00   0.98319882   0.00769048
6866.00   0.97024167   0.00801874
6868.00   0.96020079   0.00795302
6870.00   0.94441664   0.00740216
6872.00   0.94220096   0.00710805
6874.00   0.95550585   0.00681164
6876.00   0.96321523   0.00664268
6878.00   0.95999825   0.00672227
6880.00   0.95184165   0.00688468
6882.00   0.94382936   0.00677969
6884.00   0.92991281   0.00642313
6886.00   0.92795455   0.00631390
6888.00   0.93992382   0.00639022
6890.00   0.94397008   0.00640486
6892.00   0.93567604   0.00632798
6894.00   0.92540091   0.00623580
6896.00   0.92400610   0.00619821
6898.00   0.92727506   0.00619021
6900.00   0.93229675   0.00618486
6902.00   0.94863963   0.00620401
6904.00   0.94975406   0.00620729
6906.00   0.93091083   0.00620209
6908.00   0.91097468   0.00618374
6910.00   0.90445089   0.00613474
6912.00   0.90470457   0.00605715
6914.00   0.90420508   0.00605733
6916.00   0.90865785   0.00613806
6918.00   0.90790457   0.00617459
6920.00   0.90010953   0.00619061
6922.00   0.89538550   0.00619472
6924.00   0.90044117   0.00613713
6926.00   0.91056693   0.00606425
6928.00   0.91217178   0.00629576
6930.00   0.91277558   0.00708341
6932.00   0.90349078   0.00710451
6934.00   0.87952483   0.00641697
6936.00   0.86074156   0.00585809
6938.00   0.85146558   0.00574418
6940.00   0.84819192   0.00586036
6942.00   0.85213792   0.00607138
6944.00   0.86885959   0.00659609
6946.00   0.87354064   0.00666821
6948.00   0.87410539   0.00638762
6950.00   0.86955130   0.00617168
6952.00   0.85469371   0.00607620
6954.00   0.83955836   0.00600214
6956.00   0.84092551   0.00586418
6958.00   0.85650188   0.00565266
6960.00   0.85783708   0.00562298
6962.00   0.84995031   0.00577214
6964.00   0.84519821   0.00586841
6966.00   0.84114712   0.00594612
6968.00   0.84012341   0.00599071
6970.00   0.84614921   0.00595296
6972.00   0.85812455   0.00583928
6974.00   0.86554116   0.00586100
6976.00   0.87638450   0.00583363
6978.00   0.87640965   0.00611563
6980.00   0.86521810   0.00688627
6982.00   0.85076898   0.00739402
6984.00   0.83447605   0.00729919
6986.00   0.81606495   0.00683731
6988.00   0.81187314   0.00648152
6990.00   0.82214063   0.00586443
6992.00   0.82682019   0.00559284
6994.00   0.83279413   0.00568276
6996.00   0.83607846   0.00575578
6998.00   0.83396047   0.00569107
7000.00   0.82953191   0.00559459
7002.00   0.83030587   0.00557403
7004.00   0.83768523   0.00561594
7006.00   0.83518970   0.00561761
7008.00   0.82341987   0.00561150
7010.00   0.81489778   0.00559369
7012.00   0.81139147   0.00555968
7014.00   0.80989909   0.00551726
7016.00   0.80810601   0.00547775
7018.00   0.80642420   0.00543039
7020.00   0.80777830   0.00540822
7022.00   0.81533647   0.00539416
7024.00   0.81677008   0.00540911
7026.00   0.80752116   0.00542554
7028.00   0.79998773   0.00549830
7030.00   0.80890006   0.00572041
7032.00   0.83115941   0.00607578
7034.00   0.82894349   0.00613499
7036.00   0.80230665   0.00569231
7038.00   0.79066461   0.00587228
7040.00   0.78955615   0.00686866
7042.00   0.79251689   0.00752675
7044.00   0.80015343   0.00729356
7046.00   0.81196135   0.00648967
7048.00   0.80411404   0.00611267
7050.00   0.77377367   0.00561413
7052.00   0.75778025   0.00574290
7054.00   0.74441242   0.00675726
7056.00   0.73982680   0.00732082
7058.00   0.75028002   0.00704564
7060.00   0.76893777   0.00632943
7062.00   0.77534693   0.00595185
7064.00   0.77501154   0.00559992
7066.00   0.77570009   0.00542876
7068.00   0.77416539   0.00544556
7070.00   0.77299261   0.00555445
7072.00   0.77429056   0.00584508
7074.00   0.77448851   0.00613005
7076.00   0.76643503   0.00604319
7078.00   0.74839520   0.00559077
7080.00   0.74336678   0.00544418
7082.00   0.74739861   0.00539857
7084.00   0.75081468   0.00547423
7086.00   0.75562137   0.00572604
7088.00   0.75904351   0.00601149
7090.00   0.75585991   0.00620999
7092.00   0.74691623   0.00640164
7094.00   0.74495059   0.00641005
7096.00   0.75057697   0.00625779
7098.00   0.74880952   0.00605810
7100.00   0.73776138   0.00570016
7102.00   0.72773927   0.00537113
7104.00   0.72590250   0.00525358
7106.00   0.72867650   0.00527570
7108.00   0.72911286   0.00526607
7110.00   0.72931236   0.00521196
7112.00   0.73025179   0.00534897
7114.00   0.73382354   0.00572717
7116.00   0.73450500   0.00602457
7118.00   0.72875041   0.00616650
7120.00   0.71966290   0.00621263
7122.00   0.71545857   0.00608588
7124.00   0.71400601   0.00548296
7126.00   0.71220982   0.00551689
7128.00   0.71088094   0.00623264
7130.00   0.71032363   0.00654354
7132.00   0.71088964   0.00618272
7134.00   0.71201783   0.00554492
7136.00   0.71232253   0.00532765
7138.00   0.71074849   0.00527482
7140.00   0.71469009   0.00545604
7142.00   0.72829247   0.00614819
7144.00   0.73258364   0.00638121
7146.00   0.72414702   0.00603350
7148.00   0.71192282   0.00550884
7150.00   0.70423418   0.00529606
7152.00   0.69677526   0.00522489
7154.00   0.69461936   0.00517216
7156.00   0.70070934   0.00522565
7158.00   0.70083004   0.00524643
7160.00   0.69448924   0.00524986
7162.00   0.68762779   0.00524753
7164.00   0.68425888   0.00523739
7166.00   0.68248218   0.00521907
7168.00   0.67990750   0.00522689
7170.00   0.67789209   0.00526440
7172.00   0.67468160   0.00528184
7174.00   0.66934091   0.00528847
7176.00   0.66526437   0.00528948
7178.00   0.66403842   0.00528374
7180.00   0.66461903   0.00527306
7182.00   0.66597545   0.00527305
7184.00   0.66959083   0.00520450
7186.00   0.67171508   0.00531561
7188.00   0.67502385   0.00567667
7190.00   0.67518008   0.00586507
7192.00   0.66915679   0.00576074
7194.00   0.66117883   0.00552237
7196.00   0.66030872   0.00539125
7198.00   0.66572100   0.00525069
7200.00   0.66582149   0.00520895
7202.00   0.66168094   0.00528098
7204.00   0.66055727   0.00533322
7206.00   0.66482449   0.00534877
7208.00   0.66938853   0.00536970
7210.00   0.66814297   0.00545178
7212.00   0.66337359   0.00561597
7214.00   0.65708649   0.00555818
7216.00   0.64620978   0.00521889
7218.00   0.63818699   0.00505870
7220.00   0.63526082   0.00486371
7222.00   0.63020134   0.00502185
7224.00   0.61331314   0.00603174
7226.00   0.58685726   0.00746607
7228.00   0.59026933   0.00762515
7230.00   0.62739247   0.00654028
7232.00   0.64317024   0.00628390
7234.00   0.64418429   0.00673915
7236.00   0.64276296   0.00721868
7238.00   0.64425683   0.00752146
7240.00   0.64544135   0.00777021
7242.00   0.64366686   0.00775696
7244.00   0.63733828   0.00745885
7246.00   0.63496590   0.00720061
7248.00   0.63460135   0.00684139
7250.00   0.63510048   0.00648902
7252.00   0.63808489   0.00613545
7254.00   0.64096230   0.00581812
7256.00   0.63509870   0.00575386
7258.00   0.61855692   0.00604617
7260.00   0.61249816   0.00599198
7262.00   0.60862672   0.00552143
7264.00   0.61227602   0.00542986
7266.00   0.63000667   0.00595094
7268.00   0.64927131   0.00658793
7270.00   0.64991224   0.00689610
7272.00   0.63615274   0.00708422
7274.00   0.63219649   0.00721964
7276.00   0.63140345   0.00733408
7278.00   0.63056076   0.00728697
7280.00   0.63264024   0.00696608
7282.00   0.63181359   0.00662952
7284.00   0.62011057   0.00658434
7286.00   0.59927571   0.00673222
7288.00   0.59332830   0.00666719
7290.00   0.59584957   0.00650425
7292.00   0.60175884   0.00629631
7294.00   0.61771482   0.00592910
7296.00   0.62973005   0.00563100
7298.00   0.62763613   0.00559884
7300.00   0.61744308   0.00573311
7302.00   0.61581957   0.00575470
7304.00   0.61797655   0.00571287
7306.00   0.62030578   0.00577158
7308.00   0.62412602   0.00587408
7310.00   0.62846738   0.00604830
7312.00   0.63441521   0.00637010
7314.00   0.64028496   0.00671826
7316.00   0.63942713   0.00676684
7318.00   0.63114864   0.00650457
7320.00   0.62764204   0.00648025
7322.00   0.62528491   0.00663966
7324.00   0.62391567   0.00666883
7326.00   0.62345588   0.00640728
7328.00   0.62404323   0.00612587
7330.00   0.62617987   0.00631080
7332.00   0.63087255   0.00685313
7334.00   0.63171649   0.00716771
7336.00   0.62641597   0.00748480
7338.00   0.62792146   0.00769174
7340.00   0.64079064   0.00789118
7342.00   0.65279377   0.00790525
7344.00   0.65101367   0.00744947
7346.00   0.63964719   0.00646638
7348.00   0.63488263   0.00594656
7350.00   0.63294870   0.00565916
7352.00   0.62888819   0.00550357
7354.00   0.62227243   0.00559406
7356.00   0.61623251   0.00573791
7358.00   0.61266065   0.00580233
7360.00   0.61055630   0.00585863
7362.00   0.60896242   0.00601002
7364.00   0.60774046   0.00629293
7366.00   0.60844249   0.00644761
7368.00   0.61347061   0.00660244
7370.00   0.61549872   0.00660800
7372.00   0.61086112   0.00634714
7374.00   0.60277319   0.00591235
7376.00   0.59747982   0.00564402
7378.00   0.59026998   0.00541533
7380.00   0.58982784   0.00526899
7382.00   0.59558940   0.00513892
7384.00   0.60184568   0.00520153
7386.00   0.60935116   0.00559330
7388.00   0.61635405   0.00603948
7390.00   0.61731195   0.00614181
7392.00   0.61348146   0.00601605
7394.00   0.60953128   0.00597884
7396.00   0.60276389   0.00590072
7398.00   0.59686321   0.00587191
7400.00   0.59089011   0.00593895
7402.00   0.58631021   0.00599280
7404.00   0.58561873   0.00590985
7406.00   0.58825916   0.00572586
7408.00   0.58976781   0.00556279
7410.00   0.59044325   0.00531263
7412.00   0.59390348   0.00517898
7414.00   0.60229319   0.00518740
7416.00   0.60919791   0.00522147
7418.00   0.60916418   0.00519961
7420.00   0.60474306   0.00516135
7422.00   0.60554862   0.00518348
7424.00   0.61259085   0.00517237
7426.00   0.61179274   0.00534452
7428.00   0.60544831   0.00573313
7430.00   0.59618604   0.00606789
7432.00   0.58167255   0.00630486
7434.00   0.56498110   0.00647186
7436.00   0.56385273   0.00639981
7438.00   0.58122641   0.00600371
7440.00   0.58457607   0.00576131
7442.00   0.58054370   0.00551909
7444.00   0.57744688   0.00531599
7446.00   0.57472640   0.00512131
7448.00   0.57425004   0.00500121
7450.00   0.58485627   0.00514976
7452.00   0.61189932   0.00563322
7454.00   0.61557144   0.00573102
7456.00   0.60337603   0.00553684
7458.00   0.58941966   0.00546817
7460.00   0.56914270   0.00557550
7462.00   0.55055761   0.00572449
7464.00   0.54768842   0.00582110
7466.00   0.55751908   0.00592920
7468.00   0.55858356   0.00589257
7470.00   0.55718410   0.00563625
7472.00   0.55529875   0.00553840
7474.00   0.55096692   0.00562021
7476.00   0.54808307   0.00572390
7478.00   0.55049348   0.00575178
7480.00   0.55660713   0.00575289
7482.00   0.55990553   0.00572917
7484.00   0.56393045   0.00568559
7486.00   0.56440145   0.00560221
7488.00   0.56126857   0.00546007
7490.00   0.55704701   0.00531103
7492.00   0.55299354   0.00514405
7494.00   0.54827154   0.00497827
7496.00   0.54161370   0.00503714
7498.00   0.53493464   0.00536747
7500.00   0.52332288   0.00552004
7502.00   0.50143087   0.00569178
7504.00   0.48773512   0.00571388
7506.00   0.48791125   0.00545219
7508.00   0.49578857   0.00506822
7510.00   0.50454903   0.00500680
7512.00   0.52220756   0.00514289
7514.00   0.52607673   0.00533187
7516.00   0.51972681   0.00571530
7518.00   0.51296800   0.00596584
7520.00   0.50515574   0.00607970
7522.00   0.49716094   0.00611571
7524.00   0.49221101   0.00609532
7526.00   0.48940048   0.00600383
7528.00   0.48587185   0.00587354
7530.00   0.48189551   0.00565553
7532.00   0.47944173   0.00545004
7534.00   0.47906777   0.00518481
7536.00   0.47898403   0.00499358
7538.00   0.47810251   0.00505882
7540.00   0.47716290   0.00532077
7542.00   0.47288314   0.00537647
7544.00   0.46307719   0.00538521
7546.00   0.45827419   0.00528287
7548.00   0.45768639   0.00495401
7550.00   0.45793033   0.00468656
7552.00   0.45732486   0.00469936
7554.00   0.45687991   0.00486941
7556.00   0.45788112   0.00493011
7558.00   0.46054974   0.00494577
7560.00   0.46262014   0.00502129
7562.00   0.46550739   0.00513044
7564.00   0.46707347   0.00526038
7566.00   0.46656448   0.00543559
7568.00   0.46471000   0.00561390
7570.00   0.46236452   0.00567265
7572.00   0.45826232   0.00562874
7574.00   0.45613614   0.00561752
7576.00   0.45539850   0.00560473
7578.00   0.45448425   0.00557063
7580.00   0.45375723   0.00551749
7582.00   0.45252386   0.00543957
7584.00   0.44875792   0.00529589
7586.00   0.44146183   0.00500152
7588.00   0.44097644   0.00509814
7590.00   0.44862282   0.00536910
7592.00   0.45048779   0.00589453
7594.00   0.44630376   0.00655349
7596.00   0.43971744   0.00741076
7598.00   0.43222138   0.00855424
7600.00   0.42227021   0.00987419
7602.00   0.41951430   0.01082638
7604.00   0.42207441   0.01211918
7606.00   0.42573196   0.01231153
7608.00   0.43172598   0.01132248
7610.00   0.43895489   0.01001665
7612.00   0.44866443   0.00889286
7614.00   0.45994794   0.00765228
7616.00   0.45879662   0.00693200
7618.00   0.44723034   0.00688985
7620.00   0.43484518   0.00680673
7622.00   0.41150868   0.00692985
7624.00   0.39748347   0.00712692
7626.00   0.40434626   0.00742982
7628.00   0.42036650   0.00775496
7630.00   0.41878068   0.00775170
7632.00   0.40204445   0.00748206
7634.00   0.39853913   0.00721614
7636.00   0.40183961   0.00673560
7638.00   0.40595502   0.00638144
7640.00   0.41128811   0.00627013
7642.00   0.41682103   0.00626550
7644.00   0.41892564   0.00619262
7646.00   0.41867676   0.00611792
7648.00   0.41810700   0.00606394
7650.00   0.41651750   0.00600591
7652.00   0.41408917   0.00599857
7654.00   0.41070610   0.00611812
7656.00   0.40658537   0.00619114
7658.00   0.40298942   0.00600139
7660.00   0.40068921   0.00557368
7662.00   0.38739711   0.00540285
7664.00   0.35829756   0.00540947
7666.00   0.34120813   0.00537797
7668.00   0.33438799   0.00540438
7670.00   0.33069289   0.00534715
7672.00   0.32659894   0.00503654
7674.00   0.32394946   0.00451519
7676.00   0.32228357   0.00432441
7678.00   0.32157326   0.00437775
7680.00   0.32243490   0.00444803
7682.00   0.32513586   0.00460908
7684.00   0.32858247   0.00479978
7686.00   0.33298504   0.00504776
7688.00   0.33787709   0.00529927
7690.00   0.34017190   0.00530850
7692.00   0.34002516   0.00499421
7694.00   0.34094265   0.00498391
7696.00   0.34340653   0.00522429
7698.00   0.34314510   0.00534088
7700.00   0.33638549   0.00513463
7702.00   0.32922724   0.00491970
7704.00   0.33412534   0.00530610
7706.00   0.35189125   0.00608634
7708.00   0.35518438   0.00670162
7710.00   0.34633774   0.00751075
7712.00   0.34362057   0.00795372
7714.00   0.34986413   0.00803951
7716.00   0.35700253   0.00795249
7718.00   0.35707951   0.00784550
7720.00   0.35268381   0.00767399
7722.00   0.35082573   0.00721661
7724.00   0.34727222   0.00615379
7726.00   0.34808549   0.00543907
7728.00   0.35359642   0.00517418
7730.00   0.36087003   0.00507426
7732.00   0.36917084   0.00495793
7734.00   0.37914994   0.00492649
7736.00   0.38157764   0.00488677
7738.00   0.37412527   0.00467465
7740.00   0.37464815   0.00492929
7742.00   0.37907833   0.00533635
7744.00   0.38729760   0.00614914
7746.00   0.40522480   0.00769149
7748.00   0.42648703   0.00925874
7750.00   0.41842690   0.00932001
7752.00   0.37122014   0.00781764
7754.00   0.35873121   0.00716821
7756.00   0.36701122   0.00676732
7758.00   0.37428737   0.00648875
7760.00   0.37660244   0.00641028
7762.00   0.37769055   0.00641890
7764.00   0.37725145   0.00612176
7766.00   0.37386805   0.00546475
7768.00   0.37430921   0.00520885
7770.00   0.38027620   0.00527972
7772.00   0.38068709   0.00531985
7774.00   0.37250292   0.00532381
7776.00   0.36261413   0.00532970
7778.00   0.35862711   0.00531892
7780.00   0.35726929   0.00526727
7782.00   0.35863376   0.00539151
7784.00   0.36634621   0.00563264
7786.00   0.36915475   0.00592339
7788.00   0.36514598   0.00625443
7790.00   0.36214164   0.00663952
7792.00   0.36706460   0.00719644
7794.00   0.37717834   0.00788379
7796.00   0.38055885   0.00775013
7798.00   0.37752530   0.00658659
7800.00   0.38006467   0.00595745
7802.00   0.39028636   0.00570726
7804.00   0.39636439   0.00562015
7806.00   0.39176998   0.00566224
7808.00   0.38081133   0.00583791
7810.00   0.37145147   0.00585471
7812.00   0.35795683   0.00563719
7814.00   0.34999061   0.00579432
7816.00   0.34511533   0.00617668
7818.00   0.34250569   0.00665100
7820.00   0.34127930   0.00739658
7822.00   0.34266457   0.00806097
7824.00   0.35014838   0.00781617
7826.00   0.36746740   0.00651078
7828.00   0.37363896   0.00581022
7830.00   0.37362257   0.00522168
7832.00   0.37161157   0.00488515
7834.00   0.36465678   0.00494583
7836.00   0.35835403   0.00522298
7838.00   0.36308977   0.00547149
7840.00   0.37755939   0.00581738
7842.00   0.38333204   0.00604327
7844.00   0.38699988   0.00613776
7846.00   0.38640457   0.00637353
7848.00   0.37795031   0.00678342
7850.00   0.37023118   0.00718073
7852.00   0.37196580   0.00747740
7854.00   0.37992176   0.00774916
7856.00   0.38230368   0.00769844
7858.00   0.38302124   0.00724039
7860.00   0.38221145   0.00694186
7862.00   0.37867758   0.00669455
7864.00   0.37531924   0.00650952
7866.00   0.37415767   0.00642730
7868.00   0.37394708   0.00642840
7870.00   0.37129816   0.00639702
7872.00   0.36295828   0.00623265
7874.00   0.36375716   0.00640667
7876.00   0.37530988   0.00704625
7878.00   0.38255703   0.00739226
7880.00   0.37968671   0.00718996
7882.00   0.37232542   0.00672353
7884.00   0.36882162   0.00654869
7886.00   0.36579558   0.00650945
7888.00   0.36411163   0.00644253
7890.00   0.36223465   0.00644526
7892.00   0.36380219   0.00638434
7894.00   0.37082314   0.00624633
7896.00   0.37963861   0.00604544
7898.00   0.38421872   0.00570261
7900.00   0.38473552   0.00491830
7902.00   0.39378706   0.00533196
7904.00   0.41275907   0.00678843
7906.00   0.42546925   0.00765047
7908.00   0.43455729   0.00819059
7910.00   0.43757257   0.00852543
7912.00   0.42915848   0.00862193
7914.00   0.41020834   0.00849861
7916.00   0.39711881   0.00832043
7918.00   0.37936518   0.00796095
7920.00   0.37303424   0.00760778
7922.00   0.38024449   0.00717504
7924.00   0.38874164   0.00676869
7926.00   0.39131880   0.00648545
7928.00   0.39187443   0.00629102
7930.00   0.39380845   0.00611807
7932.00   0.39443865   0.00606307
7934.00   0.39869329   0.00590646
7936.00   0.40949363   0.00562475
7938.00   0.41579977   0.00541034
7940.00   0.41191852   0.00533108
7942.00   0.40319756   0.00535533
7944.00   0.40080041   0.00551658
7946.00   0.40138417   0.00595075
7948.00   0.40193614   0.00605778
7950.00   0.40507793   0.00595415
7952.00   0.40596470   0.00585250
7954.00   0.40405360   0.00570895
7956.00   0.40000960   0.00561490
7958.00   0.39282760   0.00584041
7960.00   0.37870690   0.00635154
7962.00   0.37870544   0.00663801
7964.00   0.38994160   0.00695715
7966.00   0.40134543   0.00705561
7968.00   0.41579476   0.00685862
7970.00   0.42890248   0.00657179
7972.00   0.43399829   0.00641706
7974.00   0.43330491   0.00629693
7976.00   0.43335798   0.00624296
7978.00   0.42864123   0.00629121
7980.00   0.42971152   0.00630384
7982.00   0.43666285   0.00623139
7984.00   0.44514543   0.00624581
7986.00   0.45282817   0.00646097
7988.00   0.46093071   0.00680354
7990.00   0.46828401   0.00719805
7992.00   0.47872880   0.00796379
7994.00   0.48102254   0.00808403
7996.00   0.47616681   0.00767784
7998.00   0.46859440   0.00711179
8000.00   0.45759720   0.00639947
8002.00   0.44481689   0.00551246
8004.00   0.44227201   0.00517422
8006.00   0.45098463   0.00541338
8008.00   0.45186093   0.00553432
8010.00   0.44740418   0.00580783
8012.00   0.44645798   0.00603227
8014.00   0.45154133   0.00615444
8016.00   0.45928651   0.00626075
8018.00   0.46577010   0.00646777
8020.00   0.47441339   0.00676260
8022.00   0.47655770   0.00695776
8024.00   0.47191429   0.00721117
8026.00   0.46925485   0.00724454
8028.00   0.46829206   0.00699525
8030.00   0.46869537   0.00660827
8032.00   0.47159714   0.00622776
8034.00   0.47717020   0.00573222
8036.00   0.48046523   0.00544842
8038.00   0.48389253   0.00533188
8040.00   0.48496178   0.00527858
8042.00   0.48175329   0.00533716
8044.00   0.47958663   0.00543635
8046.00   0.48366413   0.00552554
8048.00   0.49184588   0.00563111
8050.00   0.49221420   0.00569745
8052.00   0.48600656   0.00570563
8054.00   0.48240504   0.00578228
8056.00   0.47912598   0.00594268
8058.00   0.47671378   0.00606785
8060.00   0.47548264   0.00612515
8062.00   0.47525328   0.00613322
8064.00   0.47620279   0.00602930
8066.00   0.48240843   0.00567436
8068.00   0.47987375   0.00559018
8070.00   0.46810374   0.00567537
8072.00   0.45971435   0.00580860
8074.00   0.45722377   0.00606400
8076.00   0.45830414   0.00629614
8078.00   0.46300858   0.00609895
8080.00   0.47358906   0.00533084
8082.00   0.48023149   0.00513432
8084.00   0.48715144   0.00539241
8086.00   0.49085450   0.00552727
8088.00   0.49003035   0.00548687
8090.00   0.48747605   0.00542416
8092.00   0.48658708   0.00547011
8094.00   0.48602781   0.00558391
8096.00   0.48508704   0.00565953
8098.00   0.48479900   0.00571869
8100.00   0.48269197   0.00580004
8102.00   0.47959185   0.00591784
8104.00   0.47433367   0.00602565
8106.00   0.46471712   0.00611759
8108.00   0.45118612   0.00621305
8110.00   0.44404683   0.00604877
8112.00   0.44264969   0.00544387
8114.00   0.43790463   0.00518463
8116.00   0.42975199   0.00529960
8118.00   0.42312637   0.00538849
8120.00   0.42062959   0.00522904
8122.00   0.42062488   0.00495581
8124.00   0.42055234   0.00490586
8126.00   0.42077121   0.00503054
8128.00   0.42314240   0.00510906
8130.00   0.43010077   0.00523701
8132.00   0.43364471   0.00531925
8134.00   0.43018436   0.00531175
8136.00   0.42379174   0.00526888
8138.00   0.42177504   0.00529765
8140.00   0.42082053   0.00538230
8142.00   0.42303389   0.00541836
8144.00   0.43217033   0.00544507
8146.00   0.43556571   0.00544256
8148.00   0.42957145   0.00538894
8150.00   0.42129090   0.00532538
8152.00   0.41922161   0.00530634
8154.00   0.41944036   0.00528189
8156.00   0.42419779   0.00541320
8158.00   0.43947816   0.00569420
8160.00   0.44493693   0.00595298
8162.00   0.43674740   0.00629136
8164.00   0.42825162   0.00652266
8166.00   0.43169957   0.00643910
8168.00   0.44256866   0.00609721
8170.00   0.44607157   0.00598310
8172.00   0.44465843   0.00584996
8174.00   0.44624484   0.00598620
8176.00   0.45157433   0.00641992
8178.00   0.45504588   0.00687918
8180.00   0.45306695   0.00727070
8182.00   0.44775400   0.00764884
8184.00   0.44424909   0.00789924
8186.00   0.44384867   0.00806952
8188.00   0.43622357   0.00818058
8190.00   0.41977614   0.00824812
8192.00   0.40608454   0.00822658
8194.00   0.39842764   0.00809894
8196.00   0.39434773   0.00787444
8198.00   0.39375034   0.00755444
8200.00   0.39934573   0.00702560
8202.00   0.40089518   0.00664085
8204.00   0.40205383   0.00629768
8206.00   0.40121669   0.00601664
8208.00   0.39636913   0.00581661
8210.00   0.39114818   0.00568820
8212.00   0.39243844   0.00561564
8214.00   0.40069652   0.00564180
8216.00   0.39857474   0.00559572
8218.00   0.38515195   0.00550714
8220.00   0.37962079   0.00544635
8222.00   0.38323152   0.00541294
8224.00   0.38967466   0.00539668
8226.00   0.39439976   0.00540088
8228.00   0.39968222   0.00543280
8230.00   0.40346614   0.00540639
8232.00   0.40961125   0.00533065
8234.00   0.40809506   0.00526451
8236.00   0.39535737   0.00518051
8238.00   0.38426462   0.00511959
8240.00   0.38390136   0.00510887
8242.00   0.38943982   0.00513486
8244.00   0.38935304   0.00520620
8246.00   0.38674942   0.00542676
8248.00   0.38461626   0.00543632
8250.00   0.38369048   0.00512820
8252.00   0.38006589   0.00501586
8254.00   0.37006202   0.00543413
8256.00   0.35760349   0.00601232
8258.00   0.35507068   0.00606406
8260.00   0.36263227   0.00572053
8262.00   0.36299947   0.00550522
8264.00   0.36000311   0.00514731
8266.00   0.35741532   0.00494876
8268.00   0.35603306   0.00494390
8270.00   0.35474291   0.00513117
8272.00   0.35201436   0.00556444
8274.00   0.34604570   0.00610450
8276.00   0.34862077   0.00699394
8278.00   0.36018959   0.00846079
8280.00   0.36848325   0.00922004
8282.00   0.37241206   0.00936982
8284.00   0.37595817   0.00925556
8286.00   0.38414890   0.00907274
8288.00   0.39769298   0.00867152
8290.00   0.39242253   0.00847501
8292.00   0.35949644   0.00836158
8294.00   0.35115868   0.00830314
8296.00   0.36934334   0.00839428
8298.00   0.38989606   0.00842541
8300.00   0.39839539   0.00824054
8302.00   0.40219539   0.00790669
8304.00   0.40116084   0.00750552
8306.00   0.38902619   0.00680749
8308.00   0.38638088   0.00637779
8310.00   0.39154550   0.00621410
8312.00   0.39629784   0.00608755
8314.00   0.39770028   0.00591425
8316.00   0.39762953   0.00574401
8318.00   0.39608687   0.00553937
8320.00   0.39106908   0.00522969
8322.00   0.38950813   0.00509392
8324.00   0.39029637   0.00512431
8326.00   0.39080369   0.00514398
8328.00   0.39113051   0.00503719
8330.00   0.39081699   0.00497532
8332.00   0.38759395   0.00523129
8334.00   0.38100249   0.00531591
8336.00   0.37715912   0.00670262
8338.00   0.36957759   0.00902947
8340.00   0.37175578   0.01048517
8342.00   0.38808739   0.01158647
8344.00   0.40844271   0.01219235
8346.00   0.42249033   0.01178175
8348.00   0.43653864   0.01026376
8350.00   0.43745625   0.00937637
8352.00   0.42344269   0.00859118
8354.00   0.41318870   0.00791569
8356.00   0.40263146   0.00744335
8358.00   0.39511526   0.00707054
8360.00   0.39534473   0.00669946
8362.00   0.40146410   0.00639185
8364.00   0.40318364   0.00611619
8366.00   0.40481269   0.00590658
8368.00   0.40373957   0.00572031
8370.00   0.39724573   0.00550373
8372.00   0.39370468   0.00543055
8374.00   0.39819542   0.00562097
8376.00   0.40708506   0.00597146
8378.00   0.41170123   0.00624340
8380.00   0.41952482   0.00670847
8382.00   0.41588193   0.00673838
8384.00   0.39703566   0.00618679
8386.00   0.38478526   0.00595043
8388.00   0.38603446   0.00625812
8390.00   0.39310786   0.00689470
8392.00   0.39682180   0.00785501
8394.00   0.40596414   0.00941880
8396.00   0.39838135   0.00983879
8398.00   0.36820331   0.00958802
8400.00   0.35219598   0.00922267
8402.00   0.35832751   0.00868142
8404.00   0.36942983   0.00799992
8406.00   0.36615536   0.00734068
8408.00   0.35435912   0.00647503
8410.00   0.34864020   0.00631225
8412.00   0.34526509   0.00691959
8414.00   0.34134752   0.00733585
8416.00   0.34172571   0.00771668
8418.00   0.33626211   0.00800767
8420.00   0.31187099   0.00804617
8422.00   0.27206588   0.00787208
8424.00   0.25779098   0.00820560
8426.00   0.26041028   0.00919644
8428.00   0.26346400   0.00944904
8430.00   0.27400294   0.00917682
8432.00   0.28282920   0.00865766
8434.00   0.28498164   0.00787706
8436.00   0.28331107   0.00675731
8438.00   0.27823031   0.00609740
8440.00   0.26502925   0.00584165
8442.00   0.25895363   0.00558871
8444.00   0.25698227   0.00545130
8446.00   0.25595853   0.00549648
8448.00   0.25613511   0.00582237
8450.00   0.25663075   0.00625736
8452.00   0.25249138   0.00641981
8454.00   0.23958786   0.00630666
8456.00   0.24184923   0.00657663
8458.00   0.25928801   0.00713174
8460.00   0.27101231   0.00758441
8462.00   0.27521038   0.00803115
8464.00   0.27522635   0.00833017
8466.00   0.27163479   0.00816955
8468.00   0.26313868   0.00757906
8470.00   0.25573823   0.00701607
8472.00   0.24386200   0.00608922
8474.00   0.23860902   0.00536159
8476.00   0.24026887   0.00491875
8478.00   0.24573530   0.00466647
8480.00   0.25370538   0.00453888
8482.00   0.26552150   0.00459738
8484.00   0.27274245   0.00477205
8486.00   0.27642083   0.00512136
8488.00   0.28212857   0.00546526
8490.00   0.29109162   0.00590322
8492.00   0.29774329   0.00625238
8494.00   0.29692772   0.00637899
8496.00   0.29172498   0.00638546
8498.00   0.29740453   0.00665347
8500.00   0.31187674   0.00707486
8502.00   0.32429489   0.00749056
8504.00   0.34220576   0.00828607
8506.00   0.35308257   0.00851889
8508.00   0.34929720   0.00766560
8510.00   0.33877549   0.00605464
8512.00   0.34019518   0.00532594
8514.00   0.34875503   0.00517228
8516.00   0.35619211   0.00524320
8518.00   0.36928254   0.00605338
8520.00   0.37587264   0.00638145
8522.00   0.37226629   0.00600761
8524.00   0.36457303   0.00535649
8526.00   0.36075366   0.00508994
8528.00   0.35730496   0.00498652
8530.00   0.35564399   0.00499360
8532.00   0.35576385   0.00521620
8534.00   0.35635200   0.00538653
8536.00   0.35755217   0.00550336
8538.00   0.35928282   0.00562392
8540.00   0.36210024   0.00579289
8542.00   0.36677209   0.00600218
8544.00   0.36386332   0.00610871
8546.00   0.35025313   0.00619282
8548.00   0.34550521   0.00616502
8550.00   0.35135034   0.00600886
8552.00   0.35562265   0.00579120
8554.00   0.34939629   0.00552666
8556.00   0.33725139   0.00519466
8558.00   0.33367676   0.00500402
8560.00   0.33631837   0.00492550
8562.00   0.33639774   0.00486219
8564.00   0.33795118   0.00486065
8566.00   0.33607900   0.00486825
8568.00   0.32624710   0.00486123
8570.00   0.31303996   0.00485809
8572.00   0.31098977   0.00488361
8574.00   0.31869546   0.00494649
8576.00   0.32198527   0.00498133
8578.00   0.32655638   0.00499736
8580.00   0.32830155   0.00502411
8582.00   0.32575125   0.00502163
8584.00   0.32107973   0.00506108
8586.00   0.31701273   0.00531984
8588.00   0.30981696   0.00583388
8590.00   0.31210071   0.00597212
8592.00   0.32683787   0.00587742
8594.00   0.33360213   0.00576779
8596.00   0.32907644   0.00561281
8598.00   0.32265601   0.00544278
8600.00   0.32354137   0.00532096
8602.00   0.32848755   0.00520672
8604.00   0.33125648   0.00522168
8606.00   0.33220288   0.00535488
8608.00   0.33654678   0.00551349
8610.00   0.34465018   0.00569608
8612.00   0.35379031   0.00592729
8614.00   0.36314753   0.00622252
8616.00   0.37335303   0.00656461
8618.00   0.37695763   0.00690168
8620.00   0.37013486   0.00722449
8622.00   0.37364018   0.00761162
8624.00   0.38770398   0.00813159
8626.00   0.39939329   0.00853358
8628.00   0.40344980   0.00876817
8630.00   0.40332183   0.00887882
8632.00   0.40087849   0.00874201
8634.00   0.39089245   0.00825228
8636.00   0.38887626   0.00787087
8638.00   0.38878402   0.00734059
8640.00   0.39463741   0.00697057
8642.00   0.41131413   0.00686999
8644.00   0.43135256   0.00695949
8646.00   0.43805331   0.00716649
8648.00   0.43423989   0.00758871
8650.00   0.43632913   0.00784780
8652.00   0.43636134   0.00801427
8654.00   0.44281501   0.00824363
8656.00   0.46133462   0.00862822
8658.00   0.47995198   0.00895296
8660.00   0.48273075   0.00897292
8662.00   0.47404000   0.00877984
8664.00   0.47073430   0.00851890
8666.00   0.46592784   0.00784573
8668.00   0.46408251   0.00761802
8670.00   0.46642047   0.00802723
8672.00   0.46876210   0.00841887
8674.00   0.46773332   0.00836917
8676.00   0.46483919   0.00808659
8678.00   0.46275631   0.00767570
8680.00   0.46106079   0.00673287
8682.00   0.45819411   0.00628380
8684.00   0.45164785   0.00638649
8686.00   0.44861099   0.00653026
8688.00   0.45377210   0.00650420
8690.00   0.46384215   0.00643357
8692.00   0.47003344   0.00630962
8694.00   0.47568557   0.00603534
8696.00   0.48017901   0.00593104
8698.00   0.48229429   0.00594445
8700.00   0.48583093   0.00598654
8702.00   0.49418235   0.00606115
8704.00   0.50272638   0.00614746
8706.00   0.50018239   0.00614716
8708.00   0.48558497   0.00609189
8710.00   0.48092833   0.00600836
8712.00   0.48042685   0.00583129
8714.00   0.48137143   0.00571809
8716.00   0.48513222   0.00570025
8718.00   0.48912978   0.00572118
8720.00   0.48837310   0.00572359
8722.00   0.48333201   0.00572852
8724.00   0.48388162   0.00575402
8726.00   0.49041197   0.00582525
8728.00   0.49212086   0.00584699
8730.00   0.48729697   0.00579920
8732.00   0.48255056   0.00575183
8734.00   0.48395532   0.00576908
8736.00   0.48934180   0.00582589
8738.00   0.48918572   0.00584954
8740.00   0.48326057   0.00585632
8742.00   0.48248488   0.00587266
8744.00   0.48446116   0.00577924
8746.00   0.48973849   0.00585948
8748.00   0.50116694   0.00623220
8750.00   0.51661491   0.00678860
8752.00   0.52061361   0.00756058
8754.00   0.51657265   0.00859740
8756.00   0.51139718   0.00942923
8758.00   0.49970099   0.01009286
8760.00   0.49092302   0.01090569
8762.00   0.49033558   0.01206211
8764.00   0.49208760   0.01322640
8766.00   0.48298112   0.01379764
8768.00   0.45805708   0.01423224
8770.00   0.45621380   0.01394482
8772.00   0.47107741   0.01258286
8774.00   0.48719004   0.01144817
8776.00   0.50790739   0.01089130
8778.00   0.52671576   0.01051416
8780.00   0.52760154   0.00985711
8782.00   0.51246727   0.00897274
8784.00   0.50702715   0.00843900
8786.00   0.50422132   0.00826694
8788.00   0.50081199   0.00803648
8790.00   0.49643552   0.00778167
8792.00   0.49255383   0.00751191
8794.00   0.48987868   0.00717522
8796.00   0.48759454   0.00676610
8798.00   0.49089828   0.00649653
8800.00   0.50257939   0.00629448
8802.00   0.50836563   0.00621264
8804.00   0.51056099   0.00634424
8806.00   0.50989658   0.00645060
8808.00   0.50562125   0.00634289
8810.00   0.49819455   0.00612247
8812.00   0.49316797   0.00621590
8814.00   0.48367083   0.00603601
8816.00   0.48597631   0.00698193
8818.00   0.50743955   0.00863293
8820.00   0.51759923   0.01021983
8822.00   0.49949139   0.01186279
8824.00   0.46963799   0.01336896
8826.00   0.46549603   0.01391153
8828.00   0.47918084   0.01387158
8830.00   0.48818547   0.01352081
8832.00   0.50801259   0.01228109
8834.00   0.51397622   0.01137354
8836.00   0.49629101   0.01138056
8838.00   0.47090328   0.01155390
8840.00   0.46145564   0.01070151
8842.00   0.45875448   0.00860571
8844.00   0.46109885   0.00768466
8846.00   0.47206306   0.00782710
8848.00   0.48257333   0.00783586
8850.00   0.49268562   0.00775226
8852.00   0.50370181   0.00768332
8854.00   0.51775324   0.00757692
8856.00   0.53628379   0.00740130
8858.00   0.53831124   0.00762766
8860.00   0.52454102   0.00828032
8862.00   0.51432937   0.00870189
8864.00   0.50602007   0.00898172
8866.00   0.49594659   0.00922005
8868.00   0.47994095   0.00953932
8870.00   0.45989156   0.00988132
8872.00   0.45537990   0.00961138
8874.00   0.46356127   0.00804505
8876.00   0.47158787   0.00795070
8878.00   0.48622647   0.00916496
8880.00   0.49794984   0.01032453
8882.00   0.50248861   0.01130088
8884.00   0.50301373   0.01214574
8886.00   0.50329566   0.01208909
8888.00   0.50042725   0.01108039
8890.00   0.49976715   0.01029574
8892.00   0.49450839   0.00781057
8894.00   0.49917302   0.00781613
8896.00   0.52205634   0.01220359
8898.00   0.55053914   0.01610815
8900.00   0.56259704   0.01655128
8902.00   0.56935465   0.01492252
8904.00   0.55962539   0.01353658
8906.00   0.52344555   0.01033367
8908.00   0.50045508   0.00814683
8910.00   0.49642944   0.00839894
8912.00   0.49524236   0.00968985
8914.00   0.48071378   0.01084037
8916.00   0.45727333   0.01245791
8918.00   0.44455543   0.01285894
8920.00   0.43638816   0.01259136
8922.00   0.43213385   0.01199544
8924.00   0.43298870   0.01064150
8926.00   0.43638080   0.00908264
8928.00   0.43962786   0.00794873
8930.00   0.44382960   0.00702530
8932.00   0.45549101   0.00682496
8934.00   0.47805494   0.00759608
8936.00   0.49314687   0.00820533
8938.00   0.50898296   0.00914165
8940.00   0.51518393   0.00972599
8942.00   0.50088626   0.00950406
8944.00   0.47552454   0.00889520
8946.00   0.47559747   0.00946862
8948.00   0.50353718   0.01102197
8950.00   0.50640023   0.01187236
8952.00   0.49124286   0.01271525
8954.00   0.48137879   0.01316761
8956.00   0.48296690   0.01317920
8958.00   0.48923346   0.01284714
8960.00   0.49405593   0.01218612
8962.00   0.50398976   0.01092006
8964.00   0.50095004   0.00981499
8966.00   0.48445344   0.00832848
8968.00   0.47213104   0.00718161
8970.00   0.46531034   0.00676309
8972.00   0.46030679   0.00675034
8974.00   0.45465010   0.00666058
8976.00   0.44879755   0.00668950
8978.00   0.44665816   0.00694536
8980.00   0.44708258   0.00743412
8982.00   0.44974059   0.00793722
8984.00   0.45368475   0.00858584
8986.00   0.46117032   0.00911326
8988.00   0.47695422   0.00928169
8990.00   0.50036341   0.00920626
8992.00   0.50373161   0.00943666
8994.00   0.48865435   0.00978519
8996.00   0.48003858   0.01021556
8998.00   0.46984145   0.01100223
9000.00   0.46510097   0.01142657
9002.00   0.47337443   0.01112313
9004.00   0.48905742   0.01031911
9006.00   0.48843646   0.00953907
9008.00   0.47286430   0.00819895
9010.00   0.46622699   0.00736440
9012.00   0.46193498   0.00689788
9014.00   0.45971897   0.00669692
9016.00   0.46139747   0.00685086
9018.00   0.46422431   0.00721980
9020.00   0.45994219   0.00735661
9022.00   0.44844511   0.00735464
9024.00   0.44301486   0.00755467
9026.00   0.43899417   0.00778731
9028.00   0.43813995   0.00820758
9030.00   0.44066253   0.00905766
9032.00   0.44613644   0.00976993
9034.00   0.45553806   0.00959903
9036.00   0.47246253   0.00859885
9038.00   0.47338334   0.00824385
9040.00   0.45902500   0.00814733
9042.00   0.44994330   0.00816940
9044.00   0.44485813   0.00842533
9046.00   0.44165954   0.00868276
9048.00   0.43991297   0.00874695
9050.00   0.43978187   0.00872447
9052.00   0.44176388   0.00849505
9054.00   0.45096344   0.00792698
9056.00   0.45060319   0.00749011
9058.00   0.43974689   0.00706929
9060.00   0.42873552   0.00674813
9062.00   0.42189294   0.00662934
9064.00   0.41697407   0.00667044
9066.00   0.41971615   0.00667286
9068.00   0.43592510   0.00674878
9070.00   0.43958256   0.00675819
9072.00   0.43404683   0.00672714
9074.00   0.42884028   0.00668587
9076.00   0.42746013   0.00661964
9078.00   0.42670718   0.00655359
9080.00   0.42225701   0.00659531
9082.00   0.41587546   0.00670210
9084.00   0.40703759   0.00687564
9086.00   0.39067456   0.00722059
9088.00   0.38166916   0.00741486
9090.00   0.38481554   0.00735710
9092.00   0.39177406   0.00724676
9094.00   0.39116049   0.00737154
9096.00   0.38622794   0.00764140
9098.00   0.38443300   0.00787238
9100.00   0.38525364   0.00824797
9102.00   0.38319141   0.00838302
9104.00   0.37669551   0.00822113
9106.00   0.37016800   0.00797474
9108.00   0.36806586   0.00787551
9110.00   0.36885908   0.00786327
9112.00   0.36760470   0.00751740
9114.00   0.36428115   0.00663253
9116.00   0.36410779   0.00613095
9118.00   0.36905009   0.00604883
9120.00   0.37211975   0.00608454
9122.00   0.36853486   0.00608152
9124.00   0.36084735   0.00612268
9126.00   0.35428342   0.00615449
9128.00   0.34343135   0.00619902
9130.00   0.34011215   0.00624430
9132.00   0.34527951   0.00630964
9134.00   0.34860048   0.00635176
9136.00   0.34521791   0.00631880
9138.00   0.33937374   0.00626891
9140.00   0.33895823   0.00639555
9142.00   0.34310263   0.00660293
9144.00   0.34430709   0.00694528
9146.00   0.34466195   0.00758964
9148.00   0.34460282   0.00794677
9150.00   0.34354222   0.00788242
9152.00   0.34254172   0.00766490
9154.00   0.34441671   0.00768644
9156.00   0.35088050   0.00788628
9158.00   0.34800723   0.00779202
9160.00   0.33255696   0.00740736
9162.00   0.32709464   0.00713038
9164.00   0.33528239   0.00699418
9166.00   0.34625047   0.00690157
9168.00   0.35010672   0.00678416
9170.00   0.35129312   0.00667412
9172.00   0.34932455   0.00655788
9174.00   0.34044948   0.00641680
9176.00   0.33687592   0.00632248
9178.00   0.33842829   0.00628054
9180.00   0.34091529   0.00625600
9182.00   0.34316534   0.00619040
9184.00   0.34597906   0.00610661
9186.00   0.33966252   0.00630628
9188.00   0.31710118   0.00696432
9190.00   0.31240994   0.00709542
9192.00   0.32271853   0.00677271
9194.00   0.33454943   0.00645390
9196.00   0.34509492   0.00634471
9198.00   0.35515743   0.00631964
9200.00   0.35388145   0.00629485
9202.00   0.33640441   0.00631379
9204.00   0.33337566   0.00633418
9206.00   0.33949313   0.00634770
9208.00   0.34423113   0.00641164
9210.00   0.34750026   0.00636987
9212.00   0.34829497   0.00648776
9214.00   0.33893737   0.00741321
9216.00   0.31326085   0.00916854
9218.00   0.31301033   0.00951587
9220.00   0.33461010   0.00899307
9222.00   0.35059381   0.00845115
9224.00   0.36266166   0.00771443
9226.00   0.36988497   0.00700621
9228.00   0.36575779   0.00698762
9230.00   0.35036048   0.00757991
9232.00   0.34329131   0.00756352
9234.00   0.34167328   0.00714402
9236.00   0.33478537   0.00689867
9238.00   0.31961522   0.00679186
9240.00   0.30663982   0.00674865
9242.00   0.30422992   0.00676267
9244.00   0.30860963   0.00684564
9246.00   0.31171343   0.00680447
9248.00   0.31932762   0.00664166
9250.00   0.32162106   0.00655627
9252.00   0.31986767   0.00653555
9254.00   0.31636295   0.00650451
9256.00   0.31044057   0.00639982
9258.00   0.30311617   0.00627057
9260.00   0.30343482   0.00631575
9262.00   0.31364051   0.00657682
9264.00   0.31516200   0.00666270
9266.00   0.31174359   0.00667067
9268.00   0.30784056   0.00665385
9270.00   0.30275548   0.00660114
9272.00   0.29820937   0.00653648
9274.00   0.30084696   0.00652554
9276.00   0.30863324   0.00632126
9278.00   0.31929180   0.00685384
9280.00   0.34223646   0.00815825
9282.00   0.35214081   0.00891100
9284.00   0.34349772   0.00921940
9286.00   0.32825080   0.00923153
9288.00   0.31835112   0.00880353
9290.00   0.30640024   0.00761259
9292.00   0.30723971   0.00762190
9294.00   0.32912862   0.00806668
9296.00   0.33224112   0.00934365
9298.00   0.30833688   0.01111845
9300.00   0.28702721   0.01320403
9302.00   0.29435012   0.01568510
9304.00   0.31996766   0.01841699
9306.00   0.33189607   0.01994717
9308.00   0.34825426   0.02089384
9310.00   0.34549037   0.02166391
9312.00   0.30968407   0.02208616
9314.00   0.28770289   0.02248829
9316.00   0.30954319   0.02316669
9318.00   0.35600150   0.02389804
9320.00   0.38009495   0.02381071
9322.00   0.41228607   0.02318165
9324.00   0.40667313   0.02209906
9326.00   0.35894591   0.02000602
9328.00   0.31487080   0.01793310
9330.00   0.28441012   0.01612027
9332.00   0.26058415   0.01457151
9334.00   0.24953778   0.01419404
9336.00   0.25241676   0.01554768
9338.00   0.25531080   0.01553432
9340.00   0.26250854   0.01494000
9342.00   0.27383363   0.01419545
9344.00   0.29566854   0.01310933
9346.00   0.31595331   0.01193863
9348.00   0.31363955   0.01144697
9350.00   0.29297251   0.01153540
9352.00   0.27940950   0.01148209
9354.00   0.25834426   0.01177124
9356.00   0.24953432   0.01163748
9358.00   0.25769892   0.01048711
9360.00   0.26799229   0.00967903
9362.00   0.26735172   0.01039040
9364.00   0.26141116   0.01166388
9366.00   0.25502461   0.01603034
9368.00   0.22825222   0.02271786
9370.00   0.23924448   0.02619075
9372.00   0.30202451   0.02870569
9374.00   0.35530144   0.02991017
9376.00   0.36464241   0.02935889
9378.00   0.34908748   0.02732920
9380.00   0.32034087   0.02488437
9382.00   0.25178254   0.01992298
9384.00   0.21797565   0.01644830
9386.00   0.19664642   0.01433106
9388.00   0.19514671   0.01269547
9390.00   0.22693470   0.01137216
9392.00   0.27533388   0.01070171
9394.00   0.28732008   0.01026593
9396.00   0.27306733   0.01048025
9398.00   0.26919878   0.01068101
9400.00   0.26224405   0.01139388
9402.00   0.25912195   0.01164804
9404.00   0.26198667   0.01115064
9406.00   0.26724571   0.01039692
9408.00   0.27046934   0.01015558
9410.00   0.27487037   0.00998872
9412.00   0.27311045   0.01068457
9414.00   0.26171863   0.01230204
9416.00   0.25800282   0.01345317
9418.00   0.26727563   0.01439575
9420.00   0.27512503   0.01505093
9422.00   0.26431078   0.01519495
9424.00   0.23803321   0.01491631
9426.00   0.23908922   0.01464694
9428.00   0.25857005   0.01303808
9430.00   0.28016099   0.01383984
9432.00   0.31387934   0.01694076
9434.00   0.34237772   0.01988122
9436.00   0.35228857   0.02218617
9438.00   0.35054824   0.02430934
9440.00   0.35151741   0.02466789
9442.00   0.36230606   0.02378726
9444.00   0.34319079   0.02210814
9446.00   0.28064162   0.01778574
9448.00   0.23573925   0.01383381
9450.00   0.23893797   0.01337885
9452.00   0.26430035   0.01505252
9454.00   0.26074010   0.01588286
9456.00   0.23076804   0.01747786
9458.00   0.23303576   0.01781716
9460.00   0.26387805   0.01731149
9462.00   0.28453311   0.01665753
9464.00   0.27982679   0.01537350
9466.00   0.27267113   0.01426194
9468.00   0.30239648   0.01574681
9470.00   0.37758732   0.01915940
9472.00   0.38229403   0.02104257
9474.00   0.32479438   0.02327813
9476.00   0.28754854   0.02398576
9478.00   0.27197239   0.02299671
9480.00   0.26478463   0.02105502
9482.00   0.26151887   0.01869174
9484.00   0.26606491   0.01487865
9486.00   0.26319790   0.01247648
9488.00   0.25909305   0.01133508
9490.00   0.24998042   0.01077052
9492.00   0.22783071   0.01083904
9494.00   0.21289137   0.01196969
9496.00   0.22401972   0.01464250
9498.00   0.25279701   0.01799223
9500.00   0.26003841   0.01865300
9502.00   0.25840810   0.01751624
9504.00   0.25045502   0.01654421
9506.00   0.22635911   0.01470010
9508.00   0.20987418   0.01318606
9510.00   0.21292403   0.01262675
9512.00   0.22683576   0.01292296
9514.00   0.23760718   0.01484674
9516.00   0.25107238   0.01927049
9518.00   0.26472053   0.02033381
9520.00   0.28525773   0.01976542
9522.00   0.29621115   0.01871787
9524.00   0.28877455   0.01704031
9526.00   0.27536428   0.01483046
9528.00   0.27948135   0.01344496
9530.00   0.29716936   0.01262136
9532.00   0.30513015   0.01196664
9534.00   0.31343919   0.01170886
9536.00   0.31364208   0.01177251
9538.00   0.30115476   0.01230663
9540.00   0.28585088   0.01297233
9542.00   0.27963731   0.01334911
9544.00   0.27730900   0.01358670
9546.00   0.27949667   0.01400972
9548.00   0.29695266   0.01467363
9550.00   0.29592013   0.01505091
9552.00   0.27329451   0.01515478
9554.00   0.24669194   0.01516630
9556.00   0.22789389   0.01489258
9558.00   0.21100809   0.01426797
9560.00   0.19889742   0.01609919
9562.00   0.17363968   0.02010197
9564.00   0.18988878   0.02228741
9566.00   0.26521763   0.02454645
9568.00   0.32525465   0.02516865
9570.00   0.33306491   0.02268938
9572.00   0.31206039   0.01740165
9574.00   0.28737348   0.01401355
9576.00   0.22867256   0.01116054
9578.00   0.20758638   0.00925129
9580.00   0.21190801   0.00997044
9582.00   0.21927093   0.01063310
9584.00   0.22503379   0.01073451
9586.00   0.23300260   0.01073811
9588.00   0.24263437   0.01057190
9590.00   0.25696772   0.01013895
9592.00   0.26423204   0.00991802
9594.00   0.26775262   0.00967919
9596.00   0.26832202   0.00968464
9598.00   0.26338652   0.00995191
9600.00   0.25787875   0.01042060
9602.00   0.26066250   0.01110838
9604.00   0.27166754   0.01211111
9606.00   0.26856184   0.01250241
9608.00   0.25227985   0.01242566
9610.00   0.24173474   0.01249305
9612.00   0.23568413   0.01265535
9614.00   0.23200434   0.01286010
9616.00   0.22991544   0.01313303
9618.00   0.22962509   0.01347846
9620.00   0.23336548   0.01360280
9622.00   0.24339950   0.01376406
9624.00   0.25010699   0.01347036
9626.00   0.25809658   0.01254266
9628.00   0.26070359   0.01153207
9630.00   0.25206387   0.01075079
9632.00   0.23600717   0.01006287
9634.00   0.22729710   0.00975883
9636.00   0.21947494   0.01011567
9638.00   0.21661720   0.01001494
9640.00   0.21689646   0.00954725
9642.00   0.22225004   0.00925816
9644.00   0.23786342   0.00938966
9646.00   0.25665268   0.00971481
9648.00   0.25656608   0.00989205
9650.00   0.23312661   0.00991361
9652.00   0.23661846   0.01032104
9654.00   0.26506811   0.01105394
9656.00   0.28053874   0.01170434
9658.00   0.27671272   0.01230552
9660.00   0.26479885   0.01282350
9662.00   0.25279668   0.01311589
9664.00   0.22955033   0.01321822
9666.00   0.23847964   0.01336608
9668.00   0.28656751   0.01343387
9670.00   0.31127855   0.01358048
9672.00   0.31473091   0.01377829
9674.00   0.30537483   0.01404733
9676.00   0.28274465   0.01445730
9678.00   0.24352652   0.01500353
9680.00   0.22563493   0.01526078
9682.00   0.21857686   0.01541981
9684.00   0.21574284   0.01536244
9686.00   0.22246414   0.01501409
9688.00   0.22870378   0.01459397
9690.00   0.22814216   0.01413258
9692.00   0.22421080   0.01361367
9694.00   0.21907729   0.01380657
9696.00   0.20758739   0.01501200
9698.00   0.20426203   0.01527064
9700.00   0.21243691   0.01495036
9702.00   0.21341638   0.01448426
9704.00   0.19614129   0.01382103
9706.00   0.17169283   0.01307334
9708.00   0.16626626   0.01317663
9710.00   0.16852783   0.01391755
9712.00   0.18426470   0.01476271
9714.00   0.22805193   0.01623627
9716.00   0.25381300   0.01712132
9718.00   0.25244844   0.01736685
9720.00   0.23754495   0.01719302
9722.00   0.21954492   0.01658705
9724.00   0.18317325   0.01522254
9726.00   0.18429205   0.01442740
9728.00   0.23342788   0.01366298
9730.00   0.24688828   0.01342410
9732.00   0.20877506   0.01392093
9734.00   0.16616270   0.01465094
9736.00   0.16505505   0.01524123
9738.00   0.18886009   0.01595858
9740.00   0.20236808   0.01590574
9742.00   0.23243059   0.01491944
9744.00   0.23113766   0.01441126
9746.00   0.18570368   0.01454243
9748.00   0.14562488   0.01445053
9750.00   0.14710604   0.01338993
9752.00   0.17194401   0.01152917
9754.00   0.17609368   0.01065544
9756.00   0.17314273   0.01068210
9758.00   0.16849552   0.01039281
9760.00   0.15552953   0.00999773
9762.00   0.14807473   0.00972013
9764.00   0.15205985   0.00965079
9766.00   0.16310358   0.00973837
9768.00   0.17647687   0.00994380
9770.00   0.20090342   0.01035100
9772.00   0.21172523   0.01067292
9774.00   0.21415499   0.01075964
9776.00   0.21412751   0.01126857
9778.00   0.20931013   0.01171398
9780.00   0.20423597   0.01286037
9782.00   0.21178538   0.01625681
9784.00   0.23253989   0.02129611
9786.00   0.23996955   0.02332231
9788.00   0.23668593   0.02410907
9790.00   0.23929933   0.02457339
9792.00   0.24944670   0.02457489
9794.00   0.26193267   0.02435865
9796.00   0.27424166   0.02444588
9798.00   0.29065570   0.02481924
9800.00   0.28715152   0.02387252
9802.00   0.25958252   0.02115632
9804.00   0.24503538   0.01909732
9806.00   0.24655473   0.01756136
9808.00   0.24422668   0.01639393
9810.00   0.21934666   0.01569456
9812.00   0.17947923   0.01554077
9814.00   0.17490704   0.01530860
9816.00   0.20695272   0.01514742
9818.00   0.21554084   0.01529736
9820.00   0.21268895   0.01622323
9822.00   0.20256087   0.01655370
9824.00   0.18254568   0.01544225
9826.00   0.15584400   0.01335583
9828.00   0.14314857   0.01238859
9830.00   0.14186861   0.01220665
9832.00   0.13538469   0.01190094
9834.00   0.12560594   0.01158434
9836.00   0.12072854   0.01173810
9838.00   0.12163884   0.01256059
9840.00   0.12798524   0.01367364
9842.00   0.14339487   0.01459397
9844.00   0.17387287   0.01566491
9846.00   0.18716660   0.01623412
9848.00   0.19366680   0.01668681
9850.00   0.19200961   0.01662968
9852.00   0.17936964   0.01577709
9854.00   0.16145389   0.01463384
9856.00   0.14405379   0.01390291
9858.00   0.12008256   0.01308279
9860.00   0.12007377   0.01374068
9862.00   0.14872573   0.01526409
9864.00   0.16143890   0.01743032
9866.00   0.15774454   0.02027309
9868.00   0.15184039   0.02307228
9870.00   0.15178682   0.02595414
9872.00   0.15318316   0.02907099
9874.00   0.16487837   0.02862500
9876.00   0.19228414   0.02378876
9878.00   0.20838670   0.02073528
9880.00   0.22103177   0.01859279
9882.00   0.22484265   0.01718152
9884.00   0.21463142   0.01675746
9886.00   0.19413751   0.01730863
9888.00   0.17702389   0.01792819
9890.00   0.14214030   0.01927160
9892.00   0.14401755   0.02003782
9894.00   0.18136384   0.02069427
9896.00   0.21616252   0.02105892
9898.00   0.24497734   0.02098579
9900.00   0.26697361   0.02068578
9902.00   0.25775966   0.02061624
9904.00   0.21061508   0.02013337
9906.00   0.19106644   0.02114086
9908.00   0.18502463   0.02356903
9910.00   0.17550367   0.02541460
9912.00   0.15581059   0.02707339
9914.00   0.13904016   0.02809962
9916.00   0.14480162   0.02735935
9918.00   0.17284305   0.02478622
9920.00   0.17629264   0.02293361
9922.00   0.16558471   0.02042197
9924.00   0.15438937   0.01883038
9926.00   0.13791093   0.01851115
9928.00   0.12348950   0.01886261
9930.00   0.12034465   0.01924116
9932.00   0.12534258   0.01981579
9934.00   0.12345956   0.02188515
9936.00   0.10242774   0.02409507
9938.00   0.11731198   0.02815351
9940.00   0.17140853   0.03487203
9942.00   0.23007482   0.03944394
9944.00   0.27905795   0.04017979
9946.00   0.32571703   0.03885202
9948.00   0.34982789   0.03906539
9950.00   0.37855595   0.03976203
9952.00   0.34534818   0.04020325
9954.00   0.22394396   0.04117323
9956.00   0.13199189   0.04110959
9958.00   0.11275556   0.03916031
9960.00   0.12687120   0.03600477
9962.00   0.12395158   0.03352245
9964.00   0.12705182   0.03074611
9966.00   0.12054753   0.02865864
9968.00   0.09559704   0.02726608
9970.00   0.09084056   0.02614276
9972.00   0.11940259   0.02543490
9974.00   0.15824734   0.02495570
9976.00   0.17639072   0.02417319
9978.00   0.18635255   0.02328653
9980.00   0.18893734   0.02231225
9982.00   0.18099184   0.02099124
9984.00   0.17123568   0.02002001
9986.00   0.15363853   0.01931885
9988.00   0.13957515   0.01905665
9990.00   0.14343168   0.01953672
9992.00   0.16081332   0.02066424
9994.00   0.17004122   0.02159760
9996.00   0.19168518   0.02263377
9998.00   0.18347780   0.02366227
10000.00   0.13193576   0.02393683
10002.00   0.08791137   0.02532664
10004.00   0.08215231   0.02888642
10006.00   0.09826094   0.03338777
10008.00   0.12608226   0.03703311
10010.00   0.19624187   0.04213461
10012.00   0.21951343   0.04348839
10014.00   0.21061814   0.04177053
10016.00   0.19010197   0.03946823
10018.00   0.15974322   0.03714577
10020.00   0.12089886   0.03447430
10022.00   0.09525208   0.03293343
10024.00   0.06798903   0.03284362
10026.00   0.06379572   0.03155407
10028.00   0.08922580   0.02928948
10030.00   0.10504421   0.02738383
10032.00   0.10169396   0.02615523
10034.00   0.09321766   0.02538934
10036.00   0.09517387   0.02506804
10038.00   0.09929964   0.02551313
10040.00   0.11554115   0.02533918
10042.00   0.15322849   0.02488303
10044.00   0.17536077   0.02441100
10046.00   0.18205899   0.02373119
10048.00   0.17837684   0.02319818
10050.00   0.16317354   0.02326546
10052.00   0.13284165   0.02370825
10054.00   0.12184070   0.02474480
10056.00   0.11666019   0.02672580
10058.00   0.12427397   0.02804023
10060.00   0.15408579   0.02907581
10062.00   0.18114904   0.02970067
10064.00   0.18513149   0.02968334
10066.00   0.17585045   0.02914237
10068.00   0.18309386   0.02883706
10070.00   0.21592823   0.02677354
10072.00   0.21123052   0.02859106
10074.00   0.16539240   0.03389308
10076.00   0.12659919   0.03845605
10078.00   0.11162042   0.04218917
10080.00   0.11006556   0.04517841
10082.00   0.12633763   0.04419643
10084.00   0.18622757   0.03780265
10086.00   0.19443069   0.03415191
10088.00   0.15477020   0.03012436
10090.00   0.13519153   0.02815385
10092.00   0.16256252   0.02992981
10094.00   0.19935673   0.03329568
10096.00   0.18362315   0.03532711
10098.00   0.12217110   0.03804760
10100.00   0.09525055   0.03777628
10102.00   0.06141842   0.03392498
10104.00   0.06949176   0.03128320
10106.00   0.15159293   0.03024849
10108.00   0.23766230   0.03027026
10110.00   0.23782030   0.03124490
10112.00   0.17754170   0.03308281
10114.00   0.15393433   0.03596453
10116.00   0.11649060   0.04085346
10118.00   0.12412596   0.04361469
10120.00   0.19850585   0.04504041
10122.00   0.27000290   0.04550697
10124.00   0.28443646   0.04500867
10126.00   0.26698479   0.04351263
10128.00   0.25493276   0.04135662
10130.00   0.23345442   0.03711127
10132.00   0.20942093   0.03428784
10134.00   0.18342026   0.03245907
10136.00   0.15006827   0.03137078
10138.00   0.10105187   0.03106096
10140.00   0.04388497   0.03154223
10142.00   0.01450317   0.03230162
10144.00   -0.00494178   0.03333643
10146.00   0.00198736   0.03511297
10148.00   0.04619129   0.03803621
10150.00   0.08476508   0.04024991
10152.00   0.11010351   0.04158352
10154.00   0.12815513   0.04234053
10156.00   0.13475364   0.04217939
10158.00   0.13615207   0.03930269
10160.00   0.11259375   0.04187117
10162.00   0.03781501   0.04860939
10164.00   0.00580317   0.05387944
10166.00   0.03309735   0.05909881
10168.00   0.08274107   0.06260718
10170.00   0.12141375   0.06111886
10172.00   0.17231445   0.05455080
10174.00   0.17753743   0.05122159
10176.00   0.13102555   0.04854393
10178.00   0.10817281   0.04686825
10180.00   0.09417940   0.04637270
10182.00   0.10156969   0.04687406
10184.00   0.15923701   0.04862966
10186.00   0.26173863   0.05165019
10188.00   0.27885258   0.05172285
10190.00   0.22876060   0.04932486
10192.00   0.19378509   0.04753630
10194.00   0.14230818   0.04471882
10196.00   0.11095412   0.04333888
10198.00   0.13361342   0.04520662
10200.00   0.18674468   0.04900594
10202.00   0.17837337   0.05241587
10204.00   0.07642128   0.05770194
10206.00   0.09775585   0.05967597
10208.00   0.24271537   0.05953458
10210.00   0.34855622   0.05866696
10212.00   0.36751643   0.05711969
10214.00   0.34302977   0.05495374
10216.00   0.30920064   0.05329109
10218.00   0.23345828   0.05105752
10220.00   0.19416372   0.05090953
10222.00   0.19393294   0.05281277
10224.00   0.15680316   0.05457158
10226.00   0.04143691   0.05618047
10228.00   -0.07380687   0.05768939
10230.00   -0.07074922   0.05906928
10232.00   0.02644943   0.06133607
10234.00   0.07568223   0.05878775
10236.00   0.13781968   0.04892926
10238.00   0.16518074   0.04214878
10240.00   0.13928629   0.04036902
10242.00   0.11176778   0.04027629
10244.00   0.13636982   0.03905938
10246.00   0.19588065   0.03791038
10248.00   0.19980790   0.03821675
10250.00   0.14356299   0.04015002
10252.00   0.13744272   0.04159233
10254.00   0.19229861   0.04364010
10256.00   0.23017049   0.04460317
10258.00   0.19597270   0.04286329
10260.00   0.12192342   0.03921082
10262.00   0.10976152   0.03904058
10264.00   0.16140904   0.04170283
10266.00   0.15185359   0.04323229
10268.00   0.09128447   0.04446264
10270.00   0.03983890   0.04597590
10272.00   0.01266622   0.04692695
10274.00   -0.00003808   0.04853990
10276.00   0.01069654   0.05491453
10278.00   0.04163368   0.06425419
10280.00   0.09228384   0.07257628
10282.00   0.17838950   0.08359092
10284.00   0.25569698   0.08987711
10286.00   0.35468456   0.09106323
10288.00   0.41817495   0.08959234
10290.00   0.31082225   0.08742947
10292.00   0.00668718   0.08264735
10294.00   -0.07235138   0.08031467
10296.00   -0.03252898   0.08093040
10298.00   0.04683286   0.07858549
10300.00   0.22738332   0.07130856
10302.00   0.39087841   0.06299889
10304.00   0.38465813   0.05924394
10306.00   0.25388575   0.05875375
10308.00   0.22316141   0.05745976
10310.00   0.23196612   0.05726732
10312.00   0.23779744   0.05659575
10314.00   0.24136728   0.05467167
10316.00   0.25859058   0.05397472
10318.00   0.30469865   0.05651900
10320.00   0.37188166   0.06098427
10322.00   0.40925243   0.06398208
10324.00   0.47312659   0.06946207
10326.00   0.43658939   0.06853918
10328.00   0.23939513   0.05903375
10330.00   0.12167354   0.05068807
10332.00   0.20640185   0.05042420
10334.00   0.38690135   0.05415453
10336.00   0.44670379   0.05539129
10338.00   0.49303335   0.05622752
10340.00   0.42813563   0.05780246
10342.00   0.17412734   0.05994268
10344.00   0.03099926   0.06203930
10346.00   0.07974164   0.06438386
10348.00   0.20497747   0.06642900
10350.00   0.26706287   0.06685098
10352.00   0.32936761   0.06556901
10354.00   0.35506850   0.06575184
10356.00   0.36722308   0.06746001
10358.00   0.33149433   0.06756666
10360.00   0.19460200   0.06407721
10362.00   0.07190874   0.06139099
10364.00   0.11255693   0.06564846
10366.00   0.27770686   0.07455824
10368.00   0.35366979   0.07884871
10370.00   0.38232091   0.08243550
10372.00   0.45032886   0.08379781
10374.00   0.59109449   0.08252497
10376.00   0.69442606   0.08038925
10378.00   0.66500503   0.07877783
10380.00   0.54622048   0.07701819
10382.00   0.51713771   0.07358860
10384.00   0.57004637   0.06597808
10386.00   0.52986598   0.06311776
10388.00   0.37538177   0.06456875
10390.00   0.26623851   0.06725091
10392.00   0.27796644   0.07105921
10394.00   0.35594380   0.07534803
10396.00   0.41843873   0.07485568
10398.00   0.54266846   0.06907755
10400.00   0.56607056   0.06615876
10402.00   0.48813641   0.06247408
10404.00   0.44333580   0.06163515
10406.00   0.45207831   0.06398260
10408.00   0.49686107   0.06923293
10410.00   0.60407990   0.07876492
10412.00   0.86043447   0.09497220
10414.00   0.83322603   0.09803629
10416.00   0.48351985   0.09097269
10418.00   0.31693232   0.08616986
10420.00   0.40913579   0.08484836
10422.00   0.56746966   0.08440091
10424.00   0.61108679   0.08352403
10426.00   0.61578411   0.08335669
10428.00   0.59512269   0.07986645
10430.00   0.49360913   0.07090261
10432.00   0.46881735   0.06551293
10434.00   0.53074616   0.06450821
10436.00   0.60705161   0.06499531
10438.00   0.65549242   0.06509616
10440.00   0.69947737   0.06573638
10442.00   0.68298495   0.06667000
10444.00   0.57683641   0.06834290
10446.00   0.53649890   0.06950764
10448.00   0.54857558   0.07074698
10450.00   0.56149012   0.07131216
10452.00   0.54776275   0.07037000
10454.00   0.52621293   0.06857156
10456.00   0.53726548   0.06897811
10458.00   0.60483825   0.07066887
10460.00   0.59957159   0.07295404
10462.00   0.52327621   0.07690857
10464.00   0.47178859   0.07981700
10466.00   0.48076448   0.08156291
10468.00   0.50944752   0.08220436
10470.00   0.49548861   0.08035532
10472.00   0.46496826   0.07512332
10474.00   0.40929836   0.07164410
10476.00   0.25098747   0.06761920
10478.00   0.22211839   0.06527495
10480.00   0.40215778   0.06569214
10482.00   0.62908477   0.06707263
10484.00   0.69793278   0.06711306
10486.00   0.67823416   0.06664161
10488.00   0.67244411   0.06655515
10490.00   0.63620538   0.06629125
10492.00   0.60491455   0.06669284
10494.00   0.55036014   0.06750894
10496.00   0.52662617   0.06903892
10498.00   0.60195524   0.07204298
10500.00   0.75693190   0.07631463
10502.00   0.81003082   0.07725330
10504.00   0.79171157   0.07441260
10506.00   0.79935896   0.07452996
10508.00   0.82610101   0.07748453
10510.00   0.84034878   0.08009119
10512.00   0.82056105   0.08083797
10514.00   0.78071350   0.08071582
10516.00   0.76983970   0.08109433
10518.00   0.76734281   0.08130085
10520.00   0.78388101   0.08195550
10522.00   0.84788162   0.08339394
10524.00   0.87516183   0.08422960
10526.00   0.81284595   0.08408353
10528.00   0.72237647   0.08329118
10530.00   0.74860632   0.08197608
10532.00   0.90573156   0.07907345
10534.00   0.92208689   0.07842419
10536.00   0.85999233   0.08041322
10538.00   0.77680331   0.08071484
10540.00   0.64610720   0.07788911
10542.00   0.51800871   0.07444324
10544.00   0.49870929   0.07430622
10546.00   0.57537830   0.07668336
10548.00   0.57648069   0.07736208
10550.00   0.54089028   0.07743702
10552.00   0.51521558   0.07767588
10554.00   0.47394589   0.07779402
10556.00   0.46302724   0.07825010
10558.00   0.55187976   0.07977499
10560.00   0.72909778   0.08220766
10562.00   0.77150273   0.08307776
10564.00   0.71717215   0.08265237
10566.00   0.68014675   0.08280580
10568.00   0.62512881   0.08331554
10570.00   0.58696312   0.08387669
10572.00   0.59741753   0.08430592
10574.00   0.63857079   0.08470897
10576.00   0.64979404   0.08552694
10578.00   0.63418663   0.08671564
10580.00   0.65172994   0.08787123
10582.00   0.71832711   0.08966905
10584.00   0.75094873   0.09058219
10586.00   0.70233703   0.08974170
10588.00   0.61956972   0.08802388
10590.00   0.61213416   0.08758423
10592.00   0.67546630   0.08788819
10594.00   0.67441201   0.08798128
10596.00   0.62153947   0.08823608
10598.00   0.59611082   0.08840922
10600.00   0.61915284   0.08834445
10602.00   0.65744710   0.08830891
10604.00   0.66955745   0.08879246
10606.00   0.66891217   0.08982582
10608.00   0.67230105   0.09021539
10610.00   0.67302531   0.09039187
10612.00   0.67536646   0.09020339
10614.00   0.69583452   0.08962116
10616.00   0.69862723   0.08871960
10618.00   0.62748790   0.08738771
10620.00   0.48367816   0.08540105
10622.00   0.48061684   0.08499178
10624.00   0.61560655   0.08602246
10626.00   0.67729229   0.08668761
10628.00   0.68479306   0.08753827
10630.00   0.67668611   0.08798123
10632.00   0.66751361   0.08756431
10634.00   0.64948380   0.08651581
10636.00   0.64468092   0.08489472
10638.00   0.63418812   0.08146662
10640.00   0.65492976   0.08002388
10642.00   0.72325778   0.08055095
10644.00   0.77317941   0.08088943
10646.00   0.77674657   0.07981815
10648.00   0.75491190   0.07838266
10650.00   0.73230821   0.07924400
10652.00   0.68542445   0.08311943
10654.00   0.66538590   0.08381653
10656.00   0.67105913   0.08346287
10658.00   0.66312081   0.08140335
10660.00   0.61715090   0.07600256
10662.00   0.57101047   0.06926548
10664.00   0.59780777   0.06715121
10666.00   0.69935864   0.06908365
10668.00   0.73132902   0.06866873
10670.00   0.73407960   0.06770772
10672.00   0.72084516   0.06671972
10674.00   0.66859901   0.06551234
10676.00   0.62333357   0.06441258
10678.00   0.65254503   0.06402253
10680.00   0.74314755   0.06427673
10682.00   0.77047431   0.06380442
10684.00   0.76451319   0.06278987
10686.00   0.75800782   0.06201234
10688.00   0.74255723   0.06157749
10690.00   0.72641486   0.06098333
10692.00   0.71591675   0.05977747
10694.00   0.70753777   0.05812089
10696.00   0.71172184   0.05694876
10698.00   0.73308074   0.05573960
10700.00   0.74504477   0.05520530
10702.00   0.75907993   0.05577816
10704.00   0.76132280   0.05598502
10706.00   0.73599982   0.05510182
10708.00   0.69723612   0.05360385
10710.00   0.70100039   0.05225031
10712.00   0.73712641   0.04914018
10714.00   0.77128404   0.04972245
10716.00   0.82516205   0.05453408
10718.00   0.86692297   0.05728426
10720.00   0.89512169   0.05687953
10722.00   0.90797067   0.05486273
10724.00   0.88557649   0.05243116
10726.00   0.82211930   0.04810099
10728.00   0.77682102   0.04545081
10730.00   0.71649760   0.04382309
10732.00   0.68481714   0.04242750
10734.00   0.69658655   0.04098364
10736.00   0.71947807   0.04017473
10738.00   0.71578556   0.04113305
10740.00   0.70137870   0.04400017
10742.00   0.67776579   0.04408709
10744.00   0.61362773   0.04186736
10746.00   0.60371184   0.04056041
10748.00   0.66948640   0.04009707
10750.00   0.73377037   0.03982697
10752.00   0.73183638   0.03947840
10754.00   0.69114852   0.03922531
10756.00   0.67997187   0.03833157
10758.00   0.65886855   0.03582864
10760.00   0.68041903   0.03548383
10762.00   0.77190679   0.03809323
10764.00   0.83655053   0.03964418
10766.00   0.81561726   0.03794132
10768.00   0.74821293   0.03431822
10770.00   0.72326946   0.03322519
10772.00   0.67072755   0.03298150
10774.00   0.71880180   0.03442163
10776.00   0.91791165   0.03906505
10778.00   1.03326976   0.04139595
10780.00   0.98406756   0.04014725
10782.00   0.85539025   0.03691547
10784.00   0.75941408   0.03383324
10786.00   0.62107873   0.02780850
10788.00   0.57159251   0.02689387
10790.00   0.61634785   0.03221678
10792.00   0.62428278   0.03426893
10794.00   0.56777352   0.03217078
10796.00   0.50222039   0.02858228
10798.00   0.48993805   0.02684839
10800.00   0.51243985   0.02590996
10802.00   0.52489406   0.02486232
10804.00   0.56378734   0.02398789
10806.00   0.56161261   0.02342784
10808.00   0.50200891   0.02313454
10810.00   0.43805242   0.02324471
10812.00   0.40781534   0.02404165
10814.00   0.38904464   0.02546088
10816.00   0.43823928   0.02584246
10818.00   0.61322397   0.02496593
10820.00   0.66953778   0.02542004
10822.00   0.63051540   0.02787564
10824.00   0.55677903   0.02918862
10826.00   0.44580600   0.02738803
10828.00   0.30469981   0.02336560
10830.00   0.33012366   0.02209540
10832.00   0.56487221   0.02328150
10834.00   0.63547701   0.02304297
10836.00   0.62541652   0.02187582
10838.00   0.57870173   0.02117033
10840.00   0.48826885   0.02153371
10842.00   0.37113953   0.02242065
10844.00   0.30874670   0.02312703
10846.00   0.24381238   0.02460644
10848.00   0.27885219   0.02416451
10850.00   0.47920370   0.02153562
10852.00   0.57025284   0.01938851
10854.00   0.47686413   0.01835728
