# File created by shivutils (I.Shivvers)
# wl(A)   flm    er(optional)
3460.00   0.12115321   0.11699649
3461.00   0.14654845   0.11738601
3462.00   0.41514277   0.12625350
3463.00   0.13853765   0.12357693
3464.00   -0.02324184   0.12067953
3465.00   0.15007582   0.12707357
3466.00   0.35840505   0.13401537
3467.00   0.29241282   0.13410458
3468.00   0.13316201   0.13534391
3469.00   -0.19760357   0.13584119
3470.00   -0.01330747   0.13560100
3471.00   0.21344410   0.13531274
3472.00   -0.01417427   0.13518003
3473.00   0.07568874   0.13473360
3474.00   0.77816075   0.14399989
3475.00   0.44554344   0.13729890
3476.00   0.41929451   0.13622758
3477.00   0.17287746   0.14147896
3478.00   0.23406240   0.14606839
3479.00   0.10366146   0.15146086
3480.00   0.15916051   0.15178213
3481.00   0.44962463   0.15895407
3482.00   0.23914930   0.15950896
3483.00   -0.15496208   0.15087025
3484.00   0.01692610   0.14753774
3485.00   0.17080310   0.15021273
3486.00   0.28600669   0.15403032
3487.00   0.21475779   0.15135588
3488.00   0.05462028   0.14634281
3489.00   -0.05440844   0.14334673
3490.00   0.32231072   0.14362808
3491.00   0.45235136   0.14520250
3492.00   0.07223348   0.14439608
3493.00   0.07203536   0.14300202
3494.00   0.25747466   0.14470127
3495.00   0.30464467   0.14458044
3496.00   0.47362271   0.14518529
3497.00   0.40632182   0.14364298
3498.00   0.13288289   0.14110126
3499.00   0.17280726   0.14667957
3500.00   0.34416634   0.15196751
3501.00   0.46290740   0.15420979
3502.00   0.30910712   0.15243585
3503.00   0.15795068   0.15278491
3504.00   0.38185424   0.15279633
3505.00   0.16113229   0.14634080
3506.00   0.11344877   0.14429241
3507.00   0.00789491   0.14516526
3508.00   0.22127613   0.14743966
3509.00   0.48177862   0.15289803
3510.00   0.30049053   0.15076591
3511.00   0.01359494   0.14536907
3512.00   0.10690420   0.14302465
3513.00   0.06302062   0.14052457
3514.00   0.22266009   0.14340413
3515.00   0.37368083   0.14725682
3516.00   0.39006579   0.15039496
3517.00   0.34202185   0.15456566
3518.00   0.24743699   0.14998831
3519.00   0.17879175   0.14344230
3520.00   0.28124499   0.14656620
3521.00   0.45992285   0.14948434
3522.00   0.22833563   0.14386360
3523.00   0.24971624   0.14344746
3524.00   0.31672880   0.14111976
3525.00   0.45291433   0.14175874
3526.00   0.12700681   0.13834201
3527.00   -0.10376928   0.14147291
3528.00   0.21002656   0.14787224
3529.00   0.27743906   0.14885870
3530.00   0.25826833   0.14911599
3531.00   0.55329537   0.15184188
3532.00   0.55836576   0.15137270
3533.00   0.55457723   0.15223019
3534.00   0.27372178   0.15223373
3535.00   -0.09758361   0.15192695
3536.00   0.05536275   0.15208751
3537.00   0.61149156   0.15442024
3538.00   0.67939526   0.15646532
3539.00   0.28787476   0.15376611
3540.00   0.15099742   0.15151362
3541.00   0.18078749   0.15548882
3542.00   -0.06386179   0.16145793
3543.00   0.15973730   0.16671956
3544.00   0.46846244   0.16838567
3545.00   0.24971458   0.16497217
3546.00   0.15613484   0.16179895
3547.00   0.17718266   0.16072738
3548.00   0.20805842   0.15829791
3549.00   0.00029021   0.15580344
3550.00   -0.13444839   0.15703639
3551.00   0.40878040   0.15948717
3552.00   0.51102775   0.15820982
3553.00   0.15550740   0.15326783
3554.00   0.40940961   0.15532559
3555.00   0.41459438   0.15744884
3556.00   0.58008146   0.15550041
3557.00   0.52608204   0.15645818
3558.00   0.21835919   0.15521957
3559.00   0.09414501   0.14920337
3560.00   0.47306058   0.15006742
3561.00   0.35953918   0.15236054
3562.00   0.09449432   0.15038326
3563.00   0.33672503   0.15366913
3564.00   0.11093277   0.14699404
3565.00   0.04002836   0.13650851
3566.00   0.25488004   0.13390443
3567.00   0.40773252   0.14024952
3568.00   0.11924737   0.13704231
3569.00   0.09154920   0.13321662
3570.00   0.49701896   0.12853239
3571.00   0.18441695   0.12905782
3572.00   0.36938053   0.13749504
3573.00   0.30275464   0.13621323
3574.00   0.39645100   0.13412111
3575.00   0.22934903   0.13079484
3576.00   0.00643503   0.13204555
3577.00   0.13602911   0.13352263
3578.00   0.24262699   0.12739995
3579.00   0.03386840   0.12328593
3580.00   0.12558709   0.12646988
3581.00   0.58512926   0.13166006
3582.00   0.43230861   0.12857337
3583.00   0.16486618   0.12003665
3584.00   0.30758634   0.11690965
3585.00   0.30295259   0.11356100
3586.00   0.41020557   0.11399015
3587.00   0.30952737   0.11566316
3588.00   0.06962189   0.11585766
3589.00   -0.00439918   0.11759696
3590.00   0.37140760   0.12460959
3591.00   0.60407233   0.12719886
3592.00   0.30700955   0.12132346
3593.00   0.23940635   0.11871407
3594.00   0.32432356   0.11976240
3595.00   0.30077094   0.12002675
3596.00   0.35608920   0.12167913
3597.00   0.29672524   0.12221520
3598.00   0.28996989   0.12176909
3599.00   0.32818216   0.12006426
3600.00   0.26398882   0.11863288
3601.00   0.47754401   0.12273356
3602.00   0.21944179   0.11763234
3603.00   0.02937726   0.11556312
3604.00   0.18197410   0.11192412
3605.00   0.27912009   0.10850554
3606.00   0.34096700   0.11211282
3607.00   -0.04414215   0.10859583
3608.00   0.12220663   0.10774557
3609.00   -0.02945927   0.10435382
3610.00   -0.17847444   0.10475636
3611.00   0.15750559   0.10705960
3612.00   0.17461878   0.11038090
3613.00   0.28733864   0.11401631
3614.00   0.37002110   0.11670972
3615.00   0.33306786   0.11703517
3616.00   0.24637033   0.11611065
3617.00   0.30217743   0.11003239
3618.00   0.14228870   0.10438944
3619.00   0.09756911   0.10302786
3620.00   0.32656881   0.10659051
3621.00   0.36890107   0.10873684
3622.00   0.25101262   0.10867707
3623.00   0.36519817   0.11231525
3624.00   0.37808716   0.10992243
3625.00   0.32444134   0.11039986
3626.00   0.25306541   0.10924981
3627.00   0.20358209   0.10851222
3628.00   0.18848728   0.10866272
3629.00   0.25267562   0.10841647
3630.00   0.27031478   0.10940002
3631.00   0.36573073   0.10874072
3632.00   0.55113506   0.10976480
3633.00   0.27498537   0.10641920
3634.00   0.19548023   0.10526326
3635.00   0.24134366   0.10682521
3636.00   0.28557000   0.10911050
3637.00   0.25718552   0.10787823
3638.00   0.49332449   0.10957082
3639.00   0.52404493   0.11047815
3640.00   0.14806983   0.10683087
3641.00   0.18806766   0.10868087
3642.00   0.39033768   0.11122094
3643.00   0.34002271   0.10940443
3644.00   0.30643448   0.10761094
3645.00   0.30652699   0.10597487
3646.00   0.28169790   0.10583971
3647.00   0.27250484   0.10773697
3648.00   0.18924065   0.11397161
3649.00   0.08783583   0.13038367
3650.00   0.06628194   0.14294304
3651.00   0.38044935   0.13883136
3652.00   0.48123661   0.12494618
3653.00   0.43808842   0.11890619
3654.00   0.12303573   0.11986756
3655.00   0.19451070   0.12125815
3656.00   0.36491561   0.11532933
3657.00   0.49022701   0.10985273
3658.00   0.34222734   0.10701079
3659.00   0.26726916   0.10615125
3660.00   0.01713200   0.10410278
3661.00   0.10648751   0.10490900
3662.00   0.46759745   0.11688662
3663.00   0.45113504   0.12249875
3664.00   0.34513950   0.11414634
3665.00   0.23041701   0.10320538
3666.00   0.19532856   0.09755859
3667.00   0.32391268   0.09836894
3668.00   0.39289698   0.09957145
3669.00   0.40190724   0.09762754
3670.00   0.21805075   0.09379428
3671.00   0.40508208   0.09868486
3672.00   0.55328232   0.10033783
3673.00   0.39420155   0.09719598
3674.00   0.46174976   0.09759212
3675.00   0.14324798   0.09124094
3676.00   0.23630577   0.09137584
3677.00   0.51831782   0.09653264
3678.00   0.35847077   0.09244647
3679.00   0.35537547   0.09005135
3680.00   0.43022370   0.09037235
3681.00   0.37525439   0.09046595
3682.00   0.29739490   0.09040549
3683.00   0.33222231   0.09130358
3684.00   0.39937118   0.09078095
3685.00   0.33425269   0.08895011
3686.00   0.37803873   0.08686584
3687.00   0.37166378   0.08454192
3688.00   0.20301273   0.08370318
3689.00   0.27190191   0.08628869
3690.00   0.41976786   0.09024464
3691.00   0.23596412   0.09023305
3692.00   0.13929906   0.08944417
3693.00   0.20081910   0.08810930
3694.00   0.11838410   0.08479822
3695.00   0.27764273   0.08772091
3696.00   0.37043625   0.08888206
3697.00   0.24883191   0.08776730
3698.00   0.26516819   0.09104699
3699.00   0.36726147   0.09337083
3700.00   0.36846152   0.09334254
3701.00   0.23218867   0.09074935
3702.00   0.19265012   0.08996354
3703.00   0.22776562   0.08991405
3704.00   0.38674960   0.08907505
3705.00   0.25313273   0.08324458
3706.00   0.30032995   0.08461193
3707.00   0.54730552   0.08844306
3708.00   0.36762384   0.08630432
3709.00   0.36436716   0.08464731
3710.00   0.37601951   0.08338927
3711.00   0.45678598   0.08678307
3712.00   0.34702227   0.08749814
3713.00   0.32411298   0.08931997
3714.00   0.41442287   0.09120832
3715.00   0.31117877   0.08859424
3716.00   0.23346303   0.08647862
3717.00   0.28693816   0.08548811
3718.00   0.46569341   0.08576690
3719.00   0.22978348   0.07885237
3720.00   0.23467939   0.07684195
3721.00   0.42324144   0.07767884
3722.00   0.38654917   0.07877325
3723.00   0.20467338   0.07735696
3724.00   0.35336998   0.08173775
3725.00   0.37663537   0.08526222
3726.00   0.27896413   0.08359081
3727.00   0.28834140   0.08025897
3728.00   0.34612915   0.08326325
3729.00   0.36215615   0.08442830
3730.00   0.20323054   0.08091531
3731.00   0.26646510   0.08205683
3732.00   0.33980852   0.08281519
3733.00   0.32696119   0.08016164
3734.00   0.35333362   0.07758545
3735.00   0.33654323   0.07640648
3736.00   0.31477630   0.07747728
3737.00   0.28233540   0.07880072
3738.00   0.28837156   0.08041487
3739.00   0.37103215   0.08412022
3740.00   0.45303559   0.08700728
3741.00   0.40491059   0.08570731
3742.00   0.25972414   0.08171154
3743.00   0.30808565   0.07907245
3744.00   0.47498116   0.07899629
3745.00   0.55445915   0.07949948
3746.00   0.49560243   0.07820345
3747.00   0.40234286   0.07606417
3748.00   0.31466374   0.07326224
3749.00   0.25915873   0.07219574
3750.00   0.28517243   0.07494251
3751.00   0.42759791   0.08047149
3752.00   0.51942152   0.08084705
3753.00   0.35089779   0.07868668
3754.00   0.26645541   0.08047894
3755.00   0.40849146   0.08465628
3756.00   0.55228448   0.08455309
3757.00   0.36651081   0.07659563
3758.00   0.31010476   0.07490280
3759.00   0.30571738   0.07591960
3760.00   0.38235196   0.07715045
3761.00   0.47304207   0.07764479
3762.00   0.50407612   0.07874681
3763.00   0.31583816   0.07457495
3764.00   0.33001667   0.07375591
3765.00   0.38642254   0.07756388
3766.00   0.29343545   0.07427306
3767.00   0.32384121   0.07382534
3768.00   0.41678274   0.07457855
3769.00   0.31861722   0.07240275
3770.00   0.25184974   0.07277317
3771.00   0.45378283   0.07590698
3772.00   0.42593265   0.07807391
3773.00   0.35381475   0.07734112
3774.00   0.38669914   0.07744350
3775.00   0.30308431   0.07738819
3776.00   0.41723093   0.07902934
3777.00   0.39859843   0.07841329
3778.00   0.27344844   0.07624120
3779.00   0.33770007   0.07717021
3780.00   0.40380773   0.07932744
3781.00   0.48026308   0.08084621
3782.00   0.52263397   0.07956343
3783.00   0.46489772   0.07915399
3784.00   0.39402786   0.08024606
3785.00   0.24993810   0.07687432
3786.00   0.17525859   0.07146743
3787.00   0.32525432   0.07100330
3788.00   0.42792100   0.07342705
3789.00   0.39315450   0.07448258
3790.00   0.45706302   0.07513019
3791.00   0.54672307   0.07595224
3792.00   0.43291849   0.07445538
3793.00   0.30949667   0.07159072
3794.00   0.35897771   0.07120319
3795.00   0.38434649   0.07082006
3796.00   0.34658995   0.06978481
3797.00   0.26899275   0.06609410
3798.00   0.39147836   0.06673466
3799.00   0.47997317   0.06839024
3800.00   0.38471681   0.06841043
3801.00   0.36156324   0.07107784
3802.00   0.49992311   0.07357532
3803.00   0.28644413   0.07154007
3804.00   0.30464843   0.07135790
3805.00   0.46733230   0.07138639
3806.00   0.44433960   0.07059268
3807.00   0.42060721   0.07114179
3808.00   0.31594554   0.06884579
3809.00   0.39993539   0.07177021
3810.00   0.50622827   0.07416111
3811.00   0.47145605   0.07319203
3812.00   0.40613452   0.07113101
3813.00   0.50646597   0.07205261
3814.00   0.44141278   0.06976682
3815.00   0.33613268   0.06703354
3816.00   0.42902651   0.06895756
3817.00   0.43118092   0.06981814
3818.00   0.27568960   0.06781108
3819.00   0.31471208   0.06678390
3820.00   0.46884242   0.06735914
3821.00   0.28953341   0.06544732
3822.00   0.26456562   0.06575516
3823.00   0.31064612   0.06519146
3824.00   0.22707506   0.06326003
3825.00   0.26000378   0.06198836
3826.00   0.32425225   0.06132779
3827.00   0.39183685   0.06501019
3828.00   0.39624149   0.06723864
3829.00   0.35910237   0.06755730
3830.00   0.38674584   0.06846137
3831.00   0.39387447   0.06738946
3832.00   0.44151792   0.06731678
3833.00   0.48420352   0.06670286
3834.00   0.46112475   0.06501199
3835.00   0.35791340   0.06446221
3836.00   0.32287177   0.06472185
3837.00   0.33724430   0.06419558
3838.00   0.30633399   0.06298165
3839.00   0.41678774   0.06421604
3840.00   0.40757701   0.06377425
3841.00   0.27412483   0.06353279
3842.00   0.27387089   0.06643007
3843.00   0.38221475   0.06845516
3844.00   0.36185586   0.06782078
3845.00   0.38651145   0.06759519
3846.00   0.36136261   0.06678112
3847.00   0.29130083   0.06616771
3848.00   0.37083340   0.06698541
3849.00   0.42595375   0.06675264
3850.00   0.33573881   0.06383844
3851.00   0.36448511   0.06578592
3852.00   0.43403259   0.06686210
3853.00   0.37228048   0.06646646
3854.00   0.41680184   0.06584685
3855.00   0.40683475   0.06410494
3856.00   0.39305052   0.06501009
3857.00   0.45932728   0.06498624
3858.00   0.42956796   0.06375712
3859.00   0.39747089   0.06192581
3860.00   0.38272297   0.06017581
3861.00   0.40804091   0.06353328
3862.00   0.29619825   0.06436671
3863.00   0.35827684   0.06539968
3864.00   0.37780830   0.06492155
3865.00   0.36698750   0.06358385
3866.00   0.35629144   0.06302684
3867.00   0.30496278   0.06180819
3868.00   0.37189695   0.06312229
3869.00   0.48442179   0.06341919
3870.00   0.41198283   0.06109131
3871.00   0.33240914   0.05786598
3872.00   0.25874868   0.05681854
3873.00   0.23022287   0.05988768
3874.00   0.34000364   0.06458579
3875.00   0.44254196   0.06586443
3876.00   0.37718862   0.06402846
3877.00   0.32133114   0.06117227
3878.00   0.36387300   0.05952680
3879.00   0.35764587   0.06036695
3880.00   0.34908268   0.06130611
3881.00   0.35023040   0.05993479
3882.00   0.35084566   0.05973472
3883.00   0.34708923   0.06120666
3884.00   0.29988214   0.06134216
3885.00   0.28909293   0.06024226
3886.00   0.33983535   0.05903153
3887.00   0.34607568   0.05893954
3888.00   0.29854307   0.05845711
3889.00   0.29657090   0.05817382
3890.00   0.26472676   0.05924617
3891.00   0.20262137   0.05942586
3892.00   0.25820610   0.06041491
3893.00   0.37410858   0.06219829
3894.00   0.36709014   0.06261514
3895.00   0.30726293   0.06188563
3896.00   0.17515250   0.06035264
3897.00   0.24846667   0.06189123
3898.00   0.21508627   0.06083785
3899.00   0.27298129   0.06141965
3900.00   0.38029563   0.06269372
3901.00   0.35157394   0.06311870
3902.00   0.39742753   0.06402000
3903.00   0.30624717   0.06355822
3904.00   0.36972040   0.06397051
3905.00   0.30192599   0.06401951
3906.00   0.41533896   0.06870613
3907.00   0.37496313   0.07002845
3908.00   0.31120592   0.07111610
3909.00   0.14353216   0.06898899
3910.00   0.22378802   0.06960084
3911.00   0.22772597   0.07181627
3912.00   0.30410796   0.07607196
3913.00   0.36410457   0.07919508
3914.00   0.24982339   0.07634225
3915.00   0.26004928   0.07025205
3916.00   0.33816403   0.06526560
3917.00   0.35283741   0.06281380
3918.00   0.32914183   0.06106186
3919.00   0.32621139   0.06024546
3920.00   0.34181899   0.05974027
3921.00   0.40045968   0.05831425
3922.00   0.38362068   0.05824704
3923.00   0.30248347   0.05840356
3924.00   0.21535172   0.05700801
3925.00   0.25867388   0.05652974
3926.00   0.35723493   0.05681108
3927.00   0.31634608   0.05516650
3928.00   0.25012615   0.05283288
3929.00   0.27089939   0.05160346
3930.00   0.29817456   0.05133092
3931.00   0.30210572   0.05118533
3932.00   0.20451234   0.05046490
3933.00   0.14787851   0.05080559
3934.00   0.21605426   0.05153155
3935.00   0.27858180   0.05104028
3936.00   0.37310249   0.05094967
3937.00   0.31415081   0.05069061
3938.00   0.19925053   0.05138294
3939.00   0.24215004   0.05419869
3940.00   0.28414196   0.05571568
3941.00   0.33076578   0.05622143
3942.00   0.35244691   0.05746787
3943.00   0.36962771   0.05859504
3944.00   0.42758825   0.05956642
3945.00   0.38159806   0.05910219
3946.00   0.29401043   0.05867424
3947.00   0.43200725   0.06068746
3948.00   0.28585035   0.05745455
3949.00   0.23951362   0.05711831
3950.00   0.48423702   0.06117809
3951.00   0.37012309   0.05972164
3952.00   0.38395476   0.05811377
3953.00   0.28478935   0.05648530
3954.00   0.30686936   0.05703937
3955.00   0.33906755   0.05809470
3956.00   0.34973338   0.05714903
3957.00   0.30622503   0.05602362
3958.00   0.30118787   0.05632115
3959.00   0.39161691   0.05809106
3960.00   0.30417725   0.05767906
3961.00   0.29850373   0.05702659
3962.00   0.37091607   0.05631947
3963.00   0.39630193   0.05470145
3964.00   0.31016478   0.05277590
3965.00   0.22959022   0.04906645
3966.00   0.28503677   0.04776444
3967.00   0.29892650   0.04736394
3968.00   0.25638029   0.04584712
3969.00   0.33738416   0.04755409
3970.00   0.41575146   0.04968070
3971.00   0.43020126   0.05098334
3972.00   0.43284881   0.05217260
3973.00   0.44088563   0.05342225
3974.00   0.42094815   0.05415975
3975.00   0.37417322   0.05446235
3976.00   0.39051247   0.05552664
3977.00   0.33376712   0.05500197
3978.00   0.26191962   0.05426821
3979.00   0.25825706   0.05523051
3980.00   0.28317910   0.05684367
3981.00   0.32326353   0.05738404
3982.00   0.33344364   0.05628486
3983.00   0.31860927   0.05599786
3984.00   0.30681923   0.05664729
3985.00   0.35389316   0.05701784
3986.00   0.35171852   0.05666433
3987.00   0.33384380   0.05701432
3988.00   0.31530797   0.05747157
3989.00   0.25909388   0.05712116
3990.00   0.38213703   0.05835769
3991.00   0.42200810   0.05873353
3992.00   0.39617836   0.05861178
3993.00   0.44703984   0.05970660
3994.00   0.52275753   0.05995623
3995.00   0.48236820   0.06086237
3996.00   0.29723507   0.05933199
3997.00   0.29767111   0.05876614
3998.00   0.36239776   0.05880963
3999.00   0.33186674   0.05837481
4000.00   0.53467888   0.06118888
4001.00   0.42992210   0.06004412
4002.00   0.30881000   0.05800128
4003.00   0.40738064   0.05930093
4004.00   0.42096749   0.05841450
4005.00   0.35104343   0.05582873
4006.00   0.38940072   0.05665995
4007.00   0.43145862   0.05922255
4008.00   0.51896358   0.06165270
4009.00   0.53052664   0.06164530
4010.00   0.47374335   0.05983244
4011.00   0.49400038   0.06114293
4012.00   0.53691572   0.06200540
4013.00   0.42642608   0.05997626
4014.00   0.26438892   0.05761235
4015.00   0.28106216   0.05778969
4016.00   0.44538373   0.05897956
4017.00   0.46947595   0.05971671
4018.00   0.40247339   0.06041914
4019.00   0.47116163   0.06409124
4020.00   0.57909983   0.06712489
4021.00   0.53080362   0.06662095
4022.00   0.47610524   0.06515514
4023.00   0.47151867   0.06537194
4024.00   0.48501208   0.06583893
4025.00   0.52711910   0.06491745
4026.00   0.50047332   0.06331196
4027.00   0.45914298   0.06192388
4028.00   0.48599133   0.06151719
4029.00   0.48432651   0.06109686
4030.00   0.49906600   0.06018156
4031.00   0.51194322   0.06038705
4032.00   0.44091806   0.05994324
4033.00   0.43766251   0.05808645
4034.00   0.50135624   0.05807938
4035.00   0.52954161   0.05966990
4036.00   0.52287722   0.06060271
4037.00   0.50058502   0.06042936
4038.00   0.42789769   0.05957038
4039.00   0.37820855   0.05837449
4040.00   0.46880054   0.05884492
4041.00   0.53042591   0.05970328
4042.00   0.43369022   0.05926614
4043.00   0.44982013   0.06035993
4044.00   0.39356276   0.06283218
4045.00   0.30739713   0.07959517
4046.00   0.39701059   0.10091181
4047.00   0.27651784   0.10114194
4048.00   0.35539076   0.08351599
4049.00   0.45109016   0.06780668
4050.00   0.40287375   0.06184452
4051.00   0.39354619   0.05992133
4052.00   0.48562050   0.05967307
4053.00   0.49212983   0.05965602
4054.00   0.47009984   0.06085825
4055.00   0.46192667   0.06050476
4056.00   0.53352731   0.06012547
4057.00   0.47600800   0.05832059
4058.00   0.49709666   0.05790577
4059.00   0.54399347   0.05856220
4060.00   0.52428561   0.05926499
4061.00   0.48280025   0.05803837
4062.00   0.56764972   0.05786701
4063.00   0.55379570   0.05684871
4064.00   0.57310516   0.05769341
4065.00   0.48928812   0.05772375
4066.00   0.35766265   0.05659628
4067.00   0.45880693   0.05778800
4068.00   0.53741193   0.05908768
4069.00   0.52439880   0.05898085
4070.00   0.46522087   0.05757271
4071.00   0.48795825   0.05613829
4072.00   0.47690031   0.05485229
4073.00   0.45756552   0.05544119
4074.00   0.54887450   0.05749997
4075.00   0.49551198   0.05785762
4076.00   0.37950063   0.05951814
4077.00   0.33084387   0.06245920
4078.00   0.41173720   0.06344448
4079.00   0.51344240   0.06148054
4080.00   0.41827741   0.05858085
4081.00   0.42226762   0.05924249
4082.00   0.48134682   0.06014439
4083.00   0.41530663   0.05819237
4084.00   0.30833951   0.05504876
4085.00   0.36132914   0.05555182
4086.00   0.49566326   0.05864493
4087.00   0.48762771   0.05910417
4088.00   0.43277588   0.05678738
4089.00   0.42951834   0.05608334
4090.00   0.46876106   0.05614890
4091.00   0.50551397   0.05585990
4092.00   0.49329957   0.05541162
4093.00   0.49812192   0.05496297
4094.00   0.46205419   0.05445848
4095.00   0.46034563   0.05411547
4096.00   0.42739221   0.05281726
4097.00   0.35633880   0.05209568
4098.00   0.45231688   0.05383359
4099.00   0.57783115   0.05477832
4100.00   0.47392938   0.05227238
4101.00   0.42563701   0.05035466
4102.00   0.51223111   0.05069977
4103.00   0.48693165   0.05135415
4104.00   0.42551807   0.05121139
4105.00   0.39786741   0.05088332
4106.00   0.48090270   0.05283629
4107.00   0.47599366   0.05313313
4108.00   0.48083341   0.05307855
4109.00   0.51523137   0.05355734
4110.00   0.40238595   0.05249850
4111.00   0.38077834   0.05186444
4112.00   0.35860044   0.05181554
4113.00   0.30193835   0.05188034
4114.00   0.30982766   0.05250104
4115.00   0.33901605   0.05314968
4116.00   0.39242083   0.05419717
4117.00   0.35506150   0.05295810
4118.00   0.37308082   0.05178149
4119.00   0.45211512   0.05179122
4120.00   0.38781607   0.05175874
4121.00   0.39844921   0.05289835
4122.00   0.42622805   0.05304500
4123.00   0.48177302   0.05350846
4124.00   0.48165995   0.05360587
4125.00   0.36782813   0.05244127
4126.00   0.41798279   0.05296514
4127.00   0.47222337   0.05326673
4128.00   0.41660750   0.05244996
4129.00   0.36594522   0.05191710
4130.00   0.39490458   0.05247945
4131.00   0.49090794   0.05355880
4132.00   0.41397652   0.05279372
4133.00   0.40698326   0.05298728
4134.00   0.46407482   0.05396953
4135.00   0.41302237   0.05281641
4136.00   0.49366808   0.05386541
4137.00   0.41234148   0.05259806
4138.00   0.33679458   0.05239367
4139.00   0.33829331   0.05367881
4140.00   0.28480676   0.05376427
4141.00   0.40968794   0.05424764
4142.00   0.40251145   0.05171379
4143.00   0.33625340   0.04908799
4144.00   0.39441365   0.04989132
4145.00   0.42057708   0.05094650
4146.00   0.46982360   0.05185072
4147.00   0.48261046   0.05213179
4148.00   0.45716029   0.05186331
4149.00   0.47353315   0.05196332
4150.00   0.44641313   0.05166228
4151.00   0.43855444   0.05274524
4152.00   0.48908249   0.05489522
4153.00   0.49518618   0.05436560
4154.00   0.36422548   0.05121974
4155.00   0.39417455   0.05118806
4156.00   0.35111323   0.05117280
4157.00   0.40098208   0.05179465
4158.00   0.37508556   0.05125249
4159.00   0.34204808   0.05111129
4160.00   0.32340753   0.05089013
4161.00   0.36525360   0.05182955
4162.00   0.40738446   0.05307062
4163.00   0.44574055   0.05394061
4164.00   0.39356461   0.05528977
4165.00   0.41941956   0.05699672
4166.00   0.39173290   0.05528779
4167.00   0.36676866   0.05254858
4168.00   0.33403423   0.05143781
4169.00   0.35631895   0.05174055
4170.00   0.45151410   0.05251526
4171.00   0.47004968   0.05198278
4172.00   0.42975211   0.05087695
4173.00   0.45848861   0.05071750
4174.00   0.46052018   0.05005432
4175.00   0.43713015   0.05010758
4176.00   0.47328916   0.05067520
4177.00   0.48193744   0.05054662
4178.00   0.46503973   0.05150862
4179.00   0.42812973   0.05137029
4180.00   0.46222621   0.05103141
4181.00   0.52179718   0.05095898
4182.00   0.45720080   0.04957837
4183.00   0.36101484   0.04840170
4184.00   0.42037061   0.04945850
4185.00   0.40421525   0.04932015
4186.00   0.41169131   0.04950692
4187.00   0.46953556   0.04925526
4188.00   0.37717983   0.04801197
4189.00   0.28360373   0.04841125
4190.00   0.37452957   0.04945241
4191.00   0.46059459   0.04964310
4192.00   0.45342448   0.04997172
4193.00   0.37285563   0.04968859
4194.00   0.35274908   0.04891391
4195.00   0.36853325   0.04901382
4196.00   0.32077685   0.04761626
4197.00   0.38683546   0.04755875
4198.00   0.45783994   0.04796288
4199.00   0.46308759   0.04888908
4200.00   0.43441701   0.04818633
4201.00   0.35804161   0.04657805
4202.00   0.41124886   0.04892951
4203.00   0.43715253   0.05151644
4204.00   0.35686889   0.04865101
4205.00   0.40395600   0.04912494
4206.00   0.35563022   0.04876721
4207.00   0.35537222   0.04860998
4208.00   0.42213345   0.04963112
4209.00   0.39426076   0.04936111
4210.00   0.39663354   0.04937754
4211.00   0.36727780   0.04945464
4212.00   0.38727686   0.04945330
4213.00   0.44814786   0.04962401
4214.00   0.41151568   0.04868057
4215.00   0.35130769   0.04737948
4216.00   0.35088718   0.04778052
4217.00   0.41265813   0.04876963
4218.00   0.37392998   0.04798540
4219.00   0.35146478   0.04772067
4220.00   0.40481779   0.04844943
4221.00   0.37894693   0.04816345
4222.00   0.32154903   0.04728612
4223.00   0.32685444   0.04675330
4224.00   0.35150713   0.04650753
4225.00   0.38789350   0.04586425
4226.00   0.45945954   0.04492338
4227.00   0.41717491   0.04433336
4228.00   0.27699828   0.04455811
4229.00   0.28476197   0.04594584
4230.00   0.41878244   0.04808723
4231.00   0.43731889   0.04874026
4232.00   0.38575226   0.04796866
4233.00   0.38850173   0.04786864
4234.00   0.38628420   0.04781979
4235.00   0.26672912   0.04582916
4236.00   0.27768999   0.04560435
4237.00   0.35735714   0.04742954
4238.00   0.31742558   0.04716478
4239.00   0.29295745   0.04614007
4240.00   0.34639642   0.04644404
4241.00   0.40360749   0.04634512
4242.00   0.34683585   0.04531172
4243.00   0.40050355   0.04608846
4244.00   0.36370283   0.04672887
4245.00   0.25635251   0.04814686
4246.00   0.39229023   0.05248505
4247.00   0.38957313   0.05268549
4248.00   0.34353563   0.04951802
4249.00   0.34718096   0.04649960
4250.00   0.32973489   0.04542176
4251.00   0.30641222   0.04550527
4252.00   0.33963045   0.04664924
4253.00   0.34600019   0.04592350
4254.00   0.31803334   0.04485630
4255.00   0.34009209   0.04564053
4256.00   0.39134523   0.04733086
4257.00   0.29808182   0.04656451
4258.00   0.29042581   0.04571758
4259.00   0.34587905   0.04476165
4260.00   0.31196374   0.04342372
4261.00   0.28539237   0.04360240
4262.00   0.36666313   0.04528198
4263.00   0.40128738   0.04665745
4264.00   0.37227806   0.04646844
4265.00   0.33142829   0.04593172
4266.00   0.36782283   0.04650114
4267.00   0.46093509   0.04698875
4268.00   0.46555260   0.04681835
4269.00   0.38642356   0.04563222
4270.00   0.36511859   0.04416353
4271.00   0.42626959   0.04377125
4272.00   0.45806125   0.04435664
4273.00   0.44731852   0.04522917
4274.00   0.44877112   0.04522302
4275.00   0.39768714   0.04475776
4276.00   0.37806350   0.04618368
4277.00   0.44223037   0.04821817
4278.00   0.41343433   0.04728071
4279.00   0.43964526   0.04613554
4280.00   0.41630900   0.04533946
4281.00   0.42208543   0.04520265
4282.00   0.39097345   0.04533774
4283.00   0.36958954   0.04566562
4284.00   0.38622403   0.04503589
4285.00   0.39527157   0.04405801
4286.00   0.39770129   0.04428371
4287.00   0.52034688   0.04554933
4288.00   0.40148184   0.04460040
4289.00   0.42668903   0.04401996
4290.00   0.46877825   0.04404895
4291.00   0.52011740   0.04467217
4292.00   0.42241311   0.04452848
4293.00   0.44844049   0.04563501
4294.00   0.34635663   0.04440654
4295.00   0.38183767   0.04496218
4296.00   0.32873836   0.04405845
4297.00   0.34219620   0.04311413
4298.00   0.42258561   0.04313106
4299.00   0.49123472   0.04338408
4300.00   0.46409693   0.04290435
4301.00   0.43077841   0.04243279
4302.00   0.41810271   0.04243311
4303.00   0.35666096   0.04150008
4304.00   0.43285334   0.04224755
4305.00   0.43572137   0.04296451
4306.00   0.32336986   0.04212117
4307.00   0.35593665   0.04174640
4308.00   0.42565799   0.04216558
4309.00   0.40378299   0.04199176
4310.00   0.41846222   0.04236493
4311.00   0.46279338   0.04302993
4312.00   0.39419809   0.04408043
4313.00   0.31694022   0.04606724
4314.00   0.35169944   0.04811575
4315.00   0.41100758   0.04815712
4316.00   0.40298212   0.04721449
4317.00   0.45218417   0.04735017
4318.00   0.47998339   0.04765745
4319.00   0.39345008   0.04808734
4320.00   0.33718413   0.04859531
4321.00   0.33163154   0.04804285
4322.00   0.36137301   0.04663270
4323.00   0.40279517   0.04524710
4324.00   0.40707648   0.04501217
4325.00   0.38415757   0.04518545
4326.00   0.38935488   0.04480923
4327.00   0.47329271   0.04549921
4328.00   0.49968413   0.04647337
4329.00   0.36248779   0.04530571
4330.00   0.38215020   0.04536945
4331.00   0.49904427   0.04621636
4332.00   0.40607452   0.04536131
4333.00   0.42700815   0.04529613
4334.00   0.32929695   0.04423263
4335.00   0.40480950   0.04489382
4336.00   0.43128285   0.04501970
4337.00   0.50458246   0.04525198
4338.00   0.37695947   0.04373215
4339.00   0.39131472   0.04319887
4340.00   0.43911615   0.04319505
4341.00   0.42755896   0.04367723
4342.00   0.33407372   0.04326912
4343.00   0.34568334   0.04384960
4344.00   0.35083243   0.04442620
4345.00   0.44530246   0.04597076
4346.00   0.42424375   0.04718655
4347.00   0.33622134   0.04741789
4348.00   0.29999012   0.04759407
4349.00   0.38516209   0.04750587
4350.00   0.37496391   0.04597185
4351.00   0.30622709   0.04396474
4352.00   0.39198387   0.04433163
4353.00   0.39951593   0.04492627
4354.00   0.36391047   0.04539253
4355.00   0.36377126   0.04665345
4356.00   0.40138814   0.06047979
4357.00   0.30689037   0.08764735
4358.00   0.24106531   0.10331962
4359.00   0.21698837   0.09525313
4360.00   0.26683649   0.07645796
4361.00   0.34539324   0.06202488
4362.00   0.43855667   0.05414622
4363.00   0.45377955   0.05038132
4364.00   0.39565742   0.04889714
4365.00   0.40989110   0.04842157
4366.00   0.39388466   0.04752660
4367.00   0.36288896   0.04682237
4368.00   0.43848455   0.04711402
4369.00   0.46593416   0.04716815
4370.00   0.35159466   0.04582077
4371.00   0.33541265   0.04523997
4372.00   0.42587027   0.04669633
4373.00   0.37543091   0.04715958
4374.00   0.36228997   0.04785332
4375.00   0.39929533   0.04816670
4376.00   0.42806816   0.04746101
4377.00   0.42231190   0.04719324
4378.00   0.40293697   0.04633579
4379.00   0.43937290   0.04567867
4380.00   0.49134243   0.04648364
4381.00   0.48403865   0.04664635
4382.00   0.44634485   0.04487307
4383.00   0.44217926   0.04289713
4384.00   0.44922498   0.04249227
4385.00   0.40814593   0.04301724
4386.00   0.41642088   0.04392184
4387.00   0.45305324   0.04439936
4388.00   0.44040608   0.04407096
4389.00   0.35637286   0.04335674
4390.00   0.43228087   0.04386628
4391.00   0.48492590   0.04482313
4392.00   0.47889352   0.04500293
4393.00   0.51334667   0.04480404
4394.00   0.52108002   0.04459188
4395.00   0.49615982   0.04483479
4396.00   0.46284869   0.04461128
4397.00   0.46937376   0.04451263
4398.00   0.41496766   0.04493589
4399.00   0.40843317   0.04553275
4400.00   0.51329863   0.04653690
4401.00   0.43539876   0.04625277
4402.00   0.33288938   0.04508393
4403.00   0.43535680   0.04467491
4404.00   0.46545163   0.04408387
4405.00   0.42080659   0.04420822
4406.00   0.40834081   0.04451266
4407.00   0.40983838   0.04445485
4408.00   0.43017098   0.04477211
4409.00   0.42265350   0.04496865
4410.00   0.40764791   0.04548119
4411.00   0.46459010   0.04658356
4412.00   0.50355452   0.04695264
4413.00   0.49508035   0.04646738
4414.00   0.47351006   0.04612171
4415.00   0.45404974   0.04656225
4416.00   0.40339059   0.04624511
4417.00   0.38058639   0.04517044
4418.00   0.42342767   0.04512393
4419.00   0.40836871   0.04530951
4420.00   0.45400769   0.04599454
4421.00   0.53039563   0.04636537
4422.00   0.46179524   0.04520372
4423.00   0.42092738   0.04489891
4424.00   0.39631668   0.04501710
4425.00   0.39230630   0.04509348
4426.00   0.46391377   0.04535431
4427.00   0.42943397   0.04467257
4428.00   0.39355400   0.04479535
4429.00   0.42730328   0.04501783
4430.00   0.48118895   0.04516590
4431.00   0.50562853   0.04561371
4432.00   0.44681266   0.04502337
4433.00   0.40536132   0.04446355
4434.00   0.44776520   0.04435432
4435.00   0.54760563   0.04475385
4436.00   0.48925129   0.04419406
4437.00   0.36342642   0.04399281
4438.00   0.34870794   0.04469581
4439.00   0.34885323   0.04438261
4440.00   0.42695433   0.04474993
4441.00   0.49708092   0.04474143
4442.00   0.45950085   0.04418433
4443.00   0.45374987   0.04377619
4444.00   0.41224220   0.04399921
4445.00   0.32517275   0.04409242
4446.00   0.40420234   0.04443835
4447.00   0.47283307   0.04482353
4448.00   0.35978281   0.04393367
4449.00   0.42698354   0.04432677
4450.00   0.45934349   0.04431465
4451.00   0.37598982   0.04336617
4452.00   0.43660688   0.04413013
4453.00   0.43892241   0.04376006
4454.00   0.45540369   0.04334854
4455.00   0.43560940   0.04289558
4456.00   0.39428124   0.04236545
4457.00   0.35737434   0.04238174
4458.00   0.34638038   0.04220627
4459.00   0.36190107   0.04242480
4460.00   0.39793119   0.04245484
4461.00   0.37190607   0.04209841
4462.00   0.33721420   0.04253832
4463.00   0.40231180   0.04325813
4464.00   0.37844643   0.04283757
4465.00   0.34785545   0.04269701
4466.00   0.40791735   0.04329418
4467.00   0.39330864   0.04315841
4468.00   0.37888947   0.04286359
4469.00   0.35354817   0.04254507
4470.00   0.36937919   0.04286563
4471.00   0.40091327   0.04315792
4472.00   0.33485371   0.04276118
4473.00   0.32883561   0.04307018
4474.00   0.31145126   0.04314403
4475.00   0.32926315   0.04312165
4476.00   0.39043102   0.04381878
4477.00   0.35513073   0.04365778
4478.00   0.36303785   0.04319586
4479.00   0.36883870   0.04280279
4480.00   0.32477260   0.04204662
4481.00   0.35768861   0.04168969
4482.00   0.36025950   0.04198576
4483.00   0.29980901   0.04196678
4484.00   0.29810533   0.04211380
4485.00   0.33853081   0.04304481
4486.00   0.29508382   0.04267279
4487.00   0.28907368   0.04276209
4488.00   0.22097023   0.04190730
4489.00   0.33782750   0.04226387
4490.00   0.31543320   0.04202466
4491.00   0.28308666   0.04229143
4492.00   0.27909470   0.04277826
4493.00   0.30370864   0.04300106
4494.00   0.26583326   0.04254585
4495.00   0.32022646   0.04261924
4496.00   0.32349876   0.04273274
4497.00   0.26282147   0.04261798
4498.00   0.27267686   0.04344995
4499.00   0.29495120   0.04376054
4500.00   0.33468026   0.04328658
4501.00   0.38058531   0.04324051
4502.00   0.31635499   0.04259533
4503.00   0.29552963   0.04278406
4504.00   0.34966853   0.04365917
4505.00   0.30597845   0.04283245
4506.00   0.33001432   0.04268299
4507.00   0.35481790   0.04322796
4508.00   0.30941018   0.04274298
4509.00   0.29569969   0.04234574
4510.00   0.31701180   0.04269402
4511.00   0.35319409   0.04292788
4512.00   0.36309841   0.04274321
4513.00   0.33177060   0.04236386
4514.00   0.29118648   0.04178552
4515.00   0.30327955   0.04170185
4516.00   0.33003995   0.04201600
4517.00   0.32437509   0.04191414
4518.00   0.34068969   0.04178949
4519.00   0.30474266   0.04139443
4520.00   0.30659401   0.04154399
4521.00   0.32706100   0.04212515
4522.00   0.24687539   0.04138767
4523.00   0.21111308   0.04100415
4524.00   0.31316286   0.04149580
4525.00   0.27671227   0.04068790
4526.00   0.30173844   0.04033531
4527.00   0.30334255   0.04075773
4528.00   0.28059435   0.04020816
4529.00   0.30631122   0.04043345
4530.00   0.28861621   0.04042683
4531.00   0.34486175   0.04074015
4532.00   0.32447216   0.04094661
4533.00   0.30801505   0.04138847
4534.00   0.32793188   0.04119141
4535.00   0.36170128   0.04101733
4536.00   0.33410892   0.04123171
4537.00   0.31080070   0.04123611
4538.00   0.31122482   0.04159435
4539.00   0.36936113   0.04214431
4540.00   0.31634870   0.04121314
4541.00   0.35461876   0.04160899
4542.00   0.40085632   0.04260436
4543.00   0.34132883   0.04203327
4544.00   0.28641358   0.04165086
4545.00   0.31651762   0.04200986
4546.00   0.28361529   0.04120798
4547.00   0.32501036   0.04111960
4548.00   0.37171796   0.04117941
4549.00   0.30742487   0.04010442
4550.00   0.29375601   0.04003039
4551.00   0.30968615   0.04054911
4552.00   0.29336601   0.04013379
4553.00   0.29136235   0.03973839
4554.00   0.28537852   0.03970637
4555.00   0.26508445   0.03995753
4556.00   0.29772398   0.04084522
4557.00   0.36627015   0.04144953
4558.00   0.38363194   0.04117572
4559.00   0.39032897   0.04090826
4560.00   0.40269536   0.04112948
4561.00   0.37396297   0.04128828
4562.00   0.33818972   0.04111257
4563.00   0.29113364   0.04016255
4564.00   0.28358749   0.03938473
4565.00   0.38571784   0.04022368
4566.00   0.44515991   0.04099088
4567.00   0.40283844   0.04088080
4568.00   0.33907661   0.04032784
4569.00   0.28305277   0.03973426
4570.00   0.32788891   0.03958809
4571.00   0.40739527   0.04003886
4572.00   0.43011627   0.04054290
4573.00   0.34659690   0.04045611
4574.00   0.34287468   0.04072223
4575.00   0.40537032   0.04085281
4576.00   0.29626316   0.03931585
4577.00   0.31077874   0.03899057
4578.00   0.34532294   0.03966818
4579.00   0.37125373   0.03995335
4580.00   0.33445981   0.03882927
4581.00   0.38431257   0.03903646
4582.00   0.33380547   0.03862316
4583.00   0.29040465   0.03800478
4584.00   0.39834100   0.03868188
4585.00   0.39125046   0.03873831
4586.00   0.34945554   0.03828231
4587.00   0.33950672   0.03852492
4588.00   0.37524486   0.03907735
4589.00   0.41866133   0.03968186
4590.00   0.37799722   0.03929633
4591.00   0.30523422   0.03842999
4592.00   0.26663604   0.03787038
4593.00   0.33435974   0.03850098
4594.00   0.39587489   0.03938444
4595.00   0.34477270   0.03867756
4596.00   0.30037594   0.03777952
4597.00   0.30835980   0.03788583
4598.00   0.31959283   0.03809962
4599.00   0.31011882   0.03796035
4600.00   0.31440064   0.03761892
4601.00   0.33519384   0.03742787
4602.00   0.34582070   0.03765487
4603.00   0.37591657   0.03818246
4604.00   0.37957183   0.03812515
4605.00   0.38210502   0.03796475
4606.00   0.41330504   0.03834026
4607.00   0.39474112   0.03838758
4608.00   0.40398002   0.03878755
4609.00   0.41245854   0.03905624
4610.00   0.34409800   0.03824936
4611.00   0.35621864   0.03810447
4612.00   0.39446622   0.03815310
4613.00   0.41346180   0.03822606
4614.00   0.46876514   0.03895443
4615.00   0.41420689   0.03821463
4616.00   0.37954742   0.03747816
4617.00   0.44800362   0.03825945
4618.00   0.50346816   0.03891603
4619.00   0.48465881   0.03863898
4620.00   0.40374652   0.03814966
4621.00   0.41793802   0.03813882
4622.00   0.44092026   0.03796644
4623.00   0.39437675   0.03793735
4624.00   0.42778271   0.03846432
4625.00   0.51223129   0.03907345
4626.00   0.47815698   0.03877283
4627.00   0.40488631   0.03802942
4628.00   0.44324410   0.03850961
4629.00   0.41172451   0.03794124
4630.00   0.38295698   0.03742505
4631.00   0.43947408   0.03814478
4632.00   0.49632284   0.03854310
4633.00   0.47905117   0.03822959
4634.00   0.42428458   0.03778763
4635.00   0.50840747   0.03846911
4636.00   0.54785937   0.03860420
4637.00   0.51743561   0.03829471
4638.00   0.55719841   0.03870453
4639.00   0.51391494   0.03843257
4640.00   0.51936024   0.03886767
4641.00   0.54758924   0.03919574
4642.00   0.53709435   0.03875267
4643.00   0.51224536   0.03866138
4644.00   0.50486171   0.03853085
4645.00   0.49719343   0.03820538
4646.00   0.51061302   0.03829551
4647.00   0.50080001   0.03779174
4648.00   0.51360095   0.03814175
4649.00   0.47898176   0.03821186
4650.00   0.49685338   0.03870709
4651.00   0.57554853   0.03942041
4652.00   0.54872453   0.03926599
4653.00   0.55539465   0.03938619
4654.00   0.62518293   0.03967958
4655.00   0.57591611   0.03906193
4656.00   0.48268396   0.03866959
4657.00   0.52206558   0.03976068
4658.00   0.59234595   0.04071558
4659.00   0.62423855   0.04104367
4660.00   0.65681392   0.04132041
4661.00   0.63631839   0.04105102
4662.00   0.60458702   0.04068199
4663.00   0.56254804   0.04018543
4664.00   0.54077685   0.04005415
4665.00   0.59904379   0.04054520
4666.00   0.59531754   0.04030633
4667.00   0.56985825   0.04012834
4668.00   0.65802163   0.04110830
4669.00   0.68346268   0.04167965
4670.00   0.61240542   0.04147670
4671.00   0.58910161   0.04126097
4672.00   0.62338644   0.04131645
4673.00   0.65396202   0.04162674
4674.00   0.64225614   0.04159450
4675.00   0.71167177   0.04202765
4676.00   0.66036975   0.04128670
4677.00   0.67562491   0.04103471
4678.00   0.68142635   0.04083602
4679.00   0.71896672   0.04098499
4680.00   0.63718063   0.04000436
4681.00   0.63638049   0.03998552
4682.00   0.67042685   0.04005689
4683.00   0.71072465   0.04076231
4684.00   0.65484303   0.04056525
4685.00   0.67197424   0.04051951
4686.00   0.71095550   0.04097536
4687.00   0.74028784   0.04087140
4688.00   0.68151206   0.04009072
4689.00   0.65358704   0.03975500
4690.00   0.75664067   0.04065761
4691.00   0.76811796   0.04081407
4692.00   0.72358793   0.04030168
4693.00   0.72120738   0.04040347
4694.00   0.72307056   0.04059402
4695.00   0.71553475   0.04065211
4696.00   0.70303136   0.04045876
4697.00   0.70442510   0.03991153
4698.00   0.67996663   0.03923949
4699.00   0.68298501   0.03939377
4700.00   0.70719421   0.03984706
4701.00   0.69464684   0.03956929
4702.00   0.75584173   0.03992201
4703.00   0.75009292   0.04003736
4704.00   0.65151185   0.03935161
4705.00   0.63514394   0.03937841
4706.00   0.62682545   0.03949684
4707.00   0.62937611   0.03955908
4708.00   0.68395108   0.04002248
4709.00   0.73560351   0.04059385
4710.00   0.78504235   0.04133859
4711.00   0.79570115   0.04136955
4712.00   0.74960464   0.04054036
4713.00   0.71304381   0.04008806
4714.00   0.78447497   0.04038396
4715.00   0.79275137   0.04046693
4716.00   0.72975528   0.04049712
4717.00   0.76532954   0.04083579
4718.00   0.79011822   0.04094523
4719.00   0.76107132   0.04045502
4720.00   0.76450068   0.04037999
4721.00   0.74327624   0.04037632
4722.00   0.76631892   0.04050502
4723.00   0.77664697   0.04070760
4724.00   0.80003339   0.04090137
4725.00   0.84767038   0.04112273
4726.00   0.80808085   0.04071957
4727.00   0.76391160   0.04081713
4728.00   0.77585095   0.04171811
4729.00   0.76201743   0.04182658
4730.00   0.76381505   0.04143878
4731.00   0.76873338   0.04092102
4732.00   0.75255871   0.04092927
4733.00   0.81878901   0.04228812
4734.00   0.83808130   0.04278109
4735.00   0.74440026   0.04146599
4736.00   0.71449000   0.04156676
4737.00   0.74079913   0.04201781
4738.00   0.79982519   0.04221052
4739.00   0.75833338   0.04195100
4740.00   0.71008676   0.04230208
4741.00   0.74733573   0.04311855
4742.00   0.82272768   0.04401663
4743.00   0.80435014   0.04427241
4744.00   0.81025529   0.04419852
4745.00   0.81241113   0.04277245
4746.00   0.78216136   0.04126502
4747.00   0.79537636   0.04112384
4748.00   0.81614703   0.04095523
4749.00   0.79266411   0.04034121
4750.00   0.81719011   0.04045812
4751.00   0.84664708   0.04090795
4752.00   0.82495999   0.04116279
4753.00   0.80881995   0.04128832
4754.00   0.81619799   0.04113602
4755.00   0.82689786   0.04081418
4756.00   0.82199824   0.04034923
4757.00   0.82100064   0.03996773
4758.00   0.80879229   0.03988817
4759.00   0.79861510   0.03995213
4760.00   0.85583800   0.04010511
4761.00   0.87366945   0.03977707
4762.00   0.80614209   0.03900756
4763.00   0.74887699   0.03847964
4764.00   0.75351954   0.03851943
4765.00   0.84681576   0.03931823
4766.00   0.87099564   0.03920721
4767.00   0.84226394   0.03894692
4768.00   0.75176853   0.03838417
4769.00   0.70609218   0.03809229
4770.00   0.74827778   0.03831007
4771.00   0.80114031   0.03883690
4772.00   0.78381640   0.03857555
4773.00   0.77592343   0.03870314
4774.00   0.76519656   0.03859067
4775.00   0.74907625   0.03830492
4776.00   0.69418579   0.03777922
4777.00   0.78288496   0.03902335
4778.00   0.80427706   0.03976348
4779.00   0.77158791   0.03972995
4780.00   0.69660753   0.03885003
4781.00   0.68768251   0.03825101
4782.00   0.70443732   0.03805183
4783.00   0.63855404   0.03706076
4784.00   0.68344319   0.03733225
4785.00   0.76156586   0.03802453
4786.00   0.74999821   0.03748845
4787.00   0.69683105   0.03706810
4788.00   0.70942897   0.03727584
4789.00   0.70104134   0.03732150
4790.00   0.72229493   0.03738293
4791.00   0.66314256   0.03694561
4792.00   0.64332026   0.03664596
4793.00   0.61145812   0.03640956
4794.00   0.64766318   0.03693227
4795.00   0.67620730   0.03670994
4796.00   0.59917796   0.03582122
4797.00   0.61802310   0.03593517
4798.00   0.60635000   0.03566356
4799.00   0.54177707   0.03495006
4800.00   0.56738567   0.03521888
4801.00   0.59283513   0.03577143
4802.00   0.59107125   0.03584926
4803.00   0.59326315   0.03562211
4804.00   0.61414355   0.03566922
4805.00   0.64780223   0.03594847
4806.00   0.59344846   0.03547077
4807.00   0.49524352   0.03458980
4808.00   0.48323110   0.03441288
4809.00   0.51224136   0.03462150
4810.00   0.52447534   0.03466313
4811.00   0.54168689   0.03481983
4812.00   0.52898383   0.03486152
4813.00   0.50085437   0.03456849
4814.00   0.51980358   0.03475082
4815.00   0.50849730   0.03473894
4816.00   0.52881408   0.03492139
4817.00   0.51762676   0.03483957
4818.00   0.50045174   0.03469533
4819.00   0.47884229   0.03473517
4820.00   0.46511808   0.03465029
4821.00   0.50477397   0.03528960
4822.00   0.45714518   0.03477623
4823.00   0.47924420   0.03457262
4824.00   0.43708232   0.03410748
4825.00   0.42566082   0.03440228
4826.00   0.51238769   0.03540500
4827.00   0.54503649   0.03588957
4828.00   0.52217919   0.03553937
4829.00   0.49244770   0.03491694
4830.00   0.45753092   0.03479005
4831.00   0.47743958   0.03507012
4832.00   0.48613998   0.03508071
4833.00   0.48888785   0.03541694
4834.00   0.52613771   0.03578312
4835.00   0.50566930   0.03527728
4836.00   0.51255953   0.03513249
4837.00   0.54629308   0.03552168
4838.00   0.57338262   0.03597374
4839.00   0.50553733   0.03575146
4840.00   0.54221898   0.03610074
4841.00   0.55902058   0.03596831
4842.00   0.50858432   0.03537413
4843.00   0.49463484   0.03523429
4844.00   0.50346345   0.03496810
4845.00   0.48185804   0.03450021
4846.00   0.50106585   0.03480370
4847.00   0.55267191   0.03558601
4848.00   0.53856820   0.03549759
4849.00   0.51415008   0.03498866
4850.00   0.49146497   0.03457725
4851.00   0.48436248   0.03449844
4852.00   0.54375917   0.03520888
4853.00   0.55856901   0.03544388
4854.00   0.51067460   0.03467737
4855.00   0.49587265   0.03407621
4856.00   0.49803117   0.03399289
4857.00   0.50875568   0.03419553
4858.00   0.50464475   0.03395257
4859.00   0.43132624   0.03281320
4860.00   0.42491993   0.03257688
4861.00   0.50854242   0.03347339
4862.00   0.51096886   0.03375099
4863.00   0.50444806   0.03360388
4864.00   0.44496000   0.03318574
4865.00   0.43255818   0.03352134
4866.00   0.43443659   0.03338512
4867.00   0.42776164   0.03363188
4868.00   0.44652128   0.03381816
4869.00   0.48776925   0.03446924
4870.00   0.54272383   0.03445037
4871.00   0.46346769   0.03340446
4872.00   0.45162195   0.03350758
4873.00   0.48251945   0.03390160
4874.00   0.53103548   0.03428734
4875.00   0.55137789   0.03463753
4876.00   0.51597375   0.03468255
4877.00   0.48060924   0.03440059
4878.00   0.50433826   0.03484093
4879.00   0.50735444   0.03512513
4880.00   0.51447368   0.03499345
4881.00   0.56056273   0.03532151
4882.00   0.45644835   0.03416357
4883.00   0.42277884   0.03400446
4884.00   0.45447671   0.03399813
4885.00   0.47714174   0.03384868
4886.00   0.45821080   0.03355115
4887.00   0.45474073   0.03348572
4888.00   0.45546857   0.03365084
4889.00   0.43092304   0.03290741
4890.00   0.40033680   0.03211902
4891.00   0.43033999   0.03249853
4892.00   0.49174777   0.03365555
4893.00   0.50227588   0.03421419
4894.00   0.49335307   0.03417893
4895.00   0.46895653   0.03400036
4896.00   0.46832410   0.03400876
4897.00   0.48940057   0.03411471
4898.00   0.48701742   0.03412478
4899.00   0.50363421   0.03424698
4900.00   0.49658456   0.03398165
4901.00   0.42820320   0.03311066
4902.00   0.41173467   0.03276373
4903.00   0.44667304   0.03321374
4904.00   0.43499041   0.03335551
4905.00   0.42450097   0.03319879
4906.00   0.48418987   0.03382519
4907.00   0.54646814   0.03451161
4908.00   0.52896106   0.03422326
4909.00   0.47918734   0.03400600
4910.00   0.46131739   0.03360704
4911.00   0.45658764   0.03310225
4912.00   0.49214396   0.03345128
4913.00   0.49292755   0.03363796
4914.00   0.50288063   0.03432067
4915.00   0.53653353   0.03469744
4916.00   0.51456457   0.03416537
4917.00   0.47747514   0.03360060
4918.00   0.53124368   0.03398024
4919.00   0.54043651   0.03367814
4920.00   0.52360386   0.03337528
4921.00   0.49127969   0.03309788
4922.00   0.45754880   0.03284738
4923.00   0.49603081   0.03345673
4924.00   0.50346988   0.03340975
4925.00   0.55905139   0.03398691
4926.00   0.57929778   0.03410212
4927.00   0.52734637   0.03336608
4928.00   0.62561995   0.03451844
4929.00   0.57940924   0.03425795
4930.00   0.51147151   0.03326253
4931.00   0.50128120   0.03328888
4932.00   0.50886703   0.03312090
4933.00   0.55149388   0.03333652
4934.00   0.55346406   0.03369728
4935.00   0.50207669   0.03334171
4936.00   0.47669509   0.03295157
4937.00   0.50875235   0.03323938
4938.00   0.52987331   0.03318934
4939.00   0.52934510   0.03318911
4940.00   0.58275443   0.03424880
4941.00   0.59042382   0.03431616
4942.00   0.55998975   0.03354592
4943.00   0.57246298   0.03371829
4944.00   0.56106585   0.03388886
4945.00   0.58908963   0.03414582
4946.00   0.58942622   0.03410512
4947.00   0.52365249   0.03333544
4948.00   0.53529936   0.03315983
4949.00   0.55452794   0.03342439
4950.00   0.54408962   0.03347540
4951.00   0.56032509   0.03358165
4952.00   0.52755016   0.03348918
4953.00   0.49196044   0.03337137
4954.00   0.52089465   0.03372849
4955.00   0.52546084   0.03369818
4956.00   0.52052408   0.03326259
4957.00   0.52033681   0.03286839
4958.00   0.53425002   0.03287623
4959.00   0.53243780   0.03291743
4960.00   0.53321648   0.03280966
4961.00   0.54591531   0.03314567
4962.00   0.53536236   0.03340551
4963.00   0.51904100   0.03334748
4964.00   0.50369877   0.03330089
4965.00   0.52774209   0.03360456
4966.00   0.60449755   0.03435120
4967.00   0.58475739   0.03407414
4968.00   0.54026490   0.03363610
4969.00   0.57995218   0.03409081
4970.00   0.55759519   0.03444435
4971.00   0.44902560   0.03361760
4972.00   0.47151494   0.03438830
4973.00   0.54127365   0.03505225
4974.00   0.51727724   0.03488435
4975.00   0.51718450   0.03504380
4976.00   0.58207995   0.03584306
4977.00   0.50980467   0.03564261
4978.00   0.51080024   0.03637962
4979.00   0.58315712   0.03757641
4980.00   0.56369191   0.03758597
4981.00   0.49665552   0.03739960
4982.00   0.48798317   0.03758629
4983.00   0.50115848   0.03763617
4984.00   0.49938294   0.03771574
4985.00   0.53140694   0.03786748
4986.00   0.54347157   0.03754103
4987.00   0.54390526   0.03699636
4988.00   0.58466381   0.03691695
4989.00   0.57446331   0.03631999
4990.00   0.53724551   0.03540365
4991.00   0.55180746   0.03579327
4992.00   0.57641017   0.03606414
4993.00   0.60212570   0.03569849
4994.00   0.57118899   0.03505978
4995.00   0.52921945   0.03429376
4996.00   0.56774741   0.03425764
4997.00   0.61997479   0.03452221
4998.00   0.62097198   0.03420411
4999.00   0.58246422   0.03354912
5000.00   0.57555825   0.03327955
5001.00   0.58958048   0.03326331
5002.00   0.56794137   0.03312647
5003.00   0.59657413   0.03346568
5004.00   0.66500032   0.03387331
5005.00   0.63782477   0.03350489
5006.00   0.60030270   0.03320055
5007.00   0.62976116   0.03329244
5008.00   0.62576580   0.03333218
5009.00   0.59358925   0.03295665
5010.00   0.63296020   0.03317698
5011.00   0.70335370   0.03372337
5012.00   0.64369172   0.03299937
5013.00   0.68668652   0.03323461
5014.00   0.65831739   0.03298397
5015.00   0.64402735   0.03297358
5016.00   0.63253963   0.03301791
5017.00   0.65955192   0.03317872
5018.00   0.68271685   0.03369283
5019.00   0.70122588   0.03403389
5020.00   0.67971528   0.03409762
5021.00   0.70291579   0.03424857
5022.00   0.74198222   0.03414999
5023.00   0.69622058   0.03372924
5024.00   0.74272114   0.03411222
5025.00   0.80155319   0.03476419
5026.00   0.76379311   0.03413981
5027.00   0.77699643   0.03395430
5028.00   0.71940643   0.03385285
5029.00   0.70637381   0.03378461
5030.00   0.76211703   0.03458892
5031.00   0.77288312   0.03503419
5032.00   0.77354801   0.03502958
5033.00   0.82529294   0.03529002
5034.00   0.79798907   0.03487218
5035.00   0.75119340   0.03426201
5036.00   0.78341568   0.03441423
5037.00   0.78503793   0.03436253
5038.00   0.76243103   0.03398882
5039.00   0.79875249   0.03410763
5040.00   0.82946205   0.03419442
5041.00   0.81685519   0.03407138
5042.00   0.78107643   0.03399595
5043.00   0.74621350   0.03377309
5044.00   0.78285903   0.03426856
5045.00   0.82723409   0.03493249
5046.00   0.82977635   0.03505973
5047.00   0.81351256   0.03469017
5048.00   0.75999260   0.03383479
5049.00   0.77396518   0.03415086
5050.00   0.81285393   0.03455712
5051.00   0.76250005   0.03382042
5052.00   0.71737510   0.03339103
5053.00   0.73277187   0.03364531
5054.00   0.81488979   0.03464281
5055.00   0.83443910   0.03484127
5056.00   0.82774240   0.03477295
5057.00   0.83281446   0.03496618
5058.00   0.80951524   0.03487788
5059.00   0.84222054   0.03515880
5060.00   0.82965499   0.03516212
5061.00   0.76598936   0.03482240
5062.00   0.83353686   0.03542299
5063.00   0.80313480   0.03520545
5064.00   0.75688380   0.03500750
5065.00   0.77609402   0.03549381
5066.00   0.82145005   0.03544038
5067.00   0.80769700   0.03532728
5068.00   0.80100524   0.03570024
5069.00   0.81035382   0.03661987
5070.00   0.79032964   0.03657012
5071.00   0.71555638   0.03535230
5072.00   0.70579207   0.03473391
5073.00   0.76936978   0.03494244
5074.00   0.80119246   0.03524616
5075.00   0.73128080   0.03494378
5076.00   0.71422952   0.03475088
5077.00   0.76781106   0.03482676
5078.00   0.79137588   0.03475697
5079.00   0.79245609   0.03517537
5080.00   0.73501486   0.03603336
5081.00   0.70457244   0.03693789
5082.00   0.69252008   0.03737301
5083.00   0.71668398   0.03812283
5084.00   0.73582941   0.03889012
5085.00   0.72975802   0.03962404
5086.00   0.68381590   0.03956291
5087.00   0.63900769   0.03868045
5088.00   0.65141547   0.03777426
5089.00   0.67242092   0.03711503
5090.00   0.63636082   0.03606780
5091.00   0.59868598   0.03482947
5092.00   0.60642385   0.03434090
5093.00   0.65261197   0.03449807
5094.00   0.69824290   0.03449628
5095.00   0.65643704   0.03393482
5096.00   0.58832335   0.03360389
5097.00   0.59126174   0.03396372
5098.00   0.55990773   0.03390417
5099.00   0.52394694   0.03393611
5100.00   0.58309048   0.03465317
5101.00   0.59635979   0.03445156
5102.00   0.59527361   0.03418430
5103.00   0.61567199   0.03400365
5104.00   0.57984442   0.03327074
5105.00   0.55756187   0.03269014
5106.00   0.60173953   0.03300323
5107.00   0.60748303   0.03296215
5108.00   0.59532022   0.03286470
5109.00   0.57016081   0.03242690
5110.00   0.60544878   0.03283972
5111.00   0.59424508   0.03316904
5112.00   0.51231521   0.03247470
5113.00   0.51886076   0.03230100
5114.00   0.56545734   0.03274405
5115.00   0.53672385   0.03276366
5116.00   0.52795440   0.03291376
5117.00   0.56694734   0.03314178
5118.00   0.49863529   0.03195051
5119.00   0.51169795   0.03181337
5120.00   0.55916464   0.03237134
5121.00   0.52383751   0.03213991
5122.00   0.50764650   0.03197749
5123.00   0.53029466   0.03192785
5124.00   0.55966938   0.03212754
5125.00   0.52191371   0.03158268
5126.00   0.48469296   0.03112844
5127.00   0.47828552   0.03115028
5128.00   0.50143856   0.03151026
5129.00   0.51834333   0.03161357
5130.00   0.50208873   0.03140355
5131.00   0.50121969   0.03148029
5132.00   0.51631451   0.03165193
5133.00   0.50438303   0.03163941
5134.00   0.47113848   0.03112287
5135.00   0.45852292   0.03082562
5136.00   0.49059922   0.03132503
5137.00   0.51965499   0.03198834
5138.00   0.49129441   0.03137514
5139.00   0.47758433   0.03101987
5140.00   0.47364309   0.03137387
5141.00   0.46154580   0.03119239
5142.00   0.44959038   0.03105622
5143.00   0.46127501   0.03151511
5144.00   0.51373303   0.03206000
5145.00   0.53040808   0.03211308
5146.00   0.51944739   0.03197649
5147.00   0.50384390   0.03186426
5148.00   0.51915985   0.03241234
5149.00   0.54487896   0.03328099
5150.00   0.48745346   0.03313644
5151.00   0.45004430   0.03280799
5152.00   0.50644338   0.03340828
5153.00   0.51056886   0.03413498
5154.00   0.48375693   0.03418011
5155.00   0.49543980   0.03382126
5156.00   0.50070530   0.03364276
5157.00   0.46984577   0.03307328
5158.00   0.42348540   0.03266324
5159.00   0.43220812   0.03197185
5160.00   0.45318669   0.03218682
5161.00   0.45189059   0.03210380
5162.00   0.50014657   0.03228091
5163.00   0.48087227   0.03195386
5164.00   0.45252940   0.03129157
5165.00   0.50675768   0.03166691
5166.00   0.49458486   0.03142836
5167.00   0.44794723   0.03062302
5168.00   0.43230230   0.03042723
5169.00   0.45221129   0.03038341
5170.00   0.43600893   0.03022532
5171.00   0.46481597   0.03048120
5172.00   0.47395614   0.03029467
5173.00   0.52766824   0.03127952
5174.00   0.50891018   0.03127649
5175.00   0.46321380   0.03077261
5176.00   0.45657006   0.03121653
5177.00   0.41483635   0.03121092
5178.00   0.45646837   0.03169217
5179.00   0.49003831   0.03223853
5180.00   0.43428704   0.03154540
5181.00   0.44519302   0.03114365
5182.00   0.48903409   0.03120470
5183.00   0.47569978   0.03070117
5184.00   0.45504376   0.03055491
5185.00   0.44959840   0.03067051
5186.00   0.48575497   0.03105904
5187.00   0.46350473   0.03100265
5188.00   0.39931309   0.03069568
5189.00   0.40061527   0.03105496
5190.00   0.46475244   0.03164903
5191.00   0.47999546   0.03157022
5192.00   0.43804336   0.03114277
5193.00   0.46065855   0.03155444
5194.00   0.45591748   0.03181359
5195.00   0.42619488   0.03164645
5196.00   0.46687719   0.03213300
5197.00   0.47252032   0.03258680
5198.00   0.45196852   0.03282693
5199.00   0.46644270   0.03308496
5200.00   0.45493215   0.03299619
5201.00   0.43420932   0.03271769
5202.00   0.44681624   0.03253724
5203.00   0.50405735   0.03302522
5204.00   0.48136085   0.03239893
5205.00   0.46659327   0.03197224
5206.00   0.44029474   0.03169761
5207.00   0.45854354   0.03210256
5208.00   0.38566029   0.03134261
5209.00   0.47905755   0.03268160
5210.00   0.52969956   0.03384779
5211.00   0.41398099   0.03247612
5212.00   0.41079825   0.03252161
5213.00   0.47017482   0.03316817
5214.00   0.41385144   0.03195264
5215.00   0.42124537   0.03180950
5216.00   0.48315284   0.03266175
5217.00   0.39845666   0.03202933
5218.00   0.35538015   0.03165806
5219.00   0.40368980   0.03222269
5220.00   0.38088307   0.03234660
5221.00   0.41812116   0.03257261
5222.00   0.45084268   0.03272862
5223.00   0.40110102   0.03239476
5224.00   0.40706837   0.03230128
5225.00   0.43518993   0.03227220
5226.00   0.42807531   0.03193178
5227.00   0.40922439   0.03183598
5228.00   0.43074930   0.03191969
5229.00   0.43576527   0.03191587
5230.00   0.37927431   0.03189868
5231.00   0.39032936   0.03215751
5232.00   0.47082081   0.03271681
5233.00   0.46579224   0.03279619
5234.00   0.44235203   0.03250409
5235.00   0.45642361   0.03247845
5236.00   0.45942461   0.03286513
5237.00   0.45032695   0.03299719
5238.00   0.38298538   0.03227634
5239.00   0.34303662   0.03180591
5240.00   0.41487968   0.03250800
5241.00   0.46179706   0.03302999
5242.00   0.41693863   0.03245721
5243.00   0.35168618   0.03195348
5244.00   0.34990963   0.03200528
5245.00   0.39942876   0.03192474
5246.00   0.43410999   0.03224420
5247.00   0.44391266   0.03279437
5248.00   0.45198712   0.03277792
5249.00   0.42058328   0.03217517
5250.00   0.41041836   0.03194429
5251.00   0.48319232   0.03282639
5252.00   0.44274619   0.03233786
5253.00   0.41548273   0.03181763
5254.00   0.44826609   0.03261408
5255.00   0.43637499   0.03269298
5256.00   0.41109857   0.03264938
5257.00   0.42595550   0.03305431
5258.00   0.45392954   0.03374011
5259.00   0.49404362   0.03422978
5260.00   0.45896611   0.03329615
5261.00   0.44641715   0.03275403
5262.00   0.45222685   0.03247135
5263.00   0.42511880   0.03209535
5264.00   0.43093494   0.03238163
5265.00   0.39230227   0.03165575
5266.00   0.38004023   0.03149639
5267.00   0.44137082   0.03230844
5268.00   0.40390387   0.03187502
5269.00   0.39114207   0.03130755
5270.00   0.42893332   0.03203321
5271.00   0.42048776   0.03187511
5272.00   0.40451711   0.03184067
5273.00   0.46302009   0.03303346
5274.00   0.49984965   0.03329195
5275.00   0.46738181   0.03278911
5276.00   0.48905012   0.03351378
5277.00   0.48919824   0.03360292
5278.00   0.42483443   0.03262775
5279.00   0.44772282   0.03313517
5280.00   0.47538388   0.03375390
5281.00   0.42873707   0.03323748
5282.00   0.43638092   0.03327099
5283.00   0.42749706   0.03317315
5284.00   0.42420718   0.03325344
5285.00   0.46877980   0.03404642
5286.00   0.46847281   0.03415393
5287.00   0.45508870   0.03375171
5288.00   0.47478649   0.03386923
5289.00   0.45250106   0.03370842
5290.00   0.41283119   0.03308405
5291.00   0.45850727   0.03366228
5292.00   0.48907155   0.03436831
5293.00   0.44794726   0.03371442
5294.00   0.44141436   0.03347909
5295.00   0.51412189   0.03450854
5296.00   0.54814231   0.03487554
5297.00   0.49769989   0.03439350
5298.00   0.47275156   0.03432135
5299.00   0.44549817   0.03428051
5300.00   0.42275167   0.03397798
5301.00   0.48773393   0.03444419
5302.00   0.51453352   0.03523910
5303.00   0.48638809   0.03527629
5304.00   0.51657736   0.03570906
5305.00   0.51269633   0.03548634
5306.00   0.49554959   0.03532572
5307.00   0.50213444   0.03554846
5308.00   0.54056865   0.03639905
5309.00   0.55165386   0.03657648
5310.00   0.49231091   0.03528196
5311.00   0.45859176   0.03479153
5312.00   0.48968938   0.03549786
5313.00   0.51822782   0.03616134
5314.00   0.51721328   0.03641456
5315.00   0.51458269   0.03593245
5316.00   0.53650892   0.03667086
5317.00   0.46363276   0.03531371
5318.00   0.47921580   0.03583617
5319.00   0.49921271   0.03613777
5320.00   0.50484908   0.03612744
5321.00   0.51920491   0.03637528
5322.00   0.53682065   0.03651592
5323.00   0.54859358   0.03652979
5324.00   0.54298466   0.03651358
5325.00   0.50625134   0.03630413
5326.00   0.46996948   0.03601163
5327.00   0.47659466   0.03600092
5328.00   0.50419796   0.03625768
5329.00   0.56803590   0.03713593
5330.00   0.62895274   0.03834848
5331.00   0.62005860   0.03858740
5332.00   0.58298302   0.03799165
5333.00   0.56610566   0.03775917
5334.00   0.54431611   0.03757356
5335.00   0.57007974   0.03788467
5336.00   0.57919794   0.03817662
5337.00   0.54952598   0.03832940
5338.00   0.56598067   0.03873206
5339.00   0.54590732   0.03792702
5340.00   0.54236138   0.03781991
5341.00   0.57602316   0.03882448
5342.00   0.60317558   0.03940569
5343.00   0.63298792   0.03998305
5344.00   0.60174614   0.03984007
5345.00   0.60764128   0.03976629
5346.00   0.61730903   0.03990435
5347.00   0.58383989   0.04007191
5348.00   0.59221232   0.04063980
5349.00   0.55714101   0.04048001
5350.00   0.63636512   0.04157507
5351.00   0.66296446   0.04166322
5352.00   0.61159080   0.04099871
5353.00   0.59809387   0.04064280
5354.00   0.61109060   0.04067705
5355.00   0.63853735   0.04222751
5356.00   0.64858884   0.04325539
5357.00   0.59072417   0.04190548
5358.00   0.60485947   0.04165301
5359.00   0.66147000   0.04178996
5360.00   0.55199295   0.04057310
5361.00   0.66806722   0.04188092
5362.00   0.66410059   0.04189490
5363.00   0.62834859   0.04113847
5364.00   0.59891868   0.04016985
5365.00   0.70995343   0.04171515
5366.00   0.65093130   0.04111376
5367.00   0.60219431   0.01926152
5368.00   0.58311969   0.01907250
5369.00   0.59984034   0.01919298
5370.00   0.67178833   0.01967286
5371.00   0.69290781   0.01997965
5372.00   0.67972428   0.02019751
5373.00   0.66900194   0.02051154
5374.00   0.67778474   0.02114793
5375.00   0.69165063   0.02186188
5376.00   0.67632675   0.02170216
5377.00   0.61969954   0.02049988
5378.00   0.60323691   0.01991578
5379.00   0.61625177   0.01931824
5380.00   0.62830275   0.01920910
5381.00   0.62150365   0.01991998
5382.00   0.60989445   0.02113038
5383.00   0.63949758   0.02196204
5384.00   0.72705495   0.02296488
5385.00   0.76315403   0.02342503
5386.00   0.76260179   0.02363114
5387.00   0.76100755   0.02340664
5388.00   0.77661669   0.02240595
5389.00   0.79705757   0.02078816
5390.00   0.79049921   0.02030740
5391.00   0.76249462   0.02062042
5392.00   0.73212779   0.02100212
5393.00   0.67583895   0.02209854
5394.00   0.64061356   0.02268621
5395.00   0.65848166   0.02204783
5396.00   0.70981741   0.02057783
5397.00   0.71799773   0.01998457
5398.00   0.69407451   0.01957859
5399.00   0.69005179   0.01976320
5400.00   0.69791746   0.02077114
5401.00   0.70706517   0.02171834
5402.00   0.71000701   0.02227285
5403.00   0.71070123   0.02266398
5404.00   0.73110503   0.02262527
5405.00   0.78140253   0.02187340
5406.00   0.80450445   0.02160495
5407.00   0.81025392   0.02178599
5408.00   0.80564749   0.02187726
5409.00   0.78871733   0.02152015
5410.00   0.75911063   0.02087434
5411.00   0.75631309   0.02062644
5412.00   0.77902097   0.02038087
5413.00   0.78794503   0.02066496
5414.00   0.79167718   0.02123893
5415.00   0.78929454   0.02233936
5416.00   0.77368993   0.02443119
5417.00   0.74589461   0.02719968
5418.00   0.75546247   0.02765545
5419.00   0.81877965   0.02606157
5420.00   0.83099532   0.02521723
5421.00   0.79250729   0.02468340
5422.00   0.74976873   0.02428880
5423.00   0.72875923   0.02404107
5424.00   0.71401274   0.02396804
5425.00   0.73330986   0.02375313
5426.00   0.81450653   0.02348947
5427.00   0.84158039   0.02321772
5428.00   0.81895483   0.02298591
5429.00   0.78386509   0.02266630
5430.00   0.75782561   0.02205686
5431.00   0.72775191   0.02113427
5432.00   0.71884948   0.02099197
5433.00   0.72254092   0.02185255
5434.00   0.73906994   0.02193700
5435.00   0.78027225   0.02112789
5436.00   0.81964308   0.02031403
5437.00   0.82897580   0.02023977
5438.00   0.81466436   0.02055785
5439.00   0.84249526   0.02133032
5440.00   0.93445241   0.02304302
5441.00   0.95629090   0.02393867
5442.00   0.90332484   0.02420593
5443.00   0.82875109   0.02416923
5444.00   0.76783079   0.02398766
5445.00   0.69341248   0.02354311
5446.00   0.68762505   0.02312576
5447.00   0.76338792   0.02245612
5448.00   0.79937840   0.02207002
5449.00   0.79906857   0.02199943
5450.00   0.78863859   0.02205920
5451.00   0.78372520   0.02217306
5452.00   0.77277321   0.02253461
5453.00   0.78590065   0.02203332
5454.00   0.83346504   0.01961249
5455.00   0.85481608   0.01933821
5456.00   0.85161889   0.02117451
5457.00   0.83459270   0.02406066
5458.00   0.80820787   0.02772051
5459.00   0.76516747   0.03267111
5460.00   0.73829609   0.03397873
5461.00   0.70964366   0.03316795
5462.00   0.70085108   0.03170862
5463.00   0.72205961   0.02868502
5464.00   0.74874860   0.02507570
5465.00   0.74906307   0.02314387
5466.00   0.72733039   0.02238438
5467.00   0.73822862   0.02202740
5468.00   0.78174430   0.02298362
5469.00   0.80615318   0.02344768
5470.00   0.80962563   0.02357415
5471.00   0.80346304   0.02338028
5472.00   0.79610389   0.02251406
5473.00   0.78323227   0.02058911
5474.00   0.76840508   0.01995108
5475.00   0.73425591   0.02042481
5476.00   0.72802895   0.02057527
5477.00   0.76345313   0.02037298
5478.00   0.80953640   0.02003665
5479.00   0.82450289   0.01963343
5480.00   0.82073927   0.01894060
5481.00   0.82359761   0.01885700
5482.00   0.82673395   0.01944235
5483.00   0.82531029   0.01972149
5484.00   0.81686771   0.01963804
5485.00   0.80620182   0.01938331
5486.00   0.80180150   0.01906827
5487.00   0.80697632   0.01847169
5488.00   0.79088342   0.01835120
5489.00   0.74993902   0.01864386
5490.00   0.72194272   0.01887078
5491.00   0.70941854   0.01910169
5492.00   0.70670110   0.01923616
5493.00   0.71229231   0.01892506
5494.00   0.72620815   0.01800655
5495.00   0.75097352   0.01768700
5496.00   0.80033648   0.01774917
5497.00   0.83333260   0.01780031
5498.00   0.84203887   0.01782326
5499.00   0.83958590   0.01784666
5500.00   0.84170669   0.01779076
5501.00   0.83633614   0.01746036
5502.00   0.84664452   0.01776489
5503.00   0.88157237   0.01873041
5504.00   0.89627177   0.01941823
5505.00   0.87961340   0.01985287
5506.00   0.84772646   0.02003163
5507.00   0.82283258   0.01954532
5508.00   0.78038347   0.01776730
5509.00   0.78067732   0.01749648
5510.00   0.82290626   0.01852789
5511.00   0.85843581   0.01916495
5512.00   0.88047665   0.01895888
5513.00   0.89629585   0.01854868
5514.00   0.90359122   0.01906817
5515.00   0.89836174   0.02081016
5516.00   0.89844006   0.02092245
5517.00   0.90517849   0.01954504
5518.00   0.90015721   0.01867661
5519.00   0.87180120   0.01887109
5520.00   0.83471644   0.01963649
5521.00   0.82605916   0.02064841
5522.00   0.83878070   0.02305673
5523.00   0.84786463   0.02303018
5524.00   0.87547886   0.02047484
5525.00   0.88233894   0.01859767
5526.00   0.84477967   0.01909376
5527.00   0.78947961   0.02048570
5528.00   0.78911811   0.02017532
5529.00   0.83033592   0.01818733
5530.00   0.86599833   0.01757337
5531.00   0.92665780   0.01767199
5532.00   0.96870619   0.01800593
5533.00   0.97510183   0.01856851
5534.00   0.96137619   0.01928810
5535.00   0.95695943   0.01953315
5536.00   0.95844531   0.01924903
5537.00   0.94074994   0.01945346
5538.00   0.89014393   0.02032872
5539.00   0.86138099   0.02060246
5540.00   0.88268697   0.01962249
5541.00   0.92983115   0.01784317
5542.00   0.93745798   0.01703913
5543.00   0.91044295   0.01666452
5544.00   0.91189414   0.01664632
5545.00   0.93416363   0.01717063
5546.00   0.95219237   0.01780534
5547.00   0.95558465   0.01861045
5548.00   0.95182741   0.01947249
5549.00   0.95235056   0.01924030
5550.00   0.95438492   0.01747762
5551.00   0.95340830   0.01686039
5552.00   0.94889802   0.01689699
5553.00   0.94519615   0.01722089
5554.00   0.94037706   0.01783953
5555.00   0.93616128   0.01869075
5556.00   0.95613372   0.01886773
5557.00   1.01588380   0.01861234
5558.00   1.03744888   0.01825804
5559.00   1.02692842   0.01746688
5560.00   1.01770294   0.01682120
5561.00   1.02511239   0.01670045
5562.00   1.03986919   0.01690238
5563.00   1.05393791   0.01694859
5564.00   1.06651700   0.01684763
5565.00   1.08935249   0.01711688
5566.00   1.13031936   0.01779014
5567.00   1.16324282   0.01843226
5568.00   1.17572021   0.01893860
5569.00   1.17499542   0.01939173
5570.00   1.15638065   0.01920741
5571.00   1.09441173   0.01498671
5572.00   1.07551277   0.01811326
5573.00   1.09408331   0.02357471
5574.00   1.11725962   0.03161626
5575.00   1.13486612   0.04352324
5576.00   1.15461850   0.05625548
5577.00   1.12134433   0.05798113
5578.00   1.00237906   0.05153787
5579.00   0.96157372   0.04582557
5580.00   0.98272514   0.03656683
5581.00   1.02347612   0.02633447
5582.00   1.06619310   0.02092117
5583.00   1.12272692   0.02110917
5584.00   1.14992881   0.01959564
5585.00   1.15126193   0.02014631
5586.00   1.16236663   0.01976677
5587.00   1.17932117   0.01865266
5588.00   1.19523966   0.01760066
5589.00   1.20401788   0.01715040
5590.00   1.20696545   0.01706553
5591.00   1.22826958   0.01756939
5592.00   1.27417278   0.01889551
5593.00   1.29969776   0.01988635
5594.00   1.31206596   0.02114244
5595.00   1.31304801   0.02181056
5596.00   1.29834080   0.02103287
5597.00   1.26626670   0.01889127
5598.00   1.25749195   0.01795338
5599.00   1.26648998   0.01762863
5600.00   1.26807535   0.01735663
5601.00   1.26345587   0.01715030
5602.00   1.25903749   0.01721006
5603.00   1.25835311   0.01772545
5604.00   1.25884533   0.01864375
5605.00   1.26809490   0.01928815
5606.00   1.29142761   0.02025370
5607.00   1.30486274   0.02043686
5608.00   1.30914283   0.01955529
5609.00   1.31026411   0.01856455
5610.00   1.31216061   0.01847827
5611.00   1.31264496   0.01893012
5612.00   1.31430793   0.01929091
5613.00   1.30994427   0.02002018
5614.00   1.31875706   0.02032604
5615.00   1.34848297   0.02025257
5616.00   1.37743807   0.01995686
5617.00   1.38347065   0.01950736
5618.00   1.37488091   0.01878979
5619.00   1.36452472   0.01824526
5620.00   1.33593285   0.01741540
5621.00   1.32583451   0.01725390
5622.00   1.33525312   0.01806837
5623.00   1.35359359   0.01898566
5624.00   1.37468719   0.01919915
5625.00   1.40804422   0.01907318
5626.00   1.41207123   0.01877748
5627.00   1.37897778   0.01789777
5628.00   1.37195599   0.01744302
5629.00   1.39809668   0.01751793
5630.00   1.43126094   0.01778063
5631.00   1.44582069   0.01793375
5632.00   1.45469129   0.01816107
5633.00   1.44849908   0.01816030
5634.00   1.41720867   0.01775501
5635.00   1.39917290   0.01774899
5636.00   1.39662004   0.01833721
5637.00   1.39957929   0.01899682
5638.00   1.39965045   0.01916120
5639.00   1.40155792   0.01907523
5640.00   1.39953876   0.01881233
5641.00   1.39065373   0.01805802
5642.00   1.38880062   0.01761435
5643.00   1.39713573   0.01760827
5644.00   1.40824962   0.01776098
5645.00   1.41259634   0.01776534
5646.00   1.41310334   0.01771681
5647.00   1.41504920   0.01777933
5648.00   1.41157365   0.01797766
5649.00   1.41761875   0.01808815
5650.00   1.44193602   0.01809934
5651.00   1.46769249   0.01805020
5652.00   1.46746826   0.01795576
5653.00   1.44769740   0.01777066
5654.00   1.43050182   0.01766575
5655.00   1.40253806   0.01737292
5656.00   1.38204467   0.01750533
5657.00   1.36748886   0.01839807
5658.00   1.36094880   0.01937895
5659.00   1.37282312   0.01942858
5660.00   1.41170931   0.01872553
5661.00   1.42328048   0.01836286
5662.00   1.42451739   0.01775525
5663.00   1.41519749   0.01759233
5664.00   1.38349867   0.01804772
5665.00   1.34896779   0.01882555
5666.00   1.35727882   0.01958373
5667.00   1.41442800   0.02084054
5668.00   1.42316473   0.02099882
5669.00   1.39713240   0.02010210
5670.00   1.38190770   0.01945241
5671.00   1.38483167   0.01933525
5672.00   1.39588404   0.01940549
5673.00   1.40816188   0.01925720
5674.00   1.43622673   0.01823925
5675.00   1.43498468   0.01941541
5676.00   1.41342187   0.02272605
5677.00   1.38479829   0.02488547
5678.00   1.34130502   0.02569774
5679.00   1.29527760   0.02586337
5680.00   1.28905487   0.02576070
5681.00   1.32337213   0.02396560
5682.00   1.33588243   0.02508970
5683.00   1.33854795   0.02958982
5684.00   1.35032499   0.03158429
5685.00   1.38100290   0.02974093
5686.00   1.41858006   0.02577678
5687.00   1.43468380   0.02396886
5688.00   1.44229889   0.02322700
5689.00   1.43400681   0.02248400
5690.00   1.40160024   0.02242948
5691.00   1.37310612   0.02222513
5692.00   1.35163283   0.02134960
5693.00   1.33588302   0.02033576
5694.00   1.34140909   0.02084405
5695.00   1.37911367   0.02339813
5696.00   1.39294386   0.02389900
5697.00   1.39843512   0.02326535
5698.00   1.39878941   0.02250950
5699.00   1.39420187   0.02186429
5700.00   1.38477147   0.02116433
5701.00   1.37390065   0.02068714
5702.00   1.36487103   0.02037978
5703.00   1.34259713   0.02012405
5704.00   1.29422474   0.01995167
5705.00   1.26463401   0.01988272
5706.00   1.27531254   0.02007551
5707.00   1.30827928   0.02036390
5708.00   1.31974602   0.01990004
5709.00   1.32497954   0.01830644
5710.00   1.32670891   0.01768001
5711.00   1.31848848   0.01734539
5712.00   1.31498611   0.01771710
5713.00   1.32928145   0.01934424
5714.00   1.35069478   0.02150619
5715.00   1.33116376   0.02176425
5716.00   1.25351501   0.02027696
5717.00   1.23079789   0.01970597
5718.00   1.25369954   0.01920140
5719.00   1.27077186   0.01922345
5720.00   1.25354719   0.02034022
5721.00   1.22121978   0.02201741
5722.00   1.23037708   0.02198017
5723.00   1.28646135   0.02043939
5724.00   1.30607557   0.01937426
5725.00   1.30491936   0.01809639
5726.00   1.29558527   0.01706669
5727.00   1.28088880   0.01657320
5728.00   1.25913417   0.01651953
5729.00   1.24469376   0.01705221
5730.00   1.22147858   0.01874110
5731.00   1.22479463   0.01936853
5732.00   1.26403344   0.01925923
5733.00   1.29573858   0.01906875
5734.00   1.29494452   0.01922810
5735.00   1.27550852   0.01950570
5736.00   1.26365530   0.01892990
5737.00   1.24831748   0.01705421
5738.00   1.23543906   0.01611567
5739.00   1.22147071   0.01597237
5740.00   1.21180212   0.01603505
5741.00   1.21016943   0.01600913
5742.00   1.21469212   0.01605999
5743.00   1.22070384   0.01611813
5744.00   1.24509263   0.01612522
5745.00   1.23961592   0.01633994
5746.00   1.19819129   0.01682536
5747.00   1.15888143   0.01727879
5748.00   1.14534879   0.01758530
5749.00   1.14545763   0.01784110
5750.00   1.15161753   0.01758868
5751.00   1.17590737   0.01655930
5752.00   1.18865466   0.01600564
5753.00   1.19225681   0.01581328
5754.00   1.19439042   0.01576749
5755.00   1.20066750   0.01577496
5756.00   1.20912123   0.01589943
5757.00   1.20784879   0.01594024
5758.00   1.20521653   0.01589351
5759.00   1.18781257   0.01598380
5760.00   1.13675797   0.01612173
5761.00   1.10040581   0.01641388
5762.00   1.12710071   0.01706719
5763.00   1.20429444   0.01806249
5764.00   1.21106076   0.01812654
5765.00   1.16675568   0.01703813
5766.00   1.13715708   0.01683181
5767.00   1.11291039   0.01759987
5768.00   1.09125304   0.01841424
5769.00   1.07172847   0.01868499
5770.00   1.05244172   0.01873849
5771.00   1.05213451   0.01844950
5772.00   1.07701015   0.01748990
5773.00   1.08907151   0.01691129
5774.00   1.09038317   0.01660353
5775.00   1.08841646   0.01654517
5776.00   1.08848166   0.01690664
5777.00   1.08924496   0.01779313
5778.00   1.08176446   0.01760522
5779.00   1.05944633   0.01622315
5780.00   1.05115485   0.01550738
5781.00   1.05773783   0.01539320
5782.00   1.06956875   0.01566850
5783.00   1.07954371   0.01631717
5784.00   1.09249866   0.01744466
5785.00   1.09769106   0.01801302
5786.00   1.09717190   0.01843782
5787.00   1.09533143   0.01859158
5788.00   1.09295225   0.01831918
5789.00   1.08741820   0.01797899
5790.00   1.07349277   0.01804662
5791.00   1.04652667   0.01844249
5792.00   1.04940987   0.01834899
5793.00   1.08699465   0.01779295
5794.00   1.10361612   0.01746309
5795.00   1.09715700   0.01751399
5796.00   1.08220565   0.01753174
5797.00   1.06984580   0.01698541
5798.00   1.05159485   0.01581158
5799.00   1.04772079   0.01541663
5800.00   1.05562365   0.01556656
5801.00   1.06379580   0.01573707
5802.00   1.07465041   0.01595994
5803.00   1.08517075   0.01624372
5804.00   1.08916295   0.01654980
5805.00   1.08869576   0.01698180
5806.00   1.08681357   0.01707700
5807.00   1.07567048   0.01668016
5808.00   1.07525253   0.01668597
5809.00   1.09667087   0.01739260
5810.00   1.11703002   0.01811161
5811.00   1.10084379   0.01789564
5812.00   1.05068040   0.01648836
5813.00   1.02580774   0.01696889
5814.00   0.99997163   0.01946870
5815.00   0.99479520   0.02047496
5816.00   1.02595735   0.01975648
5817.00   1.06377316   0.01825988
5818.00   1.05758023   0.01711608
5819.00   1.01299524   0.01547937
5820.00   0.99873412   0.01491496
5821.00   0.99665779   0.01530090
5822.00   0.99707562   0.01586821
5823.00   1.00151753   0.01675211
5824.00   1.00762582   0.01767556
5825.00   1.00738156   0.01800393
5826.00   0.99762118   0.01787967
5827.00   1.00544572   0.01794683
5828.00   1.03650343   0.01793902
5829.00   1.05117762   0.01804326
5830.00   1.04340565   0.01843480
5831.00   1.02301192   0.01881406
5832.00   0.99860543   0.01857645
5833.00   0.95793939   0.01763061
5834.00   0.93618006   0.01723666
5835.00   0.91907358   0.01725346
5836.00   0.91610026   0.01704245
5837.00   0.93362689   0.01632186
5838.00   0.96202642   0.01545461
5839.00   0.98083597   0.01527686
5840.00   1.00288534   0.01576408
5841.00   1.01003706   0.01586466
5842.00   1.00340903   0.01587992
5843.00   0.99518734   0.01587150
5844.00   0.98591381   0.01583165
5845.00   0.97553158   0.01577530
5846.00   0.96973193   0.01577759
5847.00   0.96623617   0.01585341
5848.00   0.96530682   0.01584338
5849.00   0.96820658   0.01558931
5850.00   0.97128928   0.01565185
5851.00   0.97385406   0.01626341
5852.00   0.97656721   0.01710353
5853.00   0.97939491   0.01759717
5854.00   0.97746801   0.01829410
5855.00   0.98772013   0.01811483
5856.00   1.01523519   0.01673134
5857.00   1.03270173   0.01578252
5858.00   1.03130877   0.01596557
5859.00   1.01963139   0.01668868
5860.00   1.01050055   0.01705698
5861.00   0.99532098   0.01750672
5862.00   0.98665106   0.01771641
5863.00   0.97800171   0.01773471
5864.00   0.97664177   0.01770766
5865.00   0.98778194   0.01771022
5866.00   1.00613284   0.01767030
5867.00   1.01445448   0.01739322
5868.00   1.01504290   0.01667389
5869.00   1.02154624   0.01638946
5870.00   1.03943920   0.01644779
5871.00   1.04424429   0.01647180
5872.00   1.02196372   0.01627924
5873.00   0.98468757   0.01601826
5874.00   0.96900690   0.01607414
5875.00   0.96155822   0.01649765
5876.00   0.96208930   0.01664937
5877.00   0.97587556   0.01679156
5878.00   0.98952335   0.01670971
5879.00   0.99777460   0.01615029
5880.00   1.00427425   0.01528198
5881.00   1.01213384   0.01519530
5882.00   1.02101600   0.01564483
5883.00   1.02833748   0.01618556
5884.00   1.03441370   0.01575537
5885.00   1.04015386   0.01729616
5886.00   1.05259955   0.02164811
5887.00   1.06647968   0.02684572
5888.00   1.03776646   0.03088109
5889.00   0.95586741   0.03680199
5890.00   0.90618271   0.03789363
5891.00   0.85348403   0.03418918
5892.00   0.83283222   0.03045754
5893.00   0.87859774   0.03000233
5894.00   0.97025961   0.03120183
5895.00   0.98318851   0.03141722
5896.00   0.93222111   0.03259341
5897.00   0.91159749   0.03149103
5898.00   0.89817548   0.02736835
5899.00   0.89453721   0.02275450
5900.00   0.90449029   0.01980079
5901.00   0.92602623   0.01784508
5902.00   0.95060933   0.01643068
5903.00   0.98902202   0.01650999
5904.00   1.01645803   0.01654451
5905.00   1.03836274   0.01721829
5906.00   1.05479264   0.01769545
5907.00   1.06780457   0.01736615
5908.00   1.07711005   0.01650006
5909.00   1.06170392   0.01639831
5910.00   1.00841808   0.01687456
5911.00   0.98184997   0.01712549
5912.00   0.97087914   0.01740641
5913.00   0.97031993   0.01751301
5914.00   0.98272377   0.01718104
5915.00   1.00897288   0.01646759
5916.00   1.01137257   0.01646587
5917.00   0.98848629   0.01715667
5918.00   0.98533595   0.01742915
5919.00   1.00127923   0.01747059
5920.00   1.01783133   0.01736749
5921.00   1.02296484   0.01711379
5922.00   1.02247393   0.01668272
5923.00   1.02108991   0.01634695
5924.00   1.01405001   0.01589694
5925.00   1.01114690   0.01569663
5926.00   1.01221979   0.01580672
5927.00   1.01372004   0.01596276
5928.00   1.01277983   0.01596455
5929.00   1.01029599   0.01590005
5930.00   1.01174593   0.01589483
5931.00   1.01838803   0.01582383
5932.00   1.02067912   0.01594188
5933.00   1.01860023   0.01633844
5934.00   1.01558888   0.01670757
5935.00   1.01440275   0.01682514
5936.00   1.01409924   0.01681896
5937.00   1.01127720   0.01657967
5938.00   1.00854886   0.01591976
5939.00   1.00140595   0.01547650
5940.00   0.98709339   0.01513978
5941.00   0.97299719   0.01498258
5942.00   0.96602827   0.01517541
5943.00   0.96312135   0.01572359
5944.00   0.96290642   0.01590980
5945.00   0.96830505   0.01603901
5946.00   0.97185737   0.01592738
5947.00   0.97212869   0.01531212
5948.00   0.97415787   0.01476532
5949.00   0.98374987   0.01503691
5950.00   1.00054193   0.01595302
5951.00   1.00901258   0.01626289
5952.00   1.01363146   0.01632533
5953.00   1.01622200   0.01634630
5954.00   1.01712954   0.01628974
5955.00   1.01523185   0.01618402
5956.00   1.00813198   0.01609910
5957.00   0.99348253   0.01604557
5958.00   0.99212396   0.01576514
5959.00   1.00397420   0.01497899
5960.00   1.00924444   0.01472108
5961.00   1.00842929   0.01522088
5962.00   1.00416803   0.01584996
5963.00   0.99693382   0.01598736
5964.00   0.98470235   0.01591182
5965.00   0.97758120   0.01566621
5966.00   0.97074705   0.01497170
5967.00   0.96882021   0.01455992
5968.00   0.97529501   0.01446595
5969.00   0.98275274   0.01456521
5970.00   0.98003620   0.01481077
5971.00   0.96735984   0.01533487
5972.00   0.96816248   0.01550925
5973.00   0.97885555   0.01553336
5974.00   0.98816460   0.01543296
5975.00   1.00007522   0.01511113
5976.00   1.00828922   0.01473321
5977.00   0.99873519   0.01460566
5978.00   0.96750098   0.01466718
5979.00   0.96146476   0.01462721
5980.00   0.97501105   0.01457328
5981.00   0.98169786   0.01451735
5982.00   0.97935325   0.01445100
5983.00   0.97356254   0.01438847
5984.00   0.96816981   0.01435907
5985.00   0.95900750   0.01435474
5986.00   0.95759332   0.01435848
5987.00   0.96162444   0.01437992
5988.00   0.96738547   0.01440680
5989.00   0.97680068   0.01445103
5990.00   0.98665601   0.01449230
5991.00   0.98889685   0.01448110
5992.00   0.98163784   0.01438734
5993.00   0.98655570   0.01442184
5994.00   1.00447357   0.01458897
5995.00   1.01412749   0.01468983
5996.00   1.01213050   0.01471230
5997.00   1.00391495   0.01467776
5998.00   0.99412185   0.01455289
5999.00   0.97198266   0.01414597
6000.00   0.97298527   0.01426166
6001.00   0.99455589   0.01492015
6002.00   1.01343119   0.01534156
6003.00   1.02651000   0.01544437
6004.00   1.03777766   0.01536745
6005.00   1.04832661   0.01514570
6006.00   1.05971909   0.01454828
6007.00   1.06441724   0.01435751
6008.00   1.06234086   0.01446817
6009.00   1.06004429   0.01453971
6010.00   1.06004632   0.01451764
6011.00   1.05905986   0.01446177
6012.00   1.05048299   0.01437687
6013.00   1.03106713   0.01412046
6014.00   1.02178431   0.01419749
6015.00   1.01645517   0.01463751
6016.00   1.01458001   0.01492894
6017.00   1.01908767   0.01497176
6018.00   1.02592540   0.01487822
6019.00   1.02105224   0.01471707
6020.00   0.99993920   0.01431225
6021.00   0.99680001   0.01416527
6022.00   1.00256228   0.01407460
6023.00   1.01393557   0.01418950
6024.00   1.03662896   0.01463319
6025.00   1.06310558   0.01523628
6026.00   1.06150413   0.01554707
6027.00   1.02746773   0.01589064
6028.00   1.01561534   0.01579287
6029.00   1.01112664   0.01512723
6030.00   1.01025832   0.01456507
6031.00   1.01538658   0.01436174
6032.00   1.02339864   0.01433222
6033.00   1.01643717   0.01426219
6034.00   0.98629832   0.01427263
6035.00   0.98215890   0.01422951
6036.00   1.00178921   0.01413953
6037.00   1.01442051   0.01408426
6038.00   1.00852466   0.01411439
6039.00   0.99296552   0.01418604
6040.00   0.97927636   0.01415807
6041.00   0.95842862   0.01407269
6042.00   0.94618845   0.01396009
6043.00   0.93726254   0.01368364
6044.00   0.93419611   0.01356885
6045.00   0.93900675   0.01382321
6046.00   0.95011222   0.01427880
6047.00   0.96111870   0.01442384
6048.00   0.98470145   0.01449263
6049.00   0.98707944   0.01434850
6050.00   0.97077060   0.01367573
6051.00   0.95165247   0.01333186
6052.00   0.93435407   0.01391425
6053.00   0.91613638   0.01497125
6054.00   0.90745699   0.01520644
6055.00   0.90977943   0.01492511
6056.00   0.90624315   0.01474614
6057.00   0.90020007   0.01442061
6058.00   0.89367837   0.01417931
6059.00   0.88605213   0.01423425
6060.00   0.87767357   0.01446246
6061.00   0.87837934   0.01422607
6062.00   0.89550072   0.01315159
6063.00   0.89432436   0.01309976
6064.00   0.87230670   0.01396778
6065.00   0.85554552   0.01490915
6066.00   0.85884166   0.01572590
6067.00   0.87404352   0.01656013
6068.00   0.88653129   0.01643158
6069.00   0.91288054   0.01514797
6070.00   0.91663867   0.01434679
6071.00   0.89826214   0.01367422
6072.00   0.87592304   0.01319013
6073.00   0.85672015   0.01300974
6074.00   0.83584708   0.01310448
6075.00   0.83521730   0.01323277
6076.00   0.85356981   0.01360912
6077.00   0.87090540   0.01380429
6078.00   0.90347886   0.01394893
6079.00   0.92257243   0.01395501
6080.00   0.90332830   0.01369116
6081.00   0.85563338   0.01317813
6082.00   0.83349794   0.01299802
6083.00   0.81362534   0.01304090
6084.00   0.81092745   0.01305533
6085.00   0.83477986   0.01310794
6086.00   0.85688192   0.01315521
6087.00   0.85543257   0.01312194
6088.00   0.83987701   0.01301777
6089.00   0.83173877   0.01320277
6090.00   0.82119036   0.01378505
6091.00   0.81603950   0.01401672
6092.00   0.81735730   0.01394865
6093.00   0.81961370   0.01379138
6094.00   0.81909466   0.01365567
6095.00   0.81797349   0.01345890
6096.00   0.81283426   0.01347312
6097.00   0.80259538   0.01380528
6098.00   0.79411602   0.01384352
6099.00   0.78355032   0.01353749
6100.00   0.77701175   0.01321052
6101.00   0.78253621   0.01315461
6102.00   0.79945028   0.01326706
6103.00   0.79997706   0.01326772
6104.00   0.79602408   0.01305571
6105.00   0.77950358   0.01322284
6106.00   0.74035627   0.01386570
6107.00   0.70288259   0.01453512
6108.00   0.69113547   0.01491025
6109.00   0.69570881   0.01518754
6110.00   0.70246387   0.01517864
6111.00   0.72489649   0.01465963
6112.00   0.73634630   0.01449229
6113.00   0.73397493   0.01478905
6114.00   0.73086649   0.01509487
6115.00   0.74057168   0.01499300
6116.00   0.76076984   0.01461675
6117.00   0.76543516   0.01433748
6118.00   0.76184201   0.01398813
6119.00   0.75368965   0.01369760
6120.00   0.73597991   0.01346391
6121.00   0.71815938   0.01327140
6122.00   0.71241665   0.01311476
6123.00   0.71494347   0.01300128
6124.00   0.71582127   0.01291514
6125.00   0.72005403   0.01284632
6126.00   0.72234172   0.01284290
6127.00   0.72312713   0.01294337
6128.00   0.72248465   0.01306125
6129.00   0.71954346   0.01309869
6130.00   0.71363103   0.01312342
6131.00   0.71057439   0.01300090
6132.00   0.70856667   0.01241853
6133.00   0.70741671   0.01240444
6134.00   0.70683402   0.01320781
6135.00   0.70740622   0.01413559
6136.00   0.70991939   0.01451760
6137.00   0.71385247   0.01473788
6138.00   0.72014624   0.01450918
6139.00   0.73502994   0.01346595
6140.00   0.73954833   0.01283801
6141.00   0.73094434   0.01277589
6142.00   0.71624410   0.01299419
6143.00   0.70256656   0.01327288
6144.00   0.68257779   0.01379800
6145.00   0.67689747   0.01406484
6146.00   0.68438202   0.01426222
6147.00   0.68960750   0.01433119
6148.00   0.69144320   0.01418416
6149.00   0.69286126   0.01398237
6150.00   0.69538033   0.01404092
6151.00   0.69544107   0.01440684
6152.00   0.70608616   0.01428761
6153.00   0.73385358   0.01363961
6154.00   0.74855137   0.01325836
6155.00   0.74559057   0.01329440
6156.00   0.73361415   0.01351126
6157.00   0.72166306   0.01365399
6158.00   0.70316339   0.01382816
6159.00   0.69029820   0.01401897
6160.00   0.67577475   0.01438419
6161.00   0.66945326   0.01448902
6162.00   0.67749995   0.01421970
6163.00   0.68989503   0.01375487
6164.00   0.68634224   0.01338438
6165.00   0.66671550   0.01288830
6166.00   0.66363937   0.01267289
6167.00   0.66890055   0.01277197
6168.00   0.67738831   0.01277842
6169.00   0.69366556   0.01258039
6170.00   0.71045220   0.01233113
6171.00   0.70609897   0.01228535
6172.00   0.67495185   0.01243183
6173.00   0.67042983   0.01244548
6174.00   0.68297625   0.01230163
6175.00   0.69399697   0.01234125
6176.00   0.70119596   0.01268928
6177.00   0.70674324   0.01316537
6178.00   0.70777947   0.01347111
6179.00   0.70341736   0.01398822
6180.00   0.70083886   0.01378138
6181.00   0.69918913   0.01250711
6182.00   0.69487977   0.01173632
6183.00   0.68576676   0.01215848
6184.00   0.67447186   0.01308542
6185.00   0.66770756   0.01348040
6186.00   0.66530854   0.01401841
6187.00   0.65900975   0.01381106
6188.00   0.64898473   0.01258357
6189.00   0.64142764   0.01164415
6190.00   0.63659620   0.01159251
6191.00   0.63476950   0.01197024
6192.00   0.64177722   0.01203624
6193.00   0.66473740   0.01194712
6194.00   0.67257023   0.01211415
6195.00   0.67287433   0.01251067
6196.00   0.66992235   0.01285978
6197.00   0.66027927   0.01314936
6198.00   0.64830607   0.01337573
6199.00   0.65840018   0.01326681
6200.00   0.69904995   0.01260168
6201.00   0.71213347   0.01241961
6202.00   0.71242869   0.01263460
6203.00   0.70451790   0.01272939
6204.00   0.68563950   0.01245981
6205.00   0.65901619   0.01201482
6206.00   0.64801830   0.01191435
6207.00   0.64727503   0.01209111
6208.00   0.64627105   0.01216392
6209.00   0.64957267   0.01226079
6210.00   0.65280271   0.01231939
6211.00   0.65395015   0.01230010
6212.00   0.65443867   0.01223308
6213.00   0.65666378   0.01221918
6214.00   0.66224527   0.01218382
6215.00   0.66307306   0.01225131
6216.00   0.65724152   0.01248475
6217.00   0.65489060   0.01263712
6218.00   0.66341501   0.01254808
6219.00   0.67781347   0.01232521
6220.00   0.67614496   0.01241358
6221.00   0.65801710   0.01272248
6222.00   0.65010715   0.01301491
6223.00   0.64216858   0.01357632
6224.00   0.64335448   0.01382733
6225.00   0.66444993   0.01336156
6226.00   0.69917107   0.01237265
6227.00   0.70252347   0.01206941
6228.00   0.67573243   0.01213077
6229.00   0.66596651   0.01232282
6230.00   0.66500330   0.01256790
6231.00   0.66610390   0.01315746
6232.00   0.66421264   0.01446274
6233.00   0.66180509   0.01614896
6234.00   0.67660558   0.01632020
6235.00   0.72379309   0.01515213
6236.00   0.73533362   0.01439681
6237.00   0.71117806   0.01357094
6238.00   0.68722647   0.01292464
6239.00   0.68567604   0.01277940
6240.00   0.69537252   0.01302861
6241.00   0.69261128   0.01290947
6242.00   0.67359507   0.01250475
6243.00   0.67621195   0.01237198
6244.00   0.70294321   0.01245207
6245.00   0.72966456   0.01262895
6246.00   0.74172950   0.01289783
6247.00   0.74680644   0.01328395
6248.00   0.74594164   0.01329356
6249.00   0.73383933   0.01296888
6250.00   0.72594190   0.01271143
6251.00   0.71587974   0.01237288
6252.00   0.71162701   0.01211661
6253.00   0.72110629   0.01207004
6254.00   0.74161404   0.01216176
6255.00   0.75646430   0.01254043
6256.00   0.77032071   0.01323946
6257.00   0.78628600   0.01390065
6258.00   0.80927199   0.01484338
6259.00   0.82692432   0.01546311
6260.00   0.82840204   0.01520001
6261.00   0.81781703   0.01416640
6262.00   0.80787420   0.01395741
6263.00   0.78323621   0.01447293
6264.00   0.77791524   0.01443817
6265.00   0.79665822   0.01377018
6266.00   0.81703013   0.01305530
6267.00   0.82002217   0.01286997
6268.00   0.81316757   0.01303714
6269.00   0.81027538   0.01294826
6270.00   0.79984099   0.01257668
6271.00   0.80290091   0.01261506
6272.00   0.82096535   0.01294129
6273.00   0.84431690   0.01358110
6274.00   0.86814684   0.01478721
6275.00   0.90045190   0.01664681
6276.00   0.89812529   0.01664638
6277.00   0.85403156   0.01474704
6278.00   0.83261061   0.01356512
6279.00   0.83663172   0.01317203
6280.00   0.84329504   0.01304385
6281.00   0.83043605   0.01280192
6282.00   0.80139154   0.01259929
6283.00   0.80140215   0.01259428
6284.00   0.82596582   0.01266789
6285.00   0.84433931   0.01302185
6286.00   0.86496460   0.01384988
6287.00   0.87729633   0.01462599
6288.00   0.86048400   0.01484191
6289.00   0.80968916   0.01473822
6290.00   0.81006211   0.01444338
6291.00   0.85391039   0.01352563
6292.00   0.88234955   0.01306153
6293.00   0.89549124   0.01297089
6294.00   0.90360129   0.01330863
6295.00   0.91271532   0.01428315
6296.00   0.91977650   0.01582331
6297.00   0.92710602   0.01708410
6298.00   0.94239008   0.01882035
6299.00   0.94091433   0.01961900
6300.00   0.91548026   0.01949227
6301.00   0.88334537   0.01882191
6302.00   0.86561370   0.01781981
6303.00   0.85120761   0.01573103
6304.00   0.85053843   0.01537482
6305.00   0.87115145   0.01703042
6306.00   0.88153821   0.01750661
6307.00   0.87703556   0.01635131
6308.00   0.86937547   0.01472167
6309.00   0.87293559   0.01451014
6310.00   0.88741988   0.01553133
6311.00   0.88570207   0.01528392
6312.00   0.87323236   0.01406789
6313.00   0.85894656   0.01314848
6314.00   0.84079170   0.01267560
6315.00   0.82191378   0.01245620
6316.00   0.80901831   0.01238950
6317.00   0.79204327   0.01240654
6318.00   0.80332184   0.01301858
6319.00   0.86061049   0.01459256
6320.00   0.88473010   0.01537690
6321.00   0.85457814   0.01524111
6322.00   0.80812818   0.01465537
6323.00   0.80302316   0.01411751
6324.00   0.83165777   0.01314683
6325.00   0.82829064   0.01279599
6326.00   0.79570180   0.01294553
6327.00   0.78341198   0.01311697
6328.00   0.80678362   0.01334155
6329.00   0.84123588   0.01356063
6330.00   0.84617841   0.01348466
6331.00   0.83063799   0.01309143
6332.00   0.82288980   0.01291355
6333.00   0.81282097   0.01270109
6334.00   0.80433166   0.01270186
6335.00   0.79833400   0.01312275
6336.00   0.79357237   0.01363228
6337.00   0.78827971   0.01353267
6338.00   0.78157651   0.01266703
6339.00   0.77938014   0.01263621
6340.00   0.78051978   0.01337465
6341.00   0.78324753   0.01371945
6342.00   0.78682983   0.01334486
6343.00   0.79222047   0.01266946
6344.00   0.80172247   0.01250842
6345.00   0.82502210   0.01271826
6346.00   0.82412392   0.01273867
6347.00   0.79894781   0.01276202
6348.00   0.78092039   0.01272786
6349.00   0.77729857   0.01258719
6350.00   0.78090560   0.01239823
6351.00   0.78678381   0.01233284
6352.00   0.80390418   0.01230166
6353.00   0.80789435   0.01239268
6354.00   0.80593181   0.01268146
6355.00   0.79842585   0.01288487
6356.00   0.78279126   0.01293650
6357.00   0.76230139   0.01290020
6358.00   0.75028867   0.01281034
6359.00   0.74362296   0.01226207
6360.00   0.73602360   0.01255476
6361.00   0.73220754   0.01372244
6362.00   0.72462749   0.01451603
6363.00   0.70598280   0.01466664
6364.00   0.68379170   0.01446768
6365.00   0.68598223   0.01410578
6366.00   0.71898139   0.01320632
6367.00   0.72720563   0.01267772
6368.00   0.72014701   0.01229733
6369.00   0.71415371   0.01203347
6370.00   0.71463448   0.01185115
6371.00   0.71765870   0.01179395
6372.00   0.72127318   0.01203664
6373.00   0.72861701   0.01276653
6374.00   0.73173088   0.01309217
6375.00   0.73924202   0.01320470
6376.00   0.73455888   0.01327969
6377.00   0.70396698   0.01343637
6378.00   0.65818202   0.01358199
6379.00   0.64455515   0.01334190
6380.00   0.65343988   0.01247024
6381.00   0.66040874   0.01213714
6382.00   0.67567301   0.01213086
6383.00   0.68939257   0.01228988
6384.00   0.69865417   0.01266197
6385.00   0.70515186   0.01318629
6386.00   0.70005143   0.01315490
6387.00   0.67817003   0.01258457
6388.00   0.66647822   0.01223537
6389.00   0.65682262   0.01179052
6390.00   0.65301871   0.01158278
6391.00   0.66155010   0.01194265
6392.00   0.67870647   0.01265218
6393.00   0.67268592   0.01266610
6394.00   0.64506710   0.01208040
6395.00   0.62686181   0.01178821
6396.00   0.60463995   0.01143515
6397.00   0.59366077   0.01140360
6398.00   0.60755879   0.01210334
6399.00   0.63955885   0.01324783
6400.00   0.64914769   0.01340184
6401.00   0.64599055   0.01266720
6402.00   0.64443415   0.01242944
6403.00   0.64056760   0.01245692
6404.00   0.63627923   0.01261500
6405.00   0.63248837   0.01296236
6406.00   0.62851322   0.01349017
6407.00   0.62844735   0.01330252
6408.00   0.63261890   0.01224340
6409.00   0.63552427   0.01169067
6410.00   0.64229655   0.01150282
6411.00   0.64347214   0.01145958
6412.00   0.63076621   0.01148963
6413.00   0.60739189   0.01165309
6414.00   0.59167600   0.01158956
6415.00   0.57512325   0.01109777
6416.00   0.56465834   0.01118446
6417.00   0.55825591   0.01198716
6418.00   0.55758172   0.01267959
6419.00   0.56640124   0.01277976
6420.00   0.58469784   0.01254578
6421.00   0.58912694   0.01224834
6422.00   0.58649623   0.01145197
6423.00   0.58025199   0.01115940
6424.00   0.56467313   0.01147752
6425.00   0.55135816   0.01182895
6426.00   0.55087006   0.01180458
6427.00   0.55923378   0.01158463
6428.00   0.56399119   0.01143275
6429.00   0.57469058   0.01120225
6430.00   0.57485819   0.01106740
6431.00   0.55890012   0.01102209
6432.00   0.54492134   0.01102672
6433.00   0.54878402   0.01105731
6434.00   0.56393915   0.01112800
6435.00   0.58132255   0.01121318
6436.00   0.61865771   0.01140683
6437.00   0.63117582   0.01144623
6438.00   0.61360937   0.01118792
6439.00   0.59094286   0.01102017
6440.00   0.58425766   0.01137821
6441.00   0.58315015   0.01213092
6442.00   0.59173119   0.01250824
6443.00   0.61940747   0.01289377
6444.00   0.63372195   0.01294921
6445.00   0.63503170   0.01255070
6446.00   0.63104016   0.01203664
6447.00   0.62777114   0.01177081
6448.00   0.62349099   0.01156405
6449.00   0.61149126   0.01164933
6450.00   0.58383596   0.01223653
6451.00   0.57078046   0.01244879
6452.00   0.57290918   0.01217331
6453.00   0.58244061   0.01185521
6454.00   0.59443784   0.01198561
6455.00   0.61462092   0.01238614
6456.00   0.62191629   0.01278284
6457.00   0.61313701   0.01358052
6458.00   0.61789793   0.01380743
6459.00   0.64073670   0.01331615
6460.00   0.66743875   0.01258502
6461.00   0.68257278   0.01218636
6462.00   0.69191068   0.01180000
6463.00   0.70068949   0.01190952
6464.00   0.71013707   0.01273275
6465.00   0.71173334   0.01313209
6466.00   0.70200151   0.01304348
6467.00   0.68877333   0.01280843
6468.00   0.68194103   0.01275073
6469.00   0.67563766   0.01264604
6470.00   0.67815673   0.01293348
6471.00   0.69466621   0.01389835
6472.00   0.70253021   0.01423176
6473.00   0.69828564   0.01377397
6474.00   0.69050127   0.01298367
6475.00   0.68915665   0.01244256
6476.00   0.69081146   0.01178739
6477.00   0.69196814   0.01160542
6478.00   0.69298518   0.01199278
6479.00   0.69600010   0.01219944
6480.00   0.70234299   0.01218852
6481.00   0.70951945   0.01208416
6482.00   0.71311247   0.01191547
6483.00   0.71266842   0.01143635
6484.00   0.71821380   0.01165837
6485.00   0.72734028   0.01261065
6486.00   0.73797947   0.01321214
6487.00   0.75156105   0.01337688
6488.00   0.76568544   0.01337184
6489.00   0.77510297   0.01342778
6490.00   0.78435588   0.01330504
6491.00   0.78338426   0.01361237
6492.00   0.77027035   0.01462589
6493.00   0.75915879   0.01496583
6494.00   0.74773890   0.01417738
6495.00   0.73994434   0.01296439
6496.00   0.75049227   0.01290196
6497.00   0.78408986   0.01381750
6498.00   0.79908359   0.01404769
6499.00   0.80894506   0.01408680
6500.00   0.81187177   0.01402063
6501.00   0.80245012   0.01373441
6502.00   0.78895146   0.01339850
6503.00   0.79300427   0.01355268
6504.00   0.81877184   0.01436327
6505.00   0.81883538   0.01437550
6506.00   0.79339260   0.01369088
6507.00   0.78159940   0.01324171
6508.00   0.79601294   0.01338400
6509.00   0.82103765   0.01370666
6510.00   0.82991236   0.01349591
6511.00   0.83504641   0.01273082
6512.00   0.82901329   0.01241169
6513.00   0.80535108   0.01232341
6514.00   0.78764892   0.01227515
6515.00   0.77906722   0.01222733
6516.00   0.77736622   0.01221719
6517.00   0.78974235   0.01224790
6518.00   0.82291037   0.01226914
6519.00   0.84441143   0.01244774
6520.00   0.87313288   0.01278815
6521.00   0.88467216   0.01312382
6522.00   0.86186063   0.01345251
6523.00   0.82364959   0.01376332
6524.00   0.82696414   0.01389796
6525.00   0.86856890   0.01385050
6526.00   0.88794303   0.01385945
6527.00   0.90061080   0.01384576
6528.00   0.91272384   0.01383254
6529.00   0.92639685   0.01374514
6530.00   0.93986231   0.01366978
6531.00   0.95075470   0.01404111
6532.00   0.96412814   0.01521471
6533.00   0.96616244   0.01537710
6534.00   0.94884086   0.01467235
6535.00   0.94318497   0.01410277
6536.00   0.96899474   0.01418616
6537.00   1.00936544   0.01453514
6538.00   1.00714648   0.01431169
6539.00   0.95925570   0.01337997
6540.00   0.94451118   0.01312831
6541.00   0.94845390   0.01341316
6542.00   0.95348138   0.01369560
6543.00   0.95215023   0.01378505
6544.00   0.94965786   0.01381473
6545.00   0.95446181   0.01385140
6546.00   0.96795315   0.01371083
6547.00   0.97563642   0.01391475
6548.00   0.98155946   0.01464784
6549.00   0.98493695   0.01505993
6550.00   0.98335022   0.01467397
6551.00   0.97849107   0.01378344
6552.00   0.98365164   0.01361476
6553.00   1.00511813   0.01403164
6554.00   1.00722659   0.01412020
6555.00   0.98940551   0.01399753
6556.00   0.97474235   0.01393418
6557.00   0.97521365   0.01411018
6558.00   0.98377395   0.01441626
6559.00   0.98909587   0.01441386
6560.00   0.99528265   0.01399321
6561.00   1.00201905   0.01400424
6562.00   1.01287389   0.01439895
6563.00   1.01930821   0.01480328
6564.00   1.01313841   0.01506783
6565.00   0.99827015   0.01528727
6566.00   1.00366414   0.01532785
6567.00   1.02647328   0.01510346
6568.00   1.04355967   0.01504280
6569.00   1.05842078   0.01520294
6570.00   1.07470798   0.01522590
6571.00   1.09894121   0.01480181
6572.00   1.12943017   0.01402709
6573.00   1.12469554   0.01386460
6574.00   1.06989264   0.01403647
6575.00   1.05703187   0.01442124
6576.00   1.08638418   0.01522549
6577.00   1.11345232   0.01594351
6578.00   1.10871279   0.01632242
6579.00   1.08589315   0.01653863
6580.00   1.07299316   0.01637818
6581.00   1.04878998   0.01565127
6582.00   1.04963398   0.01513262
6583.00   1.08072591   0.01453689
6584.00   1.11432981   0.01420621
6585.00   1.13238668   0.01461557
6586.00   1.14471972   0.01562887
6587.00   1.14353180   0.01557736
6588.00   1.12139070   0.01455562
6589.00   1.10950541   0.01400154
6590.00   1.10490620   0.01380055
6591.00   1.10217154   0.01373430
6592.00   1.09776652   0.01369859
6593.00   1.09276772   0.01375729
6594.00   1.09378719   0.01379896
6595.00   1.10762942   0.01390625
6596.00   1.10658979   0.01393936
6597.00   1.08463657   0.01384469
6598.00   1.06465280   0.01378942
6599.00   1.06917250   0.01396163
6600.00   1.09277344   0.01433061
6601.00   1.09004498   0.01434786
6602.00   1.05961680   0.01404051
6603.00   1.05160022   0.01388430
6604.00   1.06628931   0.01385338
6605.00   1.08795726   0.01386806
6606.00   1.10604823   0.01388624
6607.00   1.12811065   0.01393301
6608.00   1.13476694   0.01396721
6609.00   1.13021946   0.01380955
6610.00   1.12104440   0.01404123
6611.00   1.10181129   0.01495805
6612.00   1.08223879   0.01570807
6613.00   1.07284391   0.01544566
6614.00   1.06728268   0.01430729
6615.00   1.07579637   0.01384603
6616.00   1.10947061   0.01344040
6617.00   1.12522435   0.01351732
6618.00   1.12101328   0.01432548
6619.00   1.11027849   0.01519348
6620.00   1.10185969   0.01544530
6621.00   1.08365214   0.01529900
6622.00   1.10428476   0.01546419
6623.00   1.17598438   0.01598644
6624.00   1.21607232   0.01603962
6625.00   1.22646761   0.01547693
6626.00   1.21766198   0.01470450
6627.00   1.19008398   0.01420415
6628.00   1.13303387   0.01367659
6629.00   1.10376775   0.01368946
6630.00   1.07634783   0.01438737
6631.00   1.07294357   0.01480609
6632.00   1.10547709   0.01500032
6633.00   1.14814496   0.01503585
6634.00   1.16555095   0.01480739
6635.00   1.17081022   0.01410988
6636.00   1.17393887   0.01413776
6637.00   1.16658318   0.01492262
6638.00   1.16371989   0.01525837
6639.00   1.16773808   0.01505423
6640.00   1.17283344   0.01463118
6641.00   1.17157662   0.01429910
6642.00   1.16336453   0.01381209
6643.00   1.16560721   0.01369976
6644.00   1.17980850   0.01399600
6645.00   1.18591523   0.01414635
6646.00   1.17820919   0.01397034
6647.00   1.16795659   0.01382523
6648.00   1.17253184   0.01431164
6649.00   1.19314575   0.01553038
6650.00   1.19306612   0.01574938
6651.00   1.17245829   0.01530994
6652.00   1.16343319   0.01486488
6653.00   1.17145777   0.01437355
6654.00   1.18661869   0.01388807
6655.00   1.19763005   0.01374357
6656.00   1.21146023   0.01381514
6657.00   1.21813321   0.01411283
6658.00   1.21970618   0.01481209
6659.00   1.21908784   0.01534877
6660.00   1.21696436   0.01567176
6661.00   1.21226358   0.01589602
6662.00   1.20287180   0.01610032
6663.00   1.18180120   0.01637990
6664.00   1.17981291   0.01624959
6665.00   1.19882810   0.01560284
6666.00   1.20728147   0.01511303
6667.00   1.19765007   0.01483746
6668.00   1.18012404   0.01475595
6669.00   1.16837180   0.01511445
6670.00   1.15520227   0.01618238
6671.00   1.14748907   0.01647625
6672.00   1.14094520   0.01643870
6673.00   1.14156711   0.01617048
6674.00   1.15240300   0.01549004
6675.00   1.16946018   0.01461022
6676.00   1.18387282   0.01440622
6677.00   1.20249379   0.01467862
6678.00   1.21306300   0.01503593
6679.00   1.21945226   0.01596715
6680.00   1.22123110   0.01640466
6681.00   1.21700883   0.01600170
6682.00   1.20861721   0.01515678
6683.00   1.20208490   0.01475403
6684.00   1.18881452   0.01446464
6685.00   1.19039023   0.01432033
6686.00   1.21197999   0.01433008
6687.00   1.22245932   0.01446176
6688.00   1.20989656   0.01476739
6689.00   1.18596864   0.01516718
6690.00   1.17321908   0.01535459
6691.00   1.15919685   0.01548932
6692.00   1.15719748   0.01544387
6693.00   1.16921508   0.01483126
6694.00   1.17968333   0.01476117
6695.00   1.18593407   0.01592298
6696.00   1.18936861   0.01750806
6697.00   1.18094885   0.01769054
6698.00   1.15310419   0.01684208
6699.00   1.14194536   0.01615790
6700.00   1.13552904   0.01488949
6701.00   1.13840663   0.01398261
6702.00   1.15827596   0.01406931
6703.00   1.18793583   0.01471480
6704.00   1.19177186   0.01478542
6705.00   1.16729701   0.01450056
6706.00   1.16542983   0.01451795
6707.00   1.17902362   0.01483051
6708.00   1.19120121   0.01499757
6709.00   1.19590116   0.01479266
6710.00   1.19712853   0.01437418
6711.00   1.19534671   0.01422378
6712.00   1.18824291   0.01424081
6713.00   1.18280077   0.01420358
6714.00   1.17456675   0.01418952
6715.00   1.17024589   0.01414735
6716.00   1.17592907   0.01397328
6717.00   1.18755507   0.01373510
6718.00   1.18337178   0.01398136
6719.00   1.15792418   0.01438036
6720.00   1.15392458   0.01529683
6721.00   1.16177833   0.01717047
6722.00   1.17945886   0.01839426
6723.00   1.21628714   0.01834449
6724.00   1.26725769   0.01748513
6725.00   1.26114786   0.01661603
6726.00   1.18492413   0.01462646
6727.00   1.16092420   0.01389340
6728.00   1.17268050   0.01460806
6729.00   1.19168651   0.01528277
6730.00   1.20851815   0.01518415
6731.00   1.22929156   0.01472832
6732.00   1.22497547   0.01449581
6733.00   1.19190764   0.01421000
6734.00   1.17394674   0.01411100
6735.00   1.15939903   0.01425052
6736.00   1.15358210   0.01438780
6737.00   1.16350162   0.01434453
6738.00   1.18649542   0.01420000
6739.00   1.19766903   0.01434068
6740.00   1.21738100   0.01499825
6741.00   1.20862114   0.01500111
6742.00   1.15566623   0.01415558
6743.00   1.11303854   0.01342923
6744.00   1.12302029   0.01355223
6745.00   1.16796649   0.01416878
6746.00   1.17831576   0.01509415
6747.00   1.17146540   0.01710330
6748.00   1.16743243   0.01768073
6749.00   1.16508436   0.01703211
6750.00   1.15842474   0.01599098
6751.00   1.14054561   0.01504294
6752.00   1.11217177   0.01382223
6753.00   1.10650229   0.01329459
6754.00   1.12440145   0.01349457
6755.00   1.12837040   0.01352717
6756.00   1.11907589   0.01353087
6757.00   1.10948920   0.01354188
6758.00   1.11004269   0.01355272
6759.00   1.11749113   0.01357225
6760.00   1.11329770   0.01354947
6761.00   1.09559655   0.01347151
6762.00   1.08919692   0.01342968
6763.00   1.09755456   0.01344088
6764.00   1.10455585   0.01343713
6765.00   1.09532046   0.01333838
6766.00   1.07423592   0.01314541
6767.00   1.06415784   0.01315910
6768.00   1.04891825   0.01322789
6769.00   1.05457950   0.01350688
6770.00   1.09316146   0.01420929
6771.00   1.13099885   0.01477909
6772.00   1.13382244   0.01464431
6773.00   1.11257792   0.01387922
6774.00   1.10404253   0.01391285
6775.00   1.10071242   0.01478217
6776.00   1.08871186   0.01494678
6777.00   1.06652761   0.01427019
6778.00   1.04087520   0.01342103
6779.00   1.01776993   0.01309203
6780.00   0.99413031   0.01294918
6781.00   0.97222400   0.01333661
6782.00   0.93651861   0.01476541
6783.00   0.93115383   0.01521632
6784.00   0.96555799   0.01454622
6785.00   1.01112056   0.01356983
6786.00   1.03973353   0.01322969
6787.00   1.06966281   0.01318001
6788.00   1.06672835   0.01321291
6789.00   1.02135062   0.01361103
6790.00   0.99450165   0.01373231
6791.00   0.98917556   0.01352006
6792.00   0.98905963   0.01320120
6793.00   0.97951823   0.01300875
6794.00   0.96475238   0.01282518
6795.00   0.95648712   0.01275168
6796.00   0.95357466   0.01282529
6797.00   0.94837606   0.01284907
6798.00   0.93558764   0.01280215
6799.00   0.92635423   0.01275015
6800.00   0.93858874   0.01275455
6801.00   0.97557455   0.01276015
6802.00   0.98261535   0.01291186
6803.00   0.96854180   0.01322353
6804.00   0.95812434   0.01350512
6805.00   0.95168835   0.01386163
6806.00   0.94640815   0.01411759
6807.00   0.94252115   0.01391684
6808.00   0.94092548   0.01314075
6809.00   0.93696487   0.01297171
6810.00   0.92604935   0.01327837
6811.00   0.92553592   0.01340821
6812.00   0.94204766   0.01329577
6813.00   0.96292490   0.01309717
6814.00   0.96831173   0.01292690
6815.00   0.96395206   0.01249459
6816.00   0.96041065   0.01285905
6817.00   0.95297009   0.01405912
6818.00   0.94564188   0.01487491
6819.00   0.93822354   0.01539041
6820.00   0.93099260   0.01561423
6821.00   0.92553467   0.01517721
6822.00   0.91993713   0.01372636
6823.00   0.91945696   0.01307556
6824.00   0.91997737   0.01271835
6825.00   0.92846876   0.01266207
6826.00   0.95149088   0.01305252
6827.00   0.97854573   0.01363498
6828.00   0.98746198   0.01388498
6829.00   0.98843443   0.01402817
6830.00   0.97603822   0.01404673
6831.00   0.93751276   0.01379239
6832.00   0.91283154   0.01369242
6833.00   0.91256082   0.01390386
6834.00   0.92232513   0.01420449
6835.00   0.92047578   0.01420845
6836.00   0.91084224   0.01400241
6837.00   0.91073012   0.01383168
6838.00   0.93845356   0.01333644
6839.00   0.92942977   0.01328888
6840.00   0.85307503   0.01410850
6841.00   0.74888080   0.01516887
6842.00   0.70331496   0.01530864
6843.00   0.67863804   0.01479800
6844.00   0.69053298   0.01439051
6845.00   0.78139579   0.01317022
6846.00   0.82378095   0.01293616
6847.00   0.76395977   0.01474435
6848.00   0.66259611   0.01701852
6849.00   0.65052843   0.01721617
6850.00   0.69488323   0.01586065
6851.00   0.73805767   0.01488531
6852.00   0.81975466   0.01317600
6853.00   0.88019013   0.01191658
6854.00   0.89920664   0.01188251
6855.00   0.89564955   0.01252377
6856.00   0.89835864   0.01257106
6857.00   0.89191782   0.01235677
6858.00   0.89164996   0.01237025
6859.00   0.89409113   0.01239124
6860.00   0.89651775   0.01262010
6861.00   0.90097052   0.01320822
6862.00   0.90490305   0.01396009
6863.00   0.89315796   0.01432439
6864.00   0.86110675   0.01445145
6865.00   0.84259760   0.01460005
6866.00   0.82611740   0.01465883
6867.00   0.81682140   0.01473503
6868.00   0.81929153   0.01485499
6869.00   0.82951558   0.01500161
6870.00   0.83108109   0.01522069
6871.00   0.82369447   0.01567302
6872.00   0.82799834   0.01576438
6873.00   0.84054887   0.01564906
6874.00   0.85594988   0.01535218
6875.00   0.87603098   0.01473298
6876.00   0.89887398   0.01386776
6877.00   0.90103900   0.01367958
6878.00   0.87809891   0.01426716
6879.00   0.87200725   0.01430908
6880.00   0.87371957   0.01405985
6881.00   0.87894684   0.01373267
6882.00   0.88855678   0.01334871
6883.00   0.90183347   0.01289040
6884.00   0.90292823   0.01278648
6885.00   0.89405775   0.01306791
6886.00   0.88633156   0.01316953
6887.00   0.87386250   0.01319695
6888.00   0.86455470   0.01323230
6889.00   0.86132282   0.01325325
6890.00   0.86238575   0.01326965
6891.00   0.87486166   0.01367336
6892.00   0.91126347   0.01466091
6893.00   0.92349017   0.01505870
6894.00   0.92269909   0.01522258
6895.00   0.90857273   0.01502494
6896.00   0.87106431   0.01414082
6897.00   0.81383169   0.01257034
6898.00   0.80885839   0.01218968
6899.00   0.86012858   0.01279011
6900.00   0.87518346   0.01321908
6901.00   0.86336505   0.01373311
6902.00   0.84993058   0.01428476
6903.00   0.84670568   0.01492914
6904.00   0.84680158   0.01566380
6905.00   0.86014688   0.01566149
6906.00   0.89813375   0.01487514
6907.00   0.91409856   0.01435963
6908.00   0.91102880   0.01379360
6909.00   0.90389520   0.01345383
6910.00   0.90140992   0.01369469
6911.00   0.89910597   0.01439022
6912.00   0.89558393   0.01448779
6913.00   0.89263052   0.01405630
6914.00   0.88616312   0.01403238
6915.00   0.87497866   0.01463101
6916.00   0.86359161   0.01494559
6917.00   0.85303414   0.01414979
6918.00   0.84092605   0.01229764
6919.00   0.84915650   0.01204601
6920.00   0.88559753   0.01297180
6921.00   0.90295970   0.01381091
6922.00   0.90759033   0.01522189
6923.00   0.90330952   0.01610665
6924.00   0.88551646   0.01546554
6925.00   0.85011238   0.01339552
6926.00   0.85887921   0.01279260
6927.00   0.92404783   0.01323968
6928.00   0.94457936   0.01338702
6929.00   0.91521353   0.01344882
6930.00   0.88183588   0.01342328
6931.00   0.88251859   0.01319016
6932.00   0.90290344   0.01273665
6933.00   0.91129553   0.01256134
6934.00   0.92076439   0.01244827
6935.00   0.92358685   0.01257419
6936.00   0.91365361   0.01282753
6937.00   0.90638584   0.01337032
6938.00   0.92043579   0.01455045
6939.00   0.95431042   0.01642875
6940.00   0.95577109   0.01640021
6941.00   0.92538017   0.01439517
6942.00   0.91320157   0.01316511
6943.00   0.92167675   0.01279228
6944.00   0.93305194   0.01278252
6945.00   0.93029642   0.01283197
6946.00   0.91676426   0.01312823
6947.00   0.92087287   0.01333842
6948.00   0.94800687   0.01365222
6949.00   0.95447212   0.01382256
6950.00   0.93890184   0.01374752
6951.00   0.91324335   0.01369698
6952.00   0.88339275   0.01405552
6953.00   0.83497798   0.01486042
6954.00   0.83714962   0.01476255
6955.00   0.89546722   0.01366316
6956.00   0.92750567   0.01308485
6957.00   0.93161070   0.01311070
6958.00   0.92487818   0.01343838
6959.00   0.91973013   0.01394992
6960.00   0.91121066   0.01497239
6961.00   0.89695138   0.01484573
6962.00   0.86140329   0.01345488
6963.00   0.85224766   0.01258753
6964.00   0.88188130   0.01247934
6965.00   0.92056572   0.01266204
6966.00   0.93097627   0.01271981
6967.00   0.92845696   0.01284845
6968.00   0.91572863   0.01294830
6969.00   0.87161869   0.01307653
6970.00   0.85489780   0.01315897
6971.00   0.88135123   0.01321758
6972.00   0.91675484   0.01322026
6973.00   0.91317087   0.01307773
6974.00   0.87958521   0.01270459
6975.00   0.86732119   0.01264952
6976.00   0.86046839   0.01281901
6977.00   0.85829234   0.01299359
6978.00   0.86619765   0.01309884
6979.00   0.87465191   0.01327753
6980.00   0.86370486   0.01378660
6981.00   0.82751662   0.01484748
6982.00   0.82728326   0.01489429
6983.00   0.86098802   0.01402607
6984.00   0.88019449   0.01335746
6985.00   0.87682152   0.01304231
6986.00   0.86525589   0.01287979
6987.00   0.86158228   0.01276614
6988.00   0.85686439   0.01274358
6989.00   0.86117911   0.01282742
6990.00   0.88630265   0.01298766
6991.00   0.89050812   0.01328589
6992.00   0.85742110   0.01387918
6993.00   0.81269121   0.01448010
6994.00   0.80335695   0.01450958
6995.00   0.82246780   0.01407899
6996.00   0.82425529   0.01369180
6997.00   0.82161516   0.01300145
6998.00   0.81779140   0.01248865
6999.00   0.80966473   0.01227920
7000.00   0.80214351   0.01225676
7001.00   0.81022662   0.01230097
7002.00   0.83667958   0.01257245
7003.00   0.84942120   0.01264360
7004.00   0.86292034   0.01250869
7005.00   0.86435860   0.01254492
7006.00   0.84496272   0.01293942
7007.00   0.81638706   0.01342990
7008.00   0.80798554   0.01347917
7009.00   0.82068300   0.01295296
7010.00   0.81101531   0.01309020
7011.00   0.77763259   0.01373394
7012.00   0.75970119   0.01425063
7013.00   0.77048498   0.01463142
7014.00   0.79580826   0.01486664
7015.00   0.81112623   0.01452169
7016.00   0.83193964   0.01324802
7017.00   0.83720165   0.01263079
7018.00   0.82557881   0.01226580
7019.00   0.81747311   0.01207824
7020.00   0.82012594   0.01212541
7021.00   0.82671988   0.01233643
7022.00   0.82578921   0.01234685
7023.00   0.82114428   0.01205029
7024.00   0.81440479   0.01225706
7025.00   0.79531097   0.01285976
7026.00   0.78960466   0.01345588
7027.00   0.81253552   0.01408179
7028.00   0.84986657   0.01466313
7029.00   0.85853511   0.01452676
7030.00   0.84788865   0.01344815
7031.00   0.83967459   0.01293485
7032.00   0.82562810   0.01263061
7033.00   0.81135225   0.01243084
7034.00   0.79696119   0.01233567
7035.00   0.78287953   0.01234241
7036.00   0.77954865   0.01227420
7037.00   0.78804553   0.01207011
7038.00   0.79233563   0.01214062
7039.00   0.79926872   0.01244726
7040.00   0.80232990   0.01279180
7041.00   0.79592717   0.01317631
7042.00   0.78428388   0.01358166
7043.00   0.78672773   0.01358663
7044.00   0.80313849   0.01315027
7045.00   0.81121910   0.01290710
7046.00   0.82100886   0.01262175
7047.00   0.82157052   0.01248472
7048.00   0.80341804   0.01266598
7049.00   0.77273345   0.01304920
7050.00   0.76116705   0.01311424
7051.00   0.75361168   0.01297863
7052.00   0.76237029   0.01287438
7053.00   0.79798865   0.01272249
7054.00   0.82697594   0.01257684
7055.00   0.83129829   0.01246661
7056.00   0.82142085   0.01237553
7057.00   0.81313765   0.01231024
7058.00   0.79217148   0.01225192
7059.00   0.78637296   0.01225533
7060.00   0.79472643   0.01235715
7061.00   0.80421895   0.01243694
7062.00   0.80892032   0.01240864
7063.00   0.81230783   0.01231525
7064.00   0.80972910   0.01234821
7065.00   0.79592633   0.01252093
7066.00   0.79273492   0.01257661
7067.00   0.80065000   0.01236662
7068.00   0.80730045   0.01238006
7069.00   0.80533934   0.01301763
7070.00   0.79856473   0.01404461
7071.00   0.79068476   0.01447904
7072.00   0.77122605   0.01475919
7073.00   0.76911235   0.01469430
7074.00   0.78779393   0.01389350
7075.00   0.80562496   0.01332089
7076.00   0.80672467   0.01393356
7077.00   0.79792351   0.01529960
7078.00   0.80090392   0.01542883
7079.00   0.81289750   0.01473308
7080.00   0.81942070   0.01413894
7081.00   0.82504749   0.01323860
7082.00   0.82540858   0.01252754
7083.00   0.81569523   0.01260608
7084.00   0.79742748   0.01328418
7085.00   0.78118467   0.01350336
7086.00   0.75191903   0.01373130
7087.00   0.74509168   0.01365477
7088.00   0.76421738   0.01307154
7089.00   0.78788894   0.01252007
7090.00   0.80064321   0.01256883
7091.00   0.81055099   0.01304152
7092.00   0.81288928   0.01306020
7093.00   0.80087388   0.01272367
7094.00   0.80014849   0.01263493
7095.00   0.81291765   0.01270326
7096.00   0.82569689   0.01293117
7097.00   0.82673615   0.01344180
7098.00   0.82009101   0.01427744
7099.00   0.81847048   0.01434846
7100.00   0.81642175   0.01366594
7101.00   0.81769198   0.01332793
7102.00   0.82574046   0.01323395
7103.00   0.83204222   0.01331811
7104.00   0.82587957   0.01366345
7105.00   0.80759138   0.01434501
7106.00   0.81065845   0.01439961
7107.00   0.82986832   0.01358502
7108.00   0.84777093   0.01360138
7109.00   0.87323779   0.01494345
7110.00   0.89207470   0.01603142
7111.00   0.88413936   0.01540568
7112.00   0.85193598   0.01313646
7113.00   0.83820546   0.01232480
7114.00   0.83319163   0.01247309
7115.00   0.82445371   0.01248365
7116.00   0.80595005   0.01232636
7117.00   0.79253912   0.01229425
7118.00   0.80321443   0.01263763
7119.00   0.83565044   0.01326001
7120.00   0.85422754   0.01392221
7121.00   0.88036817   0.01525386
7122.00   0.88480669   0.01555016
7123.00   0.85950500   0.01445953
7124.00   0.82514441   0.01291374
7125.00   0.80620033   0.01238126
7126.00   0.79249084   0.01248974
7127.00   0.78168237   0.01238745
7128.00   0.77203435   0.01233076
7129.00   0.77081645   0.01237594
7130.00   0.78054005   0.01249080
7131.00   0.79551256   0.01272510
7132.00   0.81033945   0.01322586
7133.00   0.83692008   0.01420310
7134.00   0.82757360   0.01415832
7135.00   0.77210855   0.01294476
7136.00   0.74378085   0.01231950
7137.00   0.75217319   0.01265363
7138.00   0.77344245   0.01324782
7139.00   0.78143167   0.01331632
7140.00   0.78529954   0.01289998
7141.00   0.79317397   0.01336852
7142.00   0.81011027   0.01503400
7143.00   0.81431991   0.01556391
7144.00   0.79721218   0.01450383
7145.00   0.77499157   0.01278878
7146.00   0.77453041   0.01222432
7147.00   0.79595435   0.01243627
7148.00   0.79084104   0.01234451
7149.00   0.75557601   0.01225539
7150.00   0.74318451   0.01226168
7151.00   0.76773208   0.01234012
7152.00   0.80481040   0.01252677
7153.00   0.81835097   0.01295710
7154.00   0.82498944   0.01390687
7155.00   0.81610918   0.01391922
7156.00   0.77793169   0.01304058
7157.00   0.75648803   0.01239258
7158.00   0.76485962   0.01220630
7159.00   0.78293931   0.01222261
7160.00   0.77845818   0.01222083
7161.00   0.75628787   0.01230298
7162.00   0.74727511   0.01241266
7163.00   0.74750340   0.01266958
7164.00   0.74159235   0.01278481
7165.00   0.71873003   0.01249398
7166.00   0.69460171   0.01218216
7167.00   0.70599037   0.01284635
7168.00   0.75893301   0.01465142
7169.00   0.77779615   0.01514530
7170.00   0.78510100   0.01499393
7171.00   0.78229642   0.01465651
7172.00   0.76250172   0.01398521
7173.00   0.73563033   0.01317274
7174.00   0.73350853   0.01327559
7175.00   0.75776225   0.01452963
7176.00   0.75922430   0.01464106
7177.00   0.75121909   0.01403501
7178.00   0.73791194   0.01346693
7179.00   0.71520120   0.01308796
7180.00   0.68889457   0.01279694
7181.00   0.68257588   0.01275894
7182.00   0.69604325   0.01304749
7183.00   0.69956779   0.01321344
7184.00   0.70635825   0.01338776
7185.00   0.70498836   0.01357841
7186.00   0.68440002   0.01386036
7187.00   0.65689296   0.01413933
7188.00   0.66438019   0.01405178
7189.00   0.71709126   0.01327379
7190.00   0.72875059   0.01331820
7191.00   0.71049446   0.01419229
7192.00   0.69928741   0.01468197
7193.00   0.71195465   0.01436288
7194.00   0.73375386   0.01360588
7195.00   0.73039210   0.01321078
7196.00   0.70147413   0.01284123
7197.00   0.69016355   0.01266997
7198.00   0.68705142   0.01272033
7199.00   0.68520683   0.01283011
7200.00   0.68430775   0.01300581
7201.00   0.68406361   0.01322301
7202.00   0.67357755   0.01313483
7203.00   0.64919281   0.01256813
7204.00   0.63592350   0.01248826
7205.00   0.62976545   0.01282168
7206.00   0.62386149   0.01310567
7207.00   0.61282790   0.01319205
7208.00   0.60069293   0.01318287
7209.00   0.60596788   0.01302762
7210.00   0.63544589   0.01262907
7211.00   0.64534414   0.01233784
7212.00   0.64516854   0.01204685
7213.00   0.63903862   0.01180520
7214.00   0.62252223   0.01155543
7215.00   0.59870040   0.01134041
7216.00   0.60739541   0.01175081
7217.00   0.66205853   0.01314609
7218.00   0.67354053   0.01350157
7219.00   0.64983207   0.01300895
7220.00   0.62436831   0.01253127
7221.00   0.61331117   0.01250051
7222.00   0.60726392   0.01267715
7223.00   0.59781450   0.01307688
7224.00   0.57980329   0.01420317
7225.00   0.57921481   0.01433666
7226.00   0.60005265   0.01338886
7227.00   0.61820257   0.01252232
7228.00   0.61777371   0.01249329
7229.00   0.60689044   0.01292738
7230.00   0.61201847   0.01366778
7231.00   0.63866860   0.01533973
7232.00   0.64009023   0.01587886
7233.00   0.61367506   0.01548714
7234.00   0.58947814   0.01493904
7235.00   0.58657277   0.01461126
7236.00   0.59552932   0.01427298
7237.00   0.59878153   0.01457790
7238.00   0.60731405   0.01579329
7239.00   0.60564810   0.01625389
7240.00   0.58804065   0.01608505
7241.00   0.57515961   0.01587248
7242.00   0.58411646   0.01601164
7243.00   0.60840333   0.01632168
7244.00   0.61292648   0.01639618
7245.00   0.60407960   0.01656271
7246.00   0.59930444   0.01623967
7247.00   0.59513503   0.01519465
7248.00   0.59217411   0.01407166
7249.00   0.59218562   0.01345787
7250.00   0.59486330   0.01312470
7251.00   0.59351206   0.01303481
7252.00   0.58433986   0.01349795
7253.00   0.58606458   0.01362303
7254.00   0.60090429   0.01339751
7255.00   0.61680084   0.01319595
7256.00   0.62571794   0.01336732
7257.00   0.63280737   0.01381673
7258.00   0.62646616   0.01376387
7259.00   0.60442978   0.01334926
7260.00   0.58553880   0.01292871
7261.00   0.56380230   0.01231711
7262.00   0.54608881   0.01177331
7263.00   0.54003298   0.01154828
7264.00   0.54233474   0.01146420
7265.00   0.55028152   0.01218346
7266.00   0.57161736   0.01408412
7267.00   0.58556861   0.01493491
7268.00   0.59456068   0.01499145
7269.00   0.59942615   0.01468068
7270.00   0.59757721   0.01411977
7271.00   0.58654743   0.01291499
7272.00   0.59260565   0.01313529
7273.00   0.61920965   0.01450047
7274.00   0.62999493   0.01564901
7275.00   0.62548214   0.01705590
7276.00   0.61357039   0.01807572
7277.00   0.59714788   0.01796005
7278.00   0.56847888   0.01691084
7279.00   0.56876737   0.01596500
7280.00   0.59844899   0.01405838
7281.00   0.61624753   0.01310363
7282.00   0.62370551   0.01347926
7283.00   0.62613189   0.01436996
7284.00   0.62578732   0.01513204
7285.00   0.62251711   0.01626962
7286.00   0.61140376   0.01634868
7287.00   0.58635616   0.01547476
7288.00   0.57002378   0.01474167
7289.00   0.55956846   0.01402024
7290.00   0.55689126   0.01340653
7291.00   0.57020193   0.01328570
7292.00   0.60542351   0.01370042
7293.00   0.61197305   0.01365972
7294.00   0.59780252   0.01345759
7295.00   0.58696699   0.01315500
7296.00   0.57726216   0.01248245
7297.00   0.56994992   0.01190599
7298.00   0.57146251   0.01229894
7299.00   0.58159161   0.01346084
7300.00   0.58786821   0.01429449
7301.00   0.59442943   0.01566971
7302.00   0.60075420   0.01605988
7303.00   0.60719645   0.01504360
7304.00   0.61315012   0.01350525
7305.00   0.61753124   0.01309970
7306.00   0.62110132   0.01342131
7307.00   0.62243193   0.01357699
7308.00   0.62034571   0.01410501
7309.00   0.61949480   0.01425163
7310.00   0.61809546   0.01379924
7311.00   0.61907899   0.01315587
7312.00   0.62968242   0.01297378
7313.00   0.65101987   0.01273490
7314.00   0.66543472   0.01358598
7315.00   0.68699378   0.01584065
7316.00   0.69149458   0.01706559
7317.00   0.66788578   0.01718882
7318.00   0.63502467   0.01676978
7319.00   0.62649804   0.01626611
7320.00   0.63360810   0.01513775
7321.00   0.63662791   0.01468066
7322.00   0.64151198   0.01483321
7323.00   0.64868462   0.01475746
7324.00   0.66094112   0.01405507
7325.00   0.67381364   0.01329634
7326.00   0.67589766   0.01378875
7327.00   0.66030097   0.01563997
7328.00   0.67129618   0.01611434
7329.00   0.71976024   0.01595913
7330.00   0.73804837   0.01563637
7331.00   0.70042700   0.01517024
7332.00   0.64247602   0.01451730
7333.00   0.63235581   0.01378069
7334.00   0.65927726   0.01239043
7335.00   0.66481745   0.01218606
7336.00   0.65906465   0.01279203
7337.00   0.66307229   0.01380245
7338.00   0.68316644   0.01538359
7339.00   0.71190947   0.01705161
7340.00   0.73795485   0.01768500
7341.00   0.78521127   0.01765817
7342.00   0.78460163   0.01760700
7343.00   0.72964400   0.01741593
7344.00   0.69412738   0.01687002
7345.00   0.70034504   0.01558140
7346.00   0.72560149   0.01384972
7347.00   0.73764735   0.01331665
7348.00   0.75588083   0.01400331
7349.00   0.75599813   0.01415745
7350.00   0.72971058   0.01427564
7351.00   0.71848559   0.01443774
7352.00   0.73991758   0.01476619
7353.00   0.77691269   0.01511270
7354.00   0.79231614   0.01495940
7355.00   0.79835916   0.01397159
7356.00   0.80059546   0.01386306
7357.00   0.79720324   0.01453949
7358.00   0.78871769   0.01495594
7359.00   0.77217489   0.01475956
7360.00   0.75086308   0.01425306
7361.00   0.74193388   0.01395862
7362.00   0.74479574   0.01363819
7363.00   0.74049222   0.01344951
7364.00   0.72784591   0.01328370
7365.00   0.72360796   0.01332382
7366.00   0.73507279   0.01362084
7367.00   0.75673079   0.01412539
7368.00   0.77822828   0.01485376
7369.00   0.81709832   0.01620135
7370.00   0.82829326   0.01670626
7371.00   0.81003660   0.01565966
7372.00   0.79750353   0.01601768
7373.00   0.80868131   0.01958005
7374.00   0.83106989   0.02396301
7375.00   0.83396012   0.02475058
7376.00   0.82408786   0.02347925
7377.00   0.81553042   0.02173212
7378.00   0.80289543   0.01743035
7379.00   0.79075611   0.01318969
7380.00   0.78002799   0.01247146
7381.00   0.77020961   0.01424512
7382.00   0.76940042   0.01416675
7383.00   0.78827810   0.01349521
7384.00   0.78313351   0.01313547
7385.00   0.75188142   0.01288963
7386.00   0.72564226   0.01273723
7387.00   0.72224844   0.01266772
7388.00   0.73155445   0.01268942
7389.00   0.72929889   0.01289939
7390.00   0.71582675   0.01343911
7391.00   0.71735787   0.01371117
7392.00   0.73664486   0.01383217
7393.00   0.75256413   0.01387427
7394.00   0.75257045   0.01376563
7395.00   0.74331117   0.01351817
7396.00   0.73693627   0.01394362
7397.00   0.72783929   0.01513100
7398.00   0.72036785   0.01574300
7399.00   0.70925927   0.01611370
7400.00   0.70486522   0.01623250
7401.00   0.71901059   0.01595793
7402.00   0.74774319   0.01530410
7403.00   0.74353015   0.01519410
7404.00   0.70400256   0.01582269
7405.00   0.68813241   0.01560402
7406.00   0.68559301   0.01427590
7407.00   0.69324917   0.01300683
7408.00   0.71679515   0.01298433
7409.00   0.75727284   0.01379239
7410.00   0.75734836   0.01369304
7411.00   0.71614617   0.01291074
7412.00   0.69738555   0.01256046
7413.00   0.69229114   0.01248429
7414.00   0.69428706   0.01263277
7415.00   0.70310032   0.01309711
7416.00   0.72087383   0.01387994
7417.00   0.72488588   0.01405090
7418.00   0.71723795   0.01381485
7419.00   0.71516180   0.01356993
7420.00   0.71926218   0.01307250
7421.00   0.72171754   0.01269978
7422.00   0.71452695   0.01290743
7423.00   0.69874805   0.01356747
7424.00   0.70121211   0.01370776
7425.00   0.72502750   0.01356059
7426.00   0.73318267   0.01344242
7427.00   0.72712654   0.01307900
7428.00   0.71594131   0.01296343
7429.00   0.70534283   0.01373360
7430.00   0.69201654   0.01521632
7431.00   0.68080890   0.01554069
7432.00   0.66454965   0.01522706
7433.00   0.66011506   0.01475846
7434.00   0.66977650   0.01372929
7435.00   0.68381828   0.01275866
7436.00   0.69462907   0.01280755
7437.00   0.70773578   0.01368566
7438.00   0.70889002   0.01381564
7439.00   0.70069313   0.01361722
7440.00   0.68939519   0.01341905
7441.00   0.66994947   0.01303762
7442.00   0.65134650   0.01276606
7443.00   0.64417571   0.01306099
7444.00   0.64333069   0.01386574
7445.00   0.65085375   0.01408589
7446.00   0.68085265   0.01386249
7447.00   0.68935233   0.01388883
7448.00   0.66388386   0.01430688
7449.00   0.63857776   0.01467492
7450.00   0.65559280   0.01452029
7451.00   0.71008372   0.01393465
7452.00   0.72234225   0.01355582
7453.00   0.70539254   0.01276395
7454.00   0.69666141   0.01277925
7455.00   0.69739795   0.01415428
7456.00   0.69915932   0.01544971
7457.00   0.69302857   0.01514720
7458.00   0.67382938   0.01331226
7459.00   0.68952763   0.01302961
7460.00   0.74844247   0.01396349
7461.00   0.78151864   0.01436342
7462.00   0.78764904   0.01417400
7463.00   0.77718031   0.01377451
7464.00   0.75226706   0.01347034
7465.00   0.70125562   0.01303953
7466.00   0.67697561   0.01292374
7467.00   0.65753269   0.01300616
7468.00   0.65776849   0.01324044
7469.00   0.68225801   0.01312593
7470.00   0.72144049   0.01357599
7471.00   0.76497018   0.01617627
7472.00   0.83553064   0.02092904
7473.00   0.84873283   0.02151026
7474.00   0.81515992   0.01911513
7475.00   0.78041559   0.01692619
7476.00   0.73922783   0.01508066
7477.00   0.69889796   0.01340406
7478.00   0.68529111   0.01276016
7479.00   0.69317043   0.01342296
7480.00   0.69948840   0.01352590
7481.00   0.72147751   0.01372927
7482.00   0.73074907   0.01381214
7483.00   0.71922112   0.01372936
7484.00   0.70069426   0.01356051
7485.00   0.69619787   0.01340892
7486.00   0.69549179   0.01317129
7487.00   0.70584065   0.01309463
7488.00   0.74291855   0.01301744
7489.00   0.75663888   0.01318406
7490.00   0.72877711   0.01381798
7491.00   0.68724394   0.01451849
7492.00   0.68254209   0.01450316
7493.00   0.70960617   0.01354408
7494.00   0.71071339   0.01375374
7495.00   0.69381410   0.01518284
7496.00   0.68588173   0.01578330
7497.00   0.69526696   0.01496816
7498.00   0.71076500   0.01355854
7499.00   0.71336657   0.01348616
7500.00   0.70674020   0.01473368
7501.00   0.70467621   0.01472253
7502.00   0.70088112   0.01384937
7503.00   0.70107108   0.01314754
7504.00   0.70741439   0.01291468
7505.00   0.71727234   0.01289026
7506.00   0.72562188   0.01281983
7507.00   0.74088663   0.01285568
7508.00   0.74017769   0.01280999
7509.00   0.72494304   0.01260848
7510.00   0.70991445   0.01260288
7511.00   0.69474775   0.01300116
7512.00   0.68124312   0.01354090
7513.00   0.68605644   0.01361051
7514.00   0.71500236   0.01324983
7515.00   0.72708344   0.01313811
7516.00   0.73421884   0.01306835
7517.00   0.73739326   0.01305438
7518.00   0.73479635   0.01307073
7519.00   0.72870332   0.01314932
7520.00   0.72967058   0.01343444
7521.00   0.73406446   0.01373556
7522.00   0.74084556   0.01445572
7523.00   0.75451195   0.01588701
7524.00   0.76405376   0.01677174
7525.00   0.76567781   0.01675210
7526.00   0.76237696   0.01621346
7527.00   0.75728816   0.01581462
7528.00   0.74269944   0.01511721
7529.00   0.74023342   0.01472209
7530.00   0.74817365   0.01458986
7531.00   0.75538743   0.01443443
7532.00   0.75588936   0.01409469
7533.00   0.75440490   0.01368829
7534.00   0.76458490   0.01359039
7535.00   0.78660780   0.01385419
7536.00   0.80360293   0.01388070
7537.00   0.83302432   0.01376033
7538.00   0.84181780   0.01366950
7539.00   0.80476034   0.01367849
7540.00   0.74021095   0.01374179
7541.00   0.72762614   0.01383273
7542.00   0.75207037   0.01409646
7543.00   0.76911235   0.01408920
7544.00   0.79805785   0.01379460
7545.00   0.81865901   0.01352985
7546.00   0.81808639   0.01340045
7547.00   0.80435634   0.01334861
7548.00   0.80252451   0.01363816
7549.00   0.81294674   0.01435097
7550.00   0.80574256   0.01484709
7551.00   0.77484703   0.01536910
7552.00   0.75290358   0.01571655
7553.00   0.75969535   0.01572839
7554.00   0.78409135   0.01550146
7555.00   0.79476970   0.01555373
7556.00   0.80707383   0.01582907
7557.00   0.80721915   0.01591972
7558.00   0.78782016   0.01586062
7559.00   0.77435106   0.01579511
7560.00   0.78125387   0.01575789
7561.00   0.80064845   0.01571977
7562.00   0.82662195   0.01598122
7563.00   0.88662970   0.01676991
7564.00   0.90021563   0.01698786
7565.00   0.86140311   0.01671941
7566.00   0.82499820   0.01634983
7567.00   0.82651615   0.01608001
7568.00   0.84865803   0.01579385
7569.00   0.85692966   0.01565676
7570.00   0.86256444   0.01560950
7571.00   0.86762232   0.01567191
7572.00   0.87208140   0.01601760
7573.00   0.87504470   0.01622401
7574.00   0.87551171   0.01595300
7575.00   0.87369281   0.01532178
7576.00   0.87393862   0.01495390
7577.00   0.88310963   0.01469424
7578.00   0.87521666   0.01438375
7579.00   0.84392196   0.01390081
7580.00   0.81456345   0.01358267
7581.00   0.80472559   0.01371187
7582.00   0.80509198   0.01415740
7583.00   0.82106721   0.01477231
7584.00   0.86931503   0.01603016
7585.00   0.89275533   0.01649931
7586.00   0.89517957   0.01623748
7587.00   0.88934493   0.01576649
7588.00   0.88368511   0.01536788
7589.00   0.87482846   0.01476797
7590.00   0.85588008   0.01517693
7591.00   0.81636685   0.01625899
7592.00   0.79539037   0.01759191
7593.00   0.79440552   0.01941425
7594.00   0.79737896   0.02110958
7595.00   0.79254013   0.02220313
7596.00   0.78652149   0.02293167
7597.00   0.77090192   0.02398411
7598.00   0.70281833   0.02255978
7599.00   0.72068489   0.02639231
7600.00   0.86493474   0.03612009
7601.00   1.00973046   0.04326645
7602.00   1.02855492   0.04368364
7603.00   0.96372181   0.03935572
7604.00   0.92934990   0.03791891
7605.00   0.86907965   0.03708407
7606.00   0.83964837   0.03642035
7607.00   0.83314145   0.03615009
7608.00   0.85230875   0.03595589
7609.00   0.91638857   0.03546764
7610.00   1.04372096   0.03497063
7611.00   1.06331086   0.03364854
7612.00   1.00451398   0.03081755
7613.00   0.94552302   0.02892307
7614.00   0.85994089   0.02862997
7615.00   0.78555822   0.02850387
7616.00   0.78505182   0.02676810
7617.00   0.85009700   0.02346720
7618.00   0.86951810   0.02136101
7619.00   0.88730019   0.01974487
7620.00   0.87949359   0.01857660
7621.00   0.82814264   0.01769198
7622.00   0.77220625   0.01766909
7623.00   0.76550984   0.01937726
7624.00   0.79574478   0.02277648
7625.00   0.80506033   0.02414675
7626.00   0.82028270   0.02513299
7627.00   0.81711704   0.02506454
7628.00   0.77976859   0.02319474
7629.00   0.74099731   0.02076194
7630.00   0.75246114   0.02039334
7631.00   0.81647718   0.02180673
7632.00   0.81451994   0.02163249
7633.00   0.75792766   0.02039789
7634.00   0.72242272   0.01958928
7635.00   0.71008646   0.01943415
7636.00   0.71122551   0.01951070
7637.00   0.72688925   0.01936650
7638.00   0.77059835   0.01903886
7639.00   0.77851844   0.01921117
7640.00   0.74968541   0.02002205
7641.00   0.74415785   0.02042471
7642.00   0.77495116   0.02029587
7643.00   0.81681848   0.01993299
7644.00   0.83663732   0.01967422
7645.00   0.85323602   0.01944531
7646.00   0.84385079   0.01896119
7647.00   0.79410934   0.01774624
7648.00   0.76465315   0.01732577
7649.00   0.76910555   0.01839007
7650.00   0.78429288   0.01975547
7651.00   0.77744663   0.01970967
7652.00   0.75236344   0.01868238
7653.00   0.74709719   0.01779969
7654.00   0.76141399   0.01610180
7655.00   0.76310384   0.01512057
7656.00   0.74183697   0.01557260
7657.00   0.71322846   0.01656027
7658.00   0.70346159   0.01666196
7659.00   0.70045072   0.01630173
7660.00   0.71087486   0.01607979
7661.00   0.74811500   0.01573105
7662.00   0.76958215   0.01546950
7663.00   0.76458526   0.01533293
7664.00   0.74692625   0.01528647
7665.00   0.73551166   0.01533625
7666.00   0.71829480   0.01571901
7667.00   0.71248764   0.01555156
7668.00   0.71992850   0.01489581
7669.00   0.72132117   0.01426435
7670.00   0.70850784   0.01367036
7671.00   0.69150710   0.01315154
7672.00   0.69157505   0.01318104
7673.00   0.70681655   0.01399129
7674.00   0.71521258   0.01413452
7675.00   0.73173761   0.01375787
7676.00   0.73397285   0.01366868
7677.00   0.71069723   0.01416153
7678.00   0.67448449   0.01489764
7679.00   0.65608275   0.01534353
7680.00   0.64672023   0.01581759
7681.00   0.63672489   0.01597302
7682.00   0.62456560   0.01548653
7683.00   0.62201309   0.01551818
7684.00   0.63490182   0.01684684
7685.00   0.65745437   0.01848773
7686.00   0.67500317   0.01816400
7687.00   0.70471168   0.01542980
7688.00   0.70774823   0.01432612
7689.00   0.68020499   0.01410109
7690.00   0.66183347   0.01409415
7691.00   0.66784090   0.01420061
7692.00   0.68587101   0.01446068
7693.00   0.69647956   0.01433150
7694.00   0.71296185   0.01365605
7695.00   0.71512103   0.01358726
7696.00   0.70532399   0.01404795
7697.00   0.69194591   0.01441640
7698.00   0.67626637   0.01436692
7699.00   0.65780044   0.01416840
7700.00   0.64549655   0.01466140
7701.00   0.63431907   0.01631469
7702.00   0.63007927   0.01642037
7703.00   0.63360649   0.01509251
7704.00   0.63886684   0.01384198
7705.00   0.64097756   0.01348957
7706.00   0.64349228   0.01360774
7707.00   0.66298342   0.01380642
7708.00   0.69710439   0.01368255
7709.00   0.73411220   0.01494450
7710.00   0.80582845   0.01794701
7711.00   0.83990127   0.01987456
7712.00   0.78405023   0.01977719
7713.00   0.67092025   0.01849436
7714.00   0.64247739   0.01830220
7715.00   0.67359406   0.01863382
7716.00   0.68255085   0.01875988
7717.00   0.69315964   0.01908828
7718.00   0.69480485   0.01904484
7719.00   0.67439556   0.01810595
7720.00   0.63881189   0.01643120
7721.00   0.63892311   0.01579488
7722.00   0.67838669   0.01605194
7723.00   0.68837440   0.01594987
7724.00   0.67200571   0.01548656
7725.00   0.65924281   0.01534539
7726.00   0.66925544   0.01618446
7727.00   0.69242990   0.01761627
7728.00   0.69716024   0.01743018
7729.00   0.69014984   0.01559443
7730.00   0.68500829   0.01451170
7731.00   0.67712927   0.01378652
7732.00   0.67065221   0.01335697
7733.00   0.67018688   0.01317970
7734.00   0.67407662   0.01326944
7735.00   0.66700637   0.01422755
7736.00   0.63771826   0.01681843
7737.00   0.63812143   0.01745139
7738.00   0.67266852   0.01627372
7739.00   0.70721138   0.01488482
7740.00   0.71950740   0.01460524
7741.00   0.72072822   0.01489559
7742.00   0.71567988   0.01492721
7743.00   0.68761235   0.01504409
7744.00   0.68356317   0.01505397
7745.00   0.70339465   0.01469299
7746.00   0.72796661   0.01464266
7747.00   0.74623424   0.01553026
7748.00   0.76527292   0.01703928
7749.00   0.76809376   0.01793658
7750.00   0.75522351   0.01905434
7751.00   0.74273318   0.01925166
7752.00   0.72589177   0.01831912
7753.00   0.70934850   0.01714190
7754.00   0.69698966   0.01655304
7755.00   0.68587035   0.01621412
7756.00   0.68570858   0.01592312
7757.00   0.70506960   0.01579357
7758.00   0.70782578   0.01571746
7759.00   0.68678856   0.01580291
7760.00   0.66945118   0.01585157
7761.00   0.68337452   0.01562250
7762.00   0.72227097   0.01513919
7763.00   0.73239797   0.01505235
7764.00   0.72582769   0.01546216
7765.00   0.71991420   0.01542745
7766.00   0.70921642   0.01479221
7767.00   0.70044363   0.01411704
7768.00   0.70259213   0.01402629
7769.00   0.71299154   0.01433473
7770.00   0.72125834   0.01446744
7771.00   0.73291665   0.01454966
7772.00   0.74161237   0.01477001
7773.00   0.75204903   0.01515667
7774.00   0.75597650   0.01558646
7775.00   0.73985654   0.01597602
7776.00   0.70088255   0.01643146
7777.00   0.69506586   0.01652881
7778.00   0.71403217   0.01625085
7779.00   0.72852296   0.01607783
7780.00   0.74221444   0.01606181
7781.00   0.75344002   0.01600886
7782.00   0.75744027   0.01570495
7783.00   0.75864488   0.01516368
7784.00   0.74371815   0.01477194
7785.00   0.69439679   0.01429386
7786.00   0.67710596   0.01406645
7787.00   0.69954932   0.01412187
7788.00   0.73636991   0.01436687
7789.00   0.76198971   0.01469046
7790.00   0.79002732   0.01503808
7791.00   0.80692303   0.01587587
7792.00   0.82653022   0.01751453
7793.00   0.82110107   0.01838591
7794.00   0.77917820   0.01838299
7795.00   0.72559255   0.01809574
7796.00   0.69292516   0.01824315
7797.00   0.66045803   0.01882717
7798.00   0.66198099   0.01833324
7799.00   0.70550531   0.01646086
7800.00   0.73704165   0.01516742
7801.00   0.75233191   0.01475021
7802.00   0.76320374   0.01485011
7803.00   0.78082347   0.01525081
7804.00   0.81174862   0.01630450
7805.00   0.80497992   0.01664977
7806.00   0.75161648   0.01664980
7807.00   0.72278881   0.01656804
7808.00   0.72794229   0.01635213
7809.00   0.74783653   0.01607747
7810.00   0.76357406   0.01595203
7811.00   0.78773242   0.01576028
7812.00   0.79947633   0.01607249
7813.00   0.79861569   0.01707197
7814.00   0.80401248   0.01765298
7815.00   0.82921374   0.01771654
7816.00   0.85153371   0.01751132
7817.00   0.82369208   0.01718946
7818.00   0.72644836   0.01607004
7819.00   0.71450979   0.01659852
7820.00   0.77256435   0.01901330
7821.00   0.80990195   0.02017476
7822.00   0.80988812   0.01967986
7823.00   0.79642367   0.01840148
7824.00   0.79480869   0.01759035
7825.00   0.79864949   0.01665751
7826.00   0.79410499   0.01595933
7827.00   0.77714694   0.01538585
7828.00   0.77059031   0.01501782
7829.00   0.78244787   0.01485065
7830.00   0.80197358   0.01492435
7831.00   0.80946410   0.01537351
7832.00   0.81133854   0.01651123
7833.00   0.81216800   0.01686117
7834.00   0.80367482   0.01688709
7835.00   0.80462497   0.01663832
7836.00   0.82227105   0.01587032
7837.00   0.84789580   0.01485874
7838.00   0.86416614   0.01477717
7839.00   0.87985259   0.01553107
7840.00   0.88751113   0.01595250
7841.00   0.89343882   0.01656791
7842.00   0.88673794   0.01690045
7843.00   0.85648638   0.01681239
7844.00   0.81585109   0.01645915
7845.00   0.80609107   0.01609681
7846.00   0.81993860   0.01523485
7847.00   0.82934278   0.01515886
7848.00   0.84698361   0.01554875
7849.00   0.86149704   0.01624618
7850.00   0.87036318   0.01731274
7851.00   0.87541968   0.01856530
7852.00   0.87463075   0.01938199
7853.00   0.87205976   0.02037342
7854.00   0.85673350   0.02042630
7855.00   0.81302565   0.01940926
7856.00   0.79017550   0.01850153
7857.00   0.81629580   0.01814866
7858.00   0.86632293   0.01806618
7859.00   0.86542588   0.01812030
7860.00   0.81393671   0.01876427
7861.00   0.80163765   0.01865975
7862.00   0.81285459   0.01771094
7863.00   0.82387358   0.01707350
7864.00   0.82730633   0.01724209
7865.00   0.82807857   0.01789157
7866.00   0.82358056   0.01880187
7867.00   0.80078489   0.02091641
7868.00   0.80539572   0.02118831
7869.00   0.84187555   0.01975442
7870.00   0.86814737   0.01838706
7871.00   0.86321133   0.01803755
7872.00   0.84128082   0.01817669
7873.00   0.83366692   0.01815287
7874.00   0.83069617   0.01832672
7875.00   0.82721782   0.01828950
7876.00   0.82437778   0.01789271
7877.00   0.82254761   0.01776032
7878.00   0.81920755   0.01831896
7879.00   0.81596249   0.01926640
7880.00   0.83117294   0.01961423
7881.00   0.88160157   0.01986093
7882.00   0.89230680   0.01960797
7883.00   0.86754650   0.01845620
7884.00   0.84074670   0.01752407
7885.00   0.82461029   0.01766824
7886.00   0.81142157   0.01844465
7887.00   0.82286400   0.01847750
7888.00   0.87732643   0.01784101
7889.00   0.89179265   0.01785387
7890.00   0.87445617   0.01860910
7891.00   0.85051155   0.01914274
7892.00   0.82995254   0.01894117
7893.00   0.80650890   0.01827590
7894.00   0.80033427   0.01760336
7895.00   0.79471785   0.01602132
7896.00   0.82035899   0.01577652
7897.00   0.89236540   0.01708228
7898.00   0.95950836   0.01832232
7899.00   0.99249822   0.01875599
7900.00   1.00783026   0.01885561
7901.00   0.99048436   0.01859456
7902.00   0.90950501   0.01751237
7903.00   0.87825626   0.01700286
7904.00   0.89055800   0.01711625
7905.00   0.90926027   0.01718342
7906.00   0.91238660   0.01664809
7907.00   0.91129625   0.01565575
7908.00   0.90595400   0.01561216
7909.00   0.89012259   0.01589703
7910.00   0.88324380   0.01697159
7911.00   0.88434154   0.01918160
7912.00   0.88765788   0.02107541
7913.00   0.88959002   0.02195261
7914.00   0.89195007   0.02235974
7915.00   0.89463747   0.02198765
7916.00   0.90699083   0.01995836
7917.00   0.90031660   0.01910815
7918.00   0.86246324   0.01958086
7919.00   0.83112133   0.02024543
7920.00   0.84235084   0.02037619
7921.00   0.88577151   0.02037514
7922.00   0.89620972   0.01988943
7923.00   0.88560277   0.01859540
7924.00   0.88402390   0.01769174
7925.00   0.88845330   0.01687477
7926.00   0.89576858   0.01652292
7927.00   0.90714324   0.01725068
7928.00   0.92560416   0.01892967
7929.00   0.92292029   0.01956033
7930.00   0.89699620   0.01995737
7931.00   0.88247603   0.01984341
7932.00   0.87455368   0.01875154
7933.00   0.87378085   0.01766765
7934.00   0.88598323   0.01795769
7935.00   0.91369998   0.01933250
7936.00   0.92058170   0.01940448
7937.00   0.91098565   0.01867635
7938.00   0.90760481   0.01801804
7939.00   0.90912032   0.01719452
7940.00   0.91290128   0.01646806
7941.00   0.91881651   0.01632220
7942.00   0.92875409   0.01665018
7943.00   0.93128431   0.01692811
7944.00   0.92715806   0.01748829
7945.00   0.92518270   0.01782135
7946.00   0.93266904   0.01794338
7947.00   0.93318373   0.01794642
7948.00   0.90167236   0.01787412
7949.00   0.83266598   0.01767038
7950.00   0.81997156   0.01753740
7951.00   0.84995800   0.01744342
7952.00   0.87381333   0.01729082
7953.00   0.90171903   0.01690792
7954.00   0.92124116   0.01663707
7955.00   0.90388107   0.01706797
7956.00   0.84611261   0.01829140
7957.00   0.83063620   0.01831830
7958.00   0.83747417   0.01714527
7959.00   0.84788352   0.01663540
7960.00   0.86494482   0.01685428
7961.00   0.88494700   0.01755331
7962.00   0.90108293   0.01876514
7963.00   0.92750746   0.02084346
7964.00   0.90948027   0.02143315
7965.00   0.82416457   0.02111425
7966.00   0.78735864   0.02065541
7967.00   0.82099187   0.01986628
7968.00   0.87676841   0.01898891
7969.00   0.89389890   0.01873550
7970.00   0.89404637   0.01901085
7971.00   0.89335793   0.01903603
7972.00   0.87092662   0.01875302
7973.00   0.87191731   0.01902559
7974.00   0.91542608   0.02037708
7975.00   0.96654105   0.02172509
7976.00   0.96651661   0.02144594
7977.00   0.92355949   0.01950882
7978.00   0.90485001   0.01879559
7979.00   0.88833928   0.01875030
7980.00   0.87720388   0.01857805
