# File created by shivutils (I.Shivvers)
# wl(A)   flm    er(optional)
3440.00   0.52255148   0.07237317
3442.00   0.34177020   0.07147346
3444.00   0.40717617   0.07406829
3446.00   0.07981713   0.07645438
3448.00   0.53546894   0.08411038
3450.00   0.33062857   0.08566323
3452.00   0.41742507   0.08811250
3454.00   0.19337235   0.08746225
3456.00   0.18004397   0.08715245
3458.00   0.37966776   0.08715589
3460.00   0.46782658   0.08627725
3462.00   0.33650443   0.08711773
3464.00   0.53577155   0.08834317
3466.00   0.52926034   0.08840776
3468.00   0.27590850   0.08806595
3470.00   0.44049138   0.08860988
3472.00   0.18147872   0.08638667
3474.00   0.29828754   0.08594678
3476.00   0.49278012   0.08879875
3478.00   0.40553421   0.09557092
3480.00   0.58138168   0.10102108
3482.00   0.37691191   0.09846339
3484.00   0.49524313   0.09775569
3486.00   0.19530788   0.09598342
3488.00   0.53384370   0.09479032
3490.00   0.50393939   0.09208974
3492.00   0.31847790   0.09117450
3494.00   0.61354744   0.09137512
3496.00   0.50171071   0.08955438
3498.00   0.52717441   0.08981708
3500.00   0.47183365   0.09118910
3502.00   0.22169909   0.08984634
3504.00   0.18634158   0.08909678
3506.00   0.44112954   0.08888686
3508.00   0.45187977   0.08927689
3510.00   0.42323810   0.08999052
3512.00   0.40104416   0.08704463
3514.00   0.25969121   0.08544479
3516.00   0.51216227   0.08867168
3518.00   0.44710284   0.08890837
3520.00   0.18377918   0.08566238
3522.00   0.15878524   0.08279092
3524.00   0.38927898   0.08181357
3526.00   0.20559123   0.08076252
3528.00   0.36000979   0.08422942
3530.00   0.23029244   0.08325130
3532.00   0.43036231   0.08394613
3534.00   0.38944361   0.08441342
3536.00   0.39990118   0.08460021
3538.00   0.50207627   0.08615606
3540.00   0.30738434   0.08838739
3542.00   0.37648371   0.09287935
3544.00   0.39509639   0.09313685
3546.00   0.20514348   0.09019393
3548.00   0.46443728   0.08954754
3550.00   0.30947486   0.08745573
3552.00   0.31374687   0.08734123
3554.00   0.31976944   0.08729086
3556.00   0.53935796   0.08600663
3558.00   0.30248293   0.08455873
3560.00   0.20251986   0.08129201
3562.00   0.39508793   0.08183048
3564.00   0.60169929   0.07992490
3566.00   0.45573187   0.07742694
3568.00   0.44138229   0.07601161
3570.00   0.43195984   0.07366592
3572.00   0.40027317   0.07558496
3574.00   0.38663357   0.07592603
3576.00   0.36784104   0.07471776
3578.00   0.34476936   0.07080610
3580.00   0.30134675   0.06763319
3582.00   0.54499561   0.06863362
3584.00   0.38485888   0.06443195
3586.00   0.26373753   0.06232735
3588.00   0.18840842   0.06573868
3590.00   0.37730104   0.06880081
3592.00   0.22414747   0.06757731
3594.00   0.25019491   0.06722108
3596.00   0.34543970   0.06805489
3598.00   0.48910788   0.06819180
3600.00   0.43616164   0.06698311
3602.00   0.27668542   0.06344216
3604.00   0.45139918   0.06364880
3606.00   0.49078557   0.06309054
3608.00   0.38481909   0.06085149
3610.00   0.43665317   0.06193954
3612.00   0.39394248   0.06525954
3614.00   0.34064084   0.06675746
3616.00   0.50541764   0.06716696
3618.00   0.22438121   0.06260791
3620.00   0.44187653   0.06377775
3622.00   0.43151218   0.06414887
3624.00   0.53576452   0.06591789
3626.00   0.29893512   0.06488050
3628.00   0.28576231   0.06473125
3630.00   0.25238660   0.06446900
3632.00   0.28487772   0.06375006
3634.00   0.48264170   0.06464767
3636.00   0.21701054   0.06401661
3638.00   0.31094432   0.06480865
3640.00   0.24259980   0.06597109
3642.00   0.30326718   0.06704883
3644.00   0.31613490   0.06634566
3646.00   0.11750930   0.06782108
3648.00   0.10109164   0.08322713
3650.00   0.03998540   0.09151307
3652.00   0.33273491   0.08529001
3654.00   0.63035494   0.08122700
3656.00   0.54019868   0.07499956
3658.00   0.29567105   0.06608457
3660.00   0.34178716   0.06903564
3662.00   0.41009903   0.07386597
3664.00   0.41755071   0.07129677
3666.00   0.45122769   0.06277529
3668.00   0.43700373   0.05898899
3670.00   0.38222259   0.05817401
3672.00   0.32728490   0.05813464
3674.00   0.28214937   0.05691084
3676.00   0.33452749   0.05539455
3678.00   0.37318650   0.05452352
3680.00   0.47088957   0.05493069
3682.00   0.32428721   0.05409930
3684.00   0.35155579   0.05338233
3686.00   0.53283900   0.05349401
3688.00   0.48145452   0.05359712
3690.00   0.42429295   0.05477309
3692.00   0.32122046   0.05486615
3694.00   0.32444951   0.05440890
3696.00   0.40344676   0.05449514
3698.00   0.50573367   0.05746068
3700.00   0.47796425   0.05703728
3702.00   0.48802131   0.05616828
3704.00   0.34551764   0.05311809
3706.00   0.55146968   0.05374162
3708.00   0.41520888   0.05182665
3710.00   0.42985839   0.05295317
3712.00   0.39367771   0.05371882
3714.00   0.53049463   0.05456029
3716.00   0.40765822   0.05290817
3718.00   0.41557452   0.05121917
3720.00   0.57849360   0.05040248
3722.00   0.52702135   0.05041007
3724.00   0.70193541   0.05432685
3726.00   0.45335364   0.05611503
3728.00   0.43894756   0.05460641
3730.00   0.56827253   0.05364170
3732.00   0.49109587   0.05111959
3734.00   0.58989424   0.04985153
3736.00   0.42296341   0.04925083
3738.00   0.55876517   0.05236648
3740.00   0.62637627   0.05490723
3742.00   0.63055867   0.05310676
3744.00   0.36112484   0.04938649
3746.00   0.57547516   0.04821208
3748.00   0.40889525   0.04658909
3750.00   0.47661728   0.04772301
3752.00   0.47776717   0.04984551
3754.00   0.53314698   0.05100055
3756.00   0.52905571   0.05013062
3758.00   0.48771068   0.04817177
3760.00   0.51400316   0.04804035
3762.00   0.46241739   0.04755908
3764.00   0.54911274   0.04763490
3766.00   0.58513433   0.04755347
3768.00   0.61573797   0.04721913
3770.00   0.47459802   0.04793806
3772.00   0.34405082   0.04751324
3774.00   0.38859460   0.04810188
3776.00   0.65393382   0.04894468
3778.00   0.46794254   0.04871505
3780.00   0.48804349   0.04879471
3782.00   0.58879036   0.04974473
3784.00   0.36461025   0.04743545
3786.00   0.41936383   0.04538970
3788.00   0.31467542   0.04414552
3790.00   0.31040555   0.04595889
3792.00   0.43342412   0.04649719
3794.00   0.51078576   0.04532694
3796.00   0.53383106   0.04396040
3798.00   0.35858691   0.04224812
3800.00   0.28379896   0.04287326
3802.00   0.33695954   0.04458631
3804.00   0.34589943   0.04479358
3806.00   0.43638605   0.04415050
3808.00   0.50789583   0.04422386
3810.00   0.42466503   0.04406668
3812.00   0.51416117   0.04463429
3814.00   0.42922068   0.04264920
3816.00   0.33360797   0.04158717
3818.00   0.33767381   0.04146647
3820.00   0.36801323   0.04172520
3822.00   0.38896009   0.04168238
3824.00   0.54144406   0.04145695
3826.00   0.39567453   0.04070264
3828.00   0.34896055   0.04213772
3830.00   0.50179589   0.04364248
3832.00   0.42170721   0.04219396
3834.00   0.40690228   0.04137165
3836.00   0.48175254   0.04223016
3838.00   0.52656174   0.04150319
3840.00   0.52965158   0.04138561
3842.00   0.54976583   0.04316361
3844.00   0.60372365   0.04407870
3846.00   0.58457661   0.04325939
3848.00   0.74353534   0.04347840
3850.00   0.67482322   0.04272849
3852.00   0.62274975   0.04258150
3854.00   0.53117210   0.04098669
3856.00   0.53547418   0.03970040
3858.00   0.48832661   0.03841666
3860.00   0.53942907   0.03946257
3862.00   0.42754540   0.04027103
3864.00   0.47482663   0.04137776
3866.00   0.36629790   0.03924463
3868.00   0.49519935   0.03925487
3870.00   0.52542371   0.03834116
3872.00   0.48204967   0.03961527
3874.00   0.45505500   0.04170151
3876.00   0.59164006   0.04133034
3878.00   0.50328535   0.03922842
3880.00   0.58545941   0.03862954
3882.00   0.58747500   0.03828377
3884.00   0.41239324   0.03741279
3886.00   0.40437323   0.03753942
3888.00   0.51571298   0.03839104
3890.00   0.46198681   0.03832988
3892.00   0.32291797   0.03793750
3894.00   0.31099585   0.03811999
3896.00   0.42472073   0.03909286
3898.00   0.35043848   0.03896892
3900.00   0.35287213   0.03911534
3902.00   0.19314265   0.03810193
3904.00   0.26730880   0.04025701
3906.00   0.31629056   0.04425900
3908.00   0.29804984   0.04675422
3910.00   0.31610957   0.04744909
3912.00   0.42806476   0.04823594
3914.00   0.53098804   0.04627039
3916.00   0.29339886   0.04116230
3918.00   0.48712173   0.04046343
3920.00   0.44874015   0.03835835
3922.00   0.46842906   0.03794655
3924.00   0.49116728   0.03802979
3926.00   0.35832310   0.03557894
3928.00   0.36086351   0.03383882
3930.00   0.39744636   0.03323238
3932.00   0.40923461   0.03434388
3934.00   0.42585212   0.03395943
3936.00   0.45443389   0.03294934
3938.00   0.46266848   0.03450465
3940.00   0.50137389   0.03644160
3942.00   0.43701324   0.03806475
3944.00   0.43498296   0.03885251
3946.00   0.45151365   0.03857692
3948.00   0.38881624   0.03782094
3950.00   0.42506632   0.03723587
3952.00   0.47125453   0.03732793
3954.00   0.45163614   0.03673233
3956.00   0.44211918   0.03642834
3958.00   0.46703267   0.03711639
3960.00   0.48705608   0.03795323
3962.00   0.55373609   0.03699786
3964.00   0.52010339   0.03400828
3966.00   0.48390779   0.03184620
3968.00   0.54270905   0.03139962
3970.00   0.46570519   0.03150452
3972.00   0.54266715   0.03363390
3974.00   0.45062679   0.03418372
3976.00   0.56343967   0.03560025
3978.00   0.52589965   0.03648994
3980.00   0.59395260   0.03708014
3982.00   0.60574424   0.03723804
3984.00   0.59463823   0.03661437
3986.00   0.63390124   0.03687638
3988.00   0.57878530   0.03707020
3990.00   0.56448972   0.03725893
3992.00   0.49671593   0.03715140
3994.00   0.41187310   0.03750382
3996.00   0.46151358   0.03853464
3998.00   0.34071648   0.03749658
4000.00   0.25488999   0.03557876
4002.00   0.24466148   0.03504762
4004.00   0.13975143   0.03330581
4006.00   0.24376275   0.03472947
4008.00   0.39781582   0.03687720
4010.00   0.40201578   0.03750497
4012.00   0.43662098   0.03741702
4014.00   0.44048205   0.03706841
4016.00   0.50216079   0.03799080
4018.00   0.52170795   0.04121144
4020.00   0.61550999   0.04495551
4022.00   0.65592462   0.04602719
4024.00   0.67849833   0.04484439
4026.00   0.60964018   0.04192844
4028.00   0.51896006   0.03953592
4030.00   0.58742160   0.03897477
4032.00   0.49372163   0.03747866
4034.00   0.29752320   0.03594650
4036.00   0.31289524   0.03620870
4038.00   0.21456157   0.03537825
4040.00   0.23453696   0.03584100
4042.00   0.18003006   0.03804422
4044.00   0.36263946   0.05563534
4046.00   0.49563009   0.06709648
4048.00   0.59847426   0.06008759
4050.00   0.57900411   0.04421088
4052.00   0.70261377   0.04059840
4054.00   0.69318181   0.04057952
4056.00   0.65211922   0.03933859
4058.00   0.76193982   0.03822445
4060.00   0.70520043   0.03755158
4062.00   0.78050977   0.03753438
4064.00   0.76298720   0.03728408
4066.00   0.80126572   0.03774849
4068.00   0.74982101   0.03783248
4070.00   0.70253253   0.03676099
4072.00   0.76481193   0.03651386
4074.00   0.73989332   0.03789220
4076.00   0.80911821   0.04132596
4078.00   0.73325700   0.04189062
4080.00   0.72474498   0.04105509
4082.00   0.82885957   0.04080035
4084.00   0.83194369   0.04006464
4086.00   0.86571908   0.03973571
4088.00   0.87702358   0.03884302
4090.00   0.87894720   0.03729710
4092.00   0.77760041   0.03629583
4094.00   0.86290663   0.03647989
4096.00   0.78790724   0.03582056
4098.00   0.83487976   0.03569555
4100.00   0.80933869   0.03456258
4102.00   0.76353842   0.03360055
4104.00   0.77142316   0.03411306
4106.00   0.69583005   0.03437062
4108.00   0.80452329   0.03510557
4110.00   0.89016283   0.03555901
4112.00   0.91701889   0.03554004
4114.00   0.92320484   0.03591343
4116.00   0.81097019   0.03511135
4118.00   0.78901666   0.03431698
4120.00   0.79637557   0.03390526
4122.00   0.81644207   0.03472398
4124.00   0.89537942   0.03489338
4126.00   0.78321385   0.03458092
4128.00   0.74385840   0.03442284
4130.00   0.74227285   0.03481514
4132.00   0.75429976   0.03544467
4134.00   0.73140526   0.03525039
4136.00   0.77593708   0.03489854
4138.00   0.82618624   0.03574498
4140.00   0.82085496   0.03590078
4142.00   0.75726902   0.03426357
4144.00   0.77074748   0.03331712
4146.00   0.80116266   0.03357119
4148.00   0.72104025   0.03459696
4150.00   0.74783868   0.03451030
4152.00   0.74474591   0.03550247
4154.00   0.80455714   0.03483128
4156.00   0.87823045   0.03437345
4158.00   0.91553718   0.03441290
4160.00   0.91044217   0.03486937
4162.00   0.94559681   0.03629632
4164.00   0.98640823   0.03783994
4166.00   0.84819895   0.03684513
4168.00   0.71719140   0.03459127
4170.00   0.72565526   0.03358509
4172.00   0.76283330   0.03269403
4174.00   0.63827091   0.03177695
4176.00   0.60906047   0.03202590
4178.00   0.70576847   0.03279354
4180.00   0.81130892   0.03283171
4182.00   0.88308865   0.03259644
4184.00   0.79034144   0.03219559
4186.00   0.78900576   0.03213251
4188.00   0.81479597   0.03215696
4190.00   0.84968138   0.03237259
4192.00   0.93778861   0.03289628
4194.00   0.86885858   0.03250244
4196.00   0.91742206   0.03173515
4198.00   0.79944330   0.03093578
4200.00   0.96635795   0.03154145
4202.00   0.84048915   0.03147485
4204.00   0.76336986   0.03153357
4206.00   0.72802460   0.03175112
4208.00   0.83204263   0.03253470
4210.00   0.81521738   0.03265479
4212.00   0.85207397   0.03283240
4214.00   0.84965384   0.03240208
4216.00   0.90455693   0.03213600
4218.00   0.74051338   0.03140054
4220.00   0.75061494   0.03150173
4222.00   0.81906193   0.03149102
4224.00   0.78383040   0.03047697
4226.00   0.84961897   0.03039522
4228.00   0.75298095   0.03053065
4230.00   0.78540152   0.03163134
4232.00   0.80122638   0.03198076
4234.00   0.84072679   0.03206988
4236.00   0.96595776   0.03275179
4238.00   0.91236359   0.03263669
4240.00   0.80687082   0.03160873
4242.00   0.78229427   0.03116531
4244.00   0.75709295   0.03363550
4246.00   0.84148598   0.03597842
4248.00   0.70704359   0.03422606
4250.00   0.69050658   0.03139727
4252.00   0.81188053   0.03092440
4254.00   0.77868813   0.03090417
4256.00   0.84005231   0.03132455
4258.00   0.84964514   0.03096102
4260.00   0.80306232   0.03027887
4262.00   0.83516592   0.03054174
4264.00   0.82294816   0.03063091
4266.00   0.92116272   0.03104084
4268.00   0.86022270   0.03038836
4270.00   0.85174668   0.03009995
4272.00   0.76462024   0.02945717
4274.00   0.77364933   0.02993280
4276.00   0.73035747   0.03022244
4278.00   0.81630683   0.03077644
4280.00   0.83354175   0.03083127
4282.00   0.88817209   0.03120399
4284.00   0.87057960   0.03088871
4286.00   0.91577041   0.03057585
4288.00   0.84849817   0.02995057
4290.00   0.88821173   0.02988013
4292.00   0.80469108   0.02995193
4294.00   0.94719440   0.03065130
4296.00   0.93334770   0.03022080
4298.00   0.82441974   0.02905210
4300.00   0.77338272   0.02825678
4302.00   0.70821983   0.02761909
4304.00   0.72183502   0.02838831
4306.00   0.86549759   0.02913985
4308.00   0.91878557   0.02925325
4310.00   0.85294044   0.02983106
4312.00   0.90052116   0.03232868
4314.00   0.91293961   0.03354486
4316.00   0.89699250   0.03300915
4318.00   1.01088786   0.03363818
4320.00   0.93758893   0.03345098
4322.00   0.99328154   0.03293966
4324.00   0.89012301   0.03169992
4326.00   0.81245279   0.03095704
4328.00   0.85338938   0.03065472
4330.00   0.87508953   0.03072269
4332.00   0.90650314   0.03074798
4334.00   0.91747034   0.03073909
4336.00   0.94119972   0.03082854
4338.00   0.90782046   0.03055663
4340.00   0.95867908   0.03087799
4342.00   0.99385977   0.03136310
4344.00   0.93891680   0.03198120
4346.00   0.84361309   0.03284513
4348.00   0.87771821   0.03308392
4350.00   0.72718251   0.03165249
4352.00   0.84907311   0.03149894
4354.00   0.66267681   0.03782082
4356.00   1.03787756   0.05942754
4358.00   1.04573810   0.06869650
4360.00   1.05396318   0.05868687
4362.00   0.74147421   0.04233366
4364.00   0.80686593   0.03465572
4366.00   0.78650886   0.03277138
4368.00   0.79290211   0.03224451
4370.00   0.85196674   0.03211377
4372.00   0.80075216   0.03257108
4374.00   0.76539683   0.03278657
4376.00   0.59539837   0.03145255
4378.00   0.70036590   0.03079751
4380.00   0.63307834   0.02986109
4382.00   0.66612375   0.02928699
4384.00   0.66342455   0.02876352
4386.00   0.65093750   0.02893467
4388.00   0.65477812   0.02921555
4390.00   0.78400731   0.03007249
4392.00   0.90952045   0.03059429
4394.00   1.01300824   0.03103700
4396.00   1.09541416   0.03141690
4398.00   0.99408299   0.03165258
4400.00   0.94861186   0.03188714
4402.00   0.80463970   0.03086614
4404.00   0.84419709   0.03020642
4406.00   0.94628102   0.03059835
4408.00   0.96782428   0.03109289
4410.00   0.98998410   0.03154644
4412.00   0.99173695   0.03184166
4414.00   0.95809436   0.03193431
4416.00   0.94853467   0.03163446
4418.00   0.82461727   0.03098985
4420.00   0.88477957   0.03102701
4422.00   0.90497607   0.03090361
4424.00   0.98531377   0.03107260
4426.00   1.07473159   0.03126070
4428.00   0.96785444   0.03083973
4430.00   0.96912605   0.03080599
4432.00   1.02313399   0.03080653
4434.00   0.90151083   0.03040511
4436.00   1.01415873   0.03079177
4438.00   0.99051100   0.03099558
4440.00   1.10276890   0.03137423
4442.00   1.02357042   0.03085686
4444.00   1.05800414   0.03101744
4446.00   1.06060266   0.03102368
4448.00   1.08770752   0.03085027
4450.00   0.99305379   0.03035322
4452.00   1.03113842   0.03023198
4454.00   1.00441694   0.02984524
4456.00   1.04094386   0.02988969
4458.00   0.95315361   0.02960486
4460.00   0.83463454   0.02930420
4462.00   0.82937288   0.02926297
4464.00   0.81659454   0.02912819
4466.00   0.86363745   0.02930773
4468.00   0.89773840   0.02931543
4470.00   1.01744115   0.02980216
4472.00   1.00824130   0.02991150
4474.00   1.00554848   0.03015443
4476.00   1.07890737   0.03027209
4478.00   0.99797785   0.02984933
4480.00   0.93318850   0.02956337
4482.00   1.01909661   0.03003883
4484.00   0.90877086   0.02967498
4486.00   0.95954734   0.02975794
4488.00   0.93849379   0.02972965
4490.00   1.05241978   0.03015809
4492.00   1.11791027   0.03064978
4494.00   0.99369794   0.03030678
4496.00   1.05210936   0.03043468
4498.00   1.08281052   0.03064784
4500.00   1.13497591   0.03068856
4502.00   1.06799698   0.03041968
4504.00   1.07311058   0.03051490
4506.00   1.05770099   0.03033551
4508.00   1.06239367   0.03013517
4510.00   1.08986974   0.03015294
4512.00   1.00829399   0.02984792
4514.00   0.96709150   0.02966165
4516.00   1.06445682   0.02966458
4518.00   1.07912993   0.02979372
4520.00   1.14274156   0.03005670
4522.00   1.11943924   0.02986566
4524.00   1.12149465   0.02963061
4526.00   1.11262786   0.02949295
4528.00   1.21653104   0.02967081
4530.00   1.18960845   0.02966068
4532.00   1.13249505   0.02974086
4534.00   1.08581042   0.02926385
4536.00   1.05577922   0.02919516
4538.00   1.01503563   0.02916721
4540.00   0.93906575   0.02908467
4542.00   1.07381141   0.03070516
4544.00   1.03941262   0.02966409
4546.00   1.13471663   0.02982461
4548.00   1.04322422   0.02918464
4550.00   1.10464334   0.02911000
4552.00   1.14029527   0.02923201
4554.00   1.20546031   0.02956662
4556.00   1.15303075   0.02975115
4558.00   1.12814701   0.02972887
4560.00   1.17678905   0.02955600
4562.00   1.16654468   0.02936025
4564.00   1.14346969   0.02905148
4566.00   1.16303110   0.02907896
4568.00   1.18392038   0.02904447
4570.00   1.19366586   0.02923480
4572.00   1.20101261   0.02928427
4574.00   1.14182675   0.02933095
4576.00   1.17852211   0.02903740
4578.00   1.18608391   0.02892929
4580.00   1.25593400   0.02878259
4582.00   1.26895797   0.02867578
4584.00   1.23914778   0.02851653
4586.00   1.25746298   0.02867126
4588.00   1.32827163   0.02902688
4590.00   1.31592798   0.02893475
4592.00   1.31958997   0.02896070
4594.00   1.22849548   0.02871826
4596.00   1.21582532   0.02845564
4598.00   1.19092309   0.02818095
4600.00   1.23489809   0.02821575
4602.00   1.27369714   0.02829344
4604.00   1.19497073   0.02796443
4606.00   1.13504148   0.02794227
4608.00   1.13872564   0.02816403
4610.00   1.04783380   0.02798619
4612.00   1.10818875   0.02768927
4614.00   1.05120933   0.02751506
4616.00   1.06161475   0.02737006
4618.00   1.13507879   0.02772433
4620.00   1.16848671   0.02791754
4622.00   1.19855750   0.02816711
4624.00   1.17645597   0.02803908
4626.00   1.17681539   0.02806814
4628.00   1.21327996   0.02807967
4630.00   1.19707215   0.02793132
4632.00   1.19084013   0.02785512
4634.00   1.21255112   0.02770356
4636.00   1.13228154   0.02764334
4638.00   1.17624962   0.02773392
4640.00   1.22529662   0.02782412
4642.00   1.27921009   0.02793458
4644.00   1.25689793   0.02773087
4646.00   1.27489734   0.02774631
4648.00   1.28383791   0.02758328
4650.00   1.25707507   0.02782187
4652.00   1.25118697   0.02788531
4654.00   1.30853033   0.02803200
4656.00   1.32572007   0.02831590
4658.00   1.31316447   0.02838636
4660.00   1.22114193   0.02844011
4662.00   1.15640843   0.02836380
4664.00   1.24957716   0.02868786
4666.00   1.21551406   0.02862249
4668.00   1.23871505   0.02922956
4670.00   1.19322491   0.02935290
4672.00   1.28557658   0.02941142
4674.00   1.19158649   0.02895834
4676.00   1.31833911   0.02891140
4678.00   1.24729586   0.02833303
4680.00   1.27895188   0.02827482
4682.00   1.20012248   0.02795566
4684.00   1.30381596   0.02816228
4686.00   1.24079657   0.02802571
4688.00   1.32630026   0.02815548
4690.00   1.27849877   0.02802408
4692.00   1.28117287   0.02817714
4694.00   1.35367036   0.02827542
4696.00   1.33571339   0.02804257
4698.00   1.34590697   0.02800030
4700.00   1.39206660   0.02791981
4702.00   1.37306464   0.02787596
4704.00   1.39591312   0.02825485
4706.00   1.37956762   0.02841409
4708.00   1.35988605   0.02841209
4710.00   1.33619523   0.02850954
4712.00   1.38375294   0.02845430
4714.00   1.31821787   0.02819952
4716.00   1.34118652   0.02803383
4718.00   1.33369756   0.02783522
4720.00   1.23131979   0.02773934
4722.00   1.25786340   0.02777192
4724.00   1.23490882   0.02756631
4726.00   1.18880403   0.02810154
4728.00   1.21749628   0.02894339
4730.00   1.17098641   0.02890738
4732.00   1.16385710   0.02890459
4734.00   1.16195500   0.02942333
4736.00   1.25476027   0.02989956
4738.00   1.31534052   0.03072701
4740.00   1.29470992   0.03134344
4742.00   1.39601958   0.03214567
4744.00   1.34704924   0.03131454
4746.00   1.22499418   0.02933925
4748.00   1.26031578   0.02829610
4750.00   1.19886565   0.02779977
4752.00   1.13895071   0.02790872
4754.00   1.20359278   0.02760187
4756.00   1.19908464   0.02716315
4758.00   1.25586879   0.02709705
4760.00   1.30998945   0.02690881
4762.00   1.24548900   0.02648469
4764.00   1.20816112   0.02618671
4766.00   1.20919120   0.02622114
4768.00   1.26064801   0.02624377
4770.00   1.31558859   0.02644612
4772.00   1.26396859   0.02642315
4774.00   1.26788294   0.02651587
4776.00   1.25839925   0.02707005
4778.00   1.26874614   0.02761969
4780.00   1.28867722   0.02756715
4782.00   1.24668789   0.02681629
4784.00   1.22600555   0.02638569
4786.00   1.20767391   0.02606339
4788.00   1.17290616   0.02600108
4790.00   1.25364554   0.02644964
4792.00   1.25001264   0.02652991
4794.00   1.22617042   0.02637319
4796.00   1.22819722   0.02629774
4798.00   1.26642632   0.02611668
4800.00   1.31692302   0.02632028
4802.00   1.33138168   0.02628363
4804.00   1.34028852   0.02633771
4806.00   1.35552537   0.02643516
4808.00   1.36856830   0.02666105
4810.00   1.35991228   0.02666303
4812.00   1.34423351   0.02653033
4814.00   1.26674139   0.02638650
4816.00   1.23934197   0.02614011
4818.00   1.27738202   0.02638975
4820.00   1.30287313   0.02659770
4822.00   1.29117644   0.02670096
4824.00   1.36532640   0.02690525
4826.00   1.31591165   0.02697207
4828.00   1.35106289   0.02704935
4830.00   1.35018289   0.02704991
4832.00   1.35161483   0.02706811
4834.00   1.34005070   0.02729606
4836.00   1.42034030   0.02740239
4838.00   1.36843097   0.02748561
4840.00   1.27384102   0.02721349
4842.00   1.29341388   0.02703352
4844.00   1.30255675   0.02672236
4846.00   1.32597995   0.02676116
4848.00   1.24801815   0.02646002
4850.00   1.20096374   0.02638733
4852.00   1.25482368   0.02632894
4854.00   1.27908516   0.02614835
4856.00   1.30198240   0.02589408
4858.00   1.30939090   0.02587540
4860.00   1.29255879   0.02584955
4862.00   1.44073248   0.02644356
4864.00   1.36164951   0.02635466
4866.00   1.38798535   0.02646603
4868.00   1.30564368   0.02601348
4870.00   1.28134251   0.02584793
4872.00   1.27200496   0.02589601
4874.00   1.31914377   0.02607075
4876.00   1.31439376   0.02654110
4878.00   1.37455833   0.02661346
4880.00   1.39473593   0.02692255
4882.00   1.38918817   0.02666840
4884.00   1.32402015   0.02637113
4886.00   1.35649335   0.02625902
4888.00   1.35668433   0.02604344
4890.00   1.39416385   0.02617993
4892.00   1.34390187   0.02613189
4894.00   1.29605389   0.02618629
4896.00   1.35528731   0.02631238
4898.00   1.34767640   0.02624455
4900.00   1.36889315   0.02614687
4902.00   1.40539849   0.02632980
4904.00   1.38299239   0.02619390
4906.00   1.35992229   0.02630899
4908.00   1.33774054   0.02624131
4910.00   1.33771646   0.02609056
4912.00   1.37466800   0.02615650
4914.00   1.37721276   0.02617423
4916.00   1.32148075   0.02600534
4918.00   1.34576666   0.02577956
4920.00   1.27362311   0.02559387
4922.00   1.30869842   0.02571294
4924.00   1.32332313   0.02562777
4926.00   1.26114154   0.02540631
4928.00   1.32529140   0.02548601
4930.00   1.30881727   0.02535588
4932.00   1.23901594   0.02564554
4934.00   1.31230772   0.02568552
4936.00   1.25759506   0.02535464
4938.00   1.27008796   0.02539255
4940.00   1.25329196   0.02548556
4942.00   1.22670805   0.02524879
4944.00   1.16873479   0.02497655
4946.00   1.12953937   0.02464734
4948.00   1.06332111   0.02433976
4950.00   1.12440300   0.02466461
4952.00   1.13187659   0.02512583
4954.00   1.21421218   0.02551252
4956.00   1.15308893   0.02491341
4958.00   1.21955466   0.02492050
4960.00   1.20830047   0.02509213
4962.00   1.27411401   0.02540589
4964.00   1.24859500   0.02540323
4966.00   1.27265882   0.02561876
4968.00   1.30325115   0.02590925
4970.00   1.31716657   0.02619073
4972.00   1.34741199   0.02677166
4974.00   1.20073998   0.02682586
4976.00   1.24262834   0.02748806
4978.00   1.26845074   0.02843759
4980.00   1.25227344   0.02905066
4982.00   1.36752546   0.02973513
4984.00   1.35209095   0.02978614
4986.00   1.47035992   0.02960537
4988.00   1.34164870   0.02866330
4990.00   1.31007624   0.02806006
4992.00   1.35029399   0.02755442
4994.00   1.28905177   0.02686355
4996.00   1.30716932   0.02642152
4998.00   1.29884064   0.02587342
5000.00   1.36232507   0.02575556
5002.00   1.30066001   0.02548779
5004.00   1.33394790   0.02533440
5006.00   1.29666209   0.02491207
5008.00   1.24456251   0.02470391
5010.00   1.26308548   0.02458466
5012.00   1.22008812   0.02440473
5014.00   1.32356822   0.02481799
5016.00   1.42620599   0.02522651
5018.00   1.41087902   0.02552249
5020.00   1.37667930   0.02556792
5022.00   1.39722466   0.02556947
5024.00   1.31111419   0.02501528
5026.00   1.26924551   0.02474296
5028.00   1.31628394   0.02512163
5030.00   1.36906099   0.02549908
5032.00   1.38555348   0.02550983
5034.00   1.37359846   0.02531061
5036.00   1.42818260   0.02522395
5038.00   1.46583498   0.02518253
5040.00   1.39969862   0.02477777
5042.00   1.38688886   0.02490696
5044.00   1.33621800   0.02496564
5046.00   1.29936516   0.02483188
5048.00   1.35471332   0.02488366
5050.00   1.36876452   0.02495555
5052.00   1.38563776   0.02515447
5054.00   1.36349523   0.02514981
5056.00   1.33055151   0.02492110
5058.00   1.34603620   0.02502952
5060.00   1.34700334   0.02524283
5062.00   1.42841911   0.02594961
5064.00   1.46295536   0.02636575
5066.00   1.37583983   0.02637933
5068.00   1.32022023   0.02678099
5070.00   1.28027725   0.02661901
5072.00   1.25069654   0.02678443
5074.00   1.26562309   0.02615524
5076.00   1.31007099   0.02567128
5078.00   1.23193455   0.02613716
5080.00   1.32435894   0.02800659
5082.00   1.37512708   0.03001851
5084.00   1.37077463   0.03136558
5086.00   1.34255099   0.03124330
5088.00   1.27155745   0.02992210
5090.00   1.25853324   0.02830826
5092.00   1.25662017   0.02688921
5094.00   1.30135763   0.02625243
5096.00   1.30339885   0.02646913
5098.00   1.25329852   0.02696368
5100.00   1.26210606   0.02699124
5102.00   1.25458229   0.02626059
5104.00   1.14383614   0.02527389
5106.00   1.25688350   0.02515949
5108.00   1.18143463   0.02475996
5110.00   1.19487309   0.02483796
5112.00   1.20517874   0.02503332
5114.00   1.27510870   0.02555465
5116.00   1.25708473   0.02556286
5118.00   1.28064454   0.02564046
5120.00   1.34406507   0.02537323
5122.00   1.34675336   0.02527702
5124.00   1.33096445   0.02497221
5126.00   1.27016234   0.02471666
5128.00   1.31301248   0.02483116
5130.00   1.28203058   0.02476307
5132.00   1.22622430   0.02471569
5134.00   1.26995993   0.02494014
5136.00   1.37554896   0.02527440
5138.00   1.30944049   0.02500497
5140.00   1.36203361   0.02522912
5142.00   1.35280418   0.02531319
5144.00   1.36592519   0.02545953
5146.00   1.35518777   0.02566996
5148.00   1.38592887   0.02623821
5150.00   1.40067804   0.02669554
5152.00   1.34498727   0.02706692
5154.00   1.43341577   0.02739085
5156.00   1.34709501   0.02691517
5158.00   1.36835909   0.02668184
5160.00   1.32449174   0.02626941
5162.00   1.26168251   0.02567951
5164.00   1.26785088   0.02524587
5166.00   1.27596140   0.02488576
5168.00   1.29917145   0.02476916
5170.00   1.28973329   0.02458461
5172.00   1.27229118   0.02443942
5174.00   1.27102852   0.02488925
5176.00   1.31847358   0.02527237
5178.00   1.31856608   0.02539602
5180.00   1.34096217   0.02540872
5182.00   1.36031497   0.02525227
5184.00   1.37364328   0.02528838
5186.00   1.34471047   0.02533693
5188.00   1.34093773   0.02553719
5190.00   1.33272541   0.02556737
5192.00   1.29876006   0.02546628
5194.00   1.29945171   0.02562672
5196.00   1.27001226   0.02621173
5198.00   1.28313088   0.02656494
5200.00   1.28571296   0.02647007
5202.00   1.30965674   0.02637674
5204.00   1.33863163   0.02630867
5206.00   1.33890092   0.02620248
5208.00   1.35078275   0.02660067
5210.00   1.37710154   0.02700443
5212.00   1.33741069   0.02681651
5214.00   1.35343587   0.02666625
5216.00   1.26429546   0.02643217
5218.00   1.26764715   0.02671863
5220.00   1.23200226   0.02650177
5222.00   1.27487838   0.02659343
5224.00   1.22793710   0.02612386
5226.00   1.25152886   0.02602026
5228.00   1.26482821   0.02609165
5230.00   1.23970163   0.02610028
5232.00   1.26122212   0.02624699
5234.00   1.23790586   0.02624257
5236.00   1.26356697   0.02651872
5238.00   1.24390066   0.02666120
5240.00   1.28729236   0.02669519
5242.00   1.19053853   0.02642539
5244.00   1.27150285   0.02641980
5246.00   1.25433242   0.02644063
5248.00   1.32686758   0.02673472
5250.00   1.27360260   0.02665858
5252.00   1.30060112   0.02671611
5254.00   1.34086561   0.02724213
5256.00   1.27007735   0.02732994
5258.00   1.15591109   0.02711062
5260.00   1.05156541   0.02627059
5262.00   0.99978316   0.02573972
5264.00   0.98194343   0.02535539
5266.00   1.06679583   0.02553521
5268.00   1.08768284   0.02562385
5270.00   1.12982821   0.02578772
5272.00   1.15692377   0.02614766
5274.00   1.14086342   0.02628865
5276.00   1.05706978   0.02612593
5278.00   1.09976351   0.02639838
5280.00   1.17979407   0.02685626
5282.00   1.23245227   0.02723951
5284.00   1.23958313   0.02766123
5286.00   1.24342084   0.02790656
5288.00   1.24196720   0.02786994
5290.00   1.26093602   0.02795315
5292.00   1.31618321   0.02811208
5294.00   1.35107934   0.02831157
5296.00   1.30537248   0.02804091
5298.00   1.21081221   0.02784511
5300.00   1.15494001   0.02778950
5302.00   1.24313724   0.02816027
5304.00   1.23478472   0.02821896
5306.00   1.23047292   0.02823756
5308.00   1.34634101   0.02885278
5310.00   1.35397291   0.02916453
5312.00   1.41441143   0.02956296
5314.00   1.39899397   0.02949592
5316.00   1.38543832   0.02941037
5318.00   1.31411934   0.02915412
5320.00   1.32074785   0.02908237
5322.00   1.30072868   0.02900913
5324.00   1.35271943   0.02926361
5326.00   1.39504981   0.02929963
5328.00   1.34929085   0.02940114
5330.00   1.42157102   0.02993922
5332.00   1.42867959   0.03018499
5334.00   1.45665896   0.03033991
5336.00   1.48594069   0.03064961
5338.00   1.43331659   0.03083955
5340.00   1.47477007   0.03140146
5342.00   1.45507443   0.03151884
5344.00   1.35176206   0.03099223
5346.00   1.43307257   0.03184527
5348.00   1.41639447   0.03261655
5350.00   1.41698301   0.03254278
5352.00   1.40005386   0.03268450
5354.00   1.40041709   0.03316044
5356.00   1.42476892   0.03355483
5358.00   1.26928163   0.03276502
5360.00   1.18551755   0.03132905
5362.00   1.25286710   0.03100134
5364.00   1.13566256   0.03028790
5366.00   1.23259413   0.03058409
5368.00   1.24284172   0.03065101
5370.00   1.29197860   0.03089301
5372.00   1.39497495   0.03209163
5374.00   1.41595495   0.03273450
5376.00   1.29326403   0.03246246
5378.00   1.46733046   0.03301439
5380.00   1.39864075   0.03269006
5382.00   1.47711802   0.03290331
5384.00   1.45702839   0.03291223
5386.00   1.54360855   0.03337773
5388.00   1.53529131   0.03377035
5390.00   1.46922779   0.03420911
5392.00   1.44851589   0.03463358
5394.00   1.39396715   0.03416268
5396.00   1.39025331   0.03399089
5398.00   1.42752624   0.03411938
5400.00   1.51456678   0.03458895
5402.00   1.50672901   0.03483205
5404.00   1.52986872   0.03500322
5406.00   1.59008574   0.03538636
5408.00   1.49353683   0.03550567
5410.00   1.48100519   0.03586080
5412.00   1.47098768   0.03663428
5414.00   1.55964673   0.03762073
5416.00   1.56544495   0.03831502
5418.00   1.52845490   0.03873311
5420.00   1.45438492   0.03853004
5422.00   1.39708626   0.03829491
5424.00   1.33987260   0.03804961
5426.00   1.38866532   0.03838004
5428.00   1.36050785   0.03821819
5430.00   1.31786847   0.03828156
5432.00   1.49090028   0.03900985
5434.00   1.43314719   0.03883801
5436.00   1.37139022   0.03892817
5438.00   1.46958220   0.03949498
5440.00   1.44143832   0.03968402
5442.00   1.49218702   0.01593234
5444.00   1.54970729   0.01502295
5446.00   1.56586182   0.01537888
5448.00   1.55842781   0.01662378
5450.00   1.54828012   0.01790562
5452.00   1.53934979   0.01927291
5454.00   1.52288294   0.02063446
5456.00   1.48156142   0.02185039
5458.00   1.40150881   0.02313704
5460.00   1.41977465   0.02364003
5462.00   1.57362115   0.02395313
5464.00   1.61384475   0.02326082
5466.00   1.50561309   0.02082243
5468.00   1.39953268   0.01801025
5470.00   1.42118907   0.01659831
5472.00   1.51889718   0.01609764
5474.00   1.54456151   0.01553301
5476.00   1.53538775   0.01519936
5478.00   1.53253007   0.01536309
5480.00   1.53116834   0.01654561
5482.00   1.52160776   0.01721014
5484.00   1.49598086   0.01644927
5486.00   1.46022642   0.01481471
5488.00   1.43931496   0.01437781
5490.00   1.42418039   0.01507602
5492.00   1.41525030   0.01487716
5494.00   1.41832852   0.01397551
5496.00   1.41730940   0.01332489
5498.00   1.40576971   0.01329579
5500.00   1.39098001   0.01356682
5502.00   1.38434649   0.01377292
5504.00   1.37779236   0.01421612
5506.00   1.38661969   0.01420757
5508.00   1.41363084   0.01359132
5510.00   1.43718636   0.01342177
5512.00   1.46129608   0.01402549
5514.00   1.47877133   0.01472835
5516.00   1.47219586   0.01481453
5518.00   1.44190967   0.01455277
5520.00   1.43080235   0.01425441
5522.00   1.43087900   0.01344438
5524.00   1.42469573   0.01322364
5526.00   1.40718448   0.01380498
5528.00   1.39436674   0.01443910
5530.00   1.40182352   0.01463691
5532.00   1.42403114   0.01466314
5534.00   1.43355381   0.01433432
5536.00   1.44241953   0.01326388
5538.00   1.44163704   0.01277401
5540.00   1.42483079   0.01285214
5542.00   1.41249490   0.01297264
5544.00   1.41656935   0.01284237
5546.00   1.42969918   0.01264300
5548.00   1.43946970   0.01276245
5550.00   1.45411551   0.01307335
5552.00   1.46087492   0.01351530
5554.00   1.46371293   0.01443227
5556.00   1.46143723   0.01487633
5558.00   1.45568335   0.01442826
5560.00   1.44381094   0.01358273
5562.00   1.41681623   0.01340415
5564.00   1.37294459   0.01285202
5566.00   1.33311784   0.01452074
5568.00   1.27766347   0.01782225
5570.00   1.24489772   0.02053400
5572.00   1.23274016   0.02328812
5574.00   1.24486232   0.02535886
5576.00   1.30339324   0.02547363
5578.00   1.42522705   0.02407371
5580.00   1.45707333   0.02241500
5582.00   1.41534615   0.01884190
5584.00   1.39844406   0.01619232
5586.00   1.40803945   0.01498016
5588.00   1.41656017   0.01450468
5590.00   1.39957273   0.01432368
5592.00   1.36328185   0.01480685
5594.00   1.37544882   0.01440888
5596.00   1.44056630   0.01317013
5598.00   1.47204161   0.01243562
5600.00   1.48372471   0.01207214
5602.00   1.48347092   0.01190775
5604.00   1.46896648   0.01189054
5606.00   1.44248641   0.01205170
5608.00   1.43399191   0.01230261
5610.00   1.43209052   0.01302547
5612.00   1.43940401   0.01301569
5614.00   1.46905196   0.01220234
5616.00   1.48391318   0.01161803
5618.00   1.46702361   0.01169006
5620.00   1.43614328   0.01207129
5622.00   1.42342818   0.01239230
5624.00   1.41240954   0.01303744
5626.00   1.41994727   0.01301352
5628.00   1.45445073   0.01220346
5630.00   1.47719705   0.01178344
5632.00   1.47979808   0.01211374
5634.00   1.47755098   0.01259594
5636.00   1.48755467   0.01254836
5638.00   1.50413609   0.01215164
5640.00   1.51953268   0.01198540
5642.00   1.54003763   0.01177410
5644.00   1.55405307   0.01180508
5646.00   1.56630445   0.01221542
5648.00   1.56894565   0.01262053
5650.00   1.54826498   0.01264490
5652.00   1.50574255   0.01241033
5654.00   1.49767530   0.01261568
5656.00   1.51935840   0.01320737
5658.00   1.52621973   0.01356933
5660.00   1.53002739   0.01380300
5662.00   1.52260149   0.01397529
5664.00   1.49081969   0.01407913
5666.00   1.44302666   0.01412546
5668.00   1.43089402   0.01430835
5670.00   1.44653606   0.01466746
5672.00   1.45574749   0.01483118
5674.00   1.47494721   0.01468583
5676.00   1.48442662   0.01480899
5678.00   1.47464406   0.01552006
5680.00   1.45509708   0.01642005
5682.00   1.44353509   0.01676235
5684.00   1.43124866   0.01679104
5686.00   1.42603147   0.01676754
5688.00   1.43095636   0.01665965
5690.00   1.43056500   0.01633162
5692.00   1.42113030   0.01551149
5694.00   1.40905094   0.01462695
5696.00   1.40108454   0.01463853
5698.00   1.39200532   0.01552297
5700.00   1.39510250   0.01538647
5702.00   1.40606022   0.01449581
5704.00   1.42524457   0.01378120
5706.00   1.45652401   0.01308752
5708.00   1.49140894   0.01261025
5710.00   1.52519166   0.01276189
5712.00   1.56417501   0.01344681
5714.00   1.56480682   0.01368317
5716.00   1.51979637   0.01370981
5718.00   1.49783862   0.01383320
5720.00   1.49084592   0.01425116
5722.00   1.48807156   0.01434079
5724.00   1.48458385   0.01355542
5726.00   1.48309183   0.01208529
5728.00   1.48821747   0.01143835
5730.00   1.50675285   0.01133878
5732.00   1.51088870   0.01124494
5734.00   1.50085366   0.01124339
5736.00   1.49503779   0.01149255
5738.00   1.50216174   0.01228550
5740.00   1.51399291   0.01317637
5742.00   1.51466382   0.01296577
5744.00   1.50874162   0.01146045
5746.00   1.50134242   0.01094124
5748.00   1.48771286   0.01086022
5750.00   1.47696173   0.01101154
5752.00   1.47303855   0.01146892
5754.00   1.46924686   0.01204700
5756.00   1.45484495   0.01241775
5758.00   1.43063319   0.01276480
5760.00   1.41507638   0.01288710
5762.00   1.39546859   0.01259836
5764.00   1.39250124   0.01266888
5766.00   1.40573990   0.01314720
5768.00   1.43245494   0.01375579
5770.00   1.47762656   0.01442953
5772.00   1.54618490   0.01532537
5774.00   1.56912267   0.01505916
5776.00   1.56195772   0.01326948
5778.00   1.54749823   0.01231247
5780.00   1.51538098   0.01210066
5782.00   1.48102021   0.01217556
5784.00   1.45164561   0.01234125
5786.00   1.42346883   0.01269310
5788.00   1.41868758   0.01304738
5790.00   1.44020557   0.01359887
5792.00   1.45299292   0.01389059
5794.00   1.47034574   0.01418937
5796.00   1.48045766   0.01413017
5798.00   1.47646320   0.01336260
5800.00   1.46475613   0.01216472
5802.00   1.45947015   0.01173329
5804.00   1.45667815   0.01190619
5806.00   1.45153189   0.01188541
5808.00   1.44559669   0.01202875
5810.00   1.43855500   0.01200426
5812.00   1.42543495   0.01165489
5814.00   1.41502464   0.01121839
5816.00   1.42523491   0.01112678
5818.00   1.45297158   0.01129841
5820.00   1.47765970   0.01132149
5822.00   1.51736748   0.01130524
5824.00   1.53740227   0.01130896
5826.00   1.53324533   0.01135089
5828.00   1.51988208   0.01138295
5830.00   1.50935304   0.01132956
5832.00   1.49509156   0.01118267
5834.00   1.48763001   0.01130610
5836.00   1.48585212   0.01175650
5838.00   1.48241389   0.01195823
5840.00   1.47435951   0.01194424
5842.00   1.47169518   0.01188817
5844.00   1.48258603   0.01185019
5846.00   1.50292063   0.01179676
5848.00   1.51745045   0.01197139
5850.00   1.54291582   0.01246617
5852.00   1.54172659   0.01267210
5854.00   1.50883794   0.01259019
5856.00   1.48152101   0.01263256
5858.00   1.47087383   0.01307605
5860.00   1.47038698   0.01363207
5862.00   1.48873866   0.01358702
5864.00   1.54450691   0.01276636
5866.00   1.55955708   0.01274037
5868.00   1.55185747   0.01342481
5870.00   1.53640938   0.01374091
5872.00   1.51088428   0.01341587
5874.00   1.48057389   0.01286300
5876.00   1.46285820   0.01259074
5878.00   1.45940554   0.01201497
5880.00   1.42862356   0.01300074
5882.00   1.38434267   0.01377110
5884.00   1.32399809   0.01705477
5886.00   1.22915196   0.02284099
5888.00   1.13877165   0.02771520
5890.00   1.09732735   0.03024955
5892.00   1.08396566   0.03203131
5894.00   1.10857582   0.03156092
5896.00   1.18723452   0.02809294
5898.00   1.25964272   0.02500344
5900.00   1.34620631   0.02128317
5902.00   1.42129397   0.01762351
5904.00   1.46275306   0.01549571
5906.00   1.48156261   0.01487124
5908.00   1.49626732   0.01392488
5910.00   1.48497236   0.01362242
5912.00   1.49834180   0.01321372
5914.00   1.54315209   0.01280216
5916.00   1.57043219   0.01262071
5918.00   1.55127716   0.01289437
5920.00   1.51034164   0.01339447
5922.00   1.50839448   0.01340077
5924.00   1.53586030   0.01293924
5926.00   1.54806519   0.01285763
5928.00   1.56028652   0.01308741
5930.00   1.56697011   0.01312627
5932.00   1.56486344   0.01279578
5934.00   1.55893147   0.01233529
5936.00   1.55868900   0.01214269
5938.00   1.56445622   0.01211013
5940.00   1.55711758   0.01205172
5942.00   1.52798617   0.01208024
5944.00   1.52027154   0.01203540
5946.00   1.54907990   0.01188208
5948.00   1.57831669   0.01170699
5950.00   1.56456554   0.01159983
5952.00   1.51824832   0.01152277
5954.00   1.50551450   0.01147646
5956.00   1.51365912   0.01149017
5958.00   1.51525629   0.01147415
5960.00   1.51387215   0.01143993
5962.00   1.51087654   0.01139203
5964.00   1.50531602   0.01128735
5966.00   1.49750292   0.01113596
5968.00   1.49329102   0.01129555
5970.00   1.48915207   0.01186192
5972.00   1.49003637   0.01208687
5974.00   1.49812841   0.01215617
5976.00   1.50483859   0.01207091
5978.00   1.50955307   0.01168912
5980.00   1.51133776   0.01114019
5982.00   1.49502873   0.01118929
5984.00   1.45288587   0.01190573
5986.00   1.43059289   0.01208385
5988.00   1.42609870   0.01207440
5990.00   1.40759468   0.01192821
5992.00   1.36392081   0.01156723
5994.00   1.30991018   0.01110366
5996.00   1.26484394   0.01086125
5998.00   1.20410216   0.01070725
6000.00   1.20491540   0.01071924
6002.00   1.26403761   0.01094258
6004.00   1.32078052   0.01117039
6006.00   1.38356018   0.01149668
6008.00   1.44080317   0.01174444
6010.00   1.46688247   0.01164567
6012.00   1.46889210   0.01125701
6014.00   1.47587800   0.01098703
6016.00   1.47376919   0.01063133
6018.00   1.47699571   0.01040750
6020.00   1.48550868   0.01024681
6022.00   1.49461138   0.01025731
6024.00   1.50089300   0.01062209
6026.00   1.50584149   0.01125200
6028.00   1.51474524   0.01135272
6030.00   1.53427196   0.01099480
6032.00   1.53695107   0.01087100
6034.00   1.52484035   0.01081822
6036.00   1.50851405   0.01086352
6038.00   1.48665440   0.01112726
6040.00   1.46245456   0.01147957
6042.00   1.46690667   0.01135290
6044.00   1.50395226   0.01065579
6046.00   1.52223480   0.01034982
6048.00   1.54031146   0.01016143
6050.00   1.54871798   0.01010563
6052.00   1.53984761   0.01015792
6054.00   1.52476990   0.01036022
6056.00   1.52748692   0.01085981
6058.00   1.54649520   0.01191740
6060.00   1.54724741   0.01195408
6062.00   1.53205395   0.01105800
6064.00   1.52529240   0.01040278
6066.00   1.52948451   0.01010600
6068.00   1.53783393   0.00995904
6070.00   1.54609406   0.00985810
6072.00   1.55858362   0.00984655
6074.00   1.55816424   0.00996398
6076.00   1.54634964   0.01040406
6078.00   1.53551435   0.01051105
6080.00   1.52318621   0.01024416
6082.00   1.51120591   0.00990996
6084.00   1.49973583   0.00969047
6086.00   1.48783565   0.00948190
6088.00   1.49342465   0.00967659
6090.00   1.52726519   0.01035107
6092.00   1.53494978   0.01075497
6094.00   1.51412070   0.01102864
6096.00   1.50096107   0.01127283
6098.00   1.51916242   0.01152743
6100.00   1.55116785   0.01176635
6102.00   1.54610956   0.01194356
6104.00   1.50623894   0.01205835
6106.00   1.48576641   0.01218021
6108.00   1.46061099   0.01234889
6110.00   1.45385480   0.01240237
6112.00   1.48096538   0.01224638
6114.00   1.52090669   0.01200407
6116.00   1.52905893   0.01195197
6118.00   1.51381874   0.01213277
6120.00   1.51311672   0.01191570
6122.00   1.51032948   0.01105910
6124.00   1.51997149   0.01076770
6126.00   1.55352783   0.01148711
6128.00   1.58755279   0.01228952
6130.00   1.58800328   0.01222055
6132.00   1.56138015   0.01158075
6134.00   1.55940175   0.01114138
6136.00   1.56894636   0.01043944
6138.00   1.57930708   0.01010457
6140.00   1.59635293   0.01009564
6142.00   1.60980499   0.01039864
6144.00   1.60790098   0.01119056
6146.00   1.59489119   0.01237689
6148.00   1.59541392   0.01244133
6150.00   1.60395181   0.01139717
6152.00   1.61147332   0.01092659
6154.00   1.62349319   0.01067880
6156.00   1.63093364   0.01073776
6158.00   1.62954462   0.01135611
6160.00   1.62176478   0.01225257
6162.00   1.60671210   0.01231017
6164.00   1.57080007   0.01173974
6166.00   1.56072843   0.01123655
6168.00   1.57430780   0.01035948
6170.00   1.58155501   0.00967680
6172.00   1.57007134   0.00944439
6174.00   1.55422771   0.00948066
6176.00   1.55933583   0.00954945
6178.00   1.58679128   0.00984789
6180.00   1.59035885   0.00992074
6182.00   1.57561314   0.00989239
6184.00   1.56733477   0.00981392
6186.00   1.57097614   0.00953476
6188.00   1.57517219   0.00933866
6190.00   1.56731761   0.00973510
6192.00   1.55196989   0.01060809
6194.00   1.53373086   0.01105384
6196.00   1.49264646   0.01163043
6198.00   1.48518562   0.01159454
6200.00   1.52395058   0.01056205
6202.00   1.56542611   0.00946602
6204.00   1.57470524   0.00949162
6206.00   1.56777990   0.01022685
6208.00   1.55368185   0.01030248
6210.00   1.50872779   0.01003340
6212.00   1.49906099   0.00991195
6214.00   1.52416146   0.00984458
6216.00   1.55148339   0.00981923
6218.00   1.56636345   0.00986722
6220.00   1.57716584   0.00996215
6222.00   1.58317196   0.00992899
6224.00   1.58576965   0.00979044
6226.00   1.58117139   0.00967601
6228.00   1.56332850   0.00946727
6230.00   1.55143321   0.00938517
6232.00   1.55290663   0.00956035
6234.00   1.55990207   0.00983334
6236.00   1.56038642   0.00988945
6238.00   1.55972421   0.00979700
6240.00   1.55479622   0.00978019
6242.00   1.54143727   0.00981076
6244.00   1.53438556   0.00977367
6246.00   1.53576887   0.00956118
6248.00   1.54135811   0.00937478
6250.00   1.54743218   0.00952862
6252.00   1.55524731   0.00989905
6254.00   1.56654263   0.01038022
6256.00   1.59203923   0.01140344
6258.00   1.59744477   0.01167078
6260.00   1.58060348   0.01107157
6262.00   1.55473948   0.01021692
6264.00   1.52703071   0.00963069
6266.00   1.49227977   0.00905304
6268.00   1.47452176   0.00886050
6270.00   1.47534382   0.00920313
6272.00   1.46401691   0.00928774
6274.00   1.44099259   0.00922123
6276.00   1.42020643   0.00913547
6278.00   1.40568554   0.00903533
6280.00   1.39575183   0.00892827
6282.00   1.40736866   0.00913389
6284.00   1.45296741   0.00977863
6286.00   1.47107232   0.01000194
6288.00   1.47136903   0.00990243
6290.00   1.47258615   0.00988987
6292.00   1.48266375   0.01004236
6294.00   1.49334252   0.01031191
6296.00   1.48939812   0.01082422
6298.00   1.46620560   0.01180648
6300.00   1.46478784   0.01203268
6302.00   1.47553718   0.01173063
6304.00   1.49033487   0.01140940
6306.00   1.51397884   0.01110938
6308.00   1.53737140   0.01075607
6310.00   1.54232562   0.01033315
6312.00   1.53184986   0.00979075
6314.00   1.53141522   0.00938134
6316.00   1.53985238   0.00897997
6318.00   1.53624654   0.00875903
6320.00   1.51838326   0.00880707
6322.00   1.49582112   0.00892260
6324.00   1.47423089   0.00892145
6326.00   1.44936430   0.00888362
6328.00   1.44024694   0.00887599
6330.00   1.44730473   0.00882158
6332.00   1.44904733   0.00889428
6334.00   1.44703341   0.00916011
6336.00   1.44749033   0.00936362
6338.00   1.45521116   0.00937677
6340.00   1.46724820   0.00927526
6342.00   1.47042537   0.00908430
6344.00   1.46705067   0.00846713
6346.00   1.46487606   0.00847893
6348.00   1.46161079   0.00918682
6350.00   1.45788920   0.00963479
6352.00   1.45417392   0.00948262
6354.00   1.44995606   0.00910088
6356.00   1.44390738   0.00918668
6358.00   1.43421388   0.00958132
6360.00   1.42978668   0.00986377
6362.00   1.43103075   0.01032075
6364.00   1.42911685   0.01049058
6366.00   1.41743481   0.01024956
6368.00   1.40795195   0.00982412
6370.00   1.42120421   0.00950058
6372.00   1.45582426   0.00904300
6374.00   1.47359335   0.00909060
6376.00   1.48334789   0.00986626
6378.00   1.49483109   0.01006610
6380.00   1.51096117   0.00958467
6382.00   1.52341211   0.00893600
6384.00   1.52278435   0.00859756
6386.00   1.51135361   0.00836718
6388.00   1.51068640   0.00831876
6390.00   1.51268184   0.00860632
6392.00   1.52034736   0.00867969
6394.00   1.54037476   0.00855631
6396.00   1.55510283   0.00844575
6398.00   1.55176330   0.00843698
6400.00   1.53749537   0.00848523
6402.00   1.53109908   0.00873824
6404.00   1.52666020   0.00943994
6406.00   1.52194977   0.00955048
6408.00   1.51607168   0.00916584
6410.00   1.51293147   0.00877412
6412.00   1.51380944   0.00853071
6414.00   1.51772118   0.00834068
6416.00   1.52419460   0.00824283
6418.00   1.53490710   0.00820930
6420.00   1.54421353   0.00830821
6422.00   1.55909002   0.00859198
6424.00   1.56457090   0.00883513
6426.00   1.55500925   0.00896986
6428.00   1.53995037   0.00911965
6430.00   1.53301549   0.00949394
6432.00   1.52911413   0.01019730
6434.00   1.52594948   0.01013139
6436.00   1.51839125   0.00926371
6438.00   1.52399576   0.00867295
6440.00   1.55162060   0.00836474
6442.00   1.57903278   0.00824998
6444.00   1.58291399   0.00840563
6446.00   1.57184994   0.00886488
6448.00   1.56497991   0.00886628
6450.00   1.54968238   0.00846142
6452.00   1.54582572   0.00828160
6454.00   1.55475855   0.00826722
6456.00   1.56478906   0.00831699
6458.00   1.56995070   0.00841530
6460.00   1.57339406   0.00856746
6462.00   1.57119143   0.00857928
6464.00   1.56283903   0.00846872
6466.00   1.55450892   0.00840196
6468.00   1.54546404   0.00833380
6470.00   1.53354204   0.00827293
6472.00   1.51243281   0.00821053
6474.00   1.48989296   0.00816060
6476.00   1.49452794   0.00818870
6478.00   1.52564609   0.00828628
6480.00   1.54668570   0.00839251
6482.00   1.57415712   0.00854134
6484.00   1.59240806   0.00868370
6486.00   1.59420407   0.00880466
6488.00   1.59139895   0.00892893
6490.00   1.60364282   0.00909318
6492.00   1.62907863   0.00930234
6494.00   1.63724029   0.00944756
6496.00   1.63810837   0.00949588
6498.00   1.63037372   0.00965397
6500.00   1.60807836   0.01010131
6502.00   1.58409750   0.01040190
6504.00   1.57254076   0.01005088
6506.00   1.56711257   0.00910577
6508.00   1.56764340   0.00866205
6510.00   1.57910776   0.00846420
6512.00   1.58607066   0.00830153
6514.00   1.59158266   0.00821495
6516.00   1.59454513   0.00820799
6518.00   1.59204459   0.00828773
6520.00   1.58550620   0.00844899
6522.00   1.58772349   0.00858033
6524.00   1.60262561   0.00883580
6526.00   1.60275221   0.00883476
6528.00   1.58789480   0.00852835
6530.00   1.57627463   0.00828208
6532.00   1.57527041   0.00827570
6534.00   1.57920074   0.00837401
6536.00   1.58125949   0.00836527
6538.00   1.58244860   0.00820487
6540.00   1.58820939   0.00833414
6542.00   1.60208464   0.00874410
6544.00   1.60958147   0.00905618
6546.00   1.60575151   0.00928850
6548.00   1.59802997   0.00940567
6550.00   1.59691548   0.00917413
6552.00   1.59791994   0.00841919
6554.00   1.60247231   0.00832367
6556.00   1.61333263   0.00882117
6558.00   1.62097549   0.00905189
6560.00   1.62643158   0.00902456
6562.00   1.62884355   0.00887515
6564.00   1.62526035   0.00863066
6566.00   1.61569667   0.00821686
6568.00   1.61091840   0.00804895
6570.00   1.60901630   0.00803783
6572.00   1.60495389   0.00807286
6574.00   1.59689975   0.00816833
6576.00   1.59111857   0.00832887
6578.00   1.59287262   0.00860036
6580.00   1.59963703   0.00895500
6582.00   1.60150552   0.00901470
6584.00   1.59814107   0.00884348
6586.00   1.60181963   0.00867903
6588.00   1.61506772   0.00834664
6590.00   1.62368035   0.00813778
6592.00   1.62051821   0.00824397
6594.00   1.61130905   0.00850717
6596.00   1.60705864   0.00857725
6598.00   1.60818112   0.00857070
6600.00   1.59898162   0.00854052
6602.00   1.58114529   0.00835223
6604.00   1.56299400   0.00833462
6606.00   1.54492939   0.00868843
6608.00   1.52707946   0.00908468
6610.00   1.51169562   0.00896907
6612.00   1.49223125   0.00832959
6614.00   1.49524987   0.00821684
6616.00   1.51909280   0.00844308
6618.00   1.54426157   0.00863297
6620.00   1.57785535   0.00886208
6622.00   1.60743368   0.00901933
6624.00   1.61214590   0.00889219
6626.00   1.59557414   0.00849577
6628.00   1.60096443   0.00838247
6630.00   1.62092614   0.00839149
6632.00   1.63464332   0.00848443
6634.00   1.64566374   0.00872246
6636.00   1.65310419   0.00896242
6638.00   1.65442955   0.00916149
6640.00   1.65069449   0.00935481
6642.00   1.65012312   0.00912587
6644.00   1.65096843   0.00819535
6646.00   1.64972734   0.00781887
6648.00   1.64618444   0.00792755
6650.00   1.64300048   0.00807140
6652.00   1.64309442   0.00807286
6654.00   1.64367354   0.00805509
6656.00   1.63403928   0.00812676
6658.00   1.61046910   0.00835959
6660.00   1.59929347   0.00836253
6662.00   1.59756076   0.00813719
6664.00   1.59181726   0.00799887
6666.00   1.58014536   0.00804298
6668.00   1.56421232   0.00815559
6670.00   1.54219544   0.00821179
6672.00   1.51178610   0.00831169
6674.00   1.48675406   0.00822451
6676.00   1.45543540   0.00786873
6678.00   1.43961442   0.00767435
6680.00   1.44314110   0.00770011
6682.00   1.45609069   0.00780944
6684.00   1.46941721   0.00789440
6686.00   1.48814523   0.00800798
6688.00   1.50419819   0.00809794
6690.00   1.51839769   0.00820043
6692.00   1.53630996   0.00825704
6694.00   1.55985892   0.00827283
6696.00   1.58269048   0.00825798
6698.00   1.60207069   0.00819582
6700.00   1.61991274   0.00808669
6702.00   1.62123239   0.00811591
6704.00   1.60161948   0.00829759
6706.00   1.59198153   0.00837703
6708.00   1.58593941   0.00840348
6710.00   1.58191657   0.00840283
6712.00   1.58066809   0.00836667
6714.00   1.58126819   0.00830695
6716.00   1.57784271   0.00831527
6718.00   1.56819272   0.00838954
6720.00   1.56697917   0.00842398
6722.00   1.57011974   0.00847187
6724.00   1.57693684   0.00847285
6726.00   1.58977997   0.00838194
6728.00   1.60475004   0.00826273
6730.00   1.61211300   0.00825827
6732.00   1.61568296   0.00837590
6734.00   1.61539912   0.00833919
6736.00   1.60826218   0.00815778
6738.00   1.60310936   0.00804794
6740.00   1.60021377   0.00803556
6742.00   1.59837198   0.00805888
6744.00   1.59797645   0.00807624
6746.00   1.60026157   0.00812240
6748.00   1.59552956   0.00807996
6750.00   1.58298910   0.00786260
6752.00   1.57473540   0.00784932
6754.00   1.56800115   0.00811768
6756.00   1.56536531   0.00836212
6758.00   1.57049406   0.00836568
6760.00   1.58200943   0.00823147
6762.00   1.59098518   0.00813339
6764.00   1.60603571   0.00791254
6766.00   1.60912573   0.00788715
6768.00   1.60083127   0.00807093
6770.00   1.58975244   0.00825136
6772.00   1.57772589   0.00837090
6774.00   1.56431973   0.00845687
6776.00   1.55945623   0.00836557
6778.00   1.56360674   0.00798958
6780.00   1.56310999   0.00784494
6782.00   1.56139147   0.00781940
6784.00   1.55990112   0.00782990
6786.00   1.55840766   0.00788638
6788.00   1.55747700   0.00796053
6790.00   1.55941927   0.00794073
6792.00   1.56504476   0.00784250
6794.00   1.56703830   0.00778342
6796.00   1.56592035   0.00771341
6798.00   1.56671715   0.00767353
6800.00   1.56982851   0.00765789
6802.00   1.57419372   0.00767703
6804.00   1.58041883   0.00773797
6806.00   1.59130824   0.00780227
6808.00   1.58679855   0.00809079
6810.00   1.56697869   0.00880888
6812.00   1.55137503   0.00903490
6814.00   1.53191519   0.00873483
6816.00   1.52131498   0.00831018
6818.00   1.53650796   0.00803143
6820.00   1.57212603   0.00775240
6822.00   1.57823157   0.00784065
6824.00   1.56205714   0.00837214
6826.00   1.55466926   0.00866740
6828.00   1.55282211   0.00893382
6830.00   1.54803824   0.00904355
6832.00   1.53405416   0.00887043
6834.00   1.51554763   0.00850125
6836.00   1.51007271   0.00831701
6838.00   1.51060629   0.00822261
6840.00   1.51959920   0.00809790
6842.00   1.54540741   0.00797786
6844.00   1.56338215   0.00786113
6846.00   1.56535828   0.00770959
6848.00   1.56010377   0.00758103
6850.00   1.55876589   0.00763706
6852.00   1.55482435   0.00779608
6854.00   1.55758333   0.00812519
6856.00   1.57195330   0.00861866
6858.00   1.57545412   0.00915588
6860.00   1.56009197   0.00989986
6862.00   1.54220653   0.01050484
6864.00   1.54429674   0.01048243
6866.00   1.56346631   0.00991474
6868.00   1.55872154   0.00968521
6870.00   1.52973843   0.00942346
6872.00   1.51761079   0.00941736
6874.00   1.52192020   0.00989846
6876.00   1.53249884   0.01024756
6878.00   1.54665709   0.00991406
6880.00   1.56783259   0.00906267
6882.00   1.56314266   0.00860856
6884.00   1.52783227   0.00826157
6886.00   1.51261139   0.00804565
6888.00   1.50932443   0.00803063
6890.00   1.51228023   0.00806699
6892.00   1.52119946   0.00806451
6894.00   1.53578758   0.00807961
6896.00   1.54621637   0.00821144
6898.00   1.56184244   0.00858997
6900.00   1.56306970   0.00864279
6902.00   1.54763830   0.00840087
6904.00   1.53639579   0.00821915
6906.00   1.53454864   0.00822069
6908.00   1.53773689   0.00829157
6910.00   1.54533172   0.00830494
6912.00   1.56221092   0.00832449
6914.00   1.56953859   0.00828871
6916.00   1.57403803   0.00817151
6918.00   1.57286561   0.00809969
6920.00   1.56102562   0.00810612
6922.00   1.54814124   0.00812865
6924.00   1.54950559   0.00808010
6926.00   1.56130898   0.00794680
6928.00   1.56826198   0.00802155
6930.00   1.57676125   0.00831613
6932.00   1.58216596   0.00849543
6934.00   1.58566105   0.00857745
6936.00   1.58575320   0.00861936
6938.00   1.57967353   0.00860159
6940.00   1.56789851   0.00849753
6942.00   1.56146157   0.00878129
6944.00   1.55500996   0.00966537
6946.00   1.55383551   0.00986591
6948.00   1.56090117   0.00946012
6950.00   1.56624258   0.00894729
6952.00   1.56339526   0.00856192
6954.00   1.55633223   0.00818194
6956.00   1.55449533   0.00799512
6958.00   1.55612862   0.00800571
6960.00   1.55592370   0.00802826
6962.00   1.55482650   0.00815469
6964.00   1.55417347   0.00827095
6966.00   1.55556476   0.00836180
6968.00   1.55690825   0.00843139
6970.00   1.55190921   0.00842048
6972.00   1.53483415   0.00832307
6974.00   1.53784251   0.00825150
6976.00   1.55804372   0.00815521
6978.00   1.57574010   0.00808034
6980.00   1.58931935   0.00790032
6982.00   1.60170138   0.00785503
6984.00   1.61460018   0.00844341
6986.00   1.63161874   0.00967030
6988.00   1.62822270   0.00979568
6990.00   1.60094535   0.00904708
6992.00   1.58387434   0.00851788
6994.00   1.57372987   0.00810206
6996.00   1.57003176   0.00785078
6998.00   1.57787001   0.00798360
7000.00   1.59739292   0.00844725
7002.00   1.59866166   0.00859283
7004.00   1.57876909   0.00864225
7006.00   1.57868528   0.00860496
7008.00   1.59926105   0.00842447
7010.00   1.61909688   0.00822852
7012.00   1.62645614   0.00808850
7014.00   1.62799561   0.00796766
7016.00   1.63109660   0.00789198
7018.00   1.63335359   0.00785223
7020.00   1.63411200   0.00785449
7022.00   1.63325882   0.00794155
7024.00   1.63156056   0.00799431
7026.00   1.62907302   0.00796471
7028.00   1.62585652   0.00789927
7030.00   1.62255931   0.00787329
7032.00   1.61775100   0.00786005
7034.00   1.61601329   0.00785389
7036.00   1.61624777   0.00783050
7038.00   1.61763728   0.00786422
7040.00   1.62172997   0.00800171
7042.00   1.62563741   0.00815415
7044.00   1.62341928   0.00819075
7046.00   1.61471081   0.00815408
7048.00   1.61479521   0.00811502
7050.00   1.62065768   0.00801838
7052.00   1.62682652   0.00796124
7054.00   1.63614762   0.00792796
7056.00   1.64352906   0.00793463
7058.00   1.64253867   0.00796282
7060.00   1.63522387   0.00797641
7062.00   1.63131249   0.00843990
7064.00   1.63102949   0.00968272
7066.00   1.62344348   0.00996832
7068.00   1.60319340   0.00935676
7070.00   1.58828092   0.00859472
7072.00   1.59147608   0.00812805
7074.00   1.60558462   0.00774503
7076.00   1.61119556   0.00761220
7078.00   1.61496580   0.00787030
7080.00   1.61739278   0.00791698
7082.00   1.61534131   0.00780248
7084.00   1.61679161   0.00781206
7086.00   1.62739527   0.00812435
7088.00   1.64103150   0.00852903
7090.00   1.64184821   0.00857775
7092.00   1.63261855   0.00836401
7094.00   1.62527955   0.00820009
7096.00   1.61415410   0.00780263
7098.00   1.60515404   0.00769488
7100.00   1.59587216   0.00812873
7102.00   1.59094167   0.00865171
7104.00   1.60180962   0.00867086
7106.00   1.62982666   0.00832120
7108.00   1.64348495   0.00822952
7110.00   1.65193605   0.00819195
7112.00   1.65747058   0.00823799
7114.00   1.66045213   0.00846699
7116.00   1.65967667   0.00865104
7118.00   1.65376008   0.00853638
7120.00   1.64291632   0.00819202
7122.00   1.63121235   0.00801839
7124.00   1.61194277   0.00787132
7126.00   1.60201550   0.00780171
7128.00   1.60432363   0.00763879
7130.00   1.60463774   0.00778117
7132.00   1.59036851   0.00865872
7134.00   1.56835055   0.00987491
7136.00   1.57187378   0.01001137
7138.00   1.60256183   0.00916423
7140.00   1.61677265   0.00883466
7142.00   1.62500644   0.00864997
7144.00   1.62872159   0.00864950
7146.00   1.62452352   0.00898470
7148.00   1.61695266   0.00944735
7150.00   1.62422478   0.00940901
7152.00   1.64661896   0.00893869
7154.00   1.65810490   0.00864255
7156.00   1.66859269   0.00820831
7158.00   1.67214763   0.00799848
7160.00   1.66370618   0.00819678
7162.00   1.65192640   0.00851929
7164.00   1.65223897   0.00855408
7166.00   1.66077304   0.00841716
7168.00   1.66564524   0.00838606
7170.00   1.67276621   0.00824640
7172.00   1.67560327   0.00837982
7174.00   1.67513239   0.00897403
7176.00   1.67032993   0.00950514
7178.00   1.65915549   0.00948946
7180.00   1.64222658   0.00909886
7182.00   1.62223792   0.00889295
7184.00   1.58708131   0.00863836
7186.00   1.57199299   0.00849051
7188.00   1.58015358   0.00840640
7190.00   1.58964455   0.00843999
7192.00   1.58498168   0.00869095
7194.00   1.57412696   0.00909408
7196.00   1.57824755   0.00918432
7198.00   1.59774315   0.00910304
7200.00   1.60717630   0.00894285
7202.00   1.61175323   0.00845521
7204.00   1.61428857   0.00820145
7206.00   1.61633205   0.00854798
7208.00   1.61639917   0.00914575
7210.00   1.61061370   0.00930845
7212.00   1.60375130   0.00933155
7214.00   1.58375013   0.00913015
7216.00   1.54485476   0.00850915
7218.00   1.51333439   0.00801265
7220.00   1.49204648   0.00775512
7222.00   1.47807312   0.00765389
7224.00   1.47446501   0.00771464
7226.00   1.48338008   0.00798649
7228.00   1.48833168   0.00820343
7230.00   1.49085104   0.00839199
7232.00   1.50168478   0.00870966
7234.00   1.52846253   0.00920178
7236.00   1.55363727   0.00970700
7238.00   1.55854607   0.01010365
7240.00   1.55193532   0.01047786
7242.00   1.52982473   0.01065174
7244.00   1.47356856   0.01056447
7246.00   1.44553602   0.01062427
7248.00   1.44332588   0.01093966
7250.00   1.44872844   0.01108849
7252.00   1.45422077   0.01076045
7254.00   1.46394980   0.01007860
7256.00   1.46011007   0.00947874
7258.00   1.44138551   0.00858570
7260.00   1.43219137   0.00805810
7262.00   1.42175853   0.00781101
7264.00   1.42282593   0.00781537
7266.00   1.44754577   0.00804765
7268.00   1.48404956   0.00850848
7270.00   1.49328637   0.00921829
7272.00   1.48433065   0.01053214
7274.00   1.47582138   0.01091810
7276.00   1.45683193   0.01059323
7278.00   1.44237208   0.01044215
7280.00   1.43331206   0.01068675
7282.00   1.42959595   0.01103604
7284.00   1.43734419   0.01124322
7286.00   1.46015787   0.01158750
7288.00   1.46958005   0.01123091
7290.00   1.47008073   0.00990533
7292.00   1.47460842   0.00891116
7294.00   1.48553622   0.00835929
7296.00   1.49640334   0.00814463
7298.00   1.50117171   0.00836484
7300.00   1.50270236   0.00908433
7302.00   1.49932349   0.00928490
7304.00   1.48513651   0.00923464
7306.00   1.48020053   0.00919398
7308.00   1.48609304   0.00905633
7310.00   1.49184787   0.00897708
7312.00   1.48988247   0.00912925
7314.00   1.48387229   0.00942896
7316.00   1.47990572   0.00948262
7318.00   1.47480643   0.00941746
7320.00   1.47211111   0.00927059
7322.00   1.47295678   0.00893593
7324.00   1.47227132   0.00864322
7326.00   1.46528709   0.00847348
7328.00   1.45644987   0.00839652
7330.00   1.46150386   0.00853729
7332.00   1.48103356   0.00893206
7334.00   1.49310815   0.00925696
7336.00   1.50714099   0.00974491
7338.00   1.51505780   0.01000272
7340.00   1.51273179   0.00993684
7342.00   1.50615263   0.00969000
7344.00   1.50578809   0.00943096
7346.00   1.50717795   0.00900186
7348.00   1.51186895   0.00877643
7350.00   1.52144480   0.00867768
7352.00   1.52983177   0.00862399
7354.00   1.53811491   0.00862149
7356.00   1.54466784   0.00866790
7358.00   1.54596996   0.00875697
7360.00   1.54238272   0.00890763
7362.00   1.54252243   0.00898717
7364.00   1.54528093   0.00901671
7366.00   1.54542959   0.00906790
7368.00   1.54144728   0.00916201
7370.00   1.53865719   0.00922429
7372.00   1.54174960   0.00919450
7374.00   1.54869854   0.00909947
7376.00   1.55084443   0.00902289
7378.00   1.54974341   0.00891639
7380.00   1.54994988   0.00884276
7382.00   1.55165613   0.00882555
7384.00   1.55171597   0.00876966
7386.00   1.54637444   0.00857985
7388.00   1.53910208   0.00833390
7390.00   1.54429793   0.00835901
7392.00   1.56726456   0.00861208
7394.00   1.57225621   0.00883261
7396.00   1.56883991   0.00916926
7398.00   1.55975688   0.00940911
7400.00   1.53963292   0.00955085
7402.00   1.51756442   0.00958775
7404.00   1.51763928   0.00939639
7406.00   1.53848410   0.00890827
7408.00   1.54445279   0.00857179
7410.00   1.54435277   0.00816657
7412.00   1.54458570   0.00794015
7414.00   1.54523861   0.00799726
7416.00   1.54564369   0.00813924
7418.00   1.54637861   0.00813709
7420.00   1.54825008   0.00807828
7422.00   1.54390883   0.00804249
7424.00   1.52833712   0.00794416
7426.00   1.52434671   0.00796772
7428.00   1.53275597   0.00814713
7430.00   1.54443264   0.00833871
7432.00   1.55460262   0.00845055
7434.00   1.56605625   0.00853144
7436.00   1.56891418   0.00856008
7438.00   1.55964756   0.00853458
7440.00   1.56052613   0.00848698
7442.00   1.56883812   0.00840054
7444.00   1.57898962   0.00829766
7446.00   1.58966362   0.00815284
7448.00   1.60132718   0.00799414
7450.00   1.60925889   0.00803847
7452.00   1.61359787   0.00832428
7454.00   1.61962616   0.00844936
7456.00   1.62709224   0.00855058
7458.00   1.63248098   0.00858076
7460.00   1.63569379   0.00846963
7462.00   1.63639832   0.00832037
7464.00   1.63168788   0.00839540
7466.00   1.61884427   0.00867217
7468.00   1.61442733   0.00879481
7470.00   1.61470771   0.00887257
7472.00   1.61572897   0.00891403
7474.00   1.61907971   0.00890419
7476.00   1.62182796   0.00887345
7478.00   1.61852181   0.00886555
7480.00   1.60984552   0.00886133
7482.00   1.60659862   0.00886460
7484.00   1.60758710   0.00889898
7486.00   1.60580862   0.00888809
7488.00   1.59852827   0.00881726
7490.00   1.59406662   0.00874162
7492.00   1.60000396   0.00869160
7494.00   1.61329222   0.00864707
7496.00   1.62266016   0.00871290
7498.00   1.63294554   0.00900860
7500.00   1.64085054   0.00902697
7502.00   1.64611113   0.00877483
7504.00   1.65117288   0.00850428
7506.00   1.65869308   0.00832311
7508.00   1.66653836   0.00817590
7510.00   1.66499186   0.00812901
7512.00   1.65035892   0.00815798
7514.00   1.64678776   0.00827284
7516.00   1.65125740   0.00849646
7518.00   1.65327740   0.00874327
7520.00   1.64994323   0.00901212
7522.00   1.64416075   0.00928887
7524.00   1.63851595   0.00950828
7526.00   1.63148892   0.00973358
7528.00   1.62527370   0.00982115
7530.00   1.61659002   0.00985749
7532.00   1.61300600   0.00973076
7534.00   1.61558139   0.00931643
7536.00   1.62197185   0.00882601
7538.00   1.63177013   0.00861958
7540.00   1.64961195   0.00859692
7542.00   1.64748597   0.00855208
7544.00   1.62698221   0.00859332
7546.00   1.61067307   0.00859475
7548.00   1.59335220   0.00856693
7550.00   1.58062243   0.00852026
7552.00   1.57859051   0.00844905
7554.00   1.58423185   0.00835131
7556.00   1.59926319   0.00828830
7558.00   1.62590265   0.00797745
7560.00   1.65518212   0.00825976
7562.00   1.69884586   0.00905687
7564.00   1.73211265   0.00995175
7566.00   1.74219000   0.01099985
7568.00   1.73662341   0.01206499
7570.00   1.71909773   0.01203154
7572.00   1.66931319   0.01070601
7574.00   1.65086901   0.01009243
7576.00   1.65117192   0.00972680
7578.00   1.65633893   0.00947428
7580.00   1.66601372   0.00930808
7582.00   1.67853487   0.00926270
7584.00   1.68113613   0.00934014
7586.00   1.67287743   0.00951237
7588.00   1.67749763   0.00987299
7590.00   1.69333458   0.01042759
7592.00   1.70430768   0.01100202
7594.00   1.70720851   0.01149718
7596.00   1.70846677   0.01210284
7598.00   1.71708059   0.01307795
7600.00   1.73600960   0.01435343
7602.00   1.72504461   0.01525231
7604.00   1.68491161   0.01635425
7606.00   1.65244067   0.01668050
7608.00   1.61906064   0.01613988
7610.00   1.59468293   0.01524299
7612.00   1.59229112   0.01436877
7614.00   1.60682201   0.01326262
7616.00   1.62396765   0.01240504
7618.00   1.65521622   0.01155672
7620.00   1.67918694   0.01107659
7622.00   1.70626938   0.01106274
7624.00   1.72124577   0.01122705
7626.00   1.70918393   0.01143284
7628.00   1.68013668   0.01174681
7630.00   1.67796493   0.01209322
7632.00   1.69559216   0.01262715
7634.00   1.70469952   0.01289588
7636.00   1.72272480   0.01323057
7638.00   1.72351110   0.01310783
7640.00   1.69143438   0.01207046
7642.00   1.64462721   0.01049425
7644.00   1.62256670   0.00991222
7646.00   1.60891747   0.01011225
7648.00   1.60899961   0.01015627
7650.00   1.62500072   0.01056651
7652.00   1.64600456   0.01065531
7654.00   1.67658162   0.01018418
7656.00   1.70805371   0.00957932
7658.00   1.72294712   0.00953102
7660.00   1.72539675   0.00988654
7662.00   1.73314798   0.00998052
7664.00   1.74371660   0.01010505
7666.00   1.74755466   0.01002184
7668.00   1.74284267   0.00958357
7670.00   1.73579824   0.00913810
7672.00   1.73227692   0.00909935
7674.00   1.73021126   0.00933634
7676.00   1.72166419   0.00927475
7678.00   1.70423234   0.00892426
7680.00   1.69398284   0.00885263
7682.00   1.68973446   0.00904440
7684.00   1.68677962   0.00927477
7686.00   1.68336105   0.00948808
7688.00   1.68037736   0.00970603
7690.00   1.67508912   0.00962686
7692.00   1.66860783   0.00912984
7694.00   1.66045189   0.00894778
7696.00   1.64874768   0.00893949
7698.00   1.63884962   0.00898776
7700.00   1.62921429   0.00904827
7702.00   1.62298620   0.00916193
7704.00   1.63477659   0.00938798
7706.00   1.66931689   0.00969549
7708.00   1.68689394   0.01008012
7710.00   1.70044637   0.01066754
7712.00   1.70732105   0.01106308
7714.00   1.70800233   0.01123405
7716.00   1.70153105   0.01128096
7718.00   1.68462801   0.01127055
7720.00   1.65495241   0.01116546
7722.00   1.63274217   0.01102058
7724.00   1.60206175   0.01083836
7726.00   1.59169066   0.01054724
7728.00   1.60954797   0.01001674
7730.00   1.63233578   0.00950715
7732.00   1.63997912   0.00936530
7734.00   1.64219761   0.00950105
7736.00   1.63357365   0.00941331
7738.00   1.60390139   0.00912968
7740.00   1.59121144   0.00908148
7742.00   1.59430707   0.00909519
7744.00   1.59890878   0.00940450
7746.00   1.59560573   0.01020179
7748.00   1.58976626   0.01126998
7750.00   1.59770870   0.01203919
7752.00   1.62254548   0.01312006
7754.00   1.63500249   0.01325295
7756.00   1.64087081   0.01242041
7758.00   1.64501774   0.01157480
7760.00   1.64927948   0.01107596
7762.00   1.65199769   0.01069745
7764.00   1.65071869   0.01037192
7766.00   1.64764416   0.01022783
7768.00   1.63792145   0.00992038
7770.00   1.61470151   0.00941261
7772.00   1.60158753   0.00907585
7774.00   1.60335147   0.00899571
7776.00   1.61226559   0.00907663
7778.00   1.62065053   0.00922296
7780.00   1.63218188   0.00942417
7782.00   1.64395595   0.00990082
7784.00   1.67214334   0.01096970
7786.00   1.67091918   0.01134245
7788.00   1.62920618   0.01088767
7790.00   1.57946575   0.01022882
7792.00   1.55146956   0.00997859
7794.00   1.53219771   0.00988391
7796.00   1.51668477   0.00991533
7798.00   1.50900209   0.01018530
7800.00   1.50148141   0.01036391
7802.00   1.49150872   0.01060525
7804.00   1.48872042   0.01068270
7806.00   1.50026071   0.01036674
7808.00   1.52225661   0.00975701
7810.00   1.54302847   0.00951484
7812.00   1.57832575   0.00931638
7814.00   1.58964050   0.00952762
7816.00   1.57588613   0.01017434
7818.00   1.56576204   0.01084957
7820.00   1.57085073   0.01165226
7822.00   1.58143187   0.01237587
7824.00   1.58436120   0.01208865
7826.00   1.59127736   0.01050125
7828.00   1.57722938   0.00972871
7830.00   1.53428674   0.00917954
7832.00   1.50599885   0.00893681
7834.00   1.49851489   0.00910793
7836.00   1.50341749   0.00953379
7838.00   1.51820648   0.00998417
7840.00   1.54898965   0.01070885
7842.00   1.56985581   0.01081096
7844.00   1.59622276   0.01013701
7846.00   1.60628700   0.01003265
7848.00   1.58886874   0.01070670
7850.00   1.57141042   0.01146077
7852.00   1.58374834   0.01182043
7854.00   1.61540926   0.01205789
7856.00   1.63961434   0.01192720
7858.00   1.67785990   0.01118786
7860.00   1.69028556   0.01079864
7862.00   1.67654371   0.01075112
7864.00   1.65375376   0.01073817
7866.00   1.62990272   0.01056027
7868.00   1.60076094   0.01031614
7870.00   1.57749987   0.01027925
7872.00   1.55229187   0.01054462
7874.00   1.53811252   0.01049550
7876.00   1.53653717   0.01012816
7878.00   1.53500724   0.00983672
7880.00   1.52923739   0.00981690
7882.00   1.52219367   0.00991870
7884.00   1.51448548   0.00988761
7886.00   1.50405788   0.00958723
7888.00   1.49753213   0.00984907
7890.00   1.48736393   0.01075653
7892.00   1.48918402   0.01126630
7894.00   1.50900948   0.01122090
7896.00   1.53750157   0.01092651
7898.00   1.56104946   0.01068295
7900.00   1.58668256   0.01030485
7902.00   1.60665226   0.01007903
7904.00   1.62820947   0.00970219
7906.00   1.63697982   0.00983088
7908.00   1.62666214   0.01052387
7910.00   1.61258543   0.01145401
7912.00   1.61142027   0.01251850
7914.00   1.61693680   0.01388540
7916.00   1.61917341   0.01405322
7918.00   1.61984670   0.01316337
7920.00   1.62379181   0.01246372
7922.00   1.63409150   0.01168395
7924.00   1.64153850   0.01096771
7926.00   1.63728893   0.01053488
7928.00   1.62556088   0.01031727
7930.00   1.62938976   0.01008719
7932.00   1.64879334   0.00994433
7934.00   1.65766442   0.00984464
7936.00   1.66225481   0.00985179
7938.00   1.66269362   0.00983446
7940.00   1.65784967   0.00969481
7942.00   1.64898515   0.00952082
7944.00   1.64123344   0.00958479
7946.00   1.63543379   0.01000344
7948.00   1.62192214   0.00999722
7950.00   1.59099293   0.00952108
7952.00   1.57779300   0.00934217
7954.00   1.59410548   0.00964733
7956.00   1.62301648   0.01019167
7958.00   1.64305031   0.01081420
7960.00   1.67697918   0.01178787
7962.00   1.65728152   0.01197847
7964.00   1.57837582   0.01160823
7966.00   1.51897466   0.01116228
7968.00   1.47444117   0.01044624
7970.00   1.44482994   0.00974631
7972.00   1.44276321   0.00960533
7974.00   1.46712554   0.00987324
7976.00   1.48276973   0.01014899
7978.00   1.50239909   0.01083917
7980.00   1.52213538   0.01103264
7982.00   1.54003847   0.01058227
7984.00   1.56209767   0.01020020
7986.00   1.59465086   0.01048625
7988.00   1.63495481   0.01113562
7990.00   1.66391826   0.01143574
7992.00   1.69372368   0.01177522
7994.00   1.70604265   0.01172983
7996.00   1.70102167   0.01121604
7998.00   1.68940759   0.01067613
8000.00   1.67198443   0.01028900
8002.00   1.64984405   0.00996016
8004.00   1.64038825   0.00976897
8006.00   1.64893353   0.00970842
8008.00   1.63493812   0.00974031
8010.00   1.60522985   0.00996680
8012.00   1.57425261   0.01013026
8014.00   1.53868604   0.01015254
8016.00   1.50566101   0.01014479
8018.00   1.49829996   0.01026900
8020.00   1.51813972   0.01051419
8022.00   1.51628256   0.01062252
8024.00   1.50554478   0.01062582
8026.00   1.49279559   0.01067377
8028.00   1.47156000   0.01080061
8030.00   1.45441866   0.01091882
8032.00   1.45927453   0.01096548
8034.00   1.48039436   0.01101392
8036.00   1.50251377   0.01072733
8038.00   1.54102433   0.00993161
8040.00   1.56355345   0.00940276
8042.00   1.56833565   0.00893644
8044.00   1.57058394   0.00882959
8046.00   1.57989252   0.00949250
8048.00   1.59146333   0.01065260
8050.00   1.60564363   0.01108191
8052.00   1.63096058   0.01134453
8054.00   1.63933396   0.01117067
8056.00   1.62989008   0.01020096
8058.00   1.62131417   0.00939301
8060.00   1.62301445   0.00942534
8062.00   1.62816465   0.00987068
8064.00   1.62459719   0.00990541
8066.00   1.62038052   0.00978246
8068.00   1.60309911   0.00966888
8070.00   1.56431520   0.00943552
8072.00   1.53745615   0.00929545
8074.00   1.53471136   0.00931579
8076.00   1.54029953   0.00942137
8078.00   1.53007698   0.00953011
8080.00   1.51137435   0.00972751
8082.00   1.49360788   0.00976874
8084.00   1.46179652   0.00974561
8086.00   1.45134819   0.00961495
8088.00   1.47131836   0.00924727
8090.00   1.50058722   0.00888476
8092.00   1.51704681   0.00893046
8094.00   1.53133702   0.00931113
8096.00   1.53555822   0.00934718
8098.00   1.52647519   0.00914193
8100.00   1.52196217   0.00906188
8102.00   1.51760077   0.00907888
8104.00   1.51787984   0.00914561
8106.00   1.52755141   0.00925328
8108.00   1.54441285   0.00940754
8110.00   1.56543624   0.00953206
8112.00   1.59562194   0.00971153
8114.00   1.62212694   0.00975688
8116.00   1.65540290   0.00963498
8118.00   1.67607212   0.00953999
8120.00   1.67089176   0.00956225
8122.00   1.64983404   0.00964504
8124.00   1.64063573   0.00974992
8126.00   1.63842726   0.01005298
8128.00   1.62581897   0.01000064
8130.00   1.60534453   0.00951959
8132.00   1.58394301   0.00923220
8134.00   1.55992198   0.00939211
8136.00   1.53692853   0.00971077
8138.00   1.52750397   0.00978034
8140.00   1.52838004   0.00971218
8142.00   1.53263021   0.00972768
8144.00   1.54471779   0.00972692
8146.00   1.55783176   0.00980260
8148.00   1.57418835   0.01005808
8150.00   1.58977973   0.01027333
8152.00   1.59852302   0.01011768
8154.00   1.60449219   0.00958023
8156.00   1.59783840   0.00960650
8158.00   1.56341314   0.01014387
8160.00   1.55753565   0.01040830
8162.00   1.59086132   0.01048555
8164.00   1.62218511   0.01044970
8166.00   1.61475909   0.01023914
8168.00   1.58308351   0.00983458
8170.00   1.58894777   0.00995137
8172.00   1.62348306   0.01022727
8174.00   1.64785588   0.01100240
8176.00   1.67213678   0.01245704
8178.00   1.69193470   0.01362685
8180.00   1.70701826   0.01426633
8182.00   1.71664965   0.01462374
8184.00   1.70624697   0.01461133
8186.00   1.65729094   0.01376081
8188.00   1.64970541   0.01375881
8190.00   1.67974293   0.01440995
8192.00   1.69542336   0.01492118
8194.00   1.67570424   0.01526676
8196.00   1.64543545   0.01541386
8198.00   1.64669359   0.01484664
8200.00   1.67291212   0.01320276
8202.00   1.68349969   0.01246378
8204.00   1.70434451   0.01211006
8206.00   1.69636905   0.01213922
8208.00   1.64018607   0.01298848
8210.00   1.57530034   0.01373669
8212.00   1.55421019   0.01308566
8214.00   1.55936623   0.01102437
8216.00   1.56161666   0.01014579
8218.00   1.57122433   0.00985519
8220.00   1.58536279   0.00990147
8222.00   1.61139333   0.01050835
8224.00   1.63342297   0.01118975
8226.00   1.63600457   0.01165532
8228.00   1.62546206   0.01210045
8230.00   1.61864483   0.01190529
8232.00   1.61005986   0.01079884
8234.00   1.59911549   0.01020311
8236.00   1.57766473   0.00994204
8238.00   1.56645000   0.00985210
8240.00   1.57824159   0.00994344
8242.00   1.60479593   0.01018793
8244.00   1.62857139   0.01017257
8246.00   1.66296709   0.00994955
8248.00   1.68406701   0.00983722
8250.00   1.70276558   0.00975913
8252.00   1.70764410   0.00968439
8254.00   1.68744624   0.00958606
8256.00   1.65724897   0.00949974
8258.00   1.65418470   0.00950189
8260.00   1.66818070   0.00943765
8262.00   1.68228054   0.00981785
8264.00   1.70806921   0.01088301
8266.00   1.72702229   0.01134525
8268.00   1.73970759   0.01089758
8270.00   1.74538028   0.01026504
8272.00   1.73840165   0.01050111
8274.00   1.71868300   0.01129585
8276.00   1.70096648   0.01174598
8278.00   1.67519653   0.01189710
8280.00   1.65768397   0.01251732
8282.00   1.65680718   0.01378714
8284.00   1.64963949   0.01490235
8286.00   1.60946774   0.01540000
8288.00   1.54348922   0.01559464
8290.00   1.52654874   0.01524994
8292.00   1.54713690   0.01382520
8294.00   1.56182206   0.01312382
8296.00   1.58831131   0.01308079
8298.00   1.60422003   0.01315150
8300.00   1.59129035   0.01313364
8302.00   1.56135511   0.01313089
8304.00   1.55333936   0.01286449
8306.00   1.54572046   0.01221674
8308.00   1.56421316   0.01185407
8310.00   1.61426163   0.01158331
8312.00   1.66225338   0.01147318
8314.00   1.70301664   0.01169919
8316.00   1.73835790   0.01201494
8318.00   1.75282955   0.01173585
8320.00   1.74223697   0.01081692
8322.00   1.74672556   0.01034009
8324.00   1.76173985   0.01003350
8326.00   1.76533759   0.00980836
8328.00   1.75390446   0.00961209
8330.00   1.73427463   0.00955845
8332.00   1.71333587   0.00979300
8334.00   1.69006717   0.01020532
8336.00   1.65390396   0.01096213
8338.00   1.60681593   0.01200847
8340.00   1.55300856   0.01309971
8342.00   1.47794521   0.01460843
8344.00   1.41285694   0.01569181
8346.00   1.38942826   0.01563158
8348.00   1.39467895   0.01472313
8350.00   1.40671694   0.01414061
8352.00   1.43844211   0.01338358
8354.00   1.47205079   0.01275136
8356.00   1.51457775   0.01222627
8358.00   1.55715811   0.01174867
8360.00   1.59470701   0.01124774
8362.00   1.63002372   0.01077378
8364.00   1.66240859   0.01065297
8366.00   1.69093597   0.01106129
8368.00   1.71950638   0.01107836
8370.00   1.75528932   0.01083079
8372.00   1.77630019   0.01063789
8374.00   1.77214909   0.01056041
8376.00   1.75355446   0.01057815
8378.00   1.74040437   0.01084494
8380.00   1.71952379   0.01150335
8382.00   1.71294224   0.01170161
8384.00   1.71942270   0.01158037
8386.00   1.72345328   0.01151936
8388.00   1.73023689   0.01152488
8390.00   1.72977901   0.01159453
8392.00   1.70023656   0.01180457
8394.00   1.64642680   0.01209056
8396.00   1.59131145   0.01258773
8398.00   1.49869812   0.01365676
8400.00   1.45593989   0.01399054
8402.00   1.46908736   0.01354631
8404.00   1.50646639   0.01276227
8406.00   1.54887879   0.01185223
8408.00   1.60958278   0.01048857
8410.00   1.63962305   0.01036302
8412.00   1.64951205   0.01169955
8414.00   1.65747797   0.01213088
8416.00   1.65869820   0.01193773
8418.00   1.65667403   0.01165446
8420.00   1.65157354   0.01143196
8422.00   1.64359164   0.01120011
8424.00   1.64897716   0.01168637
8426.00   1.67197061   0.01316646
8428.00   1.67961049   0.01363307
8430.00   1.68359029   0.01359100
8432.00   1.67571402   0.01327961
8434.00   1.64749813   0.01260156
8436.00   1.60888946   0.01165384
8438.00   1.58814585   0.01116931
8440.00   1.57415569   0.01098687
8442.00   1.56885469   0.01084413
8444.00   1.58528709   0.01081561
8446.00   1.58471978   0.01093646
8448.00   1.55153716   0.01119367
8450.00   1.51278377   0.01159383
8452.00   1.50844967   0.01220923
8454.00   1.52796495   0.01317142
8456.00   1.54096532   0.01343971
8458.00   1.56072474   0.01313767
8460.00   1.57609808   0.01298709
8462.00   1.58277857   0.01305717
8464.00   1.59219527   0.01307003
8466.00   1.62008667   0.01279347
8468.00   1.66502607   0.01230319
8470.00   1.66922843   0.01174121
8472.00   1.63852131   0.01080898
8474.00   1.61482668   0.01020188
8476.00   1.58372438   0.00989026
8478.00   1.56202984   0.00977295
8480.00   1.56354594   0.00982285
8482.00   1.58077013   0.01005428
8484.00   1.59543645   0.01032604
8486.00   1.62619495   0.01090175
8488.00   1.63254654   0.01104021
8490.00   1.61369658   0.01073745
8492.00   1.59903097   0.01053292
8494.00   1.60182929   0.01059404
8496.00   1.61017084   0.01081372
8498.00   1.60287869   0.01124916
8500.00   1.58568239   0.01216002
8502.00   1.56661654   0.01239184
8504.00   1.54174066   0.01228751
8506.00   1.51537406   0.01193877
8508.00   1.47955251   0.01113168
8510.00   1.44879258   0.01014691
8512.00   1.45384836   0.00975634
8514.00   1.49151933   0.00971175
8516.00   1.51467478   0.01001922
8518.00   1.53967690   0.01105707
8520.00   1.56181300   0.01154861
8522.00   1.58104277   0.01151145
8524.00   1.59824204   0.01125685
8526.00   1.61602342   0.01096221
8528.00   1.63602972   0.01049387
8530.00   1.63214457   0.01022848
8532.00   1.59764290   0.01004501
8534.00   1.58068860   0.00996681
8536.00   1.57926190   0.01002774
8538.00   1.57839620   0.01014350
8540.00   1.56993079   0.01028036
8542.00   1.55813813   0.01045438
8544.00   1.54605007   0.01052863
8546.00   1.52286160   0.01044659
8548.00   1.52063620   0.01055663
8550.00   1.54123318   0.01099911
8552.00   1.55884969   0.01116202
8554.00   1.56064248   0.01070442
8556.00   1.55789125   0.00990536
8558.00   1.57345903   0.00960143
8560.00   1.61044157   0.00956021
8562.00   1.62685442   0.00961721
8564.00   1.62820804   0.00981714
8566.00   1.63431442   0.01016045
8568.00   1.65530205   0.01084664
8570.00   1.67485535   0.01147115
8572.00   1.66442907   0.01129344
8574.00   1.62508225   0.01024381
8576.00   1.60798275   0.01005958
8578.00   1.60532129   0.01059428
8580.00   1.59274638   0.01074250
8582.00   1.56628299   0.01036094
8584.00   1.53787565   0.00992107
8586.00   1.52016270   0.00990407
8588.00   1.51023364   0.01012600
8590.00   1.48481762   0.01040742
8592.00   1.43559921   0.01112964
8594.00   1.41247654   0.01123873
8596.00   1.41248262   0.01062616
8598.00   1.42324662   0.00995436
8600.00   1.44080091   0.00972998
8602.00   1.46743119   0.00972845
8604.00   1.48493111   0.00973496
8606.00   1.50161684   0.00970864
8608.00   1.51086533   0.01002504
8610.00   1.50868320   0.01074752
8612.00   1.50965798   0.01137449
8614.00   1.52147901   0.01170180
8616.00   1.53769779   0.01193775
8618.00   1.54492450   0.01245654
8620.00   1.54723883   0.01321662
8622.00   1.54765809   0.01378363
8624.00   1.54352689   0.01452178
8626.00   1.53975487   0.01480579
8628.00   1.53855669   0.01433674
8630.00   1.53657269   0.01358078
8632.00   1.52799702   0.01347738
8634.00   1.51303196   0.01390347
8636.00   1.50171041   0.01374699
8638.00   1.49237955   0.01303048
8640.00   1.48068500   0.01266780
8642.00   1.47280955   0.01287933
8644.00   1.45642161   0.01314554
8646.00   1.41190243   0.01289057
8648.00   1.34061372   0.01218876
8650.00   1.30077624   0.01234170
8652.00   1.25561547   0.01318297
8654.00   1.26055801   0.01383640
8656.00   1.32920706   0.01451826
8658.00   1.40906262   0.01505764
8660.00   1.46959388   0.01536085
8662.00   1.52698088   0.01550335
8664.00   1.55180609   0.01520133
8666.00   1.54327464   0.01424039
8668.00   1.53698778   0.01352214
8670.00   1.52281487   0.01274348
8672.00   1.50525224   0.01215192
8674.00   1.48450446   0.01196173
8676.00   1.46138716   0.01203767
8678.00   1.44615948   0.01197676
8680.00   1.44697940   0.01200408
8682.00   1.42237651   0.01184934
8684.00   1.37843108   0.01155162
8686.00   1.33245969   0.01120514
8688.00   1.28472710   0.01078674
8690.00   1.23663628   0.01033235
8692.00   1.19600439   0.00997969
8694.00   1.14869213   0.00964735
8696.00   1.14567447   0.00950310
8698.00   1.17685878   0.00957861
8700.00   1.22541666   0.00965588
8702.00   1.30346239   0.00975421
8704.00   1.38785839   0.00985554
8706.00   1.44725275   0.00990632
8708.00   1.49519598   0.00992480
8710.00   1.53243136   0.00995505
8712.00   1.55797315   0.00999264
8714.00   1.57413125   0.01000702
8716.00   1.57717776   0.00999143
8718.00   1.57503343   0.00997244
8720.00   1.57298481   0.00996127
8722.00   1.56821895   0.00995041
8724.00   1.56589162   0.00999781
8726.00   1.57116902   0.01004785
8728.00   1.56152952   0.01021389
8730.00   1.53550100   0.01060506
8732.00   1.51012039   0.01085462
8734.00   1.49238873   0.01077355
8736.00   1.47776473   0.01051209
8738.00   1.46401286   0.01041386
8740.00   1.44582152   0.01031445
8742.00   1.44409442   0.01035527
8744.00   1.45228136   0.01059928
8746.00   1.47139919   0.01075072
8748.00   1.50891829   0.01062181
8750.00   1.55271268   0.01049131
8752.00   1.57362139   0.01091339
8754.00   1.57662022   0.01167210
8756.00   1.59052074   0.01254280
8758.00   1.60870719   0.01375647
8760.00   1.62449300   0.01468156
8762.00   1.64552295   0.01538510
8764.00   1.65687287   0.01591024
8766.00   1.63402045   0.01621513
8768.00   1.57940793   0.01633506
8770.00   1.55055571   0.01629139
8772.00   1.52033114   0.01601357
8774.00   1.51510298   0.01569119
8776.00   1.55072641   0.01530255
8778.00   1.58194935   0.01481881
8780.00   1.57151604   0.01416119
8782.00   1.53628731   0.01331524
8784.00   1.51118779   0.01286256
8786.00   1.48153257   0.01266152
8788.00   1.45636320   0.01264370
8790.00   1.42789960   0.01319314
8792.00   1.41085231   0.01336585
8794.00   1.41382229   0.01253997
8796.00   1.43066311   0.01106069
8798.00   1.44855571   0.01043563
8800.00   1.48104417   0.01040475
8802.00   1.49802315   0.01034426
8804.00   1.51263547   0.01048749
8806.00   1.51291883   0.01070675
8808.00   1.49003208   0.01103308
8810.00   1.45647919   0.01138706
8812.00   1.43900895   0.01151967
8814.00   1.43336916   0.01133658
8816.00   1.41288078   0.01169972
8818.00   1.37358451   0.01185250
8820.00   1.35099041   0.01311945
8822.00   1.34855282   0.01573119
8824.00   1.35718000   0.01825486
8826.00   1.37205076   0.01985407
8828.00   1.39978480   0.02140221
8830.00   1.40982401   0.02096946
8832.00   1.39596009   0.01768184
8834.00   1.40756071   0.01558133
8836.00   1.45519912   0.01508545
8838.00   1.49974644   0.01492637
8840.00   1.50993276   0.01416614
8842.00   1.49967992   0.01318571
8844.00   1.49316454   0.01259071
8846.00   1.47283411   0.01234746
8848.00   1.46886754   0.01204627
8850.00   1.48075867   0.01174257
8852.00   1.49332643   0.01153213
8854.00   1.50001228   0.01141943
8856.00   1.50476372   0.01142162
8858.00   1.50855529   0.01175929
8860.00   1.52212727   0.01254019
8862.00   1.50814700   0.01303133
8864.00   1.46852076   0.01345684
8866.00   1.42720735   0.01381265
8868.00   1.37392604   0.01426310
8870.00   1.32821965   0.01455861
8872.00   1.35662353   0.01396268
8874.00   1.45957541   0.01176632
8876.00   1.52687299   0.01167554
8878.00   1.61086524   0.01324980
8880.00   1.65753567   0.01450626
8882.00   1.65274823   0.01544269
8884.00   1.62651265   0.01632291
8886.00   1.61348045   0.01728167
8888.00   1.60077620   0.01844852
8890.00   1.57712185   0.01861873
8892.00   1.52305663   0.01791403
8894.00   1.50926077   0.01723255
8896.00   1.53675175   0.01605003
8898.00   1.58345783   0.01524437
8900.00   1.64228368   0.01609901
8902.00   1.72082281   0.01806115
8904.00   1.75105572   0.01817010
8906.00   1.75051534   0.01677833
8908.00   1.73654616   0.01607644
8910.00   1.69246101   0.01561019
8912.00   1.65107536   0.01548114
8914.00   1.63066447   0.01590537
8916.00   1.61991584   0.01668983
8918.00   1.60463989   0.01707084
8920.00   1.60034120   0.01778852
8922.00   1.57203031   0.01732473
8924.00   1.50963318   0.01536823
8926.00   1.46709383   0.01350899
8928.00   1.46243036   0.01236022
8930.00   1.47701466   0.01164302
8932.00   1.48741198   0.01138812
8934.00   1.50600123   0.01173742
8936.00   1.51882899   0.01228503
8938.00   1.54181135   0.01356133
8940.00   1.54125488   0.01420949
8942.00   1.49864411   0.01406792
8944.00   1.45048356   0.01364582
8946.00   1.44872999   0.01342365
8948.00   1.47957933   0.01301362
8950.00   1.49479282   0.01354387
8952.00   1.53430390   0.01487193
8954.00   1.52329862   0.01604604
8956.00   1.43870413   0.01738917
8958.00   1.35157788   0.01843429
8960.00   1.31938338   0.01887449
8962.00   1.31472409   0.01896921
8964.00   1.34089756   0.01804390
8966.00   1.41881835   0.01511129
8968.00   1.47806585   0.01324326
8970.00   1.53409851   0.01224426
8972.00   1.58376658   0.01182638
8974.00   1.62481523   0.01205806
8976.00   1.65831780   0.01285864
8978.00   1.67914188   0.01315371
8980.00   1.68433940   0.01289278
8982.00   1.68985260   0.01356410
8984.00   1.68737030   0.01522314
8986.00   1.68751180   0.01630832
8988.00   1.69309282   0.01649303
8990.00   1.70182240   0.01624755
8992.00   1.71343768   0.01604927
8994.00   1.73105407   0.01530198
8996.00   1.74260652   0.01563331
8998.00   1.75383687   0.01718197
9000.00   1.75877893   0.01795824
9002.00   1.75398982   0.01787109
9004.00   1.74602175   0.01729197
9006.00   1.74509585   0.01631413
9008.00   1.75006509   0.01449123
9010.00   1.74299288   0.01347951
9012.00   1.72737432   0.01300139
9014.00   1.70990610   0.01263930
9016.00   1.69378376   0.01250857
9018.00   1.67033672   0.01249997
9020.00   1.62874365   0.01248080
9022.00   1.57130682   0.01252476
9024.00   1.53233564   0.01248962
9026.00   1.49402130   0.01235931
9028.00   1.47658885   0.01233490
9030.00   1.49158990   0.01245621
9032.00   1.50076699   0.01252864
9034.00   1.47771704   0.01239923
9036.00   1.43841004   0.01216102
9038.00   1.42655230   0.01219847
9040.00   1.42733002   0.01238088
9042.00   1.43864059   0.01268546
9044.00   1.47872293   0.01324132
9046.00   1.50021958   0.01367875
9048.00   1.48014033   0.01396654
9050.00   1.44261813   0.01411341
9052.00   1.43397450   0.01388711
9054.00   1.43170750   0.01314611
9056.00   1.45529521   0.01270816
9058.00   1.51517344   0.01219367
9060.00   1.56463671   0.01200630
9062.00   1.60193372   0.01234067
9064.00   1.62952971   0.01284788
9066.00   1.63925004   0.01308744
9068.00   1.62923241   0.01326727
9070.00   1.62849343   0.01328944
9072.00   1.62647820   0.01306949
9074.00   1.62732720   0.01295928
9076.00   1.63322055   0.01296831
9078.00   1.63848972   0.01300543
9080.00   1.63758242   0.01302043
9082.00   1.63270152   0.01304476
9084.00   1.62785172   0.01298515
9086.00   1.61762381   0.01273901
9088.00   1.61495209   0.01272636
9090.00   1.61990130   0.01294670
9092.00   1.62638247   0.01320530
9094.00   1.63430798   0.01342427
9096.00   1.64332533   0.01364425
9098.00   1.63245869   0.01375951
9100.00   1.59919238   0.01377461
9102.00   1.57630932   0.01380716
9104.00   1.55513382   0.01378344
9106.00   1.53588462   0.01381812
9108.00   1.51383901   0.01401266
9110.00   1.49560368   0.01424509
9112.00   1.50538433   0.01419328
9114.00   1.55010307   0.01389811
9116.00   1.56874728   0.01365808
9118.00   1.56922042   0.01318050
9120.00   1.58137643   0.01303200
9122.00   1.61610079   0.01345123
9124.00   1.65452099   0.01401623
9126.00   1.67032480   0.01416990
9128.00   1.67315495   0.01406783
9130.00   1.66882968   0.01416200
9132.00   1.64537895   0.01439656
9134.00   1.63328779   0.01450588
9136.00   1.63716614   0.01443751
9138.00   1.64116108   0.01436135
9140.00   1.63004482   0.01450223
9142.00   1.60870337   0.01483550
9144.00   1.59807241   0.01452826
9146.00   1.59801781   0.01327864
9148.00   1.58708310   0.01278066
9150.00   1.56141281   0.01307454
9152.00   1.53974152   0.01346418
9154.00   1.53269625   0.01361431
9156.00   1.53457773   0.01370978
9158.00   1.54415166   0.01371782
9160.00   1.58096516   0.01359054
9162.00   1.58188617   0.01352505
9164.00   1.54569519   0.01348893
9166.00   1.51833940   0.01343515
9168.00   1.51697099   0.01329792
9170.00   1.52755320   0.01315403
9172.00   1.53452039   0.01327334
9174.00   1.54692256   0.01382424
9176.00   1.55268645   0.01378485
9178.00   1.55655897   0.01317860
9180.00   1.55537200   0.01278855
9182.00   1.54065084   0.01270936
9184.00   1.52745354   0.01286004
9186.00   1.54471004   0.01337794
9188.00   1.58742452   0.01449110
9190.00   1.62115633   0.01452225
9192.00   1.67071843   0.01355147
9194.00   1.69419813   0.01292465
9196.00   1.67807543   0.01265877
9198.00   1.65844893   0.01258835
9200.00   1.67385185   0.01271628
9202.00   1.71204758   0.01309296
9204.00   1.72507179   0.01318692
9206.00   1.72086132   0.01301932
9208.00   1.72414207   0.01308626
9210.00   1.73268259   0.01324993
9212.00   1.74160326   0.01362558
9214.00   1.74784434   0.01441157
9216.00   1.75300527   0.01544272
9218.00   1.76346362   0.01581071
9220.00   1.78163838   0.01553137
9222.00   1.79227531   0.01573152
9224.00   1.81303203   0.01658755
9226.00   1.80753088   0.01686124
9228.00   1.74841321   0.01587029
9230.00   1.66322887   0.01412311
9232.00   1.62947333   0.01335109
9234.00   1.63333488   0.01318982
9236.00   1.62048769   0.01301885
9238.00   1.60130489   0.01316836
9240.00   1.59234238   0.01326481
9242.00   1.60381067   0.01323529
9244.00   1.61891663   0.01318416
9246.00   1.60691452   0.01321432
9248.00   1.56778383   0.01332398
9250.00   1.56272590   0.01331612
9252.00   1.57835340   0.01310230
9254.00   1.59754503   0.01312890
9256.00   1.62749636   0.01355334
9258.00   1.65554643   0.01395847
9260.00   1.66328382   0.01392202
9262.00   1.65572822   0.01357858
9264.00   1.66047263   0.01343194
9266.00   1.67199445   0.01319703
9268.00   1.67925429   0.01325470
9270.00   1.68710268   0.01374213
9272.00   1.68829894   0.01415937
9274.00   1.67537940   0.01411178
9276.00   1.65199232   0.01380019
9278.00   1.63618541   0.01412983
9280.00   1.61347187   0.01511486
9282.00   1.61086547   0.01557801
9284.00   1.63431358   0.01583014
9286.00   1.65116835   0.01588291
9288.00   1.65222144   0.01555354
9290.00   1.64236999   0.01504700
9292.00   1.60947847   0.01532129
9294.00   1.51650679   0.01595666
9296.00   1.51141810   0.01708145
9298.00   1.57891428   0.01838650
9300.00   1.63838339   0.02028588
9302.00   1.68052995   0.02273972
9304.00   1.71424437   0.02545285
9306.00   1.72641385   0.02821356
9308.00   1.69544876   0.03112728
9310.00   1.74964464   0.03385597
9312.00   1.93685997   0.03754885
9314.00   1.99674034   0.03918856
9316.00   1.87940407   0.03855368
9318.00   1.72216332   0.03699108
9320.00   1.65734279   0.03575857
9322.00   1.62925160   0.03423496
9324.00   1.61680937   0.03270140
9326.00   1.64576495   0.03076236
9328.00   1.65727305   0.02928491
9330.00   1.65565693   0.02817057
9332.00   1.65251017   0.02750942
9334.00   1.65701270   0.02758483
9336.00   1.66513789   0.02829787
9338.00   1.64720750   0.02823022
9340.00   1.59319043   0.02803562
9342.00   1.56917393   0.02716227
9344.00   1.55761886   0.02492386
9346.00   1.56344247   0.02313680
9348.00   1.60002959   0.02300833
9350.00   1.65316033   0.02378000
9352.00   1.66351366   0.02402700
9354.00   1.64615881   0.02448963
9356.00   1.62431908   0.02440603
9358.00   1.56217957   0.02353619
9360.00   1.54017425   0.02315524
9362.00   1.58280897   0.02218846
9364.00   1.65719664   0.02265093
9366.00   1.72092772   0.02889518
9368.00   1.79713798   0.03804383
9370.00   1.85626280   0.04434571
9372.00   1.93580484   0.05245704
9374.00   1.95215964   0.05562585
9376.00   1.89462543   0.05364666
9378.00   1.79413044   0.04916556
9380.00   1.66441369   0.04457766
9382.00   1.47461784   0.03781142
9384.00   1.41315532   0.03214636
9386.00   1.45633996   0.02604032
9388.00   1.48758829   0.02111153
9390.00   1.52917600   0.01892027
9392.00   1.56958783   0.01831261
9394.00   1.59488320   0.01807952
9396.00   1.61199749   0.01894318
9398.00   1.62247074   0.02015710
9400.00   1.61617351   0.02240614
9402.00   1.62432599   0.02381736
9404.00   1.64348388   0.02530392
9406.00   1.66403520   0.02586974
9408.00   1.68949211   0.02464317
9410.00   1.71433473   0.02226332
9412.00   1.69903517   0.02182440
9414.00   1.62967396   0.02278004
9416.00   1.60312629   0.02346114
9418.00   1.60906804   0.02451507
9420.00   1.59677732   0.02543482
9422.00   1.54495883   0.02630863
9424.00   1.48258090   0.02697008
9426.00   1.45799172   0.02673788
9428.00   1.45754242   0.02496592
9430.00   1.45741272   0.02569209
9432.00   1.49190247   0.02704881
9434.00   1.48190391   0.03040813
9436.00   1.38891494   0.03723347
9438.00   1.29781353   0.04255151
9440.00   1.31630230   0.04218227
9442.00   1.41524804   0.03753924
9444.00   1.47085655   0.03398799
9446.00   1.52292967   0.02772468
9448.00   1.57224452   0.02373320
9450.00   1.63265181   0.02300829
9452.00   1.67177665   0.02422511
9454.00   1.65972555   0.02682264
9456.00   1.60932767   0.03075135
9458.00   1.56718564   0.03181771
9460.00   1.48906434   0.03158620
9462.00   1.46679783   0.03046341
9464.00   1.50489879   0.02687117
9466.00   1.53949738   0.02392216
9468.00   1.55063152   0.02367774
9470.00   1.54792333   0.02524304
9472.00   1.49696314   0.02831726
9474.00   1.38832331   0.03415599
9476.00   1.29596174   0.03678234
9478.00   1.15505576   0.03914345
9480.00   1.08429694   0.03921500
9482.00   1.12967885   0.03547302
9484.00   1.23330939   0.02915784
9486.00   1.30430090   0.02504568
9488.00   1.38409579   0.02134330
9490.00   1.44622588   0.01967250
9492.00   1.48996317   0.02034739
9494.00   1.54122615   0.02263178
9496.00   1.60817349   0.02730652
9498.00   1.67281592   0.03142978
9500.00   1.71744168   0.03256108
9502.00   1.75609684   0.03220581
9504.00   1.74507260   0.03052309
9506.00   1.66147482   0.02503365
9508.00   1.61912763   0.02166399
9510.00   1.60830390   0.02120234
9512.00   1.61665368   0.02201497
9514.00   1.64785457   0.02324168
9516.00   1.70342696   0.02526690
9518.00   1.71836579   0.02589724
9520.00   1.70818138   0.02580749
9522.00   1.69393682   0.02548587
9524.00   1.67207789   0.02435752
9526.00   1.64005518   0.02354184
9528.00   1.58918893   0.02401224
9530.00   1.52762747   0.02504207
9532.00   1.50279033   0.02439608
9534.00   1.50049496   0.02154666
9536.00   1.51106131   0.02059123
9538.00   1.56500113   0.02098372
9540.00   1.58652937   0.02139254
9542.00   1.54047298   0.02139640
9544.00   1.47063386   0.02147372
9546.00   1.45939422   0.02227902
9548.00   1.50647795   0.02383827
9550.00   1.47823668   0.02469058
9552.00   1.36759746   0.02536747
9554.00   1.31417572   0.02574369
9556.00   1.32073867   0.02526028
9558.00   1.37563050   0.02504773
9560.00   1.50289702   0.02697714
9562.00   1.73405600   0.03059904
9564.00   1.80197978   0.03175404
9566.00   1.74880302   0.03206793
9568.00   1.70799398   0.03127069
9570.00   1.64812839   0.02852419
9572.00   1.60286891   0.02527972
9574.00   1.62002170   0.02327505
9576.00   1.68308961   0.02192501
9578.00   1.68530774   0.02091963
9580.00   1.64106190   0.02067945
9582.00   1.61986566   0.02054292
9584.00   1.61435831   0.02043497
9586.00   1.60641897   0.02091511
9588.00   1.58765900   0.02255700
9590.00   1.56328607   0.02470603
9592.00   1.53963041   0.02524141
9594.00   1.50718927   0.02474364
9596.00   1.49025047   0.02416413
9598.00   1.49889612   0.02276630
9600.00   1.48720419   0.02169032
9602.00   1.42850912   0.02141641
9604.00   1.35603046   0.02153938
9606.00   1.33976912   0.02151648
9608.00   1.36449206   0.02163877
9610.00   1.38229907   0.02156522
9612.00   1.40548372   0.02081529
9614.00   1.44077849   0.02107496
9616.00   1.49745011   0.02302280
9618.00   1.55738819   0.02503112
9620.00   1.59453142   0.02544721
9622.00   1.62016082   0.02496241
9624.00   1.63212907   0.02429342
9626.00   1.61603189   0.02264919
9628.00   1.61791110   0.02155386
9630.00   1.64098525   0.02098041
9632.00   1.66601515   0.02077103
9634.00   1.67784965   0.02095820
9636.00   1.68269491   0.02157367
9638.00   1.69445467   0.02185816
9640.00   1.71834004   0.02220408
9642.00   1.72273898   0.02218726
9644.00   1.70607579   0.02169882
9646.00   1.68824887   0.02121248
9648.00   1.68371379   0.02100164
9650.00   1.68286645   0.02091284
9652.00   1.65257275   0.02077360
9654.00   1.57988095   0.02049086
9656.00   1.54747081   0.02058186
9658.00   1.54791892   0.02088875
9660.00   1.53986478   0.02143778
9662.00   1.50945878   0.02244605
9664.00   1.47021830   0.02353514
9666.00   1.43791139   0.02376136
9668.00   1.39668238   0.02331368
9670.00   1.38608027   0.02300666
9672.00   1.40340114   0.02205486
9674.00   1.42182708   0.02198324
9676.00   1.44418180   0.02330748
9678.00   1.46521413   0.02492931
9680.00   1.46739554   0.02575357
9682.00   1.44690418   0.02644409
9684.00   1.46849370   0.02613498
9686.00   1.52491617   0.02414413
9688.00   1.57563281   0.02323364
9690.00   1.63174558   0.02359338
9692.00   1.67825854   0.02435431
9694.00   1.68755066   0.02468127
9696.00   1.66376710   0.02474556
9698.00   1.71813762   0.02727766
9700.00   1.88450599   0.03350231
9702.00   1.93656647   0.03493633
9704.00   1.89149749   0.03224204
9706.00   1.81619549   0.02883491
9708.00   1.73306251   0.02649946
9710.00   1.63123858   0.02441284
9712.00   1.56319118   0.02481758
9714.00   1.52445292   0.02857153
9716.00   1.46811056   0.02991364
9718.00   1.38434100   0.03066540
9720.00   1.33334494   0.03053851
9722.00   1.33453941   0.02890488
9724.00   1.37087786   0.02638583
9726.00   1.42862892   0.02552069
9728.00   1.54232609   0.02581532
9730.00   1.59707630   0.02595642
9732.00   1.62247932   0.02642927
9734.00   1.63341796   0.02696657
9736.00   1.62546062   0.02772039
9738.00   1.60711646   0.02838769
9740.00   1.59650362   0.02846698
9742.00   1.58754313   0.02826413
9744.00   1.57250249   0.02727487
9746.00   1.54294169   0.02478143
9748.00   1.53178406   0.02303749
9750.00   1.54125702   0.02213376
9752.00   1.55932212   0.02176622
9754.00   1.57855678   0.02186297
9756.00   1.60382402   0.02252301
9758.00   1.61878347   0.02303717
9760.00   1.62607431   0.02408899
9762.00   1.63457012   0.02422930
9764.00   1.64762366   0.02329861
9766.00   1.65291393   0.02235110
9768.00   1.63440645   0.02195698
9770.00   1.60221136   0.02184536
9772.00   1.62177372   0.02240034
9774.00   1.69148743   0.02411640
9776.00   1.74032032   0.02472539
9778.00   1.80941474   0.02429786
9780.00   1.83892322   0.02437630
9782.00   1.79847872   0.02536283
9784.00   1.71862316   0.02689123
9786.00   1.65953970   0.02898458
9788.00   1.58849168   0.03220098
9790.00   1.54414809   0.03378051
9792.00   1.50839126   0.03470818
9794.00   1.49958134   0.03504096
9796.00   1.53670108   0.03468363
9798.00   1.58548975   0.03382687
9800.00   1.58688259   0.03278096
9802.00   1.55302262   0.03121169
9804.00   1.54815936   0.02998572
9806.00   1.55957282   0.02869082
9808.00   1.56455815   0.02778904
9810.00   1.57480800   0.02748327
9812.00   1.56936359   0.02734731
9814.00   1.51178265   0.02698964
9816.00   1.40433562   0.02661111
9818.00   1.39546108   0.02594329
9820.00   1.47831047   0.02455410
9822.00   1.51920283   0.02400599
9824.00   1.52989876   0.02429968
9826.00   1.54056776   0.02485065
9828.00   1.56494892   0.02544273
9830.00   1.59567511   0.02617236
9832.00   1.63332593   0.02649976
9834.00   1.70508718   0.02654326
9836.00   1.72045553   0.02658058
9838.00   1.68029940   0.02608931
9840.00   1.64383221   0.02626521
9842.00   1.63227940   0.02784408
9844.00   1.62850201   0.02990661
9846.00   1.61512315   0.03068766
9848.00   1.58697367   0.03105461
9850.00   1.58760130   0.03055323
9852.00   1.61930418   0.02836174
9854.00   1.63851917   0.02698347
9856.00   1.63759232   0.02700821
9858.00   1.62806916   0.02777629
9860.00   1.61754215   0.02874632
9862.00   1.59436131   0.03003043
9864.00   1.60278523   0.03187014
9866.00   1.66055834   0.03478035
9868.00   1.67288446   0.03663542
9870.00   1.62305772   0.03769833
9872.00   1.56336558   0.03813246
9874.00   1.53763521   0.03785476
9876.00   1.52298319   0.03687234
9878.00   1.54894805   0.03537731
9880.00   1.64362979   0.03228932
9882.00   1.68795180   0.03038285
9884.00   1.68076587   0.02940189
9886.00   1.67458451   0.02926026
9888.00   1.71059906   0.03020247
9890.00   1.76710677   0.03201851
9892.00   1.74943781   0.03298947
9894.00   1.63905764   0.03380305
9896.00   1.60542250   0.03428302
9898.00   1.61392152   0.03461394
9900.00   1.64395797   0.03447543
9902.00   1.70907152   0.03311113
9904.00   1.78860343   0.03132458
9906.00   1.78426933   0.03259104
9908.00   1.69861877   0.03665177
9910.00   1.65555167   0.03889407
9912.00   1.60374856   0.04111941
9914.00   1.58324540   0.04244363
9916.00   1.61351240   0.04263390
9918.00   1.66293752   0.04221259
9920.00   1.68204343   0.04198752
9922.00   1.69411755   0.04209375
9924.00   1.68218148   0.04020083
9926.00   1.63202238   0.03493644
9928.00   1.60184801   0.03144265
9930.00   1.59914899   0.03021194
9932.00   1.59921122   0.03078455
9934.00   1.57872820   0.03284789
9936.00   1.54517126   0.03606832
9938.00   1.52417946   0.04147476
9940.00   1.50657153   0.05101096
9942.00   1.49475896   0.05482037
9944.00   1.49904287   0.05408333
9946.00   1.49385381   0.05239268
9948.00   1.45480931   0.05164877
9950.00   1.39391959   0.05086150
9952.00   1.37216902   0.05102177
9954.00   1.36988783   0.05249756
9956.00   1.38234568   0.05293477
9958.00   1.40321958   0.05302079
9960.00   1.45203292   0.05250050
9962.00   1.56271243   0.05105732
9964.00   1.69759750   0.04892653
9966.00   1.71352839   0.04708999
9968.00   1.60149491   0.04527051
9970.00   1.58242226   0.04311652
9972.00   1.60750687   0.04021027
9974.00   1.62887967   0.03782771
9976.00   1.63705003   0.03642504
9978.00   1.64430153   0.03563091
9980.00   1.66137373   0.03490826
9982.00   1.68939829   0.03419024
9984.00   1.70235622   0.03495947
9986.00   1.72166836   0.03796449
9988.00   1.70782924   0.03930988
9990.00   1.62566173   0.03875344
9992.00   1.55385649   0.03761761
9994.00   1.59420776   0.03700648
9996.00   1.72429454   0.03635076
9998.00   1.76051581   0.03637069
10000.00   1.74270344   0.03622412
10002.00   1.73369277   0.03779909
10004.00   1.72355962   0.04055168
10006.00   1.71231282   0.04442680
10008.00   1.70272589   0.05016503
10010.00   1.69341481   0.05688374
10012.00   1.68289077   0.05872636
10014.00   1.69169939   0.05731195
10016.00   1.65441203   0.05558591
10018.00   1.54584980   0.05170094
10020.00   1.47159338   0.04813074
10022.00   1.49307454   0.04642293
10024.00   1.55890965   0.04569845
10026.00   1.54605627   0.04445522
10028.00   1.45190001   0.04326296
10030.00   1.44347870   0.04206333
10032.00   1.49446392   0.04076034
10034.00   1.53996372   0.03967309
10036.00   1.57387495   0.03876775
10038.00   1.59987521   0.03818162
10040.00   1.59798253   0.03836276
10042.00   1.54766309   0.03935467
10044.00   1.58120954   0.04010596
10046.00   1.70226347   0.04146633
10048.00   1.77886224   0.04186672
10050.00   1.80522966   0.04073392
10052.00   1.80772090   0.03942808
10054.00   1.79569542   0.03956616
10056.00   1.75480759   0.04047004
10058.00   1.76347268   0.04198428
10060.00   1.83915949   0.04542120
10062.00   1.84835637   0.04653753
10064.00   1.77140307   0.04515983
10066.00   1.70137429   0.04345888
10068.00   1.71509790   0.04277582
10070.00   1.77806222   0.04243560
10072.00   1.75589561   0.04381350
10074.00   1.63690042   0.04741285
10076.00   1.60892999   0.04953512
10078.00   1.68199599   0.05134382
10080.00   1.71863878   0.05231810
10082.00   1.62849975   0.05213759
10084.00   1.48646891   0.05108118
10086.00   1.50531912   0.04974717
10088.00   1.69101715   0.04710498
10090.00   1.75710166   0.04571545
10092.00   1.76892292   0.04493088
10094.00   1.78033733   0.04464535
10096.00   1.80532205   0.04494061
10098.00   1.82713580   0.04567254
10100.00   1.82894063   0.04653051
10102.00   1.82276714   0.04806165
10104.00   1.78416610   0.04826710
10106.00   1.70338976   0.04741580
10108.00   1.63128150   0.04657115
10110.00   1.55164385   0.04520327
10112.00   1.49290395   0.04427783
10114.00   1.50960803   0.04535445
10116.00   1.59896195   0.04781492
10118.00   1.61148739   0.05058278
10120.00   1.56692183   0.05491542
10122.00   1.55391979   0.05752511
10124.00   1.57046759   0.05900808
10126.00   1.59200573   0.05957435
10128.00   1.60185277   0.05896664
10130.00   1.60734499   0.05720917
10132.00   1.63135779   0.05634671
10134.00   1.65357196   0.05563723
10136.00   1.71455538   0.05527677
10138.00   1.85267317   0.05560251
10140.00   1.94664943   0.05566185
10142.00   1.92988241   0.05472760
10144.00   1.85010338   0.05335727
10146.00   1.80073082   0.05350719
10148.00   1.72716188   0.05460118
10150.00   1.69966900   0.05616945
10152.00   1.71923351   0.05950631
10154.00   1.72640836   0.06120113
10156.00   1.71195018   0.05990033
10158.00   1.68290436   0.05751013
10160.00   1.62798357   0.05756402
10162.00   1.52924895   0.05814707
10164.00   1.48443949   0.06162872
10166.00   1.46074855   0.06950851
10168.00   1.46612620   0.07376789
10170.00   1.52668822   0.07403997
10172.00   1.58958590   0.07291720
10174.00   1.57287490   0.07263020
10176.00   1.48637521   0.07216599
10178.00   1.50175250   0.07190611
10180.00   1.62542534   0.07211041
10182.00   1.66717482   0.07160396
10184.00   1.63131869   0.07005952
10186.00   1.56647265   0.06852937
10188.00   1.48941112   0.06793598
10190.00   1.38689864   0.06790040
10192.00   1.36093986   0.06758095
10194.00   1.39236200   0.06732669
10196.00   1.43134665   0.06693263
10198.00   1.53128612   0.06557166
10200.00   1.58425617   0.06544514
10202.00   1.50538254   0.06800266
10204.00   1.35925889   0.07199045
10206.00   1.36231840   0.07462393
10208.00   1.45911300   0.07755060
10210.00   1.57393944   0.07880957
10212.00   1.80449152   0.07907968
10214.00   1.94316292   0.07827082
10216.00   1.90046585   0.07560600
10218.00   1.78654480   0.07209715
10220.00   1.79712415   0.07090696
10222.00   1.91651738   0.07136793
10224.00   1.88955426   0.07156703
10226.00   1.80608273   0.07021898
10228.00   1.63233840   0.07276110
10230.00   1.25811887   0.08250900
10232.00   0.90238971   0.09088566
10234.00   0.89569551   0.08895738
10236.00   1.15503800   0.07847045
10238.00   1.31200814   0.07230607
10240.00   1.54895282   0.06542288
10242.00   1.66927636   0.06086484
10244.00   1.64617562   0.05985051
10246.00   1.59681630   0.06014378
10248.00   1.61596763   0.05997835
10250.00   1.66327572   0.06025024
10252.00   1.65049374   0.06020489
10254.00   1.57007241   0.05922009
10256.00   1.54205573   0.06011304
10258.00   1.55046165   0.06323605
10260.00   1.57189882   0.06593439
10262.00   1.62054062   0.06697438
10264.00   1.68038976   0.06726862
10266.00   1.60764802   0.06824977
10268.00   1.33104134   0.06941520
10270.00   1.26262438   0.07068932
10272.00   1.34790170   0.07130082
10274.00   1.41926301   0.07337908
10276.00   1.45013118   0.07665482
10278.00   1.45502853   0.08149528
10280.00   1.37932968   0.08998634
10282.00   1.15956151   0.10164893
10284.00   1.14512575   0.11099140
10286.00   1.32153094   0.12388287
10288.00   1.42187798   0.12880908
10290.00   1.42344403   0.12322093
10292.00   1.37759280   0.11352368
10294.00   1.30606186   0.10891779
10296.00   1.18607628   0.10631644
10298.00   1.10147059   0.10293074
10300.00   0.97997928   0.10011411
10302.00   0.96043563   0.09651612
10304.00   1.06937790   0.09139007
10306.00   1.21044278   0.08646087
10308.00   1.31373739   0.08367345
10310.00   1.41579413   0.08248193
10312.00   1.46727407   0.08084027
10314.00   1.42218792   0.07900940
10316.00   1.48084772   0.07843427
10318.00   1.68118572   0.07966229
10320.00   1.82670128   0.08064463
10322.00   1.79660428   0.08034395
10324.00   1.66731179   0.07938033
10326.00   1.61251867   0.07829597
10328.00   1.60465670   0.07623006
10330.00   1.52917576   0.07534591
10332.00   1.37986696   0.07391068
10334.00   1.25889730   0.07507835
10336.00   1.19202578   0.08098567
10338.00   1.15815032   0.08817796
10340.00   1.15405071   0.09059659
10342.00   1.18904269   0.09040320
10344.00   1.23053145   0.08973028
10346.00   1.26069057   0.08474435
10348.00   1.35939348   0.08447760
10350.00   1.63357341   0.09232473
10352.00   1.87850964   0.10085593
10354.00   1.74756539   0.10255992
10356.00   1.26364374   0.10056532
10358.00   1.13855445   0.09769862
10360.00   1.16259599   0.08835719
10362.00   1.28465164   0.08595902
10364.00   1.61147606   0.09199875
10366.00   1.91776466   0.10022170
10368.00   1.97484708   0.10783847
10370.00   1.87549758   0.11673935
10372.00   1.80439770   0.11740368
10374.00   1.70709205   0.11017815
10376.00   1.56028855   0.10470712
10378.00   1.30068016   0.09845226
10380.00   1.09638131   0.09284330
10382.00   1.06034791   0.08920530
10384.00   1.12397063   0.08709342
10386.00   1.11916196   0.08632033
10388.00   1.13254464   0.08809871
10390.00   1.07373154   0.08882847
10392.00   0.91448587   0.08928455
10394.00   0.79609650   0.09000386
10396.00   0.76023364   0.09130873
10398.00   0.77206105   0.09279754
10400.00   0.81483030   0.09362881
10402.00   0.94787610   0.09479102
10404.00   0.96295637   0.09371109
10406.00   0.87988919   0.08857279
10408.00   0.82265735   0.08652762
10410.00   0.77701414   0.08892449
10412.00   0.77115864   0.09352505
10414.00   0.90697736   0.09885964
10416.00   1.23522019   0.10642377
10418.00   1.23471057   0.10970401
10420.00   0.91987121   0.11177135
10422.00   0.74674910   0.11054453
10424.00   0.68754810   0.10354908
10426.00   0.70310688   0.09588190
10428.00   0.81952184   0.09423149
10430.00   1.04916561   0.09660134
10432.00   1.10977185   0.09528419
10434.00   1.05146778   0.09244447
10436.00   1.01341522   0.08910042
10438.00   0.95641339   0.08322747
10440.00   0.91208911   0.07891013
10442.00   0.91305953   0.07990933
10444.00   0.93968618   0.08415034
10446.00   0.91201413   0.08553027
10448.00   0.80752057   0.08609654
10450.00   0.79436773   0.08638327
10452.00   0.82032061   0.08595458
10454.00   0.90635431   0.08561429
10456.00   1.13041258   0.08498863
10458.00   1.38882005   0.08474877
10460.00   1.33910334   0.08779342
10462.00   0.97907192   0.09399898
10464.00   0.81134087   0.09850993
10466.00   0.62469190   0.10490160
10468.00   0.58857489   0.10727630
10470.00   0.80918545   0.10376827
10472.00   1.09613121   0.09782935
10474.00   1.14746916   0.09490322
10476.00   1.04972911   0.09315339
10478.00   1.00209248   0.09125729
10480.00   0.88882416   0.08993766
10482.00   0.86916250   0.08836337
10484.00   0.99011272   0.08578758
10486.00   1.11785984   0.08395196
10488.00   1.11450768   0.08514062
10490.00   1.02465057   0.08876117
10492.00   1.04128838   0.08954496
10494.00   1.14326847   0.08840453
10496.00   1.19527912   0.08812841
10498.00   1.22678506   0.08840872
10500.00   1.22593653   0.08877006
10502.00   1.16110146   0.08887189
10504.00   1.05103338   0.08891044
10506.00   1.04548383   0.08993039
10508.00   1.14136636   0.09185459
10510.00   1.17553961   0.09362287
10512.00   1.18658996   0.09557199
10514.00   1.18365204   0.09750312
10516.00   1.17416048   0.09961738
10518.00   1.14942288   0.10160474
10520.00   1.08164716   0.10224421
10522.00   0.95357716   0.10199329
10524.00   0.86880141   0.10096607
10526.00   0.77464122   0.09822501
10528.00   0.73208511   0.09620108
10530.00   0.75848228   0.09534250
10532.00   0.82547545   0.09508149
10534.00   0.90518486   0.09493335
10536.00   1.04370737   0.09476239
10538.00   1.06052840   0.09629804
10540.00   0.96822441   0.10055320
10542.00   0.89915162   0.10260203
10544.00   0.82397169   0.10219855
10546.00   0.78235590   0.10099502
10548.00   0.84560132   0.10007549
10550.00   1.00124347   0.09869469
10552.00   1.05987811   0.09923643
10554.00   1.05608010   0.10202722
10556.00   1.07767224   0.10347518
10558.00   1.14469504   0.10384587
10560.00   1.17181051   0.10410422
10562.00   1.07873309   0.10461993
10564.00   0.90818822   0.10519683
10566.00   0.88938057   0.10657675
10568.00   0.97681934   0.10843321
10570.00   1.05743146   0.11088062
10572.00   1.21242404   0.11354661
10574.00   1.30289423   0.11718572
10576.00   1.25803185   0.12300010
10578.00   1.14127135   0.12927674
10580.00   1.07562196   0.13108237
10582.00   0.96769792   0.12937844
10584.00   0.99228030   0.12813944
10586.00   1.17837894   0.12522373
10588.00   1.29671311   0.12320623
10590.00   1.30782294   0.12289895
10592.00   1.26628184   0.12314605
10594.00   1.20376635   0.12233108
10596.00   1.07501757   0.12053973
10598.00   1.04268873   0.12053888
10600.00   1.07444859   0.12211334
10602.00   1.11487007   0.12331829
10604.00   1.19806194   0.12460385
10606.00   1.26024497   0.12533376
10608.00   1.21644807   0.12437467
10610.00   1.09363353   0.12188263
10612.00   0.98922884   0.12072758
10614.00   0.80608988   0.11986476
10616.00   0.74854666   0.11967445
10618.00   0.83939123   0.12102251
10620.00   0.94259256   0.12168621
10622.00   0.97945386   0.11988432
10624.00   0.99098921   0.11644419
10626.00   0.96264887   0.11435188
10628.00   0.88236976   0.11297232
10630.00   0.80626363   0.11109240
10632.00   0.67621249   0.10855776
10634.00   0.60818076   0.10650233
10636.00   0.67516339   0.10567409
10638.00   0.81037319   0.10544676
10640.00   0.84545237   0.10416328
10642.00   0.81471187   0.10204409
10644.00   0.81791037   0.10039557
10646.00   0.82456654   0.09883934
10648.00   0.83666360   0.09736037
10650.00   0.86426508   0.09609327
10652.00   0.89008677   0.09481500
10654.00   0.87894297   0.09302766
10656.00   0.84395880   0.09087892
10658.00   0.78954440   0.08847207
10660.00   0.67035151   0.08514739
10662.00   0.61694109   0.08264301
10664.00   0.64656287   0.08121291
10666.00   0.70564604   0.08028831
10668.00   0.74854255   0.07942605
10670.00   0.79754126   0.07891727
10672.00   0.83518922   0.07808000
10674.00   0.90227580   0.07742428
10676.00   0.88924557   0.07603508
10678.00   0.75940096   0.07345968
10680.00   0.64102840   0.07096615
10682.00   0.62713611   0.06960845
10684.00   0.67174375   0.06893795
10686.00   0.69269073   0.06801544
10688.00   0.73148489   0.06653301
10690.00   0.74502289   0.06657118
10692.00   0.74097395   0.06885026
10694.00   0.72611350   0.07016928
10696.00   0.69411016   0.06915314
10698.00   0.65351480   0.06684086
10700.00   0.65025437   0.06490636
10702.00   0.69672734   0.06197574
10704.00   0.69024563   0.06060340
10706.00   0.64179754   0.06067178
10708.00   0.60583287   0.06062861
10710.00   0.59992117   0.06023274
10712.00   0.59971684   0.05973123
10714.00   0.56734329   0.05909277
10716.00   0.49234861   0.05823826
10718.00   0.49365234   0.05756675
10720.00   0.57176000   0.05725968
10722.00   0.61608523   0.05642499
10724.00   0.62718010   0.05471138
10726.00   0.61633551   0.05284911
10728.00   0.57773417   0.05182318
10730.00   0.50473982   0.05143771
10732.00   0.46814245   0.05022394
10734.00   0.44067430   0.04824557
10736.00   0.43550223   0.04665280
10738.00   0.46551180   0.04506251
10740.00   0.49577099   0.04403771
10742.00   0.49357504   0.04432946
10744.00   0.47336471   0.04562746
10746.00   0.50497150   0.04586681
10748.00   0.64719915   0.04549884
10750.00   0.63069326   0.04539142
10752.00   0.42771095   0.04591157
10754.00   0.27068776   0.04559752
10756.00   0.26468766   0.04332756
10758.00   0.33553421   0.03981591
10760.00   0.39139116   0.03815461
10762.00   0.52291000   0.03824887
10764.00   0.53334373   0.03712839
10766.00   0.41279307   0.03506374
10768.00   0.35010731   0.03358928
10770.00   0.40582195   0.03331036
10772.00   0.50147414   0.03359945
10774.00   0.53068668   0.03361496
10776.00   0.54129231   0.03394923
10778.00   0.50593710   0.03341289
10780.00   0.38885882   0.03211888
10782.00   0.32007897   0.03068540
10784.00   0.30974102   0.02872108
10786.00   0.32529935   0.02685576
10788.00   0.34776369   0.02637412
10790.00   0.39389652   0.02711094
10792.00   0.40173495   0.02701070
10794.00   0.35120094   0.02613217
10796.00   0.36658916   0.02634531
10798.00   0.47250870   0.02796728
10800.00   0.57035810   0.02949414
10802.00   0.58438140   0.03003040
10804.00   0.54945791   0.03007682
10806.00   0.53462332   0.02998339
10808.00   0.49815592   0.02899725
10810.00   0.49895504   0.02916054
10812.00   0.55254030   0.03105751
10814.00   0.58528537   0.03192887
10816.00   0.54993808   0.03013639
10818.00   0.48312503   0.02671972
10820.00   0.48453233   0.02581817
10822.00   0.55072093   0.02705484
10824.00   0.57107323   0.02727065
10826.00   0.56902748   0.02746970
10828.00   0.56968695   0.02745952
10830.00   0.59637308   0.02712767
10832.00   0.61465454   0.02662156
10834.00   0.54396427   0.02626323
10836.00   0.36083382   0.02610933
10838.00   0.30642164   0.02536192
10840.00   0.35005966   0.02374891
10842.00   0.36415902   0.02261650
10844.00   0.34333771   0.02216087
10846.00   0.30741099   0.02207307
10848.00   0.25501013   0.02217055
10850.00   0.16855116   0.02263754
10852.00   0.17252971   0.02273249
10854.00   0.27428058   0.02312478
10856.00   0.32743338   0.02249606
10858.00   0.33258978   0.02005932
10860.00   0.33386213   0.01754075
10862.00   0.36643833   0.01706442
10864.00   0.41685694   0.01794076
10866.00   0.40786743   0.01850921
