# File created by shivutils (I.Shivvers)
# wl(A)   flm    er(optional)
3660.00   0.10422622   0.01753131
3662.00   0.11877844   0.01938420
3664.00   0.13388234   0.01803247
3666.00   0.10489277   0.01506753
3668.00   0.08084603   0.01441117
3670.00   0.10751342   0.01438876
3672.00   0.11209803   0.01424341
3674.00   0.11120964   0.01376559
3676.00   0.10924634   0.01352193
3678.00   0.09010590   0.01329427
3680.00   0.10482280   0.01348528
3682.00   0.14509325   0.01383772
3684.00   0.14014833   0.01379123
3686.00   0.10172030   0.01312831
3688.00   0.13382488   0.01340946
3690.00   0.14287500   0.01366567
3692.00   0.11560261   0.01379092
3694.00   0.13268071   0.01379805
3696.00   0.13534966   0.01383178
3698.00   0.12287475   0.01428226
3700.00   0.13242547   0.01457533
3702.00   0.16960090   0.01462325
3704.00   0.15787216   0.01471114
3706.00   0.17566322   0.01477935
3708.00   0.15165630   0.01411381
3710.00   0.16980341   0.01431919
3712.00   0.16289185   0.01392867
3714.00   0.18482797   0.01423960
3716.00   0.16702279   0.01409428
3718.00   0.17444104   0.01425057
3720.00   0.17384291   0.01429462
3722.00   0.19858898   0.01426529
3724.00   0.18987536   0.01412522
3726.00   0.22475412   0.01444307
3728.00   0.20296581   0.01431117
3730.00   0.20633729   0.01456067
3732.00   0.19532856   0.01463234
3734.00   0.23444515   0.01471451
3736.00   0.22915539   0.01489260
3738.00   0.16940375   0.01471378
3740.00   0.20755552   0.01497413
3742.00   0.21642038   0.01490191
3744.00   0.21846803   0.01443926
3746.00   0.25902832   0.01467503
3748.00   0.22846782   0.01420578
3750.00   0.21095657   0.01400009
3752.00   0.27159590   0.01447957
3754.00   0.23582159   0.01397202
3756.00   0.21840231   0.01400876
3758.00   0.23487109   0.01410643
3760.00   0.21547233   0.01388329
3762.00   0.24443975   0.01390411
3764.00   0.23282452   0.01356619
3766.00   0.24785167   0.01324552
3768.00   0.19377555   0.01330065
3770.00   0.21115690   0.01390113
3772.00   0.20598646   0.01435941
3774.00   0.17663176   0.01400816
3776.00   0.19330308   0.01341637
3778.00   0.20396824   0.01301150
3780.00   0.20907333   0.01276090
3782.00   0.22496222   0.01292326
3784.00   0.20849626   0.01280664
3786.00   0.19016238   0.01273578
3788.00   0.19894724   0.01281252
3790.00   0.18154198   0.01278309
3792.00   0.18117666   0.01237815
3794.00   0.16269253   0.01192303
3796.00   0.18116835   0.01202684
3798.00   0.18555212   0.01196366
3800.00   0.13542531   0.01151257
3802.00   0.13544975   0.01186380
3804.00   0.14333726   0.01153355
3806.00   0.14440849   0.01126804
3808.00   0.13241278   0.01122452
3810.00   0.12634638   0.01117360
3812.00   0.13233326   0.01135343
3814.00   0.12675147   0.01124824
3816.00   0.08110679   0.01070706
3818.00   0.10994636   0.01098203
3820.00   0.09483333   0.01082560
3822.00   0.09342882   0.01062147
3824.00   0.09443175   0.01061204
3826.00   0.07427616   0.01083272
3828.00   0.07494482   0.01132138
3830.00   0.06730414   0.01118753
3832.00   0.08079521   0.01083754
3834.00   0.06758477   0.01045548
3836.00   0.07444637   0.01029826
3838.00   0.07255720   0.01021671
3840.00   0.08032943   0.01016111
3842.00   0.05968333   0.00977109
3844.00   0.03847827   0.00923484
3846.00   0.04811167   0.00939887
3848.00   0.05185400   0.00947358
3850.00   0.05971592   0.00953175
3852.00   0.04199500   0.00954138
3854.00   0.04204220   0.00933265
3856.00   0.06782227   0.00967018
3858.00   0.05427179   0.00939925
3860.00   0.05697001   0.00923217
3862.00   0.05516573   0.00942434
3864.00   0.06578413   0.00931620
3866.00   0.06251089   0.00905959
3868.00   0.07608453   0.00920712
3870.00   0.09102472   0.00916302
3872.00   0.06132177   0.00919038
3874.00   0.08757547   0.00981817
3876.00   0.07828324   0.00935674
3878.00   0.08597019   0.00915371
3880.00   0.07547826   0.00885821
3882.00   0.08171470   0.00885681
3884.00   0.10481710   0.00918445
3886.00   0.10815693   0.00932247
3888.00   0.09398360   0.00919493
3890.00   0.09960129   0.00940927
3892.00   0.10399275   0.00963646
3894.00   0.12436878   0.01001854
3896.00   0.12548321   0.01012822
3898.00   0.13707387   0.01019089
3900.00   0.13955264   0.01021868
3902.00   0.12818192   0.01044389
3904.00   0.16919617   0.01137630
3906.00   0.17745158   0.01244935
3908.00   0.15861766   0.01286005
3910.00   0.17000692   0.01311582
3912.00   0.15097590   0.01311640
3914.00   0.16428627   0.01236336
3916.00   0.16933304   0.01148137
3918.00   0.19071285   0.01120745
3920.00   0.18619235   0.01076577
3922.00   0.20528844   0.01079773
3924.00   0.22090334   0.01087102
3926.00   0.20497552   0.01072876
3928.00   0.20210211   0.01054285
3930.00   0.20516708   0.01079635
3932.00   0.21468793   0.01126316
3934.00   0.22528060   0.01117797
3936.00   0.24038389   0.01076269
3938.00   0.23071554   0.01081895
3940.00   0.22484899   0.01103872
3942.00   0.23970994   0.01150023
3944.00   0.25027114   0.01172697
3946.00   0.27173463   0.01154528
3948.00   0.25148037   0.01122866
3950.00   0.23764355   0.01103195
3952.00   0.24944085   0.01100988
3954.00   0.24471717   0.01092128
3956.00   0.25451463   0.01103663
3958.00   0.28213981   0.01146410
3960.00   0.26731929   0.01188314
3962.00   0.27545094   0.01167084
3964.00   0.28975084   0.01119167
3966.00   0.30261219   0.01107094
3968.00   0.26382610   0.01066769
3970.00   0.27170387   0.01087529
3972.00   0.29083163   0.01103702
3974.00   0.28598297   0.01090868
3976.00   0.31795168   0.01077124
3978.00   0.31778866   0.01065305
3980.00   0.27198184   0.01017941
3982.00   0.25653467   0.00999714
3984.00   0.30749252   0.01047692
3986.00   0.32008892   0.01085250
3988.00   0.32593471   0.01108202
3990.00   0.31950039   0.01116147
3992.00   0.33289343   0.01126000
3994.00   0.32763720   0.01158441
3996.00   0.33461198   0.01197562
3998.00   0.33926651   0.01175772
4000.00   0.32127410   0.01140716
4002.00   0.32515973   0.01122900
4004.00   0.33027381   0.01127696
4006.00   0.35597867   0.01144188
4008.00   0.35252807   0.01151936
4010.00   0.34567136   0.01142551
4012.00   0.34627414   0.01129569
4014.00   0.33948818   0.01093246
4016.00   0.31174353   0.01075724
4018.00   0.30491808   0.01168940
4020.00   0.33971465   0.01287070
4022.00   0.35126504   0.01330508
4024.00   0.35577115   0.01299920
4026.00   0.34843206   0.01233370
4028.00   0.32778803   0.01193895
4030.00   0.33526608   0.01198471
4032.00   0.32218930   0.01169511
4034.00   0.33159235   0.01171756
4036.00   0.32058102   0.01157331
4038.00   0.33358982   0.01148909
4040.00   0.32119223   0.01155303
4042.00   0.32912841   0.01243596
4044.00   0.33032224   0.01775800
4046.00   0.32698253   0.02017560
4048.00   0.31067026   0.01693710
4050.00   0.27132946   0.01225688
4052.00   0.27403051   0.01174052
4054.00   0.29808000   0.01187991
4056.00   0.26878777   0.01132251
4058.00   0.27929842   0.01097813
4060.00   0.27535555   0.01084418
4062.00   0.26068667   0.01072418
4064.00   0.25440747   0.01074212
4066.00   0.27220052   0.01083837
4068.00   0.23991722   0.01050453
4070.00   0.25908232   0.01046726
4072.00   0.25244480   0.01042268
4074.00   0.25069669   0.01075787
4076.00   0.22709800   0.01167767
4078.00   0.24579465   0.01182247
4080.00   0.23876947   0.01119527
4082.00   0.20495455   0.01074727
4084.00   0.23142023   0.01085987
4086.00   0.21868609   0.01075063
4088.00   0.20163833   0.01020973
4090.00   0.21844542   0.00977343
4092.00   0.22177513   0.00964969
4094.00   0.20978169   0.00955132
4096.00   0.20800589   0.00946599
4098.00   0.19224018   0.00949190
4100.00   0.20399438   0.00947693
4102.00   0.19891645   0.00937823
4104.00   0.21016103   0.00933521
4106.00   0.19412494   0.00927936
4108.00   0.20296423   0.00934666
4110.00   0.18007521   0.00912305
4112.00   0.19818185   0.00926086
4114.00   0.19553977   0.00919931
4116.00   0.19199072   0.00922491
4118.00   0.19775929   0.00912383
4120.00   0.20095125   0.00901622
4122.00   0.19312733   0.00907903
4124.00   0.19094726   0.00910661
4126.00   0.19093588   0.00900805
4128.00   0.19289584   0.00906246
4130.00   0.18912421   0.00934235
4132.00   0.19750328   0.00970356
4134.00   0.18298098   0.00944108
4136.00   0.20239870   0.00938850
4138.00   0.19258571   0.00954933
4140.00   0.18006261   0.00958732
4142.00   0.19327226   0.00928966
4144.00   0.16835718   0.00878891
4146.00   0.17152560   0.00876861
4148.00   0.17124143   0.00870140
4150.00   0.16266827   0.00904009
4152.00   0.17249645   0.00929449
4154.00   0.16973425   0.00909866
4156.00   0.17201158   0.00897115
4158.00   0.15721707   0.00885004
4160.00   0.15472297   0.00886531
4162.00   0.15696986   0.00929066
4164.00   0.16290095   0.00974394
4166.00   0.17681806   0.00968353
4168.00   0.16256781   0.00913002
4170.00   0.16308275   0.00892879
4172.00   0.17085828   0.00878358
4174.00   0.15478159   0.00861233
4176.00   0.16393583   0.00879416
4178.00   0.16105096   0.00878987
4180.00   0.16494441   0.00862132
4182.00   0.18788138   0.00866142
4184.00   0.17235702   0.00855066
4186.00   0.17565344   0.00868778
4188.00   0.17538901   0.00869394
4190.00   0.17002057   0.00862508
4192.00   0.18221165   0.00862327
4194.00   0.17564639   0.00856936
4196.00   0.18845160   0.00860152
4198.00   0.18259495   0.00851122
4200.00   0.16743357   0.00840127
4202.00   0.18242334   0.00851692
4204.00   0.16521959   0.00848771
4206.00   0.17116642   0.00861903
4208.00   0.16235720   0.00871531
4210.00   0.16309953   0.00886518
4212.00   0.16508195   0.00881424
4214.00   0.15745823   0.00867159
4216.00   0.18456779   0.00873406
4218.00   0.18734999   0.00869022
4220.00   0.18277629   0.00865631
4222.00   0.18097501   0.00857949
4224.00   0.19125284   0.00866970
4226.00   0.16995279   0.00852581
4228.00   0.18677409   0.00858760
4230.00   0.17977796   0.00873445
4232.00   0.18565999   0.00885645
4234.00   0.20122895   0.00899523
4236.00   0.19463670   0.00906770
4238.00   0.18654978   0.00899955
4240.00   0.18229009   0.00872382
4242.00   0.18568143   0.00878066
4244.00   0.20195197   0.00967245
4246.00   0.18468596   0.01012651
4248.00   0.19364381   0.00970811
4250.00   0.18731520   0.00884803
4252.00   0.20645203   0.00881300
4254.00   0.19901362   0.00882143
4256.00   0.20611529   0.00892378
4258.00   0.20026092   0.00891789
4260.00   0.20521514   0.00883327
4262.00   0.20556024   0.00875653
4264.00   0.20781170   0.00877802
4266.00   0.19535901   0.00861386
4268.00   0.18735409   0.00864197
4270.00   0.20260628   0.00885254
4272.00   0.19460738   0.00878356
4274.00   0.19239004   0.00874382
4276.00   0.20473051   0.00873428
4278.00   0.19757500   0.00868780
4280.00   0.22511005   0.00889146
4282.00   0.18862814   0.00879718
4284.00   0.19394341   0.00873221
4286.00   0.19336833   0.00866622
4288.00   0.19454361   0.00862112
4290.00   0.19977927   0.00867419
4292.00   0.20003258   0.00873226
4294.00   0.20551875   0.00891093
4296.00   0.20025562   0.00886358
4298.00   0.21063112   0.00879803
4300.00   0.20185167   0.00867603
4302.00   0.19658878   0.00856564
4304.00   0.20289326   0.00868654
4306.00   0.21688230   0.00889607
4308.00   0.19790509   0.00880162
4310.00   0.20335437   0.00888877
4312.00   0.22541426   0.00954455
4314.00   0.19552813   0.00963695
4316.00   0.20190126   0.00929870
4318.00   0.20250675   0.00935317
4320.00   0.21445860   0.00948292
4322.00   0.21090053   0.00935415
4324.00   0.21445307   0.00925750
4326.00   0.21363598   0.00913256
4328.00   0.21840699   0.00890702
4330.00   0.23267132   0.00897286
4332.00   0.21323685   0.00885529
4334.00   0.21665627   0.00889425
4336.00   0.21133551   0.00895677
4338.00   0.22271654   0.00915553
4340.00   0.22348770   0.00911968
4342.00   0.23041640   0.00913181
4344.00   0.23779948   0.00943860
4346.00   0.23873745   0.00975116
4348.00   0.22544517   0.00964544
4350.00   0.24218062   0.00943196
4352.00   0.23935480   0.00935287
4354.00   0.23793498   0.01140804
4356.00   0.27083611   0.01769398
4358.00   0.24922217   0.01974183
4360.00   0.24693818   0.01580824
4362.00   0.22032550   0.01124600
4364.00   0.25430796   0.01001189
4366.00   0.24114786   0.00975413
4368.00   0.26007667   0.00978422
4370.00   0.24608509   0.00981580
4372.00   0.23907739   0.01003881
4374.00   0.22767285   0.00997629
4376.00   0.24325234   0.00966884
4378.00   0.26478186   0.00948082
4380.00   0.25402060   0.00942187
4382.00   0.23621625   0.00942790
4384.00   0.25451121   0.00937630
4386.00   0.25315580   0.00931637
4388.00   0.24292505   0.00929110
4390.00   0.22714384   0.00919298
4392.00   0.21738391   0.00905473
4394.00   0.23131338   0.00907748
4396.00   0.20963641   0.00908111
4398.00   0.22701259   0.00940029
4400.00   0.22056550   0.00949064
4402.00   0.20611064   0.00922254
4404.00   0.19847441   0.00908268
4406.00   0.22434208   0.00906338
4408.00   0.21688387   0.00906798
4410.00   0.21716474   0.00910505
4412.00   0.18871172   0.00917349
4414.00   0.19689918   0.00934311
4416.00   0.19492891   0.00925614
4418.00   0.19928005   0.00918565
4420.00   0.19498910   0.00906849
4422.00   0.17554855   0.00893942
4424.00   0.15890251   0.00883201
4426.00   0.16478482   0.00875279
4428.00   0.14866704   0.00862651
4430.00   0.14456950   0.00865485
4432.00   0.14910163   0.00866926
4434.00   0.14882246   0.00856214
4436.00   0.15046605   0.00849486
4438.00   0.15404750   0.00854044
4440.00   0.13855997   0.00848536
4442.00   0.13584733   0.00847221
4444.00   0.12629671   0.00845412
4446.00   0.13881071   0.00849736
4448.00   0.11625271   0.00835906
4450.00   0.13703623   0.00847683
4452.00   0.12762082   0.00840806
4454.00   0.12068915   0.00831334
4456.00   0.11062485   0.00826900
4458.00   0.12738414   0.00830624
4460.00   0.11659756   0.00822466
4462.00   0.13002603   0.00830154
4464.00   0.11032854   0.00824628
4466.00   0.12170365   0.00832530
4468.00   0.11553704   0.00823174
4470.00   0.10997383   0.00821888
4472.00   0.10312368   0.00821221
4474.00   0.10063409   0.00821511
4476.00   0.11595464   0.00824335
4478.00   0.11128081   0.00825695
4480.00   0.09388328   0.00809392
4482.00   0.10778268   0.00820262
4484.00   0.11515097   0.00819952
4486.00   0.11194735   0.00822036
4488.00   0.11983334   0.00822698
4490.00   0.12380616   0.00825961
4492.00   0.12305602   0.00838995
4494.00   0.12252701   0.00838523
4496.00   0.11678314   0.00831959
4498.00   0.12232677   0.00836854
4500.00   0.11672453   0.00828927
4502.00   0.10738226   0.00825247
4504.00   0.12086635   0.00832518
4506.00   0.12851939   0.00822977
4508.00   0.13057040   0.00817439
4510.00   0.12965499   0.00815924
4512.00   0.14206108   0.00816019
4514.00   0.13850217   0.00810374
4516.00   0.13542502   0.00805945
4518.00   0.12544018   0.00809842
4520.00   0.12402814   0.00813731
4522.00   0.12159950   0.00807516
4524.00   0.14469592   0.00810626
4526.00   0.12967829   0.00806358
4528.00   0.12906563   0.00816046
4530.00   0.12443111   0.00814123
4532.00   0.13686578   0.00816652
4534.00   0.12975344   0.00806401
4536.00   0.15940684   0.00817145
4538.00   0.14237538   0.00814569
4540.00   0.15274817   0.00820457
4542.00   0.14450707   0.00826542
4544.00   0.16362931   0.00830576
4546.00   0.14631401   0.00811471
4548.00   0.17456980   0.00818901
4550.00   0.17566417   0.00810940
4552.00   0.16690385   0.00808126
4554.00   0.16688509   0.00812410
4556.00   0.17010626   0.00818556
4558.00   0.19008650   0.00832223
4560.00   0.19332649   0.00829152
4562.00   0.18329956   0.00815964
4564.00   0.18367678   0.00818540
4566.00   0.20945680   0.00822592
4568.00   0.18582468   0.00816135
4570.00   0.21454288   0.00823117
4572.00   0.20973366   0.00824872
4574.00   0.22980498   0.00835018
4576.00   0.21555313   0.00821732
4578.00   0.21642925   0.00820689
4580.00   0.24523598   0.00823827
4582.00   0.23367462   0.00807407
4584.00   0.24251197   0.00805334
4586.00   0.24098556   0.00813977
4588.00   0.26943362   0.00824733
4590.00   0.24890813   0.00825688
4592.00   0.27734810   0.00840247
4594.00   0.27180839   0.00842793
4596.00   0.28317133   0.00845040
4598.00   0.28358331   0.00843441
4600.00   0.29502058   0.00837631
4602.00   0.31577411   0.00845849
4604.00   0.29897928   0.00840022
4606.00   0.32848734   0.00855676
4608.00   0.33397597   0.00862660
4610.00   0.32345366   0.00857334
4612.00   0.34604529   0.00867604
4614.00   0.35477331   0.00872378
4616.00   0.35242414   0.00866477
4618.00   0.37354541   0.00875142
4620.00   0.37248376   0.00872403
4622.00   0.37628621   0.00876062
4624.00   0.38168177   0.00877302
4626.00   0.41014168   0.00884723
4628.00   0.41256830   0.00888364
4630.00   0.38778195   0.00885431
4632.00   0.40738586   0.00890760
4634.00   0.42881823   0.00900366
4636.00   0.43686309   0.00896219
4638.00   0.42874166   0.00893112
4640.00   0.43284097   0.00896161
4642.00   0.43835706   0.00898162
4644.00   0.43729594   0.00903996
4646.00   0.44753093   0.00908949
4648.00   0.43554997   0.00898019
4650.00   0.46888462   0.00910897
4652.00   0.44486669   0.00907581
4654.00   0.45607796   0.00910308
4656.00   0.43814951   0.00908165
4658.00   0.47051963   0.00927509
4660.00   0.46907657   0.00930047
4662.00   0.46562135   0.00935396
4664.00   0.47181949   0.00944181
4666.00   0.47018245   0.00952008
4668.00   0.46843222   0.00960159
4670.00   0.47634527   0.00961567
4672.00   0.47596025   0.00955600
4674.00   0.46862760   0.00950255
4676.00   0.48100078   0.00942553
4678.00   0.45741314   0.00927471
4680.00   0.48952463   0.00935866
4682.00   0.46841672   0.00922094
4684.00   0.49513376   0.00925305
4686.00   0.49206597   0.00925655
4688.00   0.48368731   0.00922547
4690.00   0.48277971   0.00919616
4692.00   0.48592982   0.00911589
4694.00   0.49417159   0.00915139
4696.00   0.49013010   0.00908358
4698.00   0.47055161   0.00899142
4700.00   0.46783033   0.00895283
4702.00   0.48724186   0.00906580
4704.00   0.47487026   0.00904181
4706.00   0.46500391   0.00904542
4708.00   0.46516842   0.00910702
4710.00   0.44881567   0.00903510
4712.00   0.46368161   0.00907681
4714.00   0.44312537   0.00900787
4716.00   0.43931648   0.00895080
4718.00   0.43065244   0.00886556
4720.00   0.42152590   0.00876928
4722.00   0.40323442   0.00865848
4724.00   0.41438407   0.00868816
4726.00   0.41407520   0.00885194
4728.00   0.38338622   0.00896738
4730.00   0.37177080   0.00893401
4732.00   0.37870494   0.00893154
4734.00   0.33917663   0.00891283
4736.00   0.33626312   0.00893136
4738.00   0.32711130   0.00898000
4740.00   0.31674331   0.00915585
4742.00   0.29970631   0.00920432
4744.00   0.28519365   0.00894247
4746.00   0.27563807   0.00834998
4748.00   0.27511171   0.00812549
4750.00   0.27381310   0.00803935
4752.00   0.25822377   0.00799571
4754.00   0.23433873   0.00783845
4756.00   0.25119382   0.00769116
4758.00   0.22932428   0.00739211
4760.00   0.23357330   0.00729904
4762.00   0.23643413   0.00732592
4764.00   0.20481515   0.00719537
4766.00   0.23379289   0.00723482
4768.00   0.21505310   0.00713953
4770.00   0.20086929   0.00702049
4772.00   0.19924815   0.00709719
4774.00   0.20407254   0.00711159
4776.00   0.20212382   0.00728223
4778.00   0.18155639   0.00731323
4780.00   0.18799230   0.00728940
4782.00   0.18167028   0.00709962
4784.00   0.18719934   0.00698821
4786.00   0.18441196   0.00690758
4788.00   0.19688587   0.00694721
4790.00   0.17406677   0.00688564
4792.00   0.16180226   0.00682154
4794.00   0.16432218   0.00678385
4796.00   0.17212164   0.00679570
4798.00   0.17409639   0.00679780
4800.00   0.15125221   0.00667162
4802.00   0.15984295   0.00670976
4804.00   0.16628705   0.00684001
4806.00   0.16661301   0.00680507
4808.00   0.17152295   0.00685709
4810.00   0.15761022   0.00678165
4812.00   0.15227842   0.00674790
4814.00   0.16621768   0.00680324
4816.00   0.16128668   0.00678725
4818.00   0.16448177   0.00685045
4820.00   0.15324824   0.00681086
4822.00   0.16722132   0.00687165
4824.00   0.17143147   0.00692717
4826.00   0.16400589   0.00693328
4828.00   0.16760039   0.00698683
4830.00   0.15401575   0.00693430
4832.00   0.16539785   0.00698989
4834.00   0.17520019   0.00706225
4836.00   0.18357705   0.00709610
4838.00   0.15778193   0.00714185
4840.00   0.17960688   0.00724511
4842.00   0.16985632   0.00708289
4844.00   0.17512977   0.00703049
4846.00   0.17950149   0.00703307
4848.00   0.18941328   0.00712467
4850.00   0.18695752   0.00714309
4852.00   0.18649611   0.00721413
4854.00   0.18945658   0.00715551
4856.00   0.19733384   0.00715404
4858.00   0.20537218   0.00718869
4860.00   0.20677409   0.00721647
4862.00   0.23084718   0.00741191
4864.00   0.22597952   0.00739139
4866.00   0.21564394   0.00728989
4868.00   0.22888778   0.00732913
4870.00   0.22112764   0.00729677
4872.00   0.23525985   0.00734888
4874.00   0.22019529   0.00727855
4876.00   0.22588748   0.00739995
4878.00   0.23988687   0.00747174
4880.00   0.24696577   0.00751417
4882.00   0.23489362   0.00736578
4884.00   0.23153628   0.00732886
4886.00   0.23178904   0.00726892
4888.00   0.22912639   0.00724571
4890.00   0.22824235   0.00725250
4892.00   0.21963876   0.00722414
4894.00   0.22874847   0.00723166
4896.00   0.22463812   0.00719597
4898.00   0.22963397   0.00716701
4900.00   0.20692202   0.00703790
4902.00   0.20633046   0.00704450
4904.00   0.20716514   0.00702465
4906.00   0.20338222   0.00706170
4908.00   0.20988706   0.00712250
4910.00   0.21428193   0.00718553
4912.00   0.20858037   0.00706376
4914.00   0.18714009   0.00694859
4916.00   0.20933242   0.00701796
4918.00   0.20139247   0.00700782
4920.00   0.18676960   0.00698399
4922.00   0.18660469   0.00691737
4924.00   0.18818918   0.00684972
4926.00   0.19801663   0.00684353
4928.00   0.20107424   0.00686005
4930.00   0.20496388   0.00685033
4932.00   0.20559311   0.00683512
4934.00   0.21048266   0.00698528
4936.00   0.20297371   0.00696920
4938.00   0.20740305   0.00698000
4940.00   0.20195225   0.00699317
4942.00   0.21796665   0.00700214
4944.00   0.21215093   0.00698416
4946.00   0.23067580   0.00697258
4948.00   0.22470537   0.00702040
4950.00   0.23165283   0.00707617
4952.00   0.23645858   0.00725729
4954.00   0.25565061   0.00740205
4956.00   0.25380090   0.00734553
4958.00   0.26591581   0.00741799
4960.00   0.26545843   0.00740326
4962.00   0.25852048   0.00738244
4964.00   0.28274557   0.00752870
4966.00   0.27806255   0.00757999
4968.00   0.29248482   0.00764403
4970.00   0.30366507   0.00779622
4972.00   0.29979193   0.00793630
4974.00   0.31481731   0.00811489
4976.00   0.31737825   0.00829467
4978.00   0.32680783   0.00853012
4980.00   0.35080513   0.00878085
4982.00   0.33035931   0.00888157
4984.00   0.34878871   0.00895562
4986.00   0.34780982   0.00882825
4988.00   0.37928894   0.00875543
4990.00   0.38458255   0.00865381
4992.00   0.36644170   0.00853918
4994.00   0.37855998   0.00837978
4996.00   0.38967520   0.00829538
4998.00   0.38599190   0.00815614
5000.00   0.37590590   0.00810949
5002.00   0.37831467   0.00810788
5004.00   0.36128035   0.00803765
5006.00   0.38247019   0.00810614
5008.00   0.37641701   0.00808913
5010.00   0.37126470   0.00801648
5012.00   0.38265073   0.00801485
5014.00   0.38700402   0.00799721
5016.00   0.38965750   0.00804929
5018.00   0.35884830   0.00797048
5020.00   0.37838981   0.00808063
5022.00   0.38451132   0.00801502
5024.00   0.37121204   0.00788779
5026.00   0.36099961   0.00779220
5028.00   0.35001943   0.00780807
5030.00   0.33595905   0.00778640
5032.00   0.32849801   0.00772305
5034.00   0.32623166   0.00768996
5036.00   0.31531510   0.00756837
5038.00   0.31082422   0.00750884
5040.00   0.29314443   0.00737387
5042.00   0.29388621   0.00730653
5044.00   0.27581960   0.00725701
5046.00   0.28479579   0.00726185
5048.00   0.27100465   0.00724537
5050.00   0.26469728   0.00722132
5052.00   0.25304809   0.00718291
5054.00   0.25391024   0.00718381
5056.00   0.24903999   0.00710557
5058.00   0.24910855   0.00710026
5060.00   0.23705739   0.00705628
5062.00   0.23270772   0.00714089
5064.00   0.23375879   0.00726346
5066.00   0.20991796   0.00723892
5068.00   0.20414911   0.00737745
5070.00   0.20387968   0.00739623
5072.00   0.22562256   0.00727778
5074.00   0.21462578   0.00715513
5076.00   0.21139999   0.00708051
5078.00   0.21877491   0.00721957
5080.00   0.20594412   0.00758960
5082.00   0.19940346   0.00811471
5084.00   0.20986901   0.00840489
5086.00   0.19065383   0.00834822
5088.00   0.17486848   0.00791358
5090.00   0.18976155   0.00756650
5092.00   0.19858420   0.00724105
5094.00   0.19862916   0.00711220
5096.00   0.19690901   0.00720845
5098.00   0.19773947   0.00727896
5100.00   0.18961878   0.00726803
5102.00   0.18491709   0.00702097
5104.00   0.19932035   0.00688431
5106.00   0.19264401   0.00680076
5108.00   0.18936534   0.00678123
5110.00   0.19351877   0.00684350
5112.00   0.18928991   0.00684904
5114.00   0.18579443   0.00690101
5116.00   0.20062417   0.00694332
5118.00   0.20667054   0.00697842
5120.00   0.20244321   0.00686418
5122.00   0.18525973   0.00679952
5124.00   0.18472685   0.00673060
5126.00   0.20067352   0.00675444
5128.00   0.20585485   0.00670977
5130.00   0.18961687   0.00666130
5132.00   0.20507251   0.00675726
5134.00   0.19632386   0.00671849
5136.00   0.18444553   0.00666422
5138.00   0.18233716   0.00659938
5140.00   0.19191189   0.00667103
5142.00   0.18730573   0.00665287
5144.00   0.19044176   0.00667899
5146.00   0.18625462   0.00674358
5148.00   0.18352170   0.00681890
5150.00   0.18164518   0.00695650
5152.00   0.17207089   0.00704906
5154.00   0.17949414   0.00711215
5156.00   0.18130854   0.00705029
5158.00   0.18934132   0.00693000
5160.00   0.19213471   0.00685225
5162.00   0.19735605   0.00675593
5164.00   0.18655552   0.00666020
5166.00   0.19764417   0.00666276
5168.00   0.19142112   0.00660756
5170.00   0.18748719   0.00658538
5172.00   0.19489717   0.00660203
5174.00   0.18360721   0.00658136
5176.00   0.19679613   0.00671596
5178.00   0.18138525   0.00664576
5180.00   0.18628998   0.00664466
5182.00   0.18215409   0.00661559
5184.00   0.19981545   0.00667425
5186.00   0.18736863   0.00658714
5188.00   0.19321732   0.00659423
5190.00   0.18021399   0.00659193
5192.00   0.18012527   0.00654866
5194.00   0.19169457   0.00668290
5196.00   0.18643807   0.00676274
5198.00   0.18188857   0.00684768
5200.00   0.18836373   0.00682503
5202.00   0.20445107   0.00677555
5204.00   0.18709199   0.00662870
5206.00   0.18834016   0.00664555
5208.00   0.18904381   0.00668126
5210.00   0.18539330   0.00676465
5212.00   0.20169605   0.00678181
5214.00   0.19037521   0.00665893
5216.00   0.19652180   0.00668098
5218.00   0.21009386   0.00682493
5220.00   0.20177521   0.00678909
5222.00   0.20684542   0.00680405
5224.00   0.21162996   0.00674009
5226.00   0.20549080   0.00662794
5228.00   0.20244479   0.00660457
5230.00   0.19845936   0.00658746
5232.00   0.20202504   0.00654782
5234.00   0.21751806   0.00653012
5236.00   0.21705069   0.00655098
5238.00   0.21096678   0.00662011
5240.00   0.21282811   0.00665234
5242.00   0.21502692   0.00663701
5244.00   0.21291639   0.00658211
5246.00   0.22430629   0.00664795
5248.00   0.23991692   0.00669804
5250.00   0.22153878   0.00663604
5252.00   0.22682200   0.00671975
5254.00   0.22945304   0.00673569
5256.00   0.22817971   0.00686972
5258.00   0.23339142   0.00694189
5260.00   0.23393069   0.00691498
5262.00   0.23038559   0.00684381
5264.00   0.23256671   0.00684145
5266.00   0.24265064   0.00680444
5268.00   0.25265178   0.00683754
5270.00   0.24001092   0.00677286
5272.00   0.26607609   0.00690588
5274.00   0.25845444   0.00688710
5276.00   0.25455064   0.00693434
5278.00   0.25591168   0.00695754
5280.00   0.27346024   0.00702355
5282.00   0.27616405   0.00703021
5284.00   0.28244182   0.00713780
5286.00   0.27569726   0.00715854
5288.00   0.28543562   0.00712611
5290.00   0.29226947   0.00711683
5292.00   0.30034876   0.00710497
5294.00   0.28692818   0.00711687
5296.00   0.29556951   0.00717633
5298.00   0.30791634   0.00723632
5300.00   0.31031945   0.00726908
5302.00   0.30451697   0.00730221
5304.00   0.30030522   0.00729293
5306.00   0.29692909   0.00727957
5308.00   0.29331711   0.00728577
5310.00   0.31227857   0.00734761
5312.00   0.31284794   0.00733047
5314.00   0.31845194   0.00733180
5316.00   0.31548181   0.00734493
5318.00   0.33325803   0.00738008
5320.00   0.32458571   0.00737166
5322.00   0.32116085   0.00736853
5324.00   0.32613879   0.00741157
5326.00   0.32720044   0.00742602
5328.00   0.34221360   0.00746925
5330.00   0.34610677   0.00744129
5332.00   0.35670862   0.00741327
5334.00   0.35355774   0.00741051
5336.00   0.36255285   0.00750589
5338.00   0.36195281   0.00757271
5340.00   0.37075061   0.00769283
5342.00   0.35593039   0.00772132
5344.00   0.35839429   0.00771548
5346.00   0.35757825   0.00778298
5348.00   0.36867893   0.00796247
5350.00   0.35240531   0.00792684
5352.00   0.36374602   0.00798391
5354.00   0.37591773   0.00809899
5356.00   0.38141823   0.00812997
5358.00   0.39612734   0.00808427
5360.00   0.39763376   0.00794910
5362.00   0.39842784   0.00787857
5364.00   0.39013183   0.00783036
5366.00   0.40061450   0.00784463
5368.00   0.38198137   0.00782809
5370.00   0.38663191   0.00786962
5372.00   0.39252493   0.00799547
5374.00   0.38345340   0.00803694
5376.00   0.38638613   0.00809099
5378.00   0.40233803   0.00809803
5380.00   0.39751524   0.00810926
5382.00   0.38678411   0.00804113
5384.00   0.41318685   0.00815543
5386.00   0.41825503   0.00819031
5388.00   0.40726000   0.00817501
5390.00   0.40676597   0.00824316
5392.00   0.40924647   0.00834672
5394.00   0.41139781   0.00834269
5396.00   0.41185793   0.00831697
5398.00   0.39615029   0.00832714
5400.00   0.40232044   0.00840427
5402.00   0.39141330   0.00834903
5404.00   0.40743062   0.00846447
5406.00   0.40015575   0.00847934
5408.00   0.38930380   0.00851512
5410.00   0.40570462   0.00864914
5412.00   0.40057150   0.00879379
5414.00   0.40892059   0.00897265
5416.00   0.39558846   0.00902188
5418.00   0.40600091   0.00915284
5420.00   0.40231466   0.00923387
5422.00   0.41142249   0.00930231
5424.00   0.41442409   0.00933979
5426.00   0.40629575   0.00931915
5428.00   0.39861086   0.00926577
5430.00   0.38401765   0.00923448
5432.00   0.39640367   0.00929579
5434.00   0.39491519   0.00938632
5436.00   0.41742054   0.00943393
5438.00   0.40047482   0.00943827
5440.00   0.40863901   0.00952485
5442.00   0.40927297   0.00964723
5444.00   0.39435259   0.00966780
5446.00   0.40631765   0.00978838
5448.00   0.43394253   0.00994051
5450.00   0.43166596   0.00994038
5452.00   0.41914102   0.00988199
5454.00   0.43389001   0.00998169
5456.00   0.43317020   0.01070396
5458.00   0.42899144   0.01295459
5460.00   0.39851734   0.01439866
5462.00   0.40021747   0.01407149
5464.00   0.43238476   0.01298888
5466.00   0.40951782   0.01198475
5468.00   0.43340850   0.01138324
5470.00   0.42522934   0.01078725
5472.00   0.43361560   0.01038820
5474.00   0.41994035   0.01012636
5476.00   0.42534015   0.01007837
5478.00   0.42534104   0.01019304
5480.00   0.43715397   0.01041977
5482.00   0.42896548   0.01059035
5484.00   0.42409629   0.01059698
5486.00   0.42266726   0.01043350
5488.00   0.44302800   0.01043358
5490.00   0.42793420   0.01021338
5492.00   0.45063606   0.01029414
5494.00   0.41776139   0.01009412
5496.00   0.41197792   0.01003055
5498.00   0.43072122   0.01012521
5500.00   0.44368213   0.01014062
5502.00   0.43079272   0.01010499
5504.00   0.44600725   0.01022561
5506.00   0.45294678   0.01027062
5508.00   0.44505364   0.01031243
5510.00   0.45498899   0.01036740
5512.00   0.47207838   0.01054994
5514.00   0.48536256   0.01065182
5516.00   0.47114241   0.01059718
5518.00   0.47450319   0.01071111
5520.00   0.46568969   0.01077714
5522.00   0.49516135   0.01079668
5524.00   0.49155268   0.01068963
5526.00   0.46366507   0.01062063
5528.00   0.49298498   0.01059717
5530.00   0.50750136   0.01065703
5532.00   0.49841258   0.01066725
5534.00   0.49241909   0.01057693
5536.00   0.51148087   0.01066223
5538.00   0.51350778   0.01069674
5540.00   0.52282965   0.01080509
5542.00   0.53703225   0.01088656
5544.00   0.54109073   0.01086673
5546.00   0.53347540   0.01086265
5548.00   0.53646666   0.01093473
5550.00   0.54696435   0.01093613
5552.00   0.57281786   0.01103862
5554.00   0.54582739   0.01098705
5556.00   0.56849647   0.01111528
5558.00   0.55432302   0.01109756
5560.00   0.56412429   0.01111903
5562.00   0.56856924   0.01123051
5564.00   0.56811219   0.01128097
5566.00   0.56030107   0.01127482
5568.00   0.55824512   0.01132789
5570.00   0.58659583   0.01140249
5572.00   0.54057097   0.01212625
5574.00   0.58204484   0.01610284
5576.00   0.59184641   0.01876586
5578.00   0.59043348   0.01834588
5580.00   0.53934008   0.01638716
5582.00   0.56846726   0.01500878
5584.00   0.58271921   0.01393547
5586.00   0.56620258   0.01313260
5588.00   0.56887287   0.01247880
5590.00   0.58042699   0.01820730
5592.00   0.58292502   0.01813762
5594.00   0.58304560   0.01798987
5596.00   0.59928799   0.01777662
5598.00   0.59153712   0.01750135
5600.00   0.56732631   0.01735934
5602.00   0.57899290   0.01742582
5604.00   0.59892261   0.01726484
5606.00   0.56490713   0.01702090
5608.00   0.56937248   0.01690590
5610.00   0.56158972   0.01682976
5612.00   0.55488569   0.01669191
5614.00   0.56309301   0.01661566
5616.00   0.56282121   0.01651880
5618.00   0.57172453   0.01633948
5620.00   0.53724593   0.01617130
5622.00   0.54487640   0.01613923
5624.00   0.56876135   0.01599011
5626.00   0.55993557   0.01586487
5628.00   0.53385955   0.01574599
5630.00   0.53688270   0.01563793
5632.00   0.52501702   0.01548558
5634.00   0.50264126   0.01531225
5636.00   0.50480556   0.01523497
5638.00   0.51009613   0.01516018
5640.00   0.49969754   0.01506003
5642.00   0.52460027   0.01497009
5644.00   0.52217317   0.01489443
5646.00   0.48836938   0.01486795
5648.00   0.47910225   0.01476175
5650.00   0.47356477   0.01460878
5652.00   0.47301459   0.01440981
5654.00   0.45352942   0.01435601
5656.00   0.42357039   0.01431348
5658.00   0.44536543   0.01428917
5660.00   0.43621877   0.01427642
5662.00   0.42900434   0.01435563
5664.00   0.40608695   0.01445382
5666.00   0.38607264   0.01451198
5668.00   0.36965200   0.01463568
5670.00   0.36976838   0.01480018
5672.00   0.40243322   0.01495649
5674.00   0.40466464   0.01507153
5676.00   0.37171176   0.01517812
5678.00   0.36311868   0.01526913
5680.00   0.35655522   0.01546472
5682.00   0.38321590   0.01574948
5684.00   0.35710821   0.01602633
5686.00   0.35227382   0.01608381
5688.00   0.35895157   0.01599840
5690.00   0.34286317   0.01559423
5692.00   0.32910487   0.01504548
5694.00   0.32266086   0.01448805
5696.00   0.31954780   0.01390497
5698.00   0.32447329   0.01341942
5700.00   0.31249908   0.01298932
5702.00   0.30404198   0.01268510
5704.00   0.30177614   0.01247515
5706.00   0.29776606   0.01229480
5708.00   0.28390902   0.01206714
5710.00   0.28379008   0.01195571
5712.00   0.28881654   0.01189463
5714.00   0.28302243   0.01177467
5716.00   0.27480581   0.01162275
5718.00   0.27234167   0.01145770
5720.00   0.26834270   0.01128339
5722.00   0.26546681   0.01115788
5724.00   0.25700250   0.01102333
5726.00   0.24294066   0.01088622
5728.00   0.23448440   0.01106127
5730.00   0.23021966   0.01171040
5732.00   0.22666775   0.01197174
5734.00   0.22185074   0.01126701
5736.00   0.19763619   0.01053207
5738.00   0.21567567   0.01035658
5740.00   0.22722252   0.01037139
5742.00   0.22835214   0.01035841
5744.00   0.21592802   0.01030771
5746.00   0.20798360   0.01026132
5748.00   0.21400039   0.01028509
5750.00   0.21599664   0.01028973
5752.00   0.21511191   0.01031541
5754.00   0.20938492   0.01034979
5756.00   0.21245606   0.01044978
5758.00   0.21466982   0.01059261
5760.00   0.21306579   0.01073250
5762.00   0.20497876   0.01087830
5764.00   0.19925852   0.01108150
5766.00   0.20445895   0.01140242
5768.00   0.21285968   0.01159117
5770.00   0.20824099   0.01150689
5772.00   0.20711119   0.01134886
5774.00   0.21326137   0.01117215
5776.00   0.21298592   0.01085243
5778.00   0.21413289   0.01038131
5780.00   0.21022040   0.01182062
5782.00   0.22212687   0.01184509
5784.00   0.23343304   0.00732833
5786.00   0.22779608   0.01130065
5788.00   0.22511473   0.01155173
5790.00   0.23518649   0.01168302
5792.00   0.25249767   0.01168928
5794.00   0.25009888   0.01150968
5796.00   0.25150901   0.01127010
5798.00   0.22869368   0.01097957
5800.00   0.25048172   0.00717851
5802.00   0.25899047   0.00715193
5804.00   0.27009156   0.01040166
5806.00   0.26288947   0.01087026
5808.00   0.27025262   0.01073316
5810.00   0.28675938   0.01077807
5812.00   0.28889418   0.01079865
5814.00   0.28837880   0.01080638
5816.00   0.28316119   0.01083873
5818.00   0.29856518   0.01092509
5820.00   0.31013215   0.01100674
5822.00   0.32038921   0.01107825
5824.00   0.32520759   0.01113500
5826.00   0.32445028   0.01116821
5828.00   0.32985127   0.01122660
5830.00   0.34333849   0.01133952
5832.00   0.35962018   0.01144291
5834.00   0.36158559   0.01149361
5836.00   0.37033641   0.01155584
5838.00   0.38098785   0.01163572
5840.00   0.38976309   0.01172570
5842.00   0.39599314   0.01180413
5844.00   0.40249643   0.01188746
5846.00   0.40907168   0.01195408
5848.00   0.40681410   0.01197583
5850.00   0.42247757   0.01205865
5852.00   0.43746540   0.01215855
5854.00   0.43938765   0.01222169
5856.00   0.44745603   0.01229772
5858.00   0.46222281   0.01241196
5860.00   0.47252885   0.01252027
5862.00   0.47371292   0.01261572
5864.00   0.47195902   0.01268307
5866.00   0.50617075   0.01276630
5868.00   0.51428610   0.01284603
5870.00   0.49623480   0.01291549
5872.00   0.50010270   0.01295889
5874.00   0.50839382   0.01305571
5876.00   0.54106569   0.01322937
5878.00   0.55250597   0.01354857
5880.00   0.55522376   0.01409202
5882.00   0.52006119   0.01480433
5884.00   0.51642853   0.01594928
5886.00   0.51508784   0.01745923
5888.00   0.47243127   0.01878590
5890.00   0.49505463   0.01957923
5892.00   0.52747786   0.02009971
5894.00   0.49784741   0.02007388
5896.00   0.50575715   0.01918424
5898.00   0.48275924   0.01772126
5900.00   0.57972622   0.01638203
5902.00   0.55881661   0.01508915
5904.00   0.56205720   0.01390291
5906.00   0.58690614   0.01317949
5908.00   0.55665421   0.01306118
5910.00   0.58307397   0.01312999
5912.00   0.58840936   0.01314129
5914.00   0.58502489   0.01312879
5916.00   0.55886990   0.01312456
5918.00   0.55358785   0.01310719
5920.00   0.54129344   0.01306026
5922.00   0.54969269   0.01306961
5924.00   0.55429435   0.01309422
5926.00   0.58318520   0.01314842
5928.00   0.55003643   0.01318119
5930.00   0.55385166   0.01321264
5932.00   0.55635339   0.01316291
5934.00   0.55416077   0.01310738
5936.00   0.55262023   0.01305730
5938.00   0.54280734   0.01294433
5940.00   0.53359360   0.01279662
5942.00   0.54944927   0.01265920
5944.00   0.54670179   0.01259356
5946.00   0.53404391   0.01253998
5948.00   0.53482014   0.01256078
5950.00   0.55134213   0.01260581
5952.00   0.52668184   0.01257159
5954.00   0.50811476   0.01243831
5956.00   0.49850789   0.01233640
5958.00   0.49273610   0.01221600
5960.00   0.46819818   0.01198541
5962.00   0.44246745   0.01177741
5964.00   0.42621747   0.01166257
5966.00   0.43028975   0.01164096
5968.00   0.43295693   0.01169290
5970.00   0.43091795   0.01170582
5972.00   0.44858012   0.01180517
5974.00   0.46468672   0.01192519
5976.00   0.47632363   0.01199506
5978.00   0.48757136   0.01189732
5980.00   0.46605644   0.01186542
5982.00   0.47221485   0.01184099
5984.00   0.47702980   0.01179806
5986.00   0.46904978   0.01175286
5988.00   0.46207359   0.01172176
5990.00   0.45665118   0.01167673
5992.00   0.44776902   0.01160866
5994.00   0.44454977   0.01156570
5996.00   0.44979110   0.01155479
5998.00   0.46545416   0.01151854
6000.00   0.44186416   0.01146238
6002.00   0.43930253   0.01142806
6004.00   0.45352498   0.01137392
6006.00   0.44692415   0.01130842
6008.00   0.41685939   0.01125803
6010.00   0.39037386   0.01130956
6012.00   0.41351050   0.01132965
6014.00   0.38223663   0.01115891
6016.00   0.38107646   0.01099735
6018.00   0.39107564   0.01097966
6020.00   0.39203286   0.01091059
6022.00   0.38693976   0.01085693
6024.00   0.38509750   0.01083808
6026.00   0.36985931   0.01074120
6028.00   0.36891380   0.01074477
6030.00   0.36699554   0.01071062
6032.00   0.36066616   0.01062849
6034.00   0.35264111   0.01055152
6036.00   0.34045538   0.01047358
6038.00   0.33433068   0.01040842
6040.00   0.33553705   0.01038500
6042.00   0.33604881   0.01034659
6044.00   0.32523692   0.01026726
6046.00   0.32961026   0.01022899
6048.00   0.32729381   0.01020735
6050.00   0.31595907   0.01015258
6052.00   0.30844757   0.01009047
6054.00   0.30884284   0.01005814
6056.00   0.31042564   0.01003680
6058.00   0.30565834   0.01000658
6060.00   0.29275832   0.00994795
6062.00   0.28207374   0.00988933
6064.00   0.28296942   0.00984871
6066.00   0.28362542   0.00982879
6068.00   0.28562638   0.00983562
6070.00   0.28003547   0.00981599
6072.00   0.27963644   0.00980323
6074.00   0.28123251   0.00976604
6076.00   0.27272940   0.00971308
6078.00   0.26637745   0.00968971
6080.00   0.26950589   0.00969484
6082.00   0.26800609   0.00965536
6084.00   0.26167384   0.00963403
6086.00   0.26575786   0.00964718
6088.00   0.26791897   0.00966045
6090.00   0.27296731   0.00969648
6092.00   0.27143055   0.00973607
6094.00   0.26602101   0.00970534
6096.00   0.26245499   0.00972278
6098.00   0.25759163   0.00978205
6100.00   0.25773907   0.00990169
6102.00   0.25802875   0.01001273
6104.00   0.26288986   0.01018526
6106.00   0.26472589   0.01033228
6108.00   0.26224679   0.01051577
6110.00   0.25522336   0.01070067
6112.00   0.27201366   0.01079962
6114.00   0.25583220   0.01080488
6116.00   0.25625503   0.01071498
6118.00   0.25854024   0.01055109
6120.00   0.26650691   0.01033925
6122.00   0.26103032   0.01014983
6124.00   0.26123536   0.01000439
6126.00   0.25895005   0.00987522
6128.00   0.25786188   0.00978719
6130.00   0.26085648   0.00976869
6132.00   0.26964197   0.00980187
6134.00   0.26935264   0.00980213
6136.00   0.26570275   0.00977539
6138.00   0.26464927   0.00978041
6140.00   0.26052663   0.00978139
6142.00   0.26383182   0.00982267
6144.00   0.26035675   0.00982159
6146.00   0.25357035   0.00979159
6148.00   0.25998929   0.00983043
6150.00   0.27225846   0.00992887
6152.00   0.27437362   0.00999880
6154.00   0.27466860   0.01007026
6156.00   0.27378261   0.01012744
6158.00   0.27229109   0.01016660
6160.00   0.26655874   0.01010961
6162.00   0.26146677   0.00996967
6164.00   0.26213372   0.00985353
6166.00   0.26740262   0.00975320
6168.00   0.27842203   0.00964735
6170.00   0.28224802   0.00953590
6172.00   0.27715668   0.00946865
6174.00   0.27133217   0.00940910
6176.00   0.27319387   0.00935870
6178.00   0.27634987   0.00934920
6180.00   0.26950184   0.00930014
6182.00   0.27175605   0.00931019
6184.00   0.28988865   0.00938953
6186.00   0.29173490   0.00940221
6188.00   0.28212067   0.00933760
6190.00   0.28209522   0.00934624
6192.00   0.28509369   0.00936703
6194.00   0.29700831   0.00938885
6196.00   0.29496837   0.00938503
6198.00   0.29323551   0.00936963
6200.00   0.29016647   0.00936066
6202.00   0.28887463   0.00939605
6204.00   0.28490603   0.00942497
6206.00   0.29359320   0.00947070
6208.00   0.29000327   0.00946408
6210.00   0.28949103   0.00944786
6212.00   0.28679988   0.00941536
6214.00   0.28193161   0.00936384
6216.00   0.28937316   0.00934499
6218.00   0.29656610   0.00933638
6220.00   0.29800424   0.00932188
6222.00   0.29767764   0.00929036
6224.00   0.29512158   0.00926185
6226.00   0.29124603   0.00925699
6228.00   0.29469240   0.00929752
6230.00   0.29634568   0.00936180
6232.00   0.29807740   0.00948035
6234.00   0.29845265   0.00962344
6236.00   0.29617929   0.00970086
6238.00   0.29763624   0.00970407
6240.00   0.30416122   0.00967148
6242.00   0.30195680   0.00955599
6244.00   0.29743508   0.00942069
6246.00   0.29655471   0.00936208
6248.00   0.29068193   0.00927620
6250.00   0.29481927   0.00928380
6252.00   0.30582282   0.00939806
6254.00   0.30619958   0.00950285
6256.00   0.30851191   0.00962546
6258.00   0.32331157   0.00973372
6260.00   0.32905141   0.00976619
6262.00   0.32624635   0.00970403
6264.00   0.31582636   0.00955939
6266.00   0.32897329   0.00943570
6268.00   0.32242963   0.00934251
6270.00   0.34673581   0.00980367
6272.00   0.34824240   0.01093355
6274.00   0.35981530   0.01192155
6276.00   0.35597670   0.01203163
6278.00   0.36669892   0.01048069
6280.00   0.36283275   0.00969370
6282.00   0.34939954   0.00958512
6284.00   0.35941854   0.00975699
6286.00   0.36601007   0.00973058
6288.00   0.36128262   0.00975371
6290.00   0.35812154   0.00986414
6292.00   0.36085472   0.01009059
6294.00   0.36270699   0.01062632
6296.00   0.35857198   0.01148052
6298.00   0.36167911   0.01328475
6300.00   0.36141986   0.01302573
6302.00   0.36530006   0.01237056
6304.00   0.36223751   0.01234318
6306.00   0.33871505   0.01114151
6308.00   0.34389928   0.01066206
6310.00   0.34099114   0.01002640
6312.00   0.34001002   0.00947957
6314.00   0.33789113   0.00929491
6316.00   0.36294633   0.00919408
6318.00   0.33673677   0.00912545
6320.00   0.32351115   0.00904456
6322.00   0.32046953   0.00903110
6324.00   0.31595159   0.00906686
6326.00   0.30825701   0.00908236
6328.00   0.30204996   0.00906725
6330.00   0.29920399   0.00901795
6332.00   0.30541331   0.00899909
6334.00   0.29686573   0.00883675
6336.00   0.28925446   0.00870882
6338.00   0.28855544   0.00862607
6340.00   0.28949949   0.00856551
6342.00   0.28104684   0.00854114
6344.00   0.27175578   0.00855245
6346.00   0.27156207   0.00855786
6348.00   0.27335081   0.00854435
6350.00   0.26683432   0.00851609
6352.00   0.25855422   0.00852698
6354.00   0.25487229   0.00856337
6356.00   0.25396922   0.00864550
6358.00   0.24828489   0.00882476
6360.00   0.24216676   0.00907152
6362.00   0.24537301   0.00921635
6364.00   0.24329710   0.00918709
6366.00   0.24173291   0.00905500
6368.00   0.24239303   0.00883766
6370.00   0.24123096   0.00850418
6372.00   0.24499679   0.00827709
6374.00   0.24394305   0.00820115
6376.00   0.24248672   0.00822555
6378.00   0.24066925   0.00825853
6380.00   0.24512048   0.00829546
6382.00   0.25002870   0.00833581
6384.00   0.25013626   0.00834210
6386.00   0.24561997   0.00829283
6388.00   0.25049630   0.00824985
6390.00   0.25063112   0.00820229
6392.00   0.25306299   0.00817894
6394.00   0.25120679   0.00812664
6396.00   0.24352300   0.00810364
6398.00   0.26994342   0.00820675
6400.00   0.25873879   0.00829749
6402.00   0.26345012   0.00829361
6404.00   0.25799760   0.00825431
6406.00   0.25982448   0.00827791
6408.00   0.26307997   0.00830304
6410.00   0.26600647   0.00830507
6412.00   0.26946062   0.00828819
6414.00   0.27143720   0.00830249
6416.00   0.27511710   0.00831964
6418.00   0.27649656   0.00832958
6420.00   0.27997348   0.00832519
6422.00   0.28219238   0.00829567
6424.00   0.28469202   0.00829066
6426.00   0.28908753   0.00831552
6428.00   0.29385734   0.00831976
6430.00   0.29375294   0.00830803
6432.00   0.30291399   0.00836926
6434.00   0.30826306   0.00839410
6436.00   0.30869076   0.00837436
6438.00   0.30996978   0.00836942
6440.00   0.31626889   0.00838917
6442.00   0.32119974   0.00841445
6444.00   0.31613633   0.00844394
6446.00   0.31101611   0.00845001
6448.00   0.32579699   0.00850236
6450.00   0.32842240   0.00856036
6452.00   0.32873130   0.00859812
6454.00   0.33733746   0.00863823
6456.00   0.34803781   0.00867843
6458.00   0.35605296   0.00875051
6460.00   0.35798225   0.00883046
6462.00   0.35797790   0.00887824
6464.00   0.35624656   0.00890229
6466.00   0.38582635   0.00895365
6468.00   0.36646056   0.00900121
6470.00   0.36675465   0.00897852
6472.00   0.37078390   0.00890911
6474.00   0.37289894   0.00882282
6476.00   0.38393474   0.00879362
6478.00   0.39384213   0.00879336
6480.00   0.39317068   0.00877986
6482.00   0.39056444   0.00875206
6484.00   0.39497027   0.00875594
6486.00   0.40391251   0.00879891
6488.00   0.40608916   0.00883816
6490.00   0.40996882   0.00888661
6492.00   0.41856751   0.00897905
6494.00   0.42000890   0.00910917
6496.00   0.42721024   0.00927566
6498.00   0.43654475   0.00939731
6500.00   0.44409338   0.00945416
6502.00   0.44608656   0.00946507
6504.00   0.46682632   0.00941208
6506.00   0.46757892   0.00931461
6508.00   0.45568991   0.00927553
6510.00   0.46441355   0.00925362
6512.00   0.46706924   0.00921023
6514.00   0.46643022   0.00914383
6516.00   0.45926082   0.00912689
6518.00   0.45598185   0.00914996
6520.00   0.46503901   0.00921143
6522.00   0.48046529   0.00927257
6524.00   0.48657146   0.00932292
6526.00   0.49175408   0.00940295
6528.00   0.49179390   0.00950384
6530.00   0.49125949   0.00956689
6532.00   0.49397287   0.00958623
6534.00   0.50085783   0.00958521
6536.00   0.50713986   0.00957314
6538.00   0.52266955   0.00960988
6540.00   0.51054364   0.00965158
6542.00   0.51889563   0.00974249
6544.00   0.51211160   0.01000737
6546.00   0.52568620   0.01045585
6548.00   0.53003019   0.01128118
6550.00   0.53886998   0.01152683
6552.00   0.54217243   0.01115228
6554.00   0.53617555   0.01046142
6556.00   0.52449560   0.00984356
6558.00   0.52525514   0.00970890
6560.00   0.54900289   0.00968767
6562.00   0.54779828   0.00965414
6564.00   0.53484243   0.00967269
6566.00   0.53653997   0.00966893
6568.00   0.53250438   0.00958776
6570.00   0.56575108   0.00953973
6572.00   0.56267804   0.00954559
6574.00   0.53853220   0.00958113
6576.00   0.55923927   0.00956470
6578.00   0.53448033   0.00953132
6580.00   0.53185350   0.00950695
6582.00   0.53208435   0.00948943
6584.00   0.53478235   0.00944094
6586.00   0.55171144   0.00938431
6588.00   0.55366468   0.00937442
6590.00   0.55657613   0.00937436
6592.00   0.55308580   0.00937372
6594.00   0.54421747   0.00937180
6596.00   0.51845646   0.00936137
6598.00   0.51972008   0.00937819
6600.00   0.51996785   0.00937873
6602.00   0.51457816   0.00935069
6604.00   0.51293063   0.00932600
6606.00   0.51083112   0.00930233
6608.00   0.51295322   0.00927845
6610.00   0.53031933   0.00918733
6612.00   0.52523160   0.00909796
6614.00   0.49899173   0.00906748
6616.00   0.49814472   0.00906360
6618.00   0.49746332   0.00906890
6620.00   0.49589658   0.00906626
6622.00   0.48966756   0.00902812
6624.00   0.47513628   0.00897839
6626.00   0.46508303   0.00895749
6628.00   0.46824741   0.00896544
6630.00   0.47194961   0.00896001
6632.00   0.47260460   0.00892907
6634.00   0.46976936   0.00889001
6636.00   0.45921442   0.00885720
6638.00   0.43815765   0.00882661
6640.00   0.40660450   0.00875576
6642.00   0.39165354   0.00870848
6644.00   0.39520726   0.00868350
6646.00   0.40390787   0.00865338
6648.00   0.40816531   0.00858093
6650.00   0.41366211   0.00852922
6652.00   0.41634008   0.00850024
6654.00   0.41801751   0.00849091
6656.00   0.41398212   0.00847731
6658.00   0.40771389   0.00847875
6660.00   0.39096889   0.00849588
6662.00   0.37719640   0.00851086
6664.00   0.36850426   0.00849615
6666.00   0.36985683   0.00846596
6668.00   0.37006715   0.00840020
6670.00   0.36879739   0.00831806
6672.00   0.36688530   0.00824358
6674.00   0.37105474   0.00820247
6676.00   0.36734208   0.00816337
6678.00   0.36205769   0.00814126
6680.00   0.35588768   0.00810683
6682.00   0.35329518   0.00806992
6684.00   0.34689701   0.00800808
6686.00   0.34500739   0.00798827
6688.00   0.34001848   0.00794306
6690.00   0.33149704   0.00789307
6692.00   0.32496440   0.00787919
6694.00   0.32092914   0.00785820
6696.00   0.31715301   0.00782584
6698.00   0.31786492   0.00782729
6700.00   0.30836365   0.00781489
6702.00   0.29854870   0.00780077
6704.00   0.29594657   0.00782776
6706.00   0.29427567   0.00784221
6708.00   0.29121244   0.00782342
6710.00   0.28557834   0.00777084
6712.00   0.28527787   0.00770394
6714.00   0.27601048   0.00759852
6716.00   0.26885796   0.00751491
6718.00   0.26443025   0.00745987
6720.00   0.26577613   0.00745280
6722.00   0.26618186   0.00742003
6724.00   0.25842822   0.00736579
6726.00   0.25013185   0.00731122
6728.00   0.24735813   0.00727102
6730.00   0.24463320   0.00723948
6732.00   0.24024613   0.00721636
6734.00   0.23373343   0.00716820
6736.00   0.23020609   0.00713268
6738.00   0.22869967   0.00711871
6740.00   0.21561480   0.00705534
6742.00   0.21280248   0.00700789
6744.00   0.21344006   0.00696727
6746.00   0.21364312   0.00696560
6748.00   0.20739643   0.00692369
6750.00   0.20456968   0.00688368
6752.00   0.20192605   0.00683557
6754.00   0.19616002   0.00681479
6756.00   0.19338287   0.00680309
6758.00   0.19065952   0.00676061
6760.00   0.18665399   0.00672435
6762.00   0.18174559   0.00668401
6764.00   0.18321969   0.00666652
6766.00   0.18155448   0.00664115
6768.00   0.18012245   0.00663455
6770.00   0.17376088   0.00660180
6772.00   0.17050903   0.00657095
6774.00   0.17356206   0.00655735
6776.00   0.17579181   0.00657645
6778.00   0.16944933   0.00655297
6780.00   0.16488309   0.00651328
6782.00   0.15682751   0.00646021
6784.00   0.15475555   0.00644262
6786.00   0.15302803   0.00641820
6788.00   0.15353669   0.00641202
6790.00   0.15339825   0.00639896
6792.00   0.14960784   0.00639169
6794.00   0.14264239   0.00639810
6796.00   0.13827461   0.00641984
6798.00   0.12747422   0.00637728
6800.00   0.12286178   0.00631835
6802.00   0.12996541   0.00631124
6804.00   0.13620318   0.00631670
6806.00   0.13665313   0.00630543
6808.00   0.13338701   0.00627776
6810.00   0.12427800   0.00623485
6812.00   0.12133231   0.00623370
6814.00   0.12325501   0.00626969
6816.00   0.12592445   0.00627891
6818.00   0.12291238   0.00623116
6820.00   0.12318615   0.00623756
6822.00   0.12691739   0.00633050
6824.00   0.13040420   0.00654454
6826.00   0.12998582   0.00675859
6828.00   0.13816768   0.00704068
6830.00   0.12901825   0.00746565
6832.00   0.12870431   0.00792062
6834.00   0.11948155   0.00807890
6836.00   0.14089830   0.00819142
6838.00   0.13596006   0.00807764
6840.00   0.12161493   0.00729786
6842.00   0.12730128   0.00645214
6844.00   0.12517864   0.00615570
6846.00   0.11793397   0.00619052
6848.00   0.11491918   0.00615321
6850.00   0.12097182   0.00609058
6852.00   0.12203887   0.00604539
6854.00   0.11950687   0.00604659
6856.00   0.11784977   0.00616621
6858.00   0.11919153   0.00645175
6860.00   0.11732494   0.00678462
6862.00   0.12062478   0.00705059
6864.00   0.12571697   0.00746164
6866.00   0.12708527   0.00813755
6868.00   0.11984286   0.00865414
6870.00   0.11129446   0.00827038
6872.00   0.11229735   0.00759704
6874.00   0.11532607   0.00718154
6876.00   0.11339664   0.00693919
6878.00   0.11419579   0.00668887
6880.00   0.11481804   0.00647384
6882.00   0.11534151   0.00641729
6884.00   0.11522084   0.00657320
6886.00   0.11476052   0.00678756
6888.00   0.11907220   0.00687946
6890.00   0.11845721   0.00681203
6892.00   0.11962654   0.00677309
6894.00   0.12147208   0.00672312
6896.00   0.11963141   0.00664452
6898.00   0.12166449   0.00660495
6900.00   0.12238518   0.00659811
6902.00   0.11902613   0.00658318
6904.00   0.11708530   0.00655274
6906.00   0.11947807   0.00652525
6908.00   0.11824762   0.00652929
6910.00   0.11715784   0.00657716
6912.00   0.11700049   0.00658371
6914.00   0.11363444   0.00653759
6916.00   0.10456762   0.00652018
6918.00   0.10373227   0.00656457
6920.00   0.11461872   0.00667149
6922.00   0.11310431   0.00686487
6924.00   0.10000638   0.00706088
6926.00   0.14226168   0.00729223
6928.00   0.10690738   0.00727738
6930.00   0.13019639   0.00690231
6932.00   0.12070989   0.00639898
6934.00   0.12063173   0.00622852
6936.00   0.12666877   0.00633766
6938.00   0.12618500   0.00640010
6940.00   0.12716490   0.00644793
6942.00   0.12580752   0.00653158
6944.00   0.12394861   0.00664983
6946.00   0.12923169   0.00677970
6948.00   0.13463362   0.00683629
6950.00   0.13367409   0.00679081
6952.00   0.12964489   0.00668604
6954.00   0.12934233   0.00653239
6956.00   0.13196306   0.00633516
6958.00   0.13633017   0.00620449
6960.00   0.13781095   0.00616163
6962.00   0.13642432   0.00617726
6964.00   0.13547678   0.00624052
6966.00   0.13632526   0.00629608
6968.00   0.13722803   0.00632951
6970.00   0.13888274   0.00636989
6972.00   0.14393829   0.00645648
6974.00   0.14310397   0.00658442
6976.00   0.13911396   0.00667544
6978.00   0.13251607   0.00670350
6980.00   0.13681588   0.00715529
6982.00   0.17898566   0.00755391
6984.00   0.15220553   0.00794300
6986.00   0.14712614   0.00831119
6988.00   0.15985721   0.00724678
6990.00   0.14639576   0.00640730
6992.00   0.14577721   0.00615544
6994.00   0.14433713   0.00631841
6996.00   0.14460559   0.00632776
6998.00   0.14946635   0.00634780
7000.00   0.15326798   0.00634945
7002.00   0.15313816   0.00638709
7004.00   0.15980768   0.00647944
7006.00   0.16257338   0.00653305
7008.00   0.15822327   0.00651070
7010.00   0.15446050   0.00647360
7012.00   0.15460542   0.00647479
7014.00   0.15423100   0.00647150
7016.00   0.15627405   0.00643192
7018.00   0.16038658   0.00638149
7020.00   0.16228719   0.00633926
7022.00   0.16398837   0.00634900
7024.00   0.16583079   0.00639872
7026.00   0.16532941   0.00644908
7028.00   0.16016652   0.00644492
7030.00   0.15997387   0.00639698
7032.00   0.16570981   0.00637385
7034.00   0.16639765   0.00637231
7036.00   0.17074840   0.00646280
7038.00   0.17345828   0.00654384
7040.00   0.16999495   0.00653036
7042.00   0.16194750   0.00645033
7044.00   0.16260810   0.00646301
7046.00   0.16163017   0.00649746
7048.00   0.15901031   0.00650117
7050.00   0.16247253   0.00653967
7052.00   0.15806746   0.00648981
7054.00   0.16035153   0.00644819
7056.00   0.15878586   0.00640337
7058.00   0.15822512   0.00637648
7060.00   0.15835865   0.00637953
7062.00   0.15981595   0.00638067
7064.00   0.16228272   0.00638852
7066.00   0.15907723   0.00640336
7068.00   0.15291102   0.00641117
7070.00   0.15675914   0.00641938
7072.00   0.15993984   0.00641211
7074.00   0.16082333   0.00639509
7076.00   0.15897255   0.00638314
7078.00   0.16010052   0.00641011
7080.00   0.15877590   0.00640403
7082.00   0.16230136   0.00641659
7084.00   0.16072570   0.00641087
7086.00   0.15881638   0.00641044
7088.00   0.16023712   0.00643269
7090.00   0.16129987   0.00656617
7092.00   0.16523296   0.00664588
7094.00   0.16738866   0.00666284
7096.00   0.16513596   0.00656812
7098.00   0.16433014   0.00634502
7100.00   0.15815456   0.00625986
7102.00   0.15679628   0.00624413
7104.00   0.15575504   0.00627055
7106.00   0.15184622   0.00624835
7108.00   0.15430404   0.00623633
7110.00   0.15968339   0.00626509
7112.00   0.15707673   0.00629655
7114.00   0.15559046   0.00630018
7116.00   0.15764895   0.00630191
7118.00   0.16683419   0.00635945
7120.00   0.16523515   0.00635311
7122.00   0.16296831   0.00633147
7124.00   0.16158523   0.00634976
7126.00   0.16480851   0.00640234
7128.00   0.16152675   0.00643083
7130.00   0.16440074   0.00640363
7132.00   0.15404935   0.00642333
7134.00   0.14030643   0.00656789
7136.00   0.16797954   0.00669084
7138.00   0.16830817   0.00666262
7140.00   0.16041729   0.00665147
7142.00   0.16438018   0.00665590
7144.00   0.15911911   0.00658153
7146.00   0.16164424   0.00653651
7148.00   0.15841031   0.00649473
7150.00   0.16328044   0.00652462
7152.00   0.16958700   0.00657182
7154.00   0.17589444   0.00662463
7156.00   0.17386222   0.00662385
7158.00   0.16896278   0.00653675
7160.00   0.16789390   0.00651295
7162.00   0.16838901   0.00655657
7164.00   0.17723817   0.00663094
7166.00   0.17944700   0.00671163
7168.00   0.18391885   0.00673127
7170.00   0.18696009   0.00676249
7172.00   0.18921673   0.00681578
7174.00   0.19319980   0.00685817
7176.00   0.19341709   0.00683334
7178.00   0.19272511   0.00679857
7180.00   0.18928613   0.00674276
7182.00   0.18951137   0.00678891
7184.00   0.19418491   0.00693717
7186.00   0.18988919   0.00694171
7188.00   0.18969405   0.00684523
7190.00   0.19385637   0.00682225
7192.00   0.19705231   0.00686921
7194.00   0.19922729   0.00688475
7196.00   0.20374866   0.00686306
7198.00   0.20572402   0.00689752
7200.00   0.20655005   0.00696230
7202.00   0.20439957   0.00697703
7204.00   0.20939536   0.00695193
7206.00   0.20847313   0.00686548
7208.00   0.20841007   0.00677587
7210.00   0.21165317   0.00671074
7212.00   0.21425523   0.00662955
7214.00   0.21176748   0.00658453
7216.00   0.20915930   0.00657618
7218.00   0.21129785   0.00657977
7220.00   0.21552394   0.00661270
7222.00   0.21930064   0.00668399
7224.00   0.21827602   0.00672597
7226.00   0.22110815   0.00676482
7228.00   0.22287090   0.00678540
7230.00   0.22610219   0.00688119
7232.00   0.23303765   0.00717759
7234.00   0.23383017   0.00768617
7236.00   0.23377948   0.00819133
7238.00   0.22939128   0.00865492
7240.00   0.22407468   0.00915025
7242.00   0.22425735   0.00953834
7244.00   0.22804870   0.00943762
7246.00   0.23761362   0.00896556
7248.00   0.24274479   0.00852425
7250.00   0.23827593   0.00816074
7252.00   0.23487516   0.00783594
7254.00   0.23599195   0.00755251
7256.00   0.24176085   0.00739687
7258.00   0.24104045   0.00726055
7260.00   0.23686439   0.00713443
7262.00   0.24121392   0.00716132
7264.00   0.25497773   0.00728618
7266.00   0.25241038   0.00722300
7268.00   0.24998696   0.00723370
7270.00   0.25285307   0.00767568
7272.00   0.25119340   0.00854418
7274.00   0.25888163   0.00919529
7276.00   0.26327470   0.00945081
7278.00   0.26029810   0.00941481
7280.00   0.25150910   0.00912071
7282.00   0.25402936   0.00852650
7284.00   0.25788632   0.00801875
7286.00   0.25875542   0.00786933
7288.00   0.25922203   0.00790072
7290.00   0.26241648   0.00784054
7292.00   0.26427171   0.00763275
7294.00   0.26402974   0.00745311
7296.00   0.26864976   0.00739462
7298.00   0.26993656   0.00747707
7300.00   0.26556903   0.00766021
7302.00   0.27028832   0.00782145
7304.00   0.27029338   0.00779302
7306.00   0.26572612   0.00768168
7308.00   0.27349225   0.00770698
7310.00   0.27762559   0.00791821
7312.00   0.27635524   0.00836925
7314.00   0.27133954   0.00867746
7316.00   0.27678549   0.00880544
7318.00   0.27985367   0.00876705
7320.00   0.28297827   0.00848817
7322.00   0.28489569   0.00796710
7324.00   0.28803211   0.00769451
7326.00   0.28795299   0.00772256
7328.00   0.28709933   0.00779152
7330.00   0.28459284   0.00779166
7332.00   0.28043458   0.00783078
7334.00   0.28312600   0.00794858
7336.00   0.29054385   0.00827324
7338.00   0.29216766   0.00864507
7340.00   0.28191021   0.00876104
7342.00   0.28658751   0.00881383
7344.00   0.28906223   0.00866535
7346.00   0.28407064   0.00817970
7348.00   0.28269058   0.00756570
7350.00   0.28697795   0.00729018
7352.00   0.28825530   0.00734481
7354.00   0.28857002   0.00753357
7356.00   0.28579363   0.00768172
7358.00   0.28527763   0.00775196
7360.00   0.28173968   0.00775359
7362.00   0.27451053   0.00778647
7364.00   0.27154601   0.00796357
7366.00   0.27948311   0.00821374
7368.00   0.28397179   0.00833706
7370.00   0.27811268   0.00833248
7372.00   0.28047684   0.00821655
7374.00   0.28228131   0.00788529
7376.00   0.27949667   0.00740822
7378.00   0.27818912   0.00713730
7380.00   0.27980772   0.00710443
7382.00   0.27155802   0.00707859
7384.00   0.26821536   0.00707534
7386.00   0.26805800   0.00716272
7388.00   0.27195689   0.00732394
7390.00   0.26485679   0.00739104
7392.00   0.26050839   0.00739372
7394.00   0.26270679   0.00743433
7396.00   0.26501098   0.00763007
7398.00   0.27038607   0.00779422
7400.00   0.27007708   0.00781622
7402.00   0.26314619   0.00776361
7404.00   0.25864148   0.00769635
7406.00   0.25773826   0.00753302
7408.00   0.26298845   0.00724693
7410.00   0.26762107   0.00704906
7412.00   0.26332843   0.00696836
7414.00   0.25438371   0.00693338
7416.00   0.25317809   0.00692205
7418.00   0.25334629   0.00693475
7420.00   0.25602773   0.00694523
7422.00   0.25711194   0.00696552
7424.00   0.25769711   0.00702549
7426.00   0.25288895   0.00711030
7428.00   0.25584614   0.00717496
7430.00   0.25745925   0.00717991
7432.00   0.25931150   0.00724382
7434.00   0.26399466   0.00739936
7436.00   0.26417497   0.00744787
7438.00   0.26193789   0.00741598
7440.00   0.26496837   0.00739264
7442.00   0.26349366   0.00732713
7444.00   0.26391149   0.00716072
7446.00   0.26985404   0.00704668
7448.00   0.27341372   0.00700875
7450.00   0.27358112   0.00699526
7452.00   0.27499029   0.00701277
7454.00   0.27606979   0.00703819
7456.00   0.27441955   0.00707446
7458.00   0.27098957   0.00710848
7460.00   0.26919898   0.00716615
7462.00   0.27393225   0.00725777
7464.00   0.27358368   0.00731809
7466.00   0.27831438   0.00742683
7468.00   0.27914870   0.00755467
7470.00   0.28642711   0.00765029
7472.00   0.29184350   0.00773255
7474.00   0.28935757   0.00797418
7476.00   0.28423819   0.00848824
7478.00   0.28734982   0.00840836
7480.00   0.28952572   0.00817680
7482.00   0.29331434   0.00809285
7484.00   0.29321215   0.00810689
7486.00   0.28639951   0.00779512
7488.00   0.28030565   0.00752883
7490.00   0.27726367   0.00738345
7492.00   0.30667588   0.00736427
7494.00   0.30958614   0.00737707
7496.00   0.28619215   0.00735076
7498.00   0.29185501   0.00730567
7500.00   0.30222055   0.00728776
7502.00   0.30222058   0.00726695
7504.00   0.30712584   0.00727486
7506.00   0.30771297   0.00727922
7508.00   0.30747497   0.00727734
7510.00   0.30791977   0.00728962
7512.00   0.30907714   0.00732561
7514.00   0.30960932   0.00735127
7516.00   0.31207120   0.00745760
7518.00   0.31088126   0.00775527
7520.00   0.30624950   0.00813146
7522.00   0.30733955   0.00836213
7524.00   0.31394807   0.00847604
7526.00   0.31852022   0.00852585
7528.00   0.31374210   0.00838979
7530.00   0.30761930   0.00801910
7532.00   0.32530832   0.00770478
7534.00   0.30643919   0.00759318
7536.00   0.30885574   0.00753138
7538.00   0.30771193   0.00743843
7540.00   0.30599549   0.00738235
7542.00   0.30732629   0.00738168
7544.00   0.30959371   0.00738440
7546.00   0.30527857   0.00733057
7548.00   0.30475199   0.00729368
7550.00   0.30568093   0.00731083
7552.00   0.30814984   0.00738944
7554.00   0.30514741   0.00744170
7556.00   0.30178294   0.00747706
7558.00   0.29734948   0.00747290
7560.00   0.29567182   0.00746540
7562.00   0.29851916   0.00740907
7564.00   0.29550353   0.00739601
7566.00   0.28871462   0.00752873
7568.00   0.28550270   0.00779074
7570.00   0.28459346   0.00794195
7572.00   0.28169802   0.00795504
7574.00   0.27644733   0.00790112
7576.00   0.27425954   0.00774824
7578.00   0.26984993   0.00738043
7580.00   0.27081344   0.00719969
7582.00   0.26911700   0.00769515
7584.00   0.27161312   0.00815171
7586.00   0.26984286   0.00785366
7588.00   0.25518644   0.00731229
7590.00   0.26738122   0.00730873
7592.00   0.27108634   0.00793848
7594.00   0.26731890   0.00933918
7596.00   0.24188380   0.01126870
7598.00   0.24271004   0.01333765
7600.00   0.26125348   0.01566964
7602.00   0.25659558   0.01829473
7604.00   0.23780662   0.01905877
7606.00   0.22794776   0.01757714
7608.00   0.22573256   0.01529384
7610.00   0.23285656   0.01381320
7612.00   0.24316394   0.01251181
7614.00   0.25252178   0.01112493
7616.00   0.24620950   0.00940696
7618.00   0.23956598   0.00832856
7620.00   0.23931201   0.00848498
7622.00   0.23801084   0.00928264
7624.00   0.23090243   0.01011341
7626.00   0.23179324   0.01079755
7628.00   0.22538920   0.01096614
7630.00   0.21873938   0.01083565
7632.00   0.22228707   0.01057616
7634.00   0.22228105   0.01014348
7636.00   0.22612320   0.00973701
7638.00   0.22342221   0.00943273
7640.00   0.21932793   0.00917259
7642.00   0.22114249   0.00893720
7644.00   0.22385500   0.00874108
7646.00   0.22443110   0.00861272
7648.00   0.22293395   0.00849451
7650.00   0.22412813   0.00833754
7652.00   0.22220080   0.00815934
7654.00   0.22366214   0.00808439
7656.00   0.22442631   0.00801788
7658.00   0.22448571   0.00801560
7660.00   0.22377062   0.00790993
7662.00   0.22172582   0.00776552
7664.00   0.22368617   0.00768307
7666.00   0.22615908   0.00757219
7668.00   0.22411138   0.00733226
7670.00   0.22384322   0.00717076
7672.00   0.22522257   0.00706844
7674.00   0.22793670   0.00695848
7676.00   0.22523279   0.00695419
7678.00   0.22869019   0.00695703
7680.00   0.23026673   0.00693979
7682.00   0.23321061   0.00698356
7684.00   0.24111898   0.00702230
7686.00   0.24488895   0.00705576
7688.00   0.24476743   0.00713826
7690.00   0.24861188   0.00717391
7692.00   0.24685931   0.00712258
7694.00   0.24720432   0.00716706
7696.00   0.25326046   0.00725436
7698.00   0.25398448   0.00727924
7700.00   0.24866273   0.00721498
7702.00   0.25126886   0.00717694
7704.00   0.25890318   0.00717209
7706.00   0.25587696   0.00736417
7708.00   0.25258568   0.00794433
7710.00   0.25718746   0.00865719
7712.00   0.26358047   0.00933072
7714.00   0.26411638   0.00979147
7716.00   0.26380566   0.00977817
7718.00   0.26830152   0.00943704
7720.00   0.27131358   0.00894990
7722.00   0.27836072   0.00848711
7724.00   0.27973816   0.00803208
7726.00   0.27680746   0.00795813
7728.00   0.29052633   0.00785142
7730.00   0.27079463   0.00764048
7732.00   0.29674220   0.00752589
7734.00   0.29865658   0.00758257
7736.00   0.29980904   0.00737741
7738.00   0.28778565   0.00735736
7740.00   0.29299504   0.00735541
7742.00   0.30177584   0.00743086
7744.00   0.29890811   0.00785554
7746.00   0.29051244   0.00869897
7748.00   0.28577140   0.00929232
7750.00   0.28834882   0.00945933
7752.00   0.29277375   0.00945818
7754.00   0.29512915   0.00935789
7756.00   0.29819849   0.00890533
7758.00   0.29746190   0.00833729
7760.00   0.29664227   0.00808743
7762.00   0.30018944   0.00810896
7764.00   0.30805084   0.00800180
7766.00   0.31126702   0.00771586
7768.00   0.30937883   0.00756796
7770.00   0.30493185   0.00761865
7772.00   0.30786002   0.00766475
7774.00   0.30838147   0.00778383
7776.00   0.30903333   0.00796870
7778.00   0.31206647   0.00803457
7780.00   0.31183621   0.00795005
7782.00   0.30432203   0.00785793
7784.00   0.29170498   0.00774520
7786.00   0.28659916   0.00775940
7788.00   0.29096639   0.00812165
7790.00   0.29571909   0.00868713
7792.00   0.31226805   0.00899448
7794.00   0.32448554   0.00906734
7796.00   0.32013726   0.00898174
7798.00   0.31720772   0.00867327
7800.00   0.31610981   0.00804987
7802.00   0.31437224   0.00775116
7804.00   0.31259561   0.00787743
7806.00   0.31189939   0.00804662
7808.00   0.31519413   0.00808533
7810.00   0.31661525   0.00809854
7812.00   0.31616232   0.00802902
7814.00   0.31840348   0.00805215
7816.00   0.32051405   0.00846256
7818.00   0.31670532   0.00904671
7820.00   0.32238308   0.00935999
7822.00   0.32173872   0.00942097
7824.00   0.31674480   0.00929419
7826.00   0.31460837   0.00879592
7828.00   0.31413159   0.00800615
7830.00   0.31326756   0.00752305
7832.00   0.31277472   0.00740397
7834.00   0.31338084   0.00749238
7836.00   0.31441987   0.00772002
7838.00   0.32054383   0.00797614
7840.00   0.31564662   0.00803304
7842.00   0.30666304   0.00800008
7844.00   0.30178663   0.00797406
7846.00   0.30467018   0.00813154
7848.00   0.29879531   0.00861288
7850.00   0.29291305   0.00916358
7852.00   0.29268932   0.00949691
7854.00   0.29416886   0.00969838
7856.00   0.29471612   0.00978628
7858.00   0.29315570   0.00936918
7860.00   0.29278448   0.00869917
7862.00   0.28967157   0.00834850
7864.00   0.29145640   0.00843491
7866.00   0.28778192   0.00853919
7868.00   0.28827882   0.00853350
7870.00   0.28965569   0.00849252
7872.00   0.28944752   0.00848603
7874.00   0.28463277   0.00843252
7876.00   0.28432703   0.00826794
7878.00   0.28233790   0.00809879
7880.00   0.28049234   0.00805028
7882.00   0.28091905   0.00812398
7884.00   0.27925885   0.00828482
7886.00   0.27559364   0.00843598
7888.00   0.27488327   0.00845806
7890.00   0.27081290   0.00840754
7892.00   0.26973590   0.00834447
7894.00   0.26307380   0.00806942
7896.00   0.25720504   0.00762060
7898.00   0.25952682   0.00727202
7900.00   0.26016271   0.00715572
7902.00   0.25649080   0.00710951
7904.00   0.25401756   0.00711061
7906.00   0.25754821   0.00745878
7908.00   0.26071188   0.00842992
7910.00   0.25949472   0.00938364
7912.00   0.24772882   0.00977018
7914.00   0.23492754   0.00984352
7916.00   0.23674464   0.01008409
7918.00   0.24002929   0.00984694
7920.00   0.24323888   0.00907484
7922.00   0.24177754   0.00836873
7924.00   0.24400224   0.00821316
7926.00   0.24544764   0.00810778
7928.00   0.24496128   0.00795524
7930.00   0.24152708   0.00782718
7932.00   0.23455350   0.00773889
7934.00   0.23789024   0.00766889
7936.00   0.23616375   0.00744292
7938.00   0.23431534   0.00709888
7940.00   0.23212399   0.00688185
7942.00   0.22415443   0.00692163
7944.00   0.22382820   0.00716841
7946.00   0.22312993   0.00739668
7948.00   0.22157560   0.00746211
7950.00   0.21897399   0.00741649
7952.00   0.21767229   0.00731673
7954.00   0.21320207   0.00706601
7956.00   0.21366370   0.00688639
7958.00   0.21081537   0.00725322
7960.00   0.20326255   0.00808107
7962.00   0.20341301   0.00874286
7964.00   0.20509501   0.00881962
7966.00   0.19684179   0.00875303
7968.00   0.19191144   0.00847265
7970.00   0.19601826   0.00780555
7972.00   0.19545428   0.00713706
7974.00   0.19178419   0.00715315
7976.00   0.19127297   0.00743492
7978.00   0.18984270   0.00754097
7980.00   0.17897213   0.00748517
7982.00   0.17207001   0.00738745
7984.00   0.17546272   0.00714394
7986.00   0.18167965   0.00711725
7988.00   0.17809629   0.00770172
7990.00   0.16839588   0.00847359
7992.00   0.16885835   0.00878066
7994.00   0.17094906   0.00880871
7996.00   0.17106736   0.00868213
7998.00   0.17265420   0.00810780
8000.00   0.17761944   0.00712513
8002.00   0.17274368   0.00648424
8004.00   0.16635890   0.00631354
8006.00   0.15980430   0.00634730
8008.00   0.16273572   0.00654858
8010.00   0.16383129   0.00681769
8012.00   0.15806745   0.00697189
8014.00   0.15325929   0.00701920
8016.00   0.15370215   0.00700020
8018.00   0.15860502   0.00701869
8020.00   0.15751736   0.00729640
8022.00   0.15138926   0.00777786
8024.00   0.14913428   0.00805627
8026.00   0.14340009   0.00809364
8028.00   0.13972229   0.00798326
8030.00   0.13892381   0.00758557
8032.00   0.14079376   0.00688171
8034.00   0.14577648   0.00636637
8036.00   0.14829367   0.00616970
8038.00   0.14501388   0.00612184
8040.00   0.14194971   0.00607045
8042.00   0.14422004   0.00606645
8044.00   0.14514410   0.00610531
8046.00   0.13784486   0.00620043
8048.00   0.13421597   0.00636653
8050.00   0.13550662   0.00647903
8052.00   0.13199413   0.00645539
8054.00   0.13180239   0.00648523
8056.00   0.13475724   0.00667327
8058.00   0.13737772   0.00689588
8060.00   0.13309743   0.00697301
8062.00   0.13281476   0.00696986
8064.00   0.13127880   0.00692636
8066.00   0.13035226   0.00674200
8068.00   0.12768380   0.00637808
8070.00   0.12426233   0.00607341
8072.00   0.12548785   0.00598359
8074.00   0.12905008   0.00600186
8076.00   0.13226859   0.00603530
8078.00   0.12783837   0.00604400
8080.00   0.12593454   0.00605447
8082.00   0.12818049   0.00606161
8084.00   0.13243614   0.00606676
8086.00   0.12753506   0.00605182
8088.00   0.12504877   0.00611633
8090.00   0.12559615   0.00620427
8092.00   0.13020824   0.00623929
8094.00   0.13263486   0.00622725
8096.00   0.13046929   0.00629319
8098.00   0.12377093   0.00637455
8100.00   0.12161919   0.00640497
8102.00   0.12363062   0.00642114
8104.00   0.12404901   0.00644754
8106.00   0.12851869   0.00643145
8108.00   0.12891197   0.00629599
8110.00   0.12428252   0.00614294
8112.00   0.12470666   0.00610230
8114.00   0.12773313   0.00611605
8116.00   0.12564893   0.00607104
8118.00   0.12421063   0.00605148
8120.00   0.12208375   0.00604704
8122.00   0.12270340   0.00604442
8124.00   0.12327073   0.00603344
8126.00   0.11826398   0.00601094
8128.00   0.11888310   0.00605755
8130.00   0.11771226   0.00614277
8132.00   0.11849997   0.00625818
8134.00   0.12110315   0.00634565
8136.00   0.12595297   0.00635596
8138.00   0.12549998   0.00634583
8140.00   0.11695153   0.00639336
8142.00   0.11261369   0.00643144
8144.00   0.11298954   0.00639411
8146.00   0.11574152   0.00636165
8148.00   0.12020836   0.00641313
8150.00   0.12216023   0.00644276
8152.00   0.12098783   0.00639167
8154.00   0.12170716   0.00633457
8156.00   0.11751750   0.00623144
8158.00   0.11419234   0.00622339
8160.00   0.11423120   0.00638867
8162.00   0.11175842   0.00656681
8164.00   0.11299948   0.00655523
8166.00   0.11432934   0.00646915
8168.00   0.11620685   0.00648351
8170.00   0.11835659   0.00645611
8172.00   0.11870271   0.00637666
8174.00   0.11576321   0.00651926
8176.00   0.11414800   0.00702066
8178.00   0.11569069   0.00752139
8180.00   0.12141907   0.00781720
8182.00   0.11809314   0.00785387
8184.00   0.11384639   0.00793061
8186.00   0.11528333   0.00806092
8188.00   0.10799114   0.00814806
8190.00   0.10110704   0.00819865
8192.00   0.10968268   0.00825703
8194.00   0.10582134   0.00823854
8196.00   0.10098257   0.00834930
8198.00   0.10885654   0.00832590
8200.00   0.11629518   0.00786477
8202.00   0.11234944   0.00716867
8204.00   0.11088858   0.00678412
8206.00   0.10863271   0.00661934
8208.00   0.10525444   0.00652137
8210.00   0.10736830   0.00648614
8212.00   0.10632775   0.00640280
8214.00   0.10203662   0.00624780
8216.00   0.10105095   0.00614754
8218.00   0.09727211   0.00610910
8220.00   0.09415380   0.00607318
8222.00   0.09462420   0.00606350
8224.00   0.09861339   0.00630010
8226.00   0.09735575   0.00667095
8228.00   0.08941656   0.00685296
8230.00   0.08268528   0.00662501
8232.00   0.07952918   0.00620919
8234.00   0.07614202   0.00588645
8236.00   0.06768150   0.00572158
8238.00   0.06296469   0.00569591
8240.00   0.06250247   0.00572488
8242.00   0.06192219   0.00574677
8244.00   0.05863222   0.00569253
8246.00   0.05406754   0.00556201
8248.00   0.04546095   0.00544028
8250.00   0.04336537   0.00545113
8252.00   0.04237640   0.00547004
8254.00   0.04042367   0.00548266
8256.00   0.03592229   0.00550453
8258.00   0.03434827   0.00550336
8260.00   0.03358378   0.00540035
8262.00   0.02956765   0.00527231
8264.00   0.02707574   0.00517472
8266.00   0.02553817   0.00510953
8268.00   0.02680979   0.00510720
8270.00   0.02426451   0.00523385
8272.00   0.02265452   0.00560537
8274.00   0.01958296   0.00621296
8276.00   0.01865473   0.00686950
8278.00   0.01970324   0.00738161
8280.00   0.01884767   0.00772091
8282.00   0.01560355   0.00812484
8284.00   0.01659699   0.00854571
8286.00   0.01043151   0.00868054
8288.00   0.00421334   0.00842866
8290.00   0.00511600   0.00818567
8292.00   0.00564537   0.00826182
8294.00   0.00445974   0.00841170
8296.00   0.00793839   0.00838959
8298.00   0.01344134   0.00827895
8300.00   0.01854484   0.00819314
8302.00   0.01337206   0.00778152
8304.00   0.00536862   0.00698103
8306.00   0.00120487   0.00616913
8308.00   -0.00174475   0.00594047
8310.00   0.00078809   0.00589493
8312.00   0.00505357   0.00591028
8314.00   0.00420194   0.00585637
8316.00   0.00545890   0.00563131
8318.00   0.00705876   0.00533239
8320.00   0.00232006   0.00523222
8322.00   0.00302470   0.00510883
8324.00   0.00265737   0.00495057
8326.00   0.00757462   0.00488932
8328.00   0.00634212   0.00490126
8330.00   0.00414975   0.00491455
8332.00   0.00471658   0.00493257
8334.00   0.00268391   0.00500119
8336.00   0.00492772   0.00547150
8338.00   0.01842167   0.00713223
8340.00   0.01845822   0.00923248
8342.00   0.00028864   0.01026669
8344.00   -0.00682581   0.01046155
8346.00   0.00345307   0.01063267
8348.00   0.00744707   0.01058707
8350.00   0.00620586   0.00933367
8352.00   0.01040316   0.00785688
8354.00   0.02163172   0.00731903
8356.00   0.01837569   0.00710028
8358.00   0.00317622   0.00649951
8360.00   0.00572925   0.00606438
8362.00   0.01331288   0.00599010
8364.00   0.00852353   0.00599893
8366.00   0.01067356   0.00593782
8368.00   0.01924604   0.00577487
8370.00   0.01653512   0.00546838
8372.00   0.00888261   0.00511864
8374.00   0.00885908   0.00507510
8376.00   0.01262654   0.00561383
8378.00   0.01477741   0.00629180
8380.00   0.01476567   0.00660885
8382.00   0.01608890   0.00667071
8384.00   0.01354354   0.00662934
8386.00   0.01148626   0.00631341
8388.00   0.01462651   0.00566511
8390.00   0.01958760   0.00521117
8392.00   0.01668179   0.00581925
8394.00   0.01373942   0.00750586
8396.00   0.01616666   0.00880288
8398.00   0.01566324   0.00919040
8400.00   0.01073297   0.00915780
8402.00   0.01053944   0.00881721
8404.00   0.01430660   0.00753586
8406.00   0.01841511   0.00590339
8408.00   0.02165407   0.00528886
8410.00   0.01848769   0.00581644
8412.00   0.01646268   0.00651563
8414.00   0.01668426   0.00675391
8416.00   0.02207024   0.00677742
8418.00   0.02457845   0.00662147
8420.00   0.02151199   0.00614343
8422.00   0.01805861   0.00583963
8424.00   0.01655601   0.00685873
8426.00   0.02155223   0.00852763
8428.00   0.02309549   0.00941838
8430.00   0.02186368   0.00953821
8432.00   0.01861481   0.00939441
8434.00   0.01550878   0.00858895
8436.00   0.01223209   0.00695765
8438.00   0.01735965   0.00541920
8440.00   0.02534686   0.00486983
8442.00   0.02630885   0.00493309
8444.00   0.02614550   0.00505247
8446.00   0.02877810   0.00551601
8448.00   0.03178412   0.00614584
8450.00   0.02887165   0.00654871
8452.00   0.02698865   0.00659271
8454.00   0.02702673   0.00654395
8456.00   0.02905972   0.00630438
8458.00   0.03075378   0.00626835
8460.00   0.03277424   0.00695180
8462.00   0.03515555   0.00806696
8464.00   0.03427905   0.00844414
8466.00   0.03228524   0.00846776
8468.00   0.03217615   0.00820441
8470.00   0.03327468   0.00737284
8472.00   0.03522653   0.00602753
8474.00   0.04108984   0.00527565
8476.00   0.04162975   0.00516259
8478.00   0.04346250   0.00518205
8480.00   0.04494387   0.00515164
8482.00   0.04543470   0.00511446
8484.00   0.04955962   0.00510291
8486.00   0.05343442   0.00523906
8488.00   0.05325379   0.00561431
8490.00   0.05425526   0.00604462
8492.00   0.05559759   0.00622352
8494.00   0.05442300   0.00625876
8496.00   0.05448749   0.00628942
8498.00   0.05028025   0.00640683
8500.00   0.05081147   0.00679903
8502.00   0.04829027   0.00714762
8504.00   0.05543974   0.00727693
8506.00   0.06430802   0.00725196
8508.00   0.07168758   0.00702831
8510.00   0.06917247   0.00635468
8512.00   0.06453389   0.00560285
8514.00   0.06810353   0.00530093
8516.00   0.07335948   0.00532877
8518.00   0.07420539   0.00536076
8520.00   0.07339745   0.00536631
8522.00   0.07227215   0.00538615
8524.00   0.07595841   0.00540480
8526.00   0.08313312   0.00541508
8528.00   0.08572523   0.00537946
8530.00   0.08257959   0.00535418
8532.00   0.07866746   0.00546748
8534.00   0.07872628   0.00565741
8536.00   0.08730296   0.00582277
8538.00   0.09532183   0.00591821
8540.00   0.09296427   0.00595428
8542.00   0.09570738   0.00610353
8544.00   0.10297299   0.00631434
8546.00   0.11002287   0.00648093
8548.00   0.11671963   0.00655797
8550.00   0.11757799   0.00658922
8552.00   0.12219063   0.00649539
8554.00   0.12847695   0.00624849
8556.00   0.13852261   0.00599613
8558.00   0.14296918   0.00590646
8560.00   0.14587629   0.00590836
8562.00   0.14813727   0.00593054
8564.00   0.15418400   0.00595941
8566.00   0.15941657   0.00601022
8568.00   0.15884963   0.00603528
8570.00   0.16350804   0.00609754
8572.00   0.17161383   0.00617221
8574.00   0.17670126   0.00622505
8576.00   0.17831810   0.00624469
8578.00   0.18351083   0.00626557
8580.00   0.18606977   0.00628135
8582.00   0.18485175   0.00632018
8584.00   0.18420519   0.00640184
8586.00   0.18996066   0.00649413
8588.00   0.19940859   0.00656480
8590.00   0.19982795   0.00662554
8592.00   0.20001619   0.00668916
8594.00   0.20605934   0.00671573
8596.00   0.20666640   0.00667076
8598.00   0.20505106   0.00664329
8600.00   0.20662315   0.00660505
8602.00   0.20874487   0.00651214
8604.00   0.21080250   0.00640990
8606.00   0.21183141   0.00640890
8608.00   0.21385725   0.00650768
8610.00   0.21127224   0.00664105
8612.00   0.20635140   0.00678542
8614.00   0.20711547   0.00697898
8616.00   0.21370344   0.00722224
8618.00   0.21446925   0.00748550
8620.00   0.21414882   0.00777659
8622.00   0.21694280   0.00804953
8624.00   0.21398145   0.00827895
8626.00   0.20652957   0.00844848
8628.00   0.21051311   0.00857917
8630.00   0.22079621   0.00860748
8632.00   0.21880861   0.00851082
8634.00   0.21104735   0.00832155
8636.00   0.21491224   0.00809308
8638.00   0.21623980   0.00778913
8640.00   0.21795593   0.00743301
8642.00   0.22322655   0.00720769
8644.00   0.22055374   0.00716594
8646.00   0.21568704   0.00729058
8648.00   0.21700411   0.00754556
8650.00   0.21837872   0.00788271
8652.00   0.21399254   0.00817648
8654.00   0.20668747   0.00835900
8656.00   0.21005805   0.00845611
8658.00   0.21291764   0.00848287
8660.00   0.21507551   0.00849144
8662.00   0.21384306   0.00843525
8664.00   0.20506638   0.00832420
8666.00   0.20667630   0.00821650
8668.00   0.21090280   0.00808058
8670.00   0.20983617   0.00790652
8672.00   0.21355473   0.00774707
8674.00   0.21209575   0.00758679
8676.00   0.20993996   0.00744000
8678.00   0.21054526   0.00729026
8680.00   0.20764355   0.00711810
8682.00   0.21239203   0.00698871
8684.00   0.21792215   0.00690886
8686.00   0.21902168   0.00682187
8688.00   0.21851821   0.00675015
8690.00   0.21675806   0.00667317
8692.00   0.21266122   0.00660915
8694.00   0.21502297   0.00659190
8696.00   0.21777178   0.00661165
8698.00   0.21658111   0.00659274
8700.00   0.21319871   0.00656949
8702.00   0.21044563   0.00658875
8704.00   0.20776682   0.00659113
8706.00   0.20698714   0.00654562
8708.00   0.20977335   0.00650991
8710.00   0.21408184   0.00650532
8712.00   0.21369326   0.00645679
8714.00   0.21517593   0.00641478
8716.00   0.21968646   0.00639855
8718.00   0.22094329   0.00639946
8720.00   0.21629113   0.00639587
8722.00   0.21041922   0.00638653
8724.00   0.20836687   0.00637047
8726.00   0.21259056   0.00639237
8728.00   0.21913420   0.00643842
8730.00   0.21857969   0.00643474
8732.00   0.21222179   0.00639921
8734.00   0.21645546   0.00641883
8736.00   0.22145028   0.00646825
8738.00   0.22634222   0.00651048
8740.00   0.22642367   0.00650521
8742.00   0.22241358   0.00649142
8744.00   0.21554659   0.00647300
8746.00   0.21619283   0.00647788
8748.00   0.21903817   0.00646707
8750.00   0.22055812   0.00647281
8752.00   0.21967237   0.00668521
8754.00   0.22194688   0.00731542
8756.00   0.22774994   0.00822841
8758.00   0.22127892   0.00898370
8760.00   0.22124726   0.00950967
8762.00   0.22328286   0.01029916
8764.00   0.22289936   0.01079758
8766.00   0.22932746   0.01058967
8768.00   0.23780991   0.00998660
8770.00   0.22796886   0.00980117
8772.00   0.21938890   0.00994434
8774.00   0.22364898   0.01006856
8776.00   0.23777737   0.01011082
8778.00   0.24196561   0.01009288
8780.00   0.23258138   0.00981493
8782.00   0.22568916   0.00901284
8784.00   0.23113853   0.00797518
8786.00   0.24650927   0.00747049
8788.00   0.24484403   0.00762780
8790.00   0.24059020   0.00773276
8792.00   0.24100868   0.00771405
8794.00   0.24731477   0.00763970
8796.00   0.24801654   0.00738176
8798.00   0.24785106   0.00691407
8800.00   0.25112864   0.00665879
8802.00   0.25265953   0.00660212
8804.00   0.25244099   0.00665282
8806.00   0.24525720   0.00669105
8808.00   0.24159658   0.00670530
8810.00   0.25308535   0.00678052
8812.00   0.25886199   0.00681872
8814.00   0.25426254   0.00679550
8816.00   0.25230715   0.00672275
8818.00   0.25282100   0.00688853
8820.00   0.25335106   0.00827114
8822.00   0.25760368   0.01049637
8824.00   0.25977656   0.01216435
8826.00   0.25050327   0.01265726
8828.00   0.24746042   0.01277243
8830.00   0.24753378   0.01264544
8832.00   0.25386903   0.01171563
8834.00   0.25919190   0.01032016
8836.00   0.25964597   0.00954368
8838.00   0.25473833   0.00930917
8840.00   0.25373989   0.00882137
8842.00   0.25675064   0.00802093
8844.00   0.26215789   0.00751108
8846.00   0.26489410   0.00756436
8848.00   0.26780817   0.00777467
8850.00   0.27205369   0.00793532
8852.00   0.27737293   0.00799067
8854.00   0.27888176   0.00779993
8856.00   0.27726668   0.00739258
8858.00   0.27455416   0.00708597
8860.00   0.27324528   0.00721688
8862.00   0.27326354   0.00778304
8864.00   0.27047616   0.00840504
8866.00   0.26585728   0.00864691
8868.00   0.26426369   0.00860301
8870.00   0.26464731   0.00835386
8872.00   0.26361272   0.00783907
8874.00   0.25995597   0.00713750
8876.00   0.26179454   0.00674266
8878.00   0.26470399   0.00727474
8880.00   0.26312613   0.00873357
8882.00   0.25423214   0.01031712
8884.00   0.24463892   0.01100015
8886.00   0.26275325   0.01115230
8888.00   0.27088997   0.01094472
8890.00   0.25289190   0.00996632
8892.00   0.24781658   0.00830313
8894.00   0.25285694   0.00703632
8896.00   0.25177249   0.00710948
8898.00   0.25733945   0.00791902
8900.00   0.26287910   0.00861014
8902.00   0.26348034   0.00896521
8904.00   0.23056622   0.00929075
8906.00   0.24907714   0.00897588
8908.00   0.23827608   0.00788115
8910.00   0.24315733   0.00712232
8912.00   0.25125846   0.00738629
8914.00   0.25243977   0.00908915
8916.00   0.24822140   0.01080315
8918.00   0.24460073   0.01151137
8920.00   0.24757989   0.01155508
8922.00   0.23109263   0.01123112
8924.00   0.24182841   0.01014296
8926.00   0.21293946   0.00833996
8928.00   0.23172979   0.00702887
8930.00   0.23472233   0.00677592
8932.00   0.24053149   0.00674717
8934.00   0.24122930   0.00671936
8936.00   0.24198027   0.00695617
8938.00   0.24688280   0.00759931
8940.00   0.23982711   0.00822298
8942.00   0.23153073   0.00841374
8944.00   0.23508711   0.00846063
8946.00   0.24055697   0.00834066
8948.00   0.23650146   0.00786879
8950.00   0.22754683   0.00744186
8952.00   0.22361548   0.00853320
8954.00   0.22576012   0.01001168
8956.00   0.23039521   0.01067307
8958.00   0.22839141   0.01075662
8960.00   0.22458960   0.01091607
8962.00   0.22579266   0.01048739
8964.00   0.22684599   0.00887019
8966.00   0.22045718   0.00726040
8968.00   0.22017224   0.00669102
8970.00   0.22118105   0.00683641
8972.00   0.22462244   0.00694396
8974.00   0.22820818   0.00683902
8976.00   0.22736828   0.00669473
8978.00   0.22290365   0.00668680
8980.00   0.21847421   0.00676004
8982.00   0.22261636   0.00711018
8984.00   0.22151582   0.00786180
8986.00   0.21731721   0.00885799
8988.00   0.21987773   0.00965050
8990.00   0.22962648   0.00957279
8992.00   0.22873195   0.00854414
8994.00   0.22093976   0.00774133
8996.00   0.21598679   0.00807257
8998.00   0.21533187   0.00924783
9000.00   0.22356887   0.01019014
9002.00   0.22904606   0.01058288
9004.00   0.22478060   0.01032834
9006.00   0.22020169   0.00932055
9008.00   0.22150570   0.00782236
9010.00   0.21330297   0.00683285
9012.00   0.20938171   0.00663418
9014.00   0.21312754   0.00676469
9016.00   0.21543856   0.00684975
9018.00   0.20943843   0.00666097
9020.00   0.20867312   0.00656513
9022.00   0.20568170   0.00666752
9024.00   0.20388222   0.00675545
9026.00   0.19931622   0.00662642
9028.00   0.20364809   0.00650968
9030.00   0.20117557   0.00647481
9032.00   0.19753939   0.00655247
9034.00   0.19396313   0.00667526
9036.00   0.19415247   0.00676448
9038.00   0.19641913   0.00685115
9040.00   0.19786526   0.00696758
9042.00   0.19293921   0.00703193
9044.00   0.18665801   0.00711663
9046.00   0.19208078   0.00733723
9048.00   0.19389687   0.00750550
9050.00   0.18262970   0.00758236
9052.00   0.18236427   0.00747361
9054.00   0.18707198   0.00702518
9056.00   0.18623929   0.00640617
9058.00   0.18174815   0.00620601
9060.00   0.17787628   0.00629235
9062.00   0.17616837   0.00632544
9064.00   0.17654842   0.00626043
9066.00   0.17860740   0.00634256
9068.00   0.18031637   0.00660812
9070.00   0.17862050   0.00677618
9072.00   0.17301078   0.00661105
9074.00   0.17084856   0.00627829
9076.00   0.17418893   0.00622791
9078.00   0.17960231   0.00645350
9080.00   0.17833023   0.00652871
9082.00   0.17376865   0.00639693
9084.00   0.17322747   0.00639569
9086.00   0.17635465   0.00654657
9088.00   0.17448246   0.00662081
9090.00   0.17058150   0.00657395
9092.00   0.16679847   0.00652015
9094.00   0.16397755   0.00650691
9096.00   0.16314250   0.00672098
9098.00   0.17147088   0.00706166
9100.00   0.17216188   0.00710954
9102.00   0.16476469   0.00694176
9104.00   0.16282018   0.00701602
9106.00   0.16409814   0.00702691
9108.00   0.16579889   0.00658138
9110.00   0.16310240   0.00599304
9112.00   0.15930790   0.00571896
9114.00   0.15853415   0.00587438
9116.00   0.16285890   0.00619022
9118.00   0.16424796   0.00626004
9120.00   0.16320755   0.00604326
9122.00   0.16050482   0.00580519
9124.00   0.16174681   0.00579623
9126.00   0.16176564   0.00598769
9128.00   0.15953122   0.00619779
9130.00   0.15344977   0.00630592
9132.00   0.15075694   0.00633162
9134.00   0.15434922   0.00650042
9136.00   0.15984051   0.00649644
9138.00   0.15959968   0.00623041
9140.00   0.15402232   0.00584594
9142.00   0.14636928   0.00573190
9144.00   0.14106230   0.00585776
9146.00   0.14385018   0.00607585
9148.00   0.14948978   0.00615181
9150.00   0.15072234   0.00653018
9152.00   0.15122491   0.00704117
9154.00   0.14730372   0.00721438
9156.00   0.14468099   0.00696710
9158.00   0.14418237   0.00664400
9160.00   0.14736347   0.00645377
9162.00   0.15008186   0.00630860
9164.00   0.14740422   0.00614225
9166.00   0.14553587   0.00601757
9168.00   0.14849548   0.00599095
9170.00   0.14822413   0.00608606
9172.00   0.14588286   0.00632570
9174.00   0.13714646   0.00641818
9176.00   0.14159463   0.00633252
9178.00   0.14464708   0.00609284
9180.00   0.14514285   0.00596496
9182.00   0.14557971   0.00600482
9184.00   0.14246872   0.00601756
9186.00   0.14075238   0.00588637
9188.00   0.14444880   0.00574267
9190.00   0.14804722   0.00576143
9192.00   0.15130331   0.00592594
9194.00   0.15067208   0.00604038
9196.00   0.14983706   0.00598044
9198.00   0.14527209   0.00580300
9200.00   0.14937252   0.00574398
9202.00   0.14881712   0.00574566
9204.00   0.15535004   0.00586247
9206.00   0.15306211   0.00592912
9208.00   0.14714469   0.00591646
9210.00   0.15089895   0.00604228
9212.00   0.15613966   0.00629810
9214.00   0.16061114   0.00660020
9216.00   0.16263765   0.00682303
9218.00   0.16521417   0.00688467
9220.00   0.16121142   0.00681365
9222.00   0.16036211   0.00666976
9224.00   0.15702824   0.00648303
9226.00   0.15568966   0.00632885
9228.00   0.15568280   0.00621525
9230.00   0.15405199   0.00609798
9232.00   0.15178613   0.00599036
9234.00   0.15355046   0.00598226
9236.00   0.15417327   0.00601914
9238.00   0.15038382   0.00601244
9240.00   0.14933674   0.00599332
9242.00   0.15148441   0.00604832
9244.00   0.15312648   0.00611137
9246.00   0.15225293   0.00611578
9248.00   0.15340938   0.00611924
9250.00   0.15276010   0.00611596
9252.00   0.15261982   0.00604583
9254.00   0.15380768   0.00594895
9256.00   0.15396018   0.00591241
9258.00   0.15535378   0.00597437
9260.00   0.15724397   0.00602776
9262.00   0.15564178   0.00599483
9264.00   0.15044944   0.00588825
9266.00   0.15331350   0.00582478
9268.00   0.15942906   0.00584179
9270.00   0.16230838   0.00589657
9272.00   0.15786846   0.00590720
9274.00   0.15696658   0.00596585
9276.00   0.16046508   0.00615018
9278.00   0.16314739   0.00634581
9280.00   0.15726542   0.00633761
9282.00   0.15844323   0.00637175
9284.00   0.16716744   0.00655685
9286.00   0.16895020   0.00665509
9288.00   0.16465862   0.00663526
9290.00   0.16125682   0.00664270
9292.00   0.16159208   0.00672819
9294.00   0.16232376   0.00689046
9296.00   0.16259602   0.00707244
9298.00   0.16293426   0.00745477
9300.00   0.16524337   0.00844849
9302.00   0.16279538   0.00983208
9304.00   0.14936720   0.01125612
9306.00   0.13614422   0.01324074
9308.00   0.13923927   0.01564857
9310.00   0.15161191   0.01650010
9312.00   0.16014521   0.01668497
9314.00   0.17124932   0.01812866
9316.00   0.18105470   0.01887259
9318.00   0.18122357   0.01737443
9320.00   0.17024827   0.01611351
9322.00   0.16845693   0.01660501
9324.00   0.16888712   0.01693943
9326.00   0.15252410   0.01497329
9328.00   0.15951364   0.01218076
9330.00   0.17061041   0.01013283
9332.00   0.16854227   0.01009016
9334.00   0.16482101   0.01137027
9336.00   0.17179441   0.01169452
9338.00   0.18224017   0.01167922
9340.00   0.17868553   0.01286162
9342.00   0.19770586   0.01462735
9344.00   0.20039998   0.01373787
9346.00   0.19176519   0.00993632
9348.00   0.17329431   0.00746051
9350.00   0.17259699   0.00768422
9352.00   0.18514295   0.00912854
9354.00   0.18893099   0.01051476
9356.00   0.18930884   0.01067041
9358.00   0.18926771   0.00942206
9360.00   0.18286437   0.00792611
9362.00   0.18146747   0.00756116
9364.00   0.18109459   0.00816262
9366.00   0.18370487   0.00973912
9368.00   0.19804035   0.01474469
9370.00   0.20763743   0.02041021
9372.00   0.20218293   0.02295529
9374.00   0.19127969   0.02287577
9376.00   0.18943234   0.02493648
9378.00   0.18917610   0.02725949
9380.00   0.19022168   0.02472410
9382.00   0.18715216   0.01620575
9384.00   0.18708937   0.01045332
9386.00   0.19270261   0.00865421
9388.00   0.19566731   0.00794210
9390.00   0.19431655   0.00716642
9392.00   0.19127531   0.00687542
9394.00   0.19044328   0.00706375
9396.00   0.18775363   0.00780570
9398.00   0.19023509   0.00887264
9400.00   0.19364555   0.00961457
9402.00   0.18985970   0.00949175
9404.00   0.18142331   0.00902024
9406.00   0.17922038   0.00864145
9408.00   0.18154828   0.00833513
9410.00   0.18799876   0.00800704
9412.00   0.19054770   0.00798521
9414.00   0.18497856   0.00879414
9416.00   0.18083055   0.00996433
9418.00   0.17440824   0.01052625
9420.00   0.17840286   0.01043041
9422.00   0.17795031   0.01056764
9424.00   0.18959783   0.01163841
9426.00   0.19967575   0.01209417
9428.00   0.19466759   0.01075037
9430.00   0.17493474   0.00840855
9432.00   0.16256024   0.00789878
9434.00   0.17582048   0.01022848
9436.00   0.18475033   0.01493191
9438.00   0.18794434   0.02041745
9440.00   0.18820442   0.02399488
9442.00   0.18260886   0.02162479
9444.00   0.17427702   0.01584384
9446.00   0.16848595   0.01041011
9448.00   0.17223154   0.00789468
9450.00   0.17590345   0.00787683
9452.00   0.17204194   0.00959241
9454.00   0.17537892   0.01259003
9456.00   0.18765862   0.01501312
9458.00   0.18829805   0.01600452
9460.00   0.18063097   0.01526459
9462.00   0.16360480   0.01282784
9464.00   0.16692097   0.01007057
9466.00   0.17817150   0.00851529
9468.00   0.17819114   0.00855551
9470.00   0.17115311   0.00971345
9472.00   0.17927556   0.01214507
9474.00   0.18674445   0.01395871
9476.00   0.19032241   0.01518530
9478.00   0.18358831   0.01709048
9480.00   0.17307715   0.01773162
9482.00   0.17439409   0.01413853
9484.00   0.17721176   0.00935526
9486.00   0.17496614   0.00721856
9488.00   0.17036803   0.00680287
9490.00   0.17775959   0.00724406
9492.00   0.18447381   0.00822712
9494.00   0.18445756   0.00939937
9496.00   0.17909519   0.01133037
9498.00   0.18511216   0.01447292
9500.00   0.18310674   0.01515533
9502.00   0.17704968   0.01330381
9504.00   0.17393501   0.01098689
9506.00   0.17819536   0.00952369
9508.00   0.17706139   0.00814454
9510.00   0.16946916   0.00715049
9512.00   0.16590001   0.00721135
9514.00   0.17296167   0.00852483
9516.00   0.18439712   0.01036935
9518.00   0.18165193   0.01161465
9520.00   0.17929848   0.01181022
9522.00   0.18512775   0.01122250
9524.00   0.19028151   0.01016744
9526.00   0.18886612   0.00912438
9528.00   0.18777072   0.00847772
9530.00   0.18943064   0.00823111
9532.00   0.19094594   0.00829618
9534.00   0.19719608   0.00858428
9536.00   0.19913550   0.00866921
9538.00   0.19492698   0.00843093
9540.00   0.19388212   0.00844337
9542.00   0.20129400   0.00866132
9544.00   0.19950660   0.00880110
9546.00   0.19232374   0.00931514
9548.00   0.16659792   0.00994163
9550.00   0.15442078   0.01047332
9552.00   0.17790876   0.01172781
9554.00   0.19629785   0.01316912
9556.00   0.19581826   0.01150259
9558.00   0.18225272   0.00962568
9560.00   0.18707640   0.00939131
9562.00   0.19623524   0.01153028
9564.00   0.19181339   0.01416538
9566.00   0.17679606   0.01481142
9568.00   0.18133967   0.01389731
9570.00   0.18330856   0.01212149
9572.00   0.18116283   0.00995087
9574.00   0.17980762   0.00809155
9576.00   0.19135253   0.00743042
9578.00   0.19084828   0.00777133
9580.00   0.19060212   0.00800797
9582.00   0.19243903   0.00768475
9584.00   0.18862075   0.00727376
9586.00   0.18669426   0.00771859
9588.00   0.19348402   0.00858888
9590.00   0.19962370   0.00898682
9592.00   0.19548063   0.00862064
9594.00   0.18282120   0.00794501
9596.00   0.18262333   0.00761573
9598.00   0.18208289   0.00741175
9600.00   0.18239444   0.00746059
9602.00   0.18838374   0.00815004
9604.00   0.19075374   0.00902269
9606.00   0.19104333   0.00917405
9608.00   0.18820067   0.00879683
9610.00   0.18396245   0.00834075
9612.00   0.18684483   0.00809687
9614.00   0.18727453   0.00815593
9616.00   0.19144733   0.00875047
9618.00   0.18356903   0.00940197
9620.00   0.18152685   0.00986170
9622.00   0.19254206   0.00997751
9624.00   0.18968415   0.00966474
9626.00   0.18449502   0.00878037
9628.00   0.18233395   0.00776616
9630.00   0.18467599   0.00715065
9632.00   0.18501258   0.00721393
9634.00   0.18352079   0.00767241
9636.00   0.18317364   0.00796573
9638.00   0.18242525   0.00778125
9640.00   0.18140109   0.00742258
9642.00   0.17523903   0.00745107
9644.00   0.17459762   0.00774136
9646.00   0.17421158   0.00779767
9648.00   0.17361481   0.00758839
9650.00   0.16955717   0.00739393
9652.00   0.17477602   0.00739983
9654.00   0.17744076   0.00743859
9656.00   0.17615668   0.00749564
9658.00   0.17468376   0.00769944
9660.00   0.18338251   0.00821053
9662.00   0.18821804   0.00878670
9664.00   0.17842694   0.00907082
9666.00   0.17129844   0.00914059
9668.00   0.17657854   0.00916540
9670.00   0.18181531   0.00897849
9672.00   0.17445920   0.00849101
9674.00   0.16879146   0.00819765
9676.00   0.16715299   0.00858317
9678.00   0.16887282   0.00942216
9680.00   0.17049736   0.00997066
9682.00   0.16901775   0.00979855
9684.00   0.16485451   0.00935138
9686.00   0.16391200   0.00883182
9688.00   0.16300897   0.00826033
9690.00   0.16225673   0.00792050
9692.00   0.16649929   0.00830495
9694.00   0.17137463   0.00913212
9696.00   0.16868335   0.00984654
9698.00   0.15773284   0.01019848
9700.00   0.16094880   0.01024889
9702.00   0.15916239   0.00982935
9704.00   0.14986068   0.00899918
9706.00   0.15049851   0.00827787
9708.00   0.15351905   0.00815001
9710.00   0.15485287   0.00835400
9712.00   0.15282284   0.00893522
9714.00   0.16149282   0.01001251
9716.00   0.15552379   0.01081276
9718.00   0.15428197   0.01086431
9720.00   0.15177792   0.01087939
9722.00   0.15026021   0.01089714
9724.00   0.15412109   0.01022423
9726.00   0.15576313   0.00881040
9728.00   0.14438632   0.00775329
9730.00   0.13846272   0.00768772
9732.00   0.14235340   0.00837794
9734.00   0.14120664   0.00918499
9736.00   0.12979938   0.00950958
9738.00   0.12705040   0.00926183
9740.00   0.13812278   0.00913115
9742.00   0.14047211   0.00894557
9744.00   0.13743593   0.00849870
9746.00   0.12729698   0.00804695
9748.00   0.12850975   0.00786497
9750.00   0.13090621   0.00755832
9752.00   0.12837128   0.00725404
9754.00   0.12821242   0.00719441
9756.00   0.12557423   0.00719078
9758.00   0.12047446   0.00710504
9760.00   0.12507172   0.00709250
9762.00   0.12925276   0.00711272
9764.00   0.12753759   0.00702290
9766.00   0.12576763   0.00682957
9768.00   0.12045357   0.00663349
9770.00   0.11963653   0.00660446
9772.00   0.12262201   0.00669130
9774.00   0.12254313   0.00679144
9776.00   0.12212761   0.00685838
9778.00   0.12103000   0.00694434
9780.00   0.12374274   0.00714941
9782.00   0.12325475   0.00773338
9784.00   0.12882631   0.00900226
9786.00   0.13307869   0.01078510
9788.00   0.12901507   0.01235719
9790.00   0.13142537   0.01330521
9792.00   0.12852673   0.01354228
9794.00   0.12520809   0.01308248
9796.00   0.12453964   0.01189351
9798.00   0.12437750   0.01073918
9800.00   0.11557073   0.01015930
9802.00   0.11568628   0.00988730
9804.00   0.12397921   0.00928633
9806.00   0.12440976   0.00863825
9808.00   0.12370014   0.00847723
9810.00   0.12259231   0.00863078
9812.00   0.11725195   0.00871327
9814.00   0.11524124   0.00860484
9816.00   0.12189294   0.00839283
9818.00   0.12745427   0.00808117
9820.00   0.12847318   0.00782155
9822.00   0.12440804   0.00770331
9824.00   0.11681589   0.00769543
9826.00   0.11573696   0.00763575
9828.00   0.12046334   0.00756015
9830.00   0.12339390   0.00751540
9832.00   0.12509210   0.00746320
9834.00   0.12924218   0.00732360
9836.00   0.12729180   0.00720575
9838.00   0.12563099   0.00720112
9840.00   0.12223718   0.00743361
9842.00   0.12266161   0.00816767
9844.00   0.12954064   0.00920766
9846.00   0.13152462   0.00986896
9848.00   0.13116255   0.01006703
9850.00   0.12628405   0.00992369
9852.00   0.12587194   0.00939076
9854.00   0.12649244   0.00846561
9856.00   0.12938046   0.00768111
9858.00   0.13247573   0.00733169
9860.00   0.13059193   0.00732886
9862.00   0.13264866   0.00771296
9864.00   0.13280828   0.00873356
9866.00   0.13269216   0.01082075
9868.00   0.13572605   0.01308395
9870.00   0.14118159   0.01457739
9872.00   0.11697549   0.01494093
9874.00   0.12120050   0.01460987
9876.00   0.13237800   0.01329697
9878.00   0.13947734   0.01115638
9880.00   0.14039165   0.00915013
9882.00   0.13878970   0.00838689
9884.00   0.13892159   0.00826771
9886.00   0.14225136   0.00854220
9888.00   0.14324969   0.00930403
9890.00   0.14618772   0.01042511
9892.00   0.14765656   0.01122453
9894.00   0.14369912   0.01137901
9896.00   0.13689864   0.01122260
9898.00   0.13813449   0.01080669
9900.00   0.14667855   0.00988817
9902.00   0.14808130   0.00885880
9904.00   0.14754345   0.00847810
9906.00   0.15483485   0.00915236
9908.00   0.15903537   0.01101263
9910.00   0.15808067   0.01342156
9912.00   0.15375422   0.01501938
9914.00   0.15660377   0.01560037
9916.00   0.15492867   0.01545339
9918.00   0.14866938   0.01448301
9920.00   0.15074532   0.01236640
9922.00   0.15439732   0.01019929
9924.00   0.15399325   0.00901116
9926.00   0.15586795   0.00870116
9928.00   0.16152851   0.00871119
9930.00   0.16125464   0.00874320
9932.00   0.16921468   0.00898822
9934.00   0.16888256   0.00975248
9936.00   0.16873620   0.01131917
9938.00   0.17726414   0.01350036
9940.00   0.16776989   0.01586878
9942.00   0.16402797   0.01798176
9944.00   0.15697108   0.01918142
9946.00   0.16213217   0.01929147
9948.00   0.16812974   0.01859812
9950.00   0.17236115   0.01788071
9952.00   0.16601767   0.01735926
9954.00   0.17647678   0.01733199
9956.00   0.19946472   0.01792669
9958.00   0.20931609   0.01870576
9960.00   0.20018904   0.01857407
9962.00   0.18697989   0.01735490
9964.00   0.18315615   0.01582544
9966.00   0.18619372   0.01447501
9968.00   0.20757166   0.01330535
9970.00   0.18545628   0.01252710
9972.00   0.19082598   0.01236660
9974.00   0.19562899   0.01231881
9976.00   0.19811191   0.01200293
9978.00   0.19440955   0.01135259
9980.00   0.19280787   0.01067128
9982.00   0.19695638   0.01025532
9984.00   0.19888695   0.01004393
9986.00   0.20019364   0.00988788
9988.00   0.20041449   0.00978457
9990.00   0.20127732   0.00980640
9992.00   0.20509170   0.01006772
9994.00   0.20511781   0.01054640
9996.00   0.20906465   0.01114888
9998.00   0.21754877   0.01159412
10000.00   0.20982492   0.01177252
10002.00   0.20452444   0.01204349
10004.00   0.21370061   0.01301162
10006.00   0.21831925   0.01529547
10008.00   0.20457922   0.01863409
10010.00   0.19323909   0.02117384
10012.00   0.19940114   0.02228331
10014.00   0.20391804   0.02225012
10016.00   0.20168988   0.02117304
10018.00   0.20799430   0.01890635
10020.00   0.20824873   0.01668952
10022.00   0.20374532   0.01582777
10024.00   0.21567868   0.01593725
10026.00   0.22235204   0.01579649
10028.00   0.22709884   0.01523073
10030.00   0.22812231   0.01407443
10032.00   0.21875234   0.01257925
10034.00   0.21888320   0.01167461
10036.00   0.21055986   0.01160230
10038.00   0.21502571   0.01212731
10040.00   0.22785075   0.01275523
10042.00   0.22667454   0.01300035
10044.00   0.22459032   0.01296742
10046.00   0.21712650   0.01271499
10048.00   0.21810718   0.01222779
10050.00   0.23378478   0.01181614
10052.00   0.24188404   0.01184502
10054.00   0.23437683   0.01252321
10056.00   0.22474110   0.01368635
10058.00   0.22446126   0.01469306
10060.00   0.22007044   0.01522188
10062.00   0.21729882   0.01545096
10064.00   0.22339900   0.01540905
10066.00   0.23482831   0.01493323
10068.00   0.24655172   0.01430773
10070.00   0.21611165   0.01391884
10072.00   0.23254216   0.01391330
10074.00   0.24126671   0.01444165
10076.00   0.24078143   0.01617985
10078.00   0.24012740   0.01844920
10080.00   0.24064887   0.02013307
10082.00   0.22873433   0.02071775
10084.00   0.22993094   0.02053115
10086.00   0.22616613   0.01921632
10088.00   0.22438578   0.01677035
10090.00   0.22504878   0.01433079
10092.00   0.22800243   0.01312295
10094.00   0.22750813   0.01309329
10096.00   0.23045540   0.01378780
10098.00   0.22562855   0.01496077
10100.00   0.22332990   0.01616464
10102.00   0.22614479   0.01686925
10104.00   0.23445433   0.01700677
10106.00   0.22627969   0.01663693
10108.00   0.22186555   0.01571720
10110.00   0.23196489   0.01450113
10112.00   0.23946808   0.01363559
10114.00   0.23562403   0.01373235
10116.00   0.23408751   0.01541934
10118.00   0.20469543   0.01849389
10120.00   0.18276368   0.02166255
10122.00   0.20242536   0.02359110
10124.00   0.21159208   0.02427498
10126.00   0.22214942   0.02394897
10128.00   0.22685604   0.02218276
10130.00   0.22913724   0.01904040
10132.00   0.22344108   0.01625794
10134.00   0.22046876   0.01514181
10136.00   0.22196300   0.01492057
10138.00   0.21918595   0.01487492
10140.00   0.20950486   0.01504950
10142.00   0.21147625   0.01553471
10144.00   0.22533792   0.01624646
10146.00   0.23105372   0.01726739
10148.00   0.21045573   0.01841210
10150.00   0.19754982   0.01947312
10152.00   0.19829701   0.02013408
10154.00   0.21337730   0.02052786
10156.00   0.21402769   0.02036717
10158.00   0.22229625   0.01965521
10160.00   0.21437921   0.01872382
10162.00   0.20633705   0.01860732
10164.00   0.19794674   0.01993907
10166.00   0.19154960   0.02286761
10168.00   0.19478805   0.02621676
10170.00   0.19326107   0.02800754
10172.00   0.19519854   0.02840502
10174.00   0.20812078   0.02791591
10176.00   0.22754130   0.02604029
10178.00   0.21898425   0.02309953
10180.00   0.21522506   0.02087541
10182.00   0.19325948   0.02099891
10184.00   0.19062960   0.02271000
10186.00   0.20440347   0.02455851
10188.00   0.21791099   0.02549741
10190.00   0.20081681   0.02557547
10192.00   0.18251415   0.02491272
10194.00   0.19174141   0.02347918
10196.00   0.19592130   0.02162554
10198.00   0.20252757   0.02089528
10200.00   0.20986271   0.02168296
10202.00   0.20672078   0.02322801
10204.00   0.20885821   0.02585572
10206.00   0.19973654   0.02884220
10208.00   0.17810953   0.03074856
10210.00   0.17061023   0.03110866
10212.00   0.16597711   0.03049350
10214.00   0.18787174   0.02885679
10216.00   0.19697578   0.02580332
10218.00   0.17882459   0.02279496
10220.00   0.17670263   0.02273747
10222.00   0.14582691   0.02435869
10224.00   0.16108513   0.02618243
10226.00   0.19855082   0.02770963
10228.00   0.18414152   0.02816242
10230.00   0.17969911   0.02723803
10232.00   0.20123547   0.02547512
10234.00   0.20150922   0.02334609
10236.00   0.18265863   0.02112130
10238.00   0.18123131   0.01948593
10240.00   0.18852234   0.01861725
10242.00   0.18317674   0.01821424
10244.00   0.17185383   0.01797216
10246.00   0.17479193   0.01799723
10248.00   0.19508947   0.01832329
10250.00   0.17806192   0.01824320
10252.00   0.16278610   0.01829905
10254.00   0.17514677   0.01863337
10256.00   0.18457747   0.01898148
10258.00   0.18576337   0.01922980
10260.00   0.18571477   0.01947115
10262.00   0.17240714   0.01982232
10264.00   0.14658619   0.02036815
10266.00   0.15865321   0.02164282
10268.00   0.17509186   0.02289768
10270.00   0.18586285   0.02359176
10272.00   0.17215966   0.02375966
10274.00   0.16603012   0.02398799
10276.00   0.16002096   0.02472992
10278.00   0.15408178   0.02836387
10280.00   0.13059092   0.03632824
10282.00   0.15508133   0.04569011
10284.00   0.17842686   0.05237902
10286.00   0.18759687   0.05527610
10288.00   0.16495876   0.05590493
10290.00   0.19949660   0.05404013
10292.00   0.20187747   0.04900293
10294.00   0.14675058   0.04315972
10296.00   0.14157768   0.03971623
10298.00   0.17028865   0.03763155
10300.00   0.13595329   0.03485245
10302.00   0.13000326   0.03147021
10304.00   0.15212743   0.02964593
10306.00   0.15964891   0.02942075
10308.00   0.16076909   0.02958187
10310.00   0.18812627   0.02941336
10312.00   0.19542333   0.02883605
10314.00   0.17320585   0.02753265
10316.00   0.17421651   0.02611916
10318.00   0.18205291   0.02517074
10320.00   0.14822240   0.02500727
10322.00   0.14667758   0.02523360
10324.00   0.16330530   0.02577828
10326.00   0.15015650   0.02600512
10328.00   0.13664947   0.02605093
10330.00   0.14175327   0.02619909
10332.00   0.15979232   0.02664080
10334.00   0.15928990   0.02706434
10336.00   0.18488026   0.02754900
10338.00   0.15434034   0.02864158
10340.00   0.14658900   0.03080157
10342.00   0.15866232   0.03464821
10344.00   0.12296084   0.03756018
10346.00   0.16769849   0.03930480
10348.00   0.16598417   0.04001298
10350.00   0.15384580   0.03997679
10352.00   0.14133640   0.03819377
10354.00   0.13221121   0.03483674
10356.00   0.12819470   0.03265448
10358.00   0.14328462   0.03201478
10360.00   0.15083720   0.03174287
10362.00   0.14732541   0.03187889
10364.00   0.13641764   0.03456029
10366.00   0.13660239   0.04159604
10368.00   0.18126428   0.05106172
10370.00   0.12713809   0.05863487
10372.00   0.16245146   0.06219064
10374.00   0.17096208   0.06260330
10376.00   0.18223421   0.06000299
10378.00   0.12184198   0.05260128
10380.00   0.12947060   0.04307513
10382.00   0.17078996   0.03811911
10384.00   0.19516619   0.03651514
10386.00   0.18912840   0.03628930
10388.00   0.15727504   0.03730812
10390.00   0.17420053   0.04128293
10392.00   0.14968315   0.04611816
10394.00   0.09534026   0.04902530
10396.00   0.12060674   0.05048704
10398.00   0.08517843   0.05047258
10400.00   0.08847038   0.04883657
10402.00   0.15712336   0.04532298
10404.00   0.17089109   0.04177492
10406.00   0.16086270   0.04018657
10408.00   0.14783849   0.04094353
10410.00   0.14771861   0.04607506
10412.00   0.13233283   0.05610560
10414.00   0.19965623   0.06786132
10416.00   0.17867041   0.07597404
10418.00   0.17774843   0.07924387
10420.00   0.12471905   0.07851750
10422.00   0.15707409   0.07351426
10424.00   0.17279516   0.06321478
10426.00   0.13677789   0.05200501
10428.00   0.12614930   0.04655114
10430.00   0.16059220   0.04482769
10432.00   0.17618351   0.04362786
10434.00   0.21857345   0.04275439
10436.00   0.20145929   0.04142821
10438.00   0.12797399   0.04028193
10440.00   0.14406082   0.04096559
10442.00   0.15155527   0.04245621
10444.00   0.11935917   0.04576816
10446.00   0.19419926   0.05087470
10448.00   0.17412584   0.05469770
10450.00   0.13190900   0.05575280
10452.00   0.12423386   0.05549635
10454.00   0.13390899   0.05388733
10456.00   0.14584935   0.04979881
10458.00   0.18469815   0.04723549
10460.00   0.18975520   0.04817346
10462.00   0.19540961   0.05420383
10464.00   0.19495866   0.06346682
10466.00   0.10942157   0.07120243
10468.00   0.10084343   0.07399566
10470.00   0.14990525   0.07476439
10472.00   0.18213087   0.07151629
10474.00   0.12570153   0.06319394
10476.00   0.13651152   0.05386500
10478.00   0.13900156   0.04802963
10480.00   0.15157904   0.04631081
10482.00   0.12566921   0.04520631
10484.00   0.13454814   0.04487134
10486.00   0.17863244   0.04506383
10488.00   0.12659448   0.04523326
10490.00   0.09594020   0.04461944
10492.00   0.12579922   0.04424354
10494.00   0.10938627   0.04439391
10496.00   0.18591022   0.04476253
10498.00   0.16380671   0.04543215
10500.00   0.16710256   0.04639032
10502.00   0.15419295   0.04834507
10504.00   0.12930688   0.05114986
10506.00   0.14522600   0.05438763
10508.00   0.16648075   0.05592787
10510.00   0.10718364   0.05687909
10512.00   0.13833320   0.05691110
10514.00   0.13465178   0.05468874
10516.00   0.15695578   0.05316074
10518.00   0.21170494   0.05546214
10520.00   0.22310597   0.05998646
10522.00   0.22775643   0.06393883
10524.00   0.21501170   0.06569818
10526.00   0.19161291   0.06610671
10528.00   0.14346655   0.06309577
10530.00   0.11403204   0.05772431
10532.00   0.12607865   0.05217037
10534.00   0.17524131   0.04966376
10536.00   0.15114926   0.04824728
10538.00   0.17585120   0.04791903
10540.00   0.17684543   0.04810234
10542.00   0.17272086   0.04806209
10544.00   0.18161160   0.04802087
10546.00   0.09945862   0.04774570
10548.00   0.10902961   0.04835870
10550.00   0.15427904   0.04920825
10552.00   0.20114236   0.04978730
10554.00   0.17769927   0.04920992
10556.00   0.18005884   0.04901175
10558.00   0.14670509   0.04861195
10560.00   0.12435677   0.04876284
10562.00   0.16255258   0.04995281
10564.00   0.17098083   0.05059228
10566.00   0.12446618   0.05149395
10568.00   0.12857366   0.05362499
10570.00   0.16827615   0.05566224
10572.00   0.12463675   0.05611066
10574.00   0.12399635   0.05621362
10576.00   0.18537042   0.05653887
10578.00   0.20427370   0.05570320
10580.00   0.17573130   0.05607131
10582.00   0.18637437   0.05807276
10584.00   0.14646131   0.06037539
10586.00   0.23230563   0.06174813
10588.00   0.20549133   0.06216526
10590.00   0.17211173   0.06070777
10592.00   0.16469838   0.05819814
10594.00   0.15743478   0.05606845
10596.00   0.15216027   0.05506256
10598.00   0.17055373   0.05539902
10600.00   0.16685981   0.05974932
10602.00   0.19557084   0.06766181
10604.00   0.20562793   0.06425039
10606.00   0.18244097   0.05420463
10608.00   0.16353765   0.05499620
10610.00   0.15521415   0.05466861
