# File created by shivutils (I.Shivvers)
# 
# wl(A)   flm    er(optional)
3440.00   0.30346435   0.04338930
3442.00   0.29529896   0.04185092
3444.00   0.33761856   0.04227563
3446.00   0.31345177   0.04305476
3448.00   0.35475349   0.04321313
3450.00   0.36259386   0.04427461
3452.00   0.38483414   0.04517357
3454.00   0.30767798   0.04416061
3456.00   0.36463517   0.04522820
3458.00   0.37323502   0.04474071
3460.00   0.31347221   0.04309981
3462.00   0.32804325   0.04285969
3464.00   0.32702807   0.04229639
3466.00   0.38113028   0.04379173
3468.00   0.36462471   0.04315837
3470.00   0.32224539   0.04243831
3472.00   0.29704323   0.04116944
3474.00   0.31674418   0.04173227
3476.00   0.25842252   0.04132488
3478.00   0.33542553   0.04357747
3480.00   0.28428704   0.04457109
3482.00   0.27195728   0.04403668
3484.00   0.34296009   0.04474226
3486.00   0.39763334   0.04549737
3488.00   0.39283770   0.04416826
3490.00   0.45254120   0.04476598
3492.00   0.35235393   0.04258143
3494.00   0.43447465   0.04377714
3496.00   0.38224813   0.04243242
3498.00   0.36975211   0.04167758
3500.00   0.36924693   0.04129751
3502.00   0.37795192   0.04133989
3504.00   0.39215472   0.04099639
3506.00   0.36273834   0.04040266
3508.00   0.44299969   0.04206740
3510.00   0.36544222   0.04076103
3512.00   0.35628298   0.04118477
3514.00   0.39988396   0.04124070
3516.00   0.35611570   0.04015364
3518.00   0.31588370   0.03870982
3520.00   0.41898265   0.04048165
3522.00   0.40569550   0.03968190
3524.00   0.42254451   0.03978659
3526.00   0.37711918   0.03887127
3528.00   0.34613758   0.03837423
3530.00   0.36095941   0.03845358
3532.00   0.29630789   0.03741012
3534.00   0.32807842   0.03806293
3536.00   0.36751887   0.03864772
3538.00   0.38130176   0.03899149
3540.00   0.31814471   0.03889901
3542.00   0.32430363   0.04006818
3544.00   0.28852451   0.04040447
3546.00   0.27395496   0.04162203
3548.00   0.30522275   0.04024760
3550.00   0.32180604   0.03919354
3552.00   0.29633713   0.03921622
3554.00   0.38500527   0.04071429
3556.00   0.34016761   0.03907843
3558.00   0.34954566   0.03969292
3560.00   0.31552514   0.03823042
3562.00   0.26530403   0.03637803
3564.00   0.31728011   0.03685567
3566.00   0.37717205   0.03760067
3568.00   0.30304745   0.03580716
3570.00   0.36479250   0.03658640
3572.00   0.33693895   0.03660804
3574.00   0.32734105   0.03599770
3576.00   0.29895508   0.03507420
3578.00   0.38130295   0.03664163
3580.00   0.29271403   0.03411882
3582.00   0.30052015   0.03405947
3584.00   0.33983049   0.03394863
3586.00   0.32615888   0.03224638
3588.00   0.35433227   0.03417493
3590.00   0.35849220   0.03429942
3592.00   0.26088572   0.03257333
3594.00   0.36026606   0.03344975
3596.00   0.34886912   0.03299465
3598.00   0.32802266   0.03256846
3600.00   0.37470722   0.03282247
3602.00   0.32699358   0.03188771
3604.00   0.33293721   0.03196578
3606.00   0.30527630   0.03111380
3608.00   0.33419785   0.03127569
3610.00   0.38623229   0.03224187
3612.00   0.37440908   0.03267493
3614.00   0.43381751   0.03411118
3616.00   0.37140000   0.03328590
3618.00   0.38713008   0.03328064
3620.00   0.41408229   0.03267867
3622.00   0.38481987   0.03191260
3624.00   0.38852915   0.03239889
3626.00   0.37642503   0.03183927
3628.00   0.42254856   0.03302141
3630.00   0.38514400   0.03263128
3632.00   0.38447207   0.03329983
3634.00   0.39126286   0.03249098
3636.00   0.36029288   0.03206557
3638.00   0.39836624   0.03216781
3640.00   0.45779735   0.03295369
3642.00   0.39761236   0.03274582
3644.00   0.45980564   0.03443826
3646.00   0.38338229   0.03328505
3648.00   0.46569151   0.03970444
3650.00   0.49537125   0.04569333
3652.00   0.39387777   0.04349469
3654.00   0.42769927   0.04003736
3656.00   0.30441612   0.03618288
3658.00   0.39638391   0.03322378
3660.00   0.37106150   0.03174942
3662.00   0.39307892   0.03488520
3664.00   0.46044019   0.03581364
3666.00   0.36144331   0.03122790
3668.00   0.41119140   0.02935850
3670.00   0.40538025   0.02863864
3672.00   0.43829101   0.02863739
3674.00   0.43059519   0.02856249
3676.00   0.40050161   0.02787343
3678.00   0.45391041   0.02817332
3680.00   0.34560022   0.02652014
3682.00   0.40034965   0.02693116
3684.00   0.39234248   0.02663858
3686.00   0.39689964   0.02612446
3688.00   0.34973904   0.02544456
3690.00   0.37304994   0.02622248
3692.00   0.37160063   0.02623132
3694.00   0.37286854   0.02612146
3696.00   0.39740276   0.02609690
3698.00   0.33377644   0.02546134
3700.00   0.32199433   0.02582930
3702.00   0.36082622   0.02629245
3704.00   0.37105909   0.02657803
3706.00   0.36227593   0.02579184
3708.00   0.39749154   0.02598943
3710.00   0.36964622   0.02548785
3712.00   0.37017536   0.02517921
3714.00   0.29984978   0.02401703
3716.00   0.36167866   0.02496789
3718.00   0.35913500   0.02483058
3720.00   0.34521139   0.02473276
3722.00   0.33559465   0.02452987
3724.00   0.36121374   0.02444124
3726.00   0.42988870   0.02565777
3728.00   0.34972554   0.02480564
3730.00   0.35110229   0.02505602
3732.00   0.46382222   0.02805654
3734.00   0.60255116   0.03122494
3736.00   0.60788912   0.03108810
3738.00   0.49649364   0.02825987
3740.00   0.38096365   0.02614818
3742.00   0.38114202   0.02581044
3744.00   0.34462157   0.02493115
3746.00   0.36229655   0.02449726
3748.00   0.33027235   0.02403357
3750.00   0.36236587   0.02449349
3752.00   0.33077425   0.02411666
3754.00   0.37915909   0.02461840
3756.00   0.32582420   0.02384714
3758.00   0.31637776   0.02325164
3760.00   0.35236880   0.02362930
3762.00   0.30249354   0.02281817
3764.00   0.31158429   0.02271883
3766.00   0.26775706   0.02206765
3768.00   0.30125862   0.02242249
3770.00   0.24382997   0.02177958
3772.00   0.28065768   0.02245867
3774.00   0.23205329   0.02163059
3776.00   0.24996828   0.02181626
3778.00   0.24634059   0.02158528
3780.00   0.21155089   0.02084357
3782.00   0.18694219   0.02038522
3784.00   0.16380009   0.02021065
3786.00   0.17918633   0.02031038
3788.00   0.18390019   0.02001562
3790.00   0.17362218   0.02068913
3792.00   0.15702085   0.02039385
3794.00   0.11862437   0.01937208
3796.00   0.17082144   0.01977834
3798.00   0.13581455   0.01912838
3800.00   0.15131758   0.01916741
3802.00   0.14742082   0.01910174
3804.00   0.13973624   0.01898524
3806.00   0.15671046   0.01867755
3808.00   0.11259492   0.01803085
3810.00   0.16071637   0.01904778
3812.00   0.10132383   0.01848018
3814.00   0.11091617   0.01854498
3816.00   0.12441736   0.01891198
3818.00   0.10924576   0.01866253
3820.00   0.14546767   0.01889398
3822.00   0.13163200   0.01884711
3824.00   0.12728880   0.01839031
3826.00   0.12669042   0.01857382
3828.00   0.13398704   0.01898570
3830.00   0.12702724   0.01983408
3832.00   0.13871373   0.01986046
3834.00   0.15881911   0.01943032
3836.00   0.16158129   0.01925340
3838.00   0.12676619   0.01835182
3840.00   0.12667294   0.01861069
3842.00   0.16766742   0.01904853
3844.00   0.16708381   0.01878496
3846.00   0.12948899   0.01775736
3848.00   0.14863133   0.01808969
3850.00   0.13115582   0.01772880
3852.00   0.18656617   0.01847176
3854.00   0.13629277   0.01774981
3856.00   0.14027289   0.01776363
3858.00   0.17022572   0.01780677
3860.00   0.18369444   0.01825976
3862.00   0.15892893   0.01788991
3864.00   0.13708457   0.01773421
3866.00   0.14691544   0.01742828
3868.00   0.18719573   0.01789848
3870.00   0.18462431   0.01773457
3872.00   0.18531506   0.01795238
3874.00   0.16112894   0.01841985
3876.00   0.18441142   0.01861032
3878.00   0.19704345   0.01812494
3880.00   0.19115698   0.01759533
3882.00   0.18003434   0.01723082
3884.00   0.16831088   0.01721688
3886.00   0.19991271   0.01754590
3888.00   0.18974140   0.01711475
3890.00   0.20409812   0.01710353
3892.00   0.18711236   0.01700465
3894.00   0.23809280   0.01814471
3896.00   0.25082108   0.01839012
3898.00   0.22527196   0.01782127
3900.00   0.25093010   0.01818506
3902.00   0.24079423   0.01832379
3904.00   0.19896822   0.01845254
3906.00   0.26056653   0.02072542
3908.00   0.30772665   0.02221127
3910.00   0.24431980   0.02187676
3912.00   0.33113652   0.02274839
3914.00   0.28485724   0.02166728
3916.00   0.31434900   0.02067924
3918.00   0.32260644   0.02022274
3920.00   0.31672910   0.01968995
3922.00   0.40112898   0.02040777
3924.00   0.37209949   0.02021043
3926.00   0.42933160   0.02064637
3928.00   0.41644350   0.02036094
3930.00   0.42585319   0.02046680
3932.00   0.44289300   0.02125205
3934.00   0.44537824   0.02105887
3936.00   0.47991225   0.02100317
3938.00   0.49693191   0.02083202
3940.00   0.50531477   0.02118031
3942.00   0.52354002   0.02197944
3944.00   0.55909473   0.02274042
3946.00   0.60591215   0.02319661
3948.00   0.60668665   0.02272399
3950.00   0.59373969   0.02289310
3952.00   0.62485296   0.02273023
3954.00   0.67182463   0.02307115
3956.00   0.68004918   0.02297937
3958.00   0.71256125   0.02338474
3960.00   0.71239489   0.02395005
3962.00   0.68483853   0.02378055
3964.00   0.73223084   0.02373791
3966.00   0.77451706   0.02358297
3968.00   0.76306844   0.02325849
3970.00   0.77640212   0.02338888
3972.00   0.76574475   0.02339188
3974.00   0.77104372   0.02341504
3976.00   0.79677278   0.02377005
3978.00   0.81374729   0.02388568
3980.00   0.76885605   0.02347237
3982.00   0.75005019   0.02326629
3984.00   0.75976342   0.02323917
3986.00   0.76822835   0.02341773
3988.00   0.80425245   0.02390327
3990.00   0.75825512   0.02337883
3992.00   0.76482427   0.02343922
3994.00   0.73960787   0.02332252
3996.00   0.78292507   0.02424539
3998.00   0.82594270   0.02471768
4000.00   0.75275826   0.02349618
4002.00   0.78065431   0.02351745
4004.00   0.73514295   0.02294250
4006.00   0.72103864   0.02287659
4008.00   0.72801548   0.02324314
4010.00   0.80442512   0.02409921
4012.00   0.78279781   0.02364279
4014.00   0.76781756   0.02351963
4016.00   0.75325310   0.02332367
4018.00   0.70587015   0.02386999
4020.00   0.74482733   0.02539085
4022.00   0.77388901   0.02629242
4024.00   0.74160975   0.02568988
4026.00   0.75471663   0.02486894
4028.00   0.71110773   0.02364271
4030.00   0.75934595   0.02391232
4032.00   0.75418019   0.02382947
4034.00   0.78838903   0.02357415
4036.00   0.72603828   0.02296513
4038.00   0.71186328   0.02281001
4040.00   0.73070306   0.02304425
4042.00   0.74455523   0.02358618
4044.00   0.76015103   0.02976295
4046.00   0.72847736   0.03708749
4048.00   0.79920548   0.03585992
4050.00   0.71072543   0.02675022
4052.00   0.71556884   0.02364148
4054.00   0.74043733   0.02401429
4056.00   0.72996271   0.02371921
4058.00   0.78841043   0.02357031
4060.00   0.82958102   0.02358865
4062.00   0.81782079   0.02339020
4064.00   0.84172505   0.02362570
4066.00   0.81463534   0.02334788
4068.00   0.78687024   0.02306607
4070.00   0.88060588   0.02357104
4072.00   0.85394007   0.02316642
4074.00   0.82135624   0.02299035
4076.00   0.84333354   0.02594374
4078.00   0.81793660   0.02544156
4080.00   0.87723649   0.02525168
4082.00   0.80462652   0.02391435
4084.00   0.83784455   0.02377080
4086.00   0.74294555   0.02298649
4088.00   0.75538510   0.02262842
4090.00   0.79523188   0.02214752
4092.00   0.77189857   0.02170534
4094.00   0.72359461   0.02137028
4096.00   0.76777667   0.02168824
4098.00   0.70708376   0.02114787
4100.00   0.74722856   0.02136741
4102.00   0.74625009   0.02108118
4104.00   0.72488797   0.02067406
4106.00   0.68376315   0.02054206
4108.00   0.68502086   0.02060021
4110.00   0.76494169   0.02127329
4112.00   0.69437385   0.02046374
4114.00   0.67471135   0.02025940
4116.00   0.64050323   0.01985710
4118.00   0.63966572   0.01969849
4120.00   0.66369653   0.01974367
4122.00   0.66797251   0.01996893
4124.00   0.64320534   0.01977890
4126.00   0.62302834   0.01960237
4128.00   0.61641639   0.01941859
4130.00   0.62522542   0.01968979
4132.00   0.61282331   0.02002437
4134.00   0.59681726   0.01991779
4136.00   0.59474927   0.01950116
4138.00   0.58021891   0.01948712
4140.00   0.58491957   0.01971435
4142.00   0.59367883   0.01938721
4144.00   0.61757809   0.01920925
4146.00   0.60851496   0.01912184
4148.00   0.60208648   0.01910033
4150.00   0.63998204   0.01963912
4152.00   0.61737567   0.01989631
4154.00   0.64571375   0.02003232
4156.00   0.66604728   0.01997092
4158.00   0.66714752   0.01977081
4160.00   0.64003068   0.01951827
4162.00   0.65186638   0.01993985
4164.00   0.70391053   0.02121888
4166.00   0.69245571   0.02106865
4168.00   0.63816756   0.01997369
4170.00   0.66025716   0.01971508
4172.00   0.69367135   0.01971352
4174.00   0.70125031   0.01967755
4176.00   0.68582416   0.01957030
4178.00   0.73703301   0.02013380
4180.00   0.68145961   0.01943584
4182.00   0.68138212   0.01925695
4184.00   0.67561328   0.01907642
4186.00   0.68670040   0.01909093
4188.00   0.66726923   0.01892980
4190.00   0.58884174   0.01823528
4192.00   0.58983999   0.01829758
4194.00   0.62777448   0.01849888
4196.00   0.59908825   0.01810950
4198.00   0.57382715   0.01771096
4200.00   0.57173485   0.01766754
4202.00   0.56521869   0.01772832
4204.00   0.56485546   0.01769231
4206.00   0.58986235   0.01801259
4208.00   0.58816224   0.01810264
4210.00   0.57996494   0.01820449
4212.00   0.57387078   0.01803753
4214.00   0.59266341   0.01803759
4216.00   0.55343026   0.01762926
4218.00   0.59738481   0.01803832
4220.00   0.59141856   0.01793525
4222.00   0.55674869   0.01759210
4224.00   0.59760058   0.01783897
4226.00   0.59426504   0.01785887
4228.00   0.66399956   0.01843489
4230.00   0.62638050   0.01816061
4232.00   0.64071679   0.01839723
4234.00   0.67973435   0.01863952
4236.00   0.66537237   0.01873594
4238.00   0.68857086   0.01907787
4240.00   0.63313752   0.01848411
4242.00   0.65257138   0.01814641
4244.00   0.67045611   0.01906992
4246.00   0.66489655   0.02030173
4248.00   0.61510187   0.01990491
4250.00   0.64483345   0.01853855
4252.00   0.66219997   0.01827312
4254.00   0.62147522   0.01793047
4256.00   0.61908931   0.01798371
4258.00   0.62634665   0.01791608
4260.00   0.56732863   0.01731719
4262.00   0.56710494   0.01718286
4264.00   0.58911705   0.01744080
4266.00   0.55572337   0.01703968
4268.00   0.57494122   0.01719196
4270.00   0.56815594   0.01725272
4272.00   0.53697163   0.01693910
4274.00   0.55273181   0.01709026
4276.00   0.58186650   0.01733745
4278.00   0.57570839   0.01731170
4280.00   0.57802224   0.01731768
4282.00   0.53588235   0.01697355
4284.00   0.50988454   0.01674573
4286.00   0.54282933   0.01693404
4288.00   0.53155708   0.01673863
4290.00   0.55555457   0.01682289
4292.00   0.54416865   0.01684766
4294.00   0.57720435   0.01711446
4296.00   0.56887865   0.01707478
4298.00   0.60659933   0.01734860
4300.00   0.58119309   0.01711629
4302.00   0.59049058   0.01703774
4304.00   0.57794350   0.01698571
4306.00   0.62614375   0.01746407
4308.00   0.61206859   0.01737328
4310.00   0.61014855   0.01748897
4312.00   0.63816684   0.01850168
4314.00   0.61321443   0.01878496
4316.00   0.66110885   0.01867936
4318.00   0.66785842   0.01844677
4320.00   0.68524832   0.01897787
4322.00   0.69933718   0.01906914
4324.00   0.67473131   0.01863094
4326.00   0.68522686   0.01861327
4328.00   0.66143358   0.01798460
4330.00   0.68423140   0.01788026
4332.00   0.66936356   0.01774397
4334.00   0.68698174   0.01783919
4336.00   0.68978465   0.01810499
4338.00   0.66419870   0.01810071
4340.00   0.66738850   0.01811308
4342.00   0.64917964   0.01784290
4344.00   0.64469099   0.01808452
4346.00   0.67563802   0.01907843
4348.00   0.74355674   0.01981046
4350.00   0.72952664   0.01915477
4352.00   0.67709774   0.01843504
4354.00   0.68742549   0.01943303
4356.00   0.72278678   0.03032145
4358.00   0.72298765   0.03731624
4360.00   0.68303239   0.03337312
4362.00   0.62964946   0.02269460
4364.00   0.61187994   0.01908916
4366.00   0.67480069   0.01897757
4368.00   0.66616219   0.01860995
4370.00   0.62075859   0.01811435
4372.00   0.61977983   0.01840017
4374.00   0.60967761   0.01865599
4376.00   0.63964599   0.01855874
4378.00   0.62816536   0.01793653
4380.00   0.66152835   0.01790882
4382.00   0.64899957   0.01776914
4384.00   0.65215635   0.01763229
4386.00   0.66997063   0.01765906
4388.00   0.67523700   0.01766989
4390.00   0.63922745   0.01761879
4392.00   0.66940534   0.01776565
4394.00   0.66976470   0.01763498
4396.00   0.70351493   0.01783086
4398.00   0.69895178   0.01819589
4400.00   0.71632314   0.01852852
4402.00   0.70907611   0.01837755
4404.00   0.72425115   0.01819668
4406.00   0.71981823   0.01806975
4408.00   0.73787469   0.01826782
4410.00   0.74329537   0.01819437
4412.00   0.69522566   0.01801649
4414.00   0.71729386   0.01836237
4416.00   0.68669224   0.01825685
4418.00   0.73175675   0.01833161
4420.00   0.74456084   0.01828705
4422.00   0.69378686   0.01780689
4424.00   0.67915350   0.01771167
4426.00   0.66763037   0.01760405
4428.00   0.70843792   0.01786688
4430.00   0.65511835   0.01745910
4432.00   0.67197448   0.01757773
4434.00   0.67673063   0.01750613
4436.00   0.66813010   0.01732549
4438.00   0.65778041   0.01743686
4440.00   0.65586197   0.01736112
4442.00   0.67738688   0.01736457
4444.00   0.67313379   0.01740562
4446.00   0.68827355   0.01751046
4448.00   0.69886935   0.01752657
4450.00   0.67764270   0.01726803
4452.00   0.70133913   0.01742138
4454.00   0.69154888   0.01739916
4456.00   0.68869376   0.01734889
4458.00   0.65285814   0.01711701
4460.00   0.70221770   0.01745054
4462.00   0.70890665   0.01748995
4464.00   0.70723867   0.01733893
4466.00   0.67211753   0.01722173
4468.00   0.66507119   0.01700476
4470.00   0.66069901   0.01700405
4472.00   0.68881482   0.01720303
4474.00   0.67300510   0.01710285
4476.00   0.67952341   0.01726303
4478.00   0.69870055   0.01737048
4480.00   0.67206806   0.01720603
4482.00   0.69401073   0.01729429
4484.00   0.70406127   0.01741500
4486.00   0.67959726   0.01721179
4488.00   0.69703507   0.01725140
4490.00   0.67943984   0.01713900
4492.00   0.69822437   0.01743910
4494.00   0.67356569   0.01734133
4496.00   0.70949435   0.01753640
4498.00   0.65524536   0.01725296
4500.00   0.64928395   0.01705631
4502.00   0.65596801   0.01696052
4504.00   0.67975122   0.01710089
4506.00   0.67692840   0.01710553
4508.00   0.66484380   0.01703585
4510.00   0.68929917   0.01719058
4512.00   0.70074445   0.01715489
4514.00   0.68936408   0.01713611
4516.00   0.71322519   0.01726623
4518.00   0.73615563   0.01732601
4520.00   0.74876589   0.01746655
4522.00   0.77299643   0.01761726
4524.00   0.78183311   0.01758622
4526.00   0.77101177   0.01749451
4528.00   0.84991705   0.01803070
4530.00   0.82918221   0.01791509
4532.00   0.85851461   0.01812283
4534.00   0.84769553   0.01803995
4536.00   0.86380142   0.01810360
4538.00   0.86823905   0.01807177
4540.00   0.90326017   0.01834695
4542.00   0.95844531   0.01880226
4544.00   0.98855817   0.01910604
4546.00   0.98726988   0.01906963
4548.00   0.96455085   0.01877190
4550.00   1.00049889   0.01901908
4552.00   1.01948118   0.01895704
4554.00   1.02330291   0.01895815
4556.00   1.05876601   0.01920800
4558.00   1.04847229   0.01916352
4560.00   1.06001449   0.01914454
4562.00   1.06362069   0.01912298
4564.00   1.08110154   0.01916775
4566.00   1.08600986   0.01918216
4568.00   1.07098114   0.01904926
4570.00   1.08398128   0.01917595
4572.00   1.08292353   0.01924631
4574.00   1.08477485   0.01932576
4576.00   1.10250330   0.01934626
4578.00   1.09804296   0.01924684
4580.00   1.12505531   0.01936584
4582.00   1.14753795   0.01940631
4584.00   1.15234423   0.01936552
4586.00   1.10157847   0.01906122
4588.00   1.10465276   0.01911318
4590.00   1.10863101   0.01904733
4592.00   1.11840940   0.01918675
4594.00   1.11514139   0.01921150
4596.00   1.08826554   0.01900295
4598.00   1.08709466   0.01890389
4600.00   1.13641870   0.01914038
4602.00   1.08061779   0.01875698
4604.00   1.08442998   0.01879059
4606.00   1.09155250   0.01882296
4608.00   1.06647694   0.01876298
4610.00   1.10383248   0.01894049
4612.00   1.07435584   0.01870813
4614.00   1.05265820   0.01852955
4616.00   1.12591970   0.01895000
4618.00   1.17130744   0.01918873
4620.00   1.13172138   0.01895346
4622.00   1.12165523   0.01886783
4624.00   1.12756729   0.01892980
4626.00   1.13767076   0.01900546
4628.00   1.10604167   0.01869852
4630.00   1.10969532   0.01877437
4632.00   1.10723257   0.01879421
4634.00   1.08288956   0.01857731
4636.00   1.07144761   0.01843774
4638.00   1.07502198   0.01844575
4640.00   1.05880737   0.01836195
4642.00   1.05528653   0.01829979
4644.00   1.08391464   0.01843808
4646.00   1.03038263   0.01813782
4648.00   1.07330167   0.01842706
4650.00   1.03837001   0.01824319
4652.00   1.10086393   0.01864989
4654.00   1.08829463   0.01861250
4656.00   1.05242813   0.01843362
4658.00   1.07041156   0.01859915
4660.00   1.11949265   0.01896321
4662.00   1.07754624   0.01882032
4664.00   1.06543779   0.01890283
4666.00   1.11158288   0.01931270
4668.00   1.11417103   0.01946246
4670.00   1.09388423   0.01945550
4672.00   1.14598072   0.01958153
4674.00   1.07461810   0.01910187
4676.00   1.09968174   0.01897620
4678.00   1.09016681   0.01883608
4680.00   1.08317280   0.01871831
4682.00   1.06229401   0.01848377
4684.00   1.06815755   0.01849878
4686.00   1.05478549   0.01829770
4688.00   1.09437931   0.01841019
4690.00   1.06513631   0.01828176
4692.00   1.03574848   0.01805021
4694.00   1.03701198   0.01803286
4696.00   1.05970204   0.01812847
4698.00   1.03223431   0.01787578
4700.00   1.01271176   0.01775788
4702.00   1.00871420   0.01771059
4704.00   0.98844552   0.01768084
4706.00   0.98308021   0.01773459
4708.00   1.00020504   0.01792291
4710.00   0.95241565   0.01756729
4712.00   0.92729545   0.01733305
4714.00   0.98153567   0.01754592
4716.00   0.93688554   0.01720061
4718.00   0.95564741   0.01726071
4720.00   0.97982633   0.01748272
4722.00   0.98369038   0.01750116
4724.00   0.99767751   0.01750206
4726.00   0.96801090   0.01747062
4728.00   0.98466295   0.01807526
4730.00   0.99037147   0.01819091
4732.00   0.96542364   0.01792476
4734.00   0.95832860   0.01798545
4736.00   0.99029720   0.01840381
4738.00   0.96575075   0.01837677
4740.00   0.98186231   0.01857539
4742.00   0.94211847   0.01877740
4744.00   0.93714362   0.01846191
4746.00   0.95318973   0.01785584
4748.00   0.98378462   0.01750556
4750.00   0.96313953   0.01744281
4752.00   0.94823194   0.01753781
4754.00   0.90313786   0.01720481
4756.00   0.91937214   0.01697306
4758.00   0.92628628   0.01677808
4760.00   0.95213866   0.01684958
4762.00   0.89995575   0.01646809
4764.00   0.89104503   0.01641821
4766.00   0.89274949   0.01636837
4768.00   0.88805133   0.01623284
4770.00   0.83611476   0.01586062
4772.00   0.87119550   0.01612250
4774.00   0.84755635   0.01595458
4776.00   0.88572866   0.01641183
4778.00   0.87282348   0.01651925
4780.00   0.85766846   0.01649611
4782.00   0.84577632   0.01607086
4784.00   0.87797034   0.01616858
4786.00   0.88206279   0.01617612
4788.00   0.88372105   0.01614961
4790.00   0.87032729   0.01620143
4792.00   0.87491906   0.01616623
4794.00   0.86519748   0.01602093
4796.00   0.86633599   0.01591389
4798.00   0.90103561   0.01612458
4800.00   0.88265169   0.01605951
4802.00   0.89361262   0.01610845
4804.00   0.86854434   0.01593035
4806.00   0.88155073   0.01602708
4808.00   0.85010034   0.01585256
4810.00   0.85872579   0.01590238
4812.00   0.84104788   0.01576864
4814.00   0.85572255   0.01583980
4816.00   0.86740106   0.01585528
4818.00   0.85733962   0.01585954
4820.00   0.83509642   0.01574158
4822.00   0.80919933   0.01561863
4824.00   0.82271910   0.01579137
4826.00   0.83756542   0.01589171
4828.00   0.82066709   0.01580254
4830.00   0.84274864   0.01589481
4832.00   0.84711534   0.01599502
4834.00   0.82367426   0.01584058
4836.00   0.79569447   0.01555500
4838.00   0.78040749   0.01556058
4840.00   0.80021542   0.01584339
4842.00   0.79005563   0.01562592
4844.00   0.80729878   0.01562269
4846.00   0.78897017   0.01551261
4848.00   0.77273077   0.01540674
4850.00   0.81523824   0.01565657
4852.00   0.77972507   0.01541826
4854.00   0.79333115   0.01542220
4856.00   0.78754705   0.01534102
4858.00   0.76488841   0.01509121
4860.00   0.79709208   0.01533359
4862.00   0.79889274   0.01539213
4864.00   0.79758906   0.01546172
4866.00   0.79688174   0.01541572
4868.00   0.87836152   0.01609155
4870.00   1.00238001   0.01695370
4872.00   0.93640369   0.01635417
4874.00   0.85034209   0.01570252
4876.00   0.81056249   0.01545834
4878.00   0.80806398   0.01546951
4880.00   0.85087883   0.01573929
4882.00   0.81824559   0.01549852
4884.00   0.82643354   0.01548014
4886.00   0.81491065   0.01526508
4888.00   0.82620949   0.01534484
4890.00   0.79902744   0.01520023
4892.00   0.78912985   0.01517160
4894.00   0.81615162   0.01535359
4896.00   0.81169832   0.01528835
4898.00   0.85998422   0.01553314
4900.00   0.83316022   0.01532642
4902.00   0.85063154   0.01545055
4904.00   0.86642987   0.01556415
4906.00   0.83687317   0.01537383
4908.00   0.86236179   0.01561987
4910.00   0.85881317   0.01564657
4912.00   0.85887253   0.01555153
4914.00   0.86485845   0.01555320
4916.00   0.79138970   0.01509297
4918.00   0.82274169   0.01526957
4920.00   0.81597483   0.01510828
4922.00   0.81236827   0.01507238
4924.00   0.78088152   0.01486757
4926.00   0.77810949   0.01558722
4928.00   0.77539557   0.01478940
4930.00   0.76323992   0.01456727
4932.00   0.78585607   0.01471880
4934.00   0.77920282   0.01470062
4936.00   0.78001720   0.01475687
4938.00   0.76924217   0.01471968
4940.00   0.79591942   0.01492184
4942.00   0.77108604   0.01478279
4944.00   0.79264820   0.01480528
4946.00   0.75068700   0.01446180
4948.00   0.76116723   0.01450305
4950.00   0.77450746   0.01467775
4952.00   0.80147630   0.01496825
4954.00   0.77566969   0.01490630
4956.00   0.76269269   0.01481952
4958.00   0.75875759   0.01463167
4960.00   0.77014357   0.01468827
4962.00   0.77113855   0.01481037
4964.00   0.79303116   0.01499818
4966.00   0.81599718   0.01524078
4968.00   0.82984293   0.01546226
4970.00   0.81712723   0.01549017
4972.00   0.81975198   0.01570826
4974.00   0.83094954   0.01599251
4976.00   0.84736431   0.01645290
4978.00   0.85965407   0.01689786
4980.00   0.84171307   0.01727598
4982.00   0.88055021   0.01775518
4984.00   0.86327106   0.01763750
4986.00   0.89073378   0.01747542
4988.00   0.91039139   0.01718834
4990.00   0.94088644   0.01702558
4992.00   1.00638449   0.01718048
4994.00   1.01228285   0.01698368
4996.00   1.03136492   0.01678715
4998.00   1.02556717   0.01654594
5000.00   1.06292355   0.01669137
5002.00   1.11498833   0.01695203
5004.00   1.16579139   0.01714360
5006.00   1.16172791   0.01705849
5008.00   1.20625854   0.01724602
5010.00   1.24618161   0.01742577
5012.00   1.25968480   0.01759014
5014.00   1.30000508   0.01796566
5016.00   1.37796116   0.01843404
5018.00   1.38387740   0.01847292
5020.00   1.38608241   0.01840667
5022.00   1.38970566   0.01836247
5024.00   1.40153086   0.01825599
5026.00   1.44300079   0.01847027
5028.00   1.43065882   0.01846527
5030.00   1.46043086   0.01875668
5032.00   1.42995787   0.01855506
5034.00   1.40347588   0.01831356
5036.00   1.41024578   0.01826380
5038.00   1.36889637   0.01808251
5040.00   1.38483012   0.01813311
5042.00   1.38092077   0.01810043
5044.00   1.33477068   0.01796470
5046.00   1.30444872   0.01773787
5048.00   1.29921865   0.01774516
5050.00   1.27597499   0.01757734
5052.00   1.23075426   0.01730258
5054.00   1.20534050   0.01718628
5056.00   1.20891762   0.01723159
5058.00   1.17567074   0.01701415
5060.00   1.13827848   0.01684207
5062.00   1.15162730   0.01709308
5064.00   1.08943963   0.01683665
5066.00   1.09926081   0.01704090
5068.00   1.05043447   0.01697176
5070.00   1.00350583   0.01684487
5072.00   0.99097681   0.01651817
5074.00   0.97773439   0.01631483
5076.00   0.96517938   0.01614143
5078.00   0.91009569   0.01587108
5080.00   0.94817436   0.01679418
5082.00   0.91598928   0.01745214
5084.00   0.88824040   0.01773973
5086.00   0.87860429   0.01768588
5088.00   0.83835840   0.01694785
5090.00   0.80480778   0.01594247
5092.00   0.81281787   0.01534633
5094.00   0.80172694   0.01512097
5096.00   0.73679179   0.01492272
5098.00   0.75070602   0.01536548
5100.00   0.74100792   0.01534274
5102.00   0.76269275   0.01519101
5104.00   0.71621138   0.01453259
5106.00   0.71838808   0.01440196
5108.00   0.70514041   0.01420732
5110.00   0.69751316   0.01430658
5112.00   0.67608160   0.01419120
5114.00   0.71555752   0.01453717
5116.00   0.70723045   0.01458060
5118.00   0.71500677   0.01452337
5120.00   0.73664463   0.01452362
5122.00   0.74307966   0.01454450
5124.00   0.73946220   0.01451595
5126.00   0.75424713   0.01462174
5128.00   0.77834386   0.01480101
5130.00   0.77236044   0.01479728
5132.00   0.76311672   0.01476747
5134.00   0.80305815   0.01505313
5136.00   0.81018203   0.01514138
5138.00   0.84563148   0.01534245
5140.00   0.86378098   0.01554574
5142.00   0.92995399   0.01601962
5144.00   0.98088437   0.01638840
5146.00   0.98920512   0.01661546
5148.00   1.03125107   0.01704697
5150.00   1.08270073   0.01758571
5152.00   1.06913114   0.01783114
5154.00   1.13877797   0.01830078
5156.00   1.13655317   0.01813144
5158.00   1.18296230   0.01814808
5160.00   1.21689093   0.01816937
5162.00   1.26266026   0.01832581
5164.00   1.22714555   0.01801467
5166.00   1.25046408   0.01819931
5168.00   1.22566307   0.01804217
5170.00   1.21586549   0.01797988
5172.00   1.27490139   0.01830615
5174.00   1.24147618   0.01810640
5176.00   1.29920626   0.01854520
5178.00   1.21402562   0.01804407
5180.00   1.25345814   0.01828936
5182.00   1.22797227   0.01810035
5184.00   1.21935010   0.01804653
5186.00   1.22246349   0.01823163
5188.00   1.22891247   0.01833842
5190.00   1.25862026   0.01851681
5192.00   1.19264269   0.01811443
5194.00   1.18386364   0.01809500
5196.00   1.14442289   0.01791817
5198.00   1.14694488   0.01800820
5200.00   1.12319994   0.01790400
5202.00   1.09582341   0.01776232
5204.00   1.08330774   0.01761665
5206.00   1.05766213   0.01743959
5208.00   1.09529507   0.01786448
5210.00   1.10646963   0.01815972
5212.00   1.08161080   0.01796997
5214.00   1.08269083   0.01785903
5216.00   1.08184922   0.01784093
5218.00   1.09499848   0.01801206
5220.00   1.11207628   0.01822813
5222.00   1.11822093   0.01823526
5224.00   1.13120341   0.01828790
5226.00   1.12661946   0.01826022
5228.00   1.08979774   0.01805726
5230.00   1.13169765   0.01834332
5232.00   1.15803719   0.01857785
5234.00   1.14892650   0.01846215
5236.00   1.13680100   0.01844809
5238.00   1.12366498   0.01849194
5240.00   1.12043238   0.01854732
5242.00   1.10597694   0.01845562
5244.00   1.11497509   0.01845860
5246.00   1.10395741   0.01842292
5248.00   1.10201573   0.01841326
5250.00   1.14162982   0.01869347
5252.00   1.13739300   0.01874180
5254.00   1.13158560   0.01882041
5256.00   1.13548899   0.01903360
5258.00   1.17845166   0.01942390
5260.00   1.15176356   0.01924958
5262.00   1.13788438   0.01905979
5264.00   1.15506041   0.01907669
5266.00   1.17291582   0.01923748
5268.00   1.20391822   0.01945594
5270.00   1.20906687   0.01954688
5272.00   1.19040847   0.01950029
5274.00   1.17137074   0.01942440
5276.00   1.14066768   0.01934918
5278.00   1.12256730   0.01923173
5280.00   1.10059333   0.01906975
5282.00   1.08211291   0.01900784
5284.00   1.11615658   0.01937087
5286.00   1.06906903   0.01913941
5288.00   1.08332002   0.01919873
5290.00   1.08737493   0.01926113
5292.00   1.04877806   0.01900162
5294.00   1.10651362   0.01943328
5296.00   1.08711243   0.01940768
5298.00   1.09441185   0.01953611
5300.00   1.08122158   0.01950329
5302.00   1.12746036   0.01982764
5304.00   1.10725474   0.01967796
5306.00   1.16046035   0.02004399
5308.00   1.15919375   0.02007092
5310.00   1.13209653   0.02001118
5312.00   1.17810273   0.02034589
5314.00   1.17131746   0.02033713
5316.00   1.19202852   0.02053725
5318.00   1.18347800   0.02046057
5320.00   1.19327617   0.02061924
5322.00   1.21421552   0.02074012
5324.00   1.18892908   0.02063407
5326.00   1.19901180   0.02080969
5328.00   1.23408544   0.02114063
5330.00   1.18670797   0.02094430
5332.00   1.19696581   0.02102333
5334.00   1.19976664   0.02100222
5336.00   1.22334087   0.02121312
5338.00   1.18555903   0.02108884
5340.00   1.18535614   0.02130528
5342.00   1.20853221   0.02161079
5344.00   1.15594828   0.02127836
5346.00   1.13297606   0.02119167
5348.00   1.13371348   0.02148775
5350.00   1.19839656   0.02208014
5352.00   1.16402531   0.02178169
5354.00   1.14066315   0.02180690
5356.00   1.12132645   0.02184103
5358.00   1.12767994   0.02176252
5360.00   1.15269148   0.02167090
5362.00   1.14397323   0.02147257
5364.00   1.09191048   0.02111878
5366.00   1.11379480   0.02128654
5368.00   1.14614737   0.02167305
5370.00   1.11318755   0.02142648
5372.00   1.11080754   0.02156260
5374.00   1.11008382   0.02179809
5376.00   1.12272644   0.02209148
5378.00   1.09312594   0.02180002
5380.00   1.08512652   0.02176742
5382.00   1.09460676   0.02179990
5384.00   1.06875265   0.02164624
5386.00   1.09080875   0.02185403
5388.00   1.07842267   0.02193038
5390.00   1.03108108   0.02196050
5392.00   1.08147097   0.02259177
5394.00   1.09371424   0.02258495
5396.00   1.03396761   0.02215753
5398.00   1.05554831   0.02235662
5400.00   1.05543888   0.02236724
5402.00   1.11624563   0.02293994
5404.00   1.01773548   0.02228006
5406.00   1.03315449   0.02253382
5408.00   1.05505121   0.02294149
5410.00   1.04216945   0.02310918
5412.00   1.03873086   0.02327732
5414.00   1.09814703   0.02417000
5416.00   1.08298767   0.02437249
5418.00   1.09112012   0.02452282
5420.00   1.10423803   0.02467240
5422.00   1.05727434   0.02450509
5424.00   1.05496216   0.02443678
5426.00   1.07300520   0.02471470
5428.00   1.03414404   0.02432467
5430.00   1.04119432   0.02447815
5432.00   1.05121803   0.02469949
5434.00   1.14948165   0.02539646
5436.00   1.09888589   0.02516759
5438.00   1.09839976   0.02522167
5440.00   1.03612506   0.02493845
5442.00   1.05797160   0.02525252
5444.00   1.03995597   0.02528683
5446.00   1.01146734   0.02517588
5448.00   1.04963803   0.00862306
5450.00   1.00629008   0.00855150
5452.00   0.99964035   0.00881873
5454.00   1.03071320   0.00936839
5456.00   1.04600048   0.00996144
5458.00   1.02791822   0.01060786
5460.00   0.99346453   0.01124454
5462.00   0.96099925   0.01165481
5464.00   0.91273087   0.01222035
5466.00   0.89290321   0.01181539
5468.00   0.89960575   0.00998016
5470.00   0.89932710   0.00859277
5472.00   0.88739812   0.00814365
5474.00   0.87380612   0.00824966
5476.00   0.86751711   0.00869674
5478.00   0.86594015   0.00972486
5480.00   0.86151457   0.00993711
5482.00   0.85850298   0.00974170
5484.00   0.85124952   0.00938167
5486.00   0.83363122   0.00858117
5488.00   0.82130665   0.00777993
5490.00   0.83003998   0.00756533
5492.00   0.85374928   0.00775476
5494.00   0.86149251   0.00767870
5496.00   0.85909295   0.00737240
5498.00   0.86161852   0.00744920
5500.00   0.86507523   0.00793029
5502.00   0.87123573   0.00837323
5504.00   0.88054448   0.00869091
5506.00   0.89296961   0.00892647
5508.00   0.91158038   0.00875756
5510.00   0.93570501   0.00782672
5512.00   0.96385366   0.00765691
5514.00   0.99751735   0.00790443
5516.00   1.03378665   0.00834841
5518.00   1.07544005   0.00912465
5520.00   1.11750007   0.00989076
5522.00   1.14623308   0.00996374
5524.00   1.15971291   0.00944906
5526.00   1.19156992   0.00925307
5528.00   1.24040377   0.00908895
5530.00   1.27960396   0.00898705
5532.00   1.30472326   0.00894397
5534.00   1.32783961   0.00896892
5536.00   1.36158788   0.00908263
5538.00   1.40282142   0.00928501
5540.00   1.43241024   0.00947431
5542.00   1.44890344   0.00981501
5544.00   1.47631371   0.00989097
5546.00   1.51744783   0.00964029
5548.00   1.55659258   0.00937170
5550.00   1.58245206   0.00930249
5552.00   1.60067081   0.00932799
5554.00   1.62487566   0.00936056
5556.00   1.65674341   0.00946169
5558.00   1.67529631   0.00952694
5560.00   1.67810440   0.00924170
5562.00   1.68504107   0.00950169
5564.00   1.70528805   0.01090698
5566.00   1.73107815   0.01255066
5568.00   1.74922156   0.01285210
5570.00   1.76574767   0.01168659
5572.00   1.77644980   0.01213192
5574.00   1.79033399   0.01410057
5576.00   1.78547847   0.01491189
5578.00   1.75794804   0.01405061
5580.00   1.71357024   0.01252141
5582.00   1.65376270   0.01199087
5584.00   1.56412554   0.01214767
5586.00   1.51754916   0.01152412
5588.00   1.50639653   0.01002027
5590.00   1.48465800   0.00900499
5592.00   1.45351338   0.00874922
5594.00   1.41923809   0.00878549
5596.00   1.38503528   0.00876652
5598.00   1.35055101   0.00889142
5600.00   1.30350924   0.00872241
5602.00   1.23585248   0.00818323
5604.00   1.18611979   0.00793008
5606.00   1.15413082   0.00796264
5608.00   1.12249112   0.00802670
5610.00   1.08048165   0.00801683
5612.00   1.03444219   0.00798779
5614.00   0.99921012   0.00782634
5616.00   0.97293681   0.00744035
5618.00   0.94432479   0.00723860
5620.00   0.91262752   0.00714862
5622.00   0.88806540   0.00709397
5624.00   0.87648994   0.00707591
5626.00   0.87109953   0.00708032
5628.00   0.85733652   0.00701407
5630.00   0.83880758   0.00686779
5632.00   0.82333654   0.00681721
5634.00   0.80146277   0.00670134
5636.00   0.79365355   0.00683539
5638.00   0.80672771   0.00732534
5640.00   0.82711172   0.00789110
5642.00   0.83938372   0.00826871
5644.00   0.85307622   0.00862023
5646.00   0.84900230   0.00873997
5648.00   0.82104623   0.00871482
5650.00   0.80675864   0.00851477
5652.00   0.80174953   0.00799848
5654.00   0.80555129   0.00743160
5656.00   0.82450485   0.00704091
5658.00   0.85777825   0.00671327
5660.00   0.86445343   0.00694351
5662.00   0.84807724   0.00800389
5664.00   0.84185147   0.00831872
5666.00   0.84047002   0.00810799
5668.00   0.83920276   0.00782065
5670.00   0.83540899   0.00757824
5672.00   0.83111936   0.00733402
5674.00   0.83256364   0.00748599
5676.00   0.84313279   0.00812729
5678.00   0.84373534   0.00839152
5680.00   0.84124416   0.00849843
5682.00   0.83212662   0.00858987
5684.00   0.81125718   0.00867783
5686.00   0.78658938   0.00876098
5688.00   0.77656072   0.00889190
5690.00   0.78152210   0.00906400
5692.00   0.76719874   0.00920587
5694.00   0.73858798   0.00957898
5696.00   0.71216697   0.00947911
5698.00   0.68516856   0.00858625
5700.00   0.66168576   0.00745792
5702.00   0.65087682   0.00706404
5704.00   0.65193582   0.00720762
5706.00   0.64005315   0.00700000
5708.00   0.62041277   0.00660138
5710.00   0.60200799   0.00638380
5712.00   0.58471638   0.00631205
5714.00   0.56553596   0.00637233
5716.00   0.54109490   0.00666942
5718.00   0.51289922   0.00713499
5720.00   0.49448982   0.00698627
5722.00   0.48572558   0.00607267
5724.00   0.47176108   0.00564950
5726.00   0.45541269   0.00558977
5728.00   0.43871793   0.00558861
5730.00   0.42133152   0.00556508
5732.00   0.40403479   0.00556152
5734.00   0.39172104   0.00547241
5736.00   0.38509592   0.00526004
5738.00   0.37498409   0.00519155
5740.00   0.36186054   0.00526451
5742.00   0.35212865   0.00527088
5744.00   0.35003993   0.00515255
5746.00   0.34840152   0.00499533
5748.00   0.33442700   0.00491641
5750.00   0.30905059   0.00487932
5752.00   0.29416168   0.00484258
5754.00   0.28345168   0.00480012
5756.00   0.27523559   0.00481084
5758.00   0.27164358   0.00485232
5760.00   0.26836237   0.00496045
5762.00   0.26024613   0.00519967
5764.00   0.24904637   0.00555131
5766.00   0.24098948   0.00572196
5768.00   0.23552549   0.00585436
5770.00   0.22786212   0.00584240
5772.00   0.21657652   0.00557421
5774.00   0.20733213   0.00536054
5776.00   0.20257877   0.00545153
5778.00   0.20108308   0.00570148
5780.00   0.20693494   0.00574931
5782.00   0.22780406   0.00569302
5784.00   0.23335813   0.00564129
5786.00   0.22808248   0.00551008
5788.00   0.22168007   0.00544380
5790.00   0.21580398   0.00548790
5792.00   0.20977341   0.00560564
5794.00   0.20726146   0.00578981
5796.00   0.20593843   0.00617755
5798.00   0.20955785   0.00619562
5800.00   0.21981269   0.00592683
5802.00   0.22853601   0.00563757
5804.00   0.23457853   0.00528200
5806.00   0.24021481   0.00493182
5808.00   0.24782947   0.00481900
5810.00   0.25790295   0.00491946
5812.00   0.26140845   0.00491438
5814.00   0.25663328   0.00476082
5816.00   0.25762773   0.00490129
5818.00   0.26478001   0.00548815
5820.00   0.27343085   0.00595843
5822.00   0.28061238   0.00593273
5824.00   0.28778106   0.00558872
5826.00   0.29427060   0.00543320
5828.00   0.29565123   0.00519905
5830.00   0.30692324   0.00520510
5832.00   0.32963434   0.00553085
5834.00   0.35177812   0.00578738
5836.00   0.36867222   0.00578563
5838.00   0.38288578   0.00566885
5840.00   0.39139754   0.00573111
5842.00   0.39035845   0.00596965
5844.00   0.39645299   0.00602508
5846.00   0.40645468   0.00594116
5848.00   0.41591087   0.00589309
5850.00   0.42184711   0.00588702
5852.00   0.42848533   0.00593897
5854.00   0.44484475   0.00616000
5856.00   0.47228158   0.00650137
5858.00   0.48901990   0.00690543
5860.00   0.49790585   0.00766783
5862.00   0.51031590   0.00791035
5864.00   0.52966106   0.00742400
5866.00   0.54795504   0.00674996
5868.00   0.55526930   0.00665824
5870.00   0.55333632   0.00693584
5872.00   0.56162971   0.00691546
5874.00   0.57354605   0.00658410
5876.00   0.58996874   0.00665273
5878.00   0.60787576   0.00688698
5880.00   0.63408536   0.00753776
5882.00   0.68108565   0.00880027
5884.00   0.74382049   0.01034755
5886.00   0.75984013   0.01143577
5888.00   0.73484117   0.01232249
5890.00   0.72048700   0.01327866
5892.00   0.68555385   0.01455682
5894.00   0.67924392   0.01532171
5896.00   0.73967826   0.01541196
5898.00   0.83035976   0.01498003
5900.00   0.84585708   0.01374115
5902.00   0.79725915   0.01042851
5904.00   0.78489751   0.00851726
5906.00   0.77987516   0.00776176
5908.00   0.77923721   0.00733292
5910.00   0.78494239   0.00725504
5912.00   0.79328942   0.00750648
5914.00   0.79608995   0.00766251
5916.00   0.79616314   0.00793811
5918.00   0.79591435   0.00807645
5920.00   0.79119611   0.00825229
5922.00   0.79218453   0.00819668
5924.00   0.80074573   0.00773809
5926.00   0.81109852   0.00725035
5928.00   0.81975555   0.00724680
5930.00   0.83008933   0.00758717
5932.00   0.82386988   0.00750210
5934.00   0.79939812   0.00694342
5936.00   0.78111345   0.00683713
5938.00   0.76086247   0.00720509
5940.00   0.74775916   0.00759716
5942.00   0.75036669   0.00787126
5944.00   0.76367933   0.00810560
5946.00   0.76917511   0.00793325
5948.00   0.77593648   0.00713046
5950.00   0.77539104   0.00676861
5952.00   0.76665902   0.00669265
5954.00   0.75816214   0.00666064
5956.00   0.75168616   0.00661848
5958.00   0.74623913   0.00659937
5960.00   0.74419242   0.00654783
5962.00   0.74581534   0.00644359
5964.00   0.74649155   0.00644839
5966.00   0.74921781   0.00645335
5968.00   0.74939758   0.00662983
5970.00   0.74599630   0.00712186
5972.00   0.74098468   0.00759722
5974.00   0.73541546   0.00764142
5976.00   0.72555757   0.00738004
5978.00   0.73113436   0.00720637
5980.00   0.75362742   0.00693642
5982.00   0.76933825   0.00673503
5984.00   0.78300166   0.00659148
5986.00   0.79006392   0.00650180
5988.00   0.78185123   0.00649096
5990.00   0.76059788   0.00655898
5992.00   0.75634044   0.00654107
5994.00   0.76458591   0.00643769
5996.00   0.76727229   0.00642454
5998.00   0.76946568   0.00653255
6000.00   0.76793069   0.00659061
6002.00   0.75888705   0.00648979
6004.00   0.74529737   0.00630378
6006.00   0.73913175   0.00625207
6008.00   0.74046230   0.00629954
6010.00   0.73454893   0.00630732
6012.00   0.72331429   0.00636215
6014.00   0.71312219   0.00633567
6016.00   0.70525587   0.00615172
6018.00   0.69856608   0.00590281
6020.00   0.69322336   0.00579126
6022.00   0.69074047   0.00574278
6024.00   0.68415606   0.00576598
6026.00   0.67439246   0.00596711
6028.00   0.66503030   0.00602233
6030.00   0.65630335   0.00586862
6032.00   0.64745492   0.00565966
6034.00   0.63727158   0.00554140
6036.00   0.62479395   0.00540829
6038.00   0.62094522   0.00559739
6040.00   0.62959045   0.00631837
6042.00   0.62773091   0.00648829
6044.00   0.61401409   0.00605821
6046.00   0.59957588   0.00556104
6048.00   0.59151727   0.00545982
6050.00   0.58631039   0.00556085
6052.00   0.58244026   0.00549979
6054.00   0.58251029   0.00535885
6056.00   0.57971197   0.00527119
6058.00   0.57267129   0.00520329
6060.00   0.56914198   0.00516463
6062.00   0.57444477   0.00517616
6064.00   0.58372802   0.00521588
6066.00   0.58350676   0.00519954
6068.00   0.57519686   0.00510821
6070.00   0.57146555   0.00511936
6072.00   0.56554890   0.00512232
6074.00   0.56584370   0.00527785
6076.00   0.57759881   0.00576155
6078.00   0.59227395   0.00621601
6080.00   0.59485233   0.00607986
6082.00   0.58842587   0.00534133
6084.00   0.58763915   0.00510289
6086.00   0.58562231   0.00511484
6088.00   0.58923000   0.00519427
6090.00   0.60341352   0.00541532
6092.00   0.61643714   0.00563290
6094.00   0.61448717   0.00566954
6096.00   0.60145700   0.00558213
6098.00   0.60001224   0.00565651
6100.00   0.60698336   0.00577392
6102.00   0.60877889   0.00599877
6104.00   0.60415131   0.00646273
6106.00   0.60202402   0.00677353
6108.00   0.60922128   0.00668398
6110.00   0.62186348   0.00634067
6112.00   0.62575537   0.00620975
6114.00   0.62339026   0.00615286
6116.00   0.62299323   0.00610551
6118.00   0.62290126   0.00605718
6120.00   0.62181425   0.00608379
6122.00   0.61691731   0.00630674
6124.00   0.61194915   0.00655725
6126.00   0.61878729   0.00636828
6128.00   0.63870579   0.00558934
6130.00   0.64918768   0.00536828
6132.00   0.65413153   0.00559399
6134.00   0.66189522   0.00569585
6136.00   0.67464453   0.00558631
6138.00   0.68835789   0.00543452
6140.00   0.69829553   0.00540813
6142.00   0.70624733   0.00544852
6144.00   0.71322429   0.00550495
6146.00   0.71667641   0.00559715
6148.00   0.72339457   0.00570932
6150.00   0.73534048   0.00589101
6152.00   0.74641705   0.00602947
6154.00   0.75159514   0.00600573
6156.00   0.75318187   0.00585966
6158.00   0.75216711   0.00585520
6160.00   0.74734199   0.00597462
6162.00   0.74152058   0.00599118
6164.00   0.73167545   0.00594199
6166.00   0.72396278   0.00585201
6168.00   0.72249222   0.00570299
6170.00   0.72447836   0.00550918
6172.00   0.72294277   0.00543064
6174.00   0.71979171   0.00546790
6176.00   0.71701914   0.00544101
6178.00   0.71265757   0.00537895
6180.00   0.71053696   0.00534200
6182.00   0.71221632   0.00535880
6184.00   0.71579915   0.00539373
6186.00   0.71855414   0.00537956
6188.00   0.72423708   0.00530257
6190.00   0.72111076   0.00533485
6192.00   0.70743877   0.00551222
6194.00   0.69886446   0.00556987
6196.00   0.69619685   0.00544932
6198.00   0.69672078   0.00528925
6200.00   0.69932157   0.00524207
6202.00   0.70464265   0.00523680
6204.00   0.71150333   0.00533278
6206.00   0.72148424   0.00560406
6208.00   0.73086774   0.00574095
6210.00   0.74096382   0.00578354
6212.00   0.74995625   0.00576070
6214.00   0.75461417   0.00565629
6216.00   0.75612539   0.00546823
6218.00   0.76899683   0.00537636
6220.00   0.78623599   0.00530394
6222.00   0.81445199   0.00531036
6224.00   0.85380155   0.00536885
6226.00   0.89988381   0.00551092
6228.00   0.95419830   0.00576785
6230.00   1.01411510   0.00608998
6232.00   1.06275070   0.00634765
6234.00   1.09616494   0.00662111
6236.00   1.15025783   0.00680679
6238.00   1.22287309   0.00697287
6240.00   1.29013634   0.00703493
6242.00   1.34543276   0.00690893
6244.00   1.39812684   0.00673376
6246.00   1.45950854   0.00677154
6248.00   1.52459180   0.00686391
6250.00   1.59574902   0.00726471
6252.00   1.68013752   0.00821604
6254.00   1.75417960   0.00860087
6256.00   1.81537199   0.00819527
6258.00   1.87265670   0.00777418
6260.00   1.93387294   0.00831066
6262.00   1.99624920   0.00945378
6264.00   2.05285263   0.00957501
6266.00   2.10383940   0.00882071
6268.00   2.15590811   0.00853235
6270.00   2.20577598   0.00855391
6272.00   2.25857544   0.00876386
6274.00   2.31814933   0.00919437
6276.00   2.38241148   0.00978883
6278.00   2.44739795   0.01006069
6280.00   2.53235006   0.01031523
6282.00   2.57811880   0.01017344
6284.00   2.59691644   0.00946605
6286.00   2.59694552   0.00882395
6288.00   2.56902194   0.00851048
6290.00   2.52729583   0.00837078
6292.00   2.52594304   0.00832256
6294.00   2.55930424   0.00848815
6296.00   2.57046556   0.00852956
6298.00   2.58034134   0.00838630
6300.00   2.57825708   0.00852531
6302.00   2.55074978   0.00921742
6304.00   2.52295256   0.00988029
6306.00   2.53607178   0.00976577
6308.00   2.57955575   0.00896584
6310.00   2.61637712   0.00874129
6312.00   2.66988516   0.00886003
6314.00   2.70479679   0.00887601
6316.00   2.72430968   0.00877361
6318.00   2.72970533   0.00869448
6320.00   2.71802974   0.00875401
6322.00   2.68961024   0.00890913
6324.00   2.65932369   0.00898697
6326.00   2.61518073   0.00909323
6328.00   2.57963276   0.00907741
6330.00   2.54551339   0.00894117
6332.00   2.51935530   0.00875285
6334.00   2.50936961   0.00851430
6336.00   2.50932384   0.00822775
6338.00   2.49040341   0.00807912
6340.00   2.45933104   0.00785784
6342.00   2.42809749   0.00807107
6344.00   2.38506842   0.00896015
6346.00   2.35276008   0.00937120
6348.00   2.34223342   0.00893526
6350.00   2.33967996   0.00810689
6352.00   2.32004094   0.00779599
6354.00   2.29527450   0.00771489
6356.00   2.25557184   0.00775431
6358.00   2.19163418   0.00818405
6360.00   2.13941836   0.00830202
6362.00   2.10311699   0.00793832
6364.00   2.07216978   0.00747251
6366.00   2.03722143   0.00742136
6368.00   2.00060320   0.00765434
6370.00   1.97397733   0.00764034
6372.00   1.96118832   0.00747281
6374.00   1.93869734   0.00739058
6376.00   1.90656948   0.00743566
6378.00   1.87232423   0.00743723
6380.00   1.84218609   0.00722811
6382.00   1.81358755   0.00686216
6384.00   1.77121341   0.00678955
6386.00   1.71434426   0.00680828
6388.00   1.66235590   0.00709942
6390.00   1.60221970   0.00798546
6392.00   1.55606568   0.00840661
6394.00   1.53918087   0.00783563
6396.00   1.53854799   0.00662986
6398.00   1.51878929   0.00617057
6400.00   1.48980999   0.00625709
6402.00   1.46222520   0.00616797
6404.00   1.43039656   0.00614954
6406.00   1.40127134   0.00612313
6408.00   1.37544775   0.00606384
6410.00   1.35257602   0.00600608
6412.00   1.33475840   0.00599717
6414.00   1.32373726   0.00602164
6416.00   1.30699515   0.00606491
6418.00   1.28673375   0.00618493
6420.00   1.26801014   0.00622015
6422.00   1.25114608   0.00615738
6424.00   1.23473620   0.00604883
6426.00   1.21669126   0.00591772
6428.00   1.19646776   0.00572471
6430.00   1.18742597   0.00570586
6432.00   1.18920279   0.00591469
6434.00   1.18913746   0.00594399
6436.00   1.18938291   0.00578364
6438.00   1.18996394   0.00562593
6440.00   1.19096732   0.00559807
6442.00   1.19232523   0.00563599
6444.00   1.19040823   0.00564658
6446.00   1.18460441   0.00564135
6448.00   1.18112028   0.00568933
6450.00   1.17781186   0.00583437
6452.00   1.17615747   0.00590887
6454.00   1.17865252   0.00583203
6456.00   1.18220651   0.00568272
6458.00   1.17691851   0.00562919
6460.00   1.16174996   0.00562364
6462.00   1.15488851   0.00561437
6464.00   1.15392494   0.00563166
6466.00   1.15008318   0.00563384
6468.00   1.14014256   0.00561238
6470.00   1.12987041   0.00558193
6472.00   1.12769592   0.00555807
6474.00   1.13265371   0.00553538
6476.00   1.13066399   0.00550833
6478.00   1.12463236   0.00547411
6480.00   1.11926830   0.00544638
6482.00   1.11350071   0.00542334
6484.00   1.10863364   0.00540608
6486.00   1.10605383   0.00539432
6488.00   1.10496497   0.00538639
6490.00   1.10735095   0.00540681
6492.00   1.11578143   0.00546286
6494.00   1.11991358   0.00550390
6496.00   1.11960900   0.00554209
6498.00   1.12037897   0.00557269
6500.00   1.12465894   0.00558418
6502.00   1.13109612   0.00558582
6504.00   1.14037514   0.00563019
6506.00   1.15720522   0.00573146
6508.00   1.16495931   0.00577632
6510.00   1.16684842   0.00580638
6512.00   1.16679263   0.00579698
6514.00   1.16559052   0.00568093
6516.00   1.16262245   0.00555472
6518.00   1.15801525   0.00568903
6520.00   1.15044165   0.00603921
6522.00   1.14532208   0.00629790
6524.00   1.14423478   0.00668548
6526.00   1.13774240   0.00683138
6528.00   1.12371325   0.00667644
6530.00   1.10687101   0.00637706
6532.00   1.09214199   0.00607710
6534.00   1.07728124   0.00563830
6536.00   1.06329560   0.00549792
6538.00   1.04937053   0.00572577
6540.00   1.03701997   0.00572980
6542.00   1.02786326   0.00548041
6544.00   1.01766706   0.00522098
6546.00   1.00231636   0.00514271
6548.00   0.98351896   0.00516520
6550.00   0.96959156   0.00519940
6552.00   0.95893812   0.00531898
6554.00   0.94753420   0.00537905
6556.00   0.93558204   0.00542596
6558.00   0.92491478   0.00542826
6560.00   0.91342849   0.00531381
6562.00   0.90383625   0.00515208
6564.00   0.91168737   0.00527410
6566.00   0.93584704   0.00558852
6568.00   0.96054745   0.00594156
6570.00   1.00736046   0.00645435
6572.00   1.02919304   0.00685459
6574.00   1.01335585   0.00720149
6576.00   0.97655344   0.00741263
6578.00   0.93683428   0.00720167
6580.00   0.88009191   0.00651888
6582.00   0.83958131   0.00597440
6584.00   0.80113852   0.00508104
6586.00   0.77612990   0.00463148
6588.00   0.76889801   0.00495057
6590.00   0.76877469   0.00546002
6592.00   0.76498914   0.00573401
6594.00   0.76250768   0.00602852
6596.00   0.75964403   0.00587716
6598.00   0.76134092   0.00501276
6600.00   0.75380749   0.00461490
6602.00   0.73401749   0.00476612
6604.00   0.71481168   0.00498709
6606.00   0.70392936   0.00506032
6608.00   0.69731784   0.00510386
6610.00   0.69396460   0.00495142
6612.00   0.70113623   0.00438729
6614.00   0.69600934   0.00424085
6616.00   0.67928100   0.00448983
6618.00   0.66437876   0.00470020
6620.00   0.65502942   0.00477136
6622.00   0.64883751   0.00477908
6624.00   0.64766407   0.00467415
6626.00   0.65538114   0.00435230
6628.00   0.65467846   0.00424209
6630.00   0.64851302   0.00428554
6632.00   0.64329946   0.00430809
6634.00   0.63958448   0.00428376
6636.00   0.63659012   0.00425470
6638.00   0.63477540   0.00425425
6640.00   0.63476765   0.00427793
6642.00   0.63205642   0.00427548
6644.00   0.62698263   0.00425946
6646.00   0.62282968   0.00423980
6648.00   0.61901760   0.00421413
6650.00   0.61611044   0.00418528
6652.00   0.61527181   0.00413304
6654.00   0.61626303   0.00404568
6656.00   0.61529541   0.00417745
6658.00   0.61335427   0.00458769
6660.00   0.61132950   0.00476033
6662.00   0.60896999   0.00481042
6664.00   0.60646516   0.00475137
6666.00   0.60366619   0.00451270
6668.00   0.60073072   0.00412303
6670.00   0.59938031   0.00400605
6672.00   0.60128248   0.00414481
6674.00   0.59879965   0.00415427
6676.00   0.59287429   0.00412389
6678.00   0.58669168   0.00410133
6680.00   0.58041567   0.00410190
6682.00   0.57431817   0.00411006
6684.00   0.57099497   0.00410731
6686.00   0.57116544   0.00410811
6688.00   0.56764984   0.00408155
6690.00   0.56063521   0.00394716
6692.00   0.55595750   0.00396464
6694.00   0.55510581   0.00423615
6696.00   0.55489343   0.00452223
6698.00   0.55220723   0.00457785
6700.00   0.54933023   0.00450239
6702.00   0.53985715   0.00440938
6704.00   0.52039433   0.00415134
6706.00   0.50774521   0.00405192
6708.00   0.50216109   0.00416069
6710.00   0.49792346   0.00428219
6712.00   0.49151614   0.00428863
6714.00   0.48466915   0.00424355
6716.00   0.47711506   0.00416888
6718.00   0.46304807   0.00399005
6720.00   0.46159935   0.00391406
6722.00   0.47265452   0.00385349
6724.00   0.48550478   0.00392505
6726.00   0.49923232   0.00425914
6728.00   0.51284033   0.00468783
6730.00   0.50796056   0.00475539
6732.00   0.47998857   0.00456379
6734.00   0.46781692   0.00439737
6736.00   0.46019897   0.00407368
6738.00   0.45640469   0.00382895
6740.00   0.46149009   0.00371308
6742.00   0.46682352   0.00371204
6744.00   0.45164087   0.00389356
6746.00   0.41545627   0.00434340
6748.00   0.39916855   0.00441746
6750.00   0.39330590   0.00427034
6752.00   0.38831353   0.00407854
6754.00   0.38604066   0.00375456
6756.00   0.38379306   0.00342187
6758.00   0.37592182   0.00332974
6760.00   0.36291322   0.00342597
6762.00   0.36174893   0.00343567
6764.00   0.37370121   0.00345833
6766.00   0.37737459   0.00346373
6768.00   0.37499142   0.00345470
6770.00   0.36963058   0.00343640
6772.00   0.36113977   0.00340758
6774.00   0.34956449   0.00336846
6776.00   0.34520292   0.00334504
6778.00   0.34838596   0.00325469
6780.00   0.34625188   0.00334046
6782.00   0.33905721   0.00358692
6784.00   0.33460739   0.00383570
6786.00   0.33695418   0.00411115
6788.00   0.34228390   0.00435535
6790.00   0.34264377   0.00427952
6792.00   0.34178087   0.00382192
6794.00   0.33674952   0.00356631
6796.00   0.32487059   0.00330396
6798.00   0.31627229   0.00315680
6800.00   0.31202433   0.00321325
6802.00   0.31061858   0.00334474
6804.00   0.31248781   0.00336042
6806.00   0.31939363   0.00332881
6808.00   0.32080895   0.00330884
6810.00   0.31781510   0.00326653
6812.00   0.31717741   0.00324776
6814.00   0.31987318   0.00323128
6816.00   0.32233804   0.00325513
6818.00   0.32171395   0.00337524
6820.00   0.31933874   0.00357198
6822.00   0.31498027   0.00366768
6824.00   0.30556870   0.00372240
6826.00   0.30113468   0.00375018
6828.00   0.30101526   0.00373585
6830.00   0.30204427   0.00371257
6832.00   0.30354503   0.00370665
6834.00   0.30570659   0.00370134
6836.00   0.30355883   0.00364013
6838.00   0.29540595   0.00350335
6840.00   0.29281229   0.00341375
6842.00   0.29460177   0.00334094
6844.00   0.29537082   0.00328051
6846.00   0.29344875   0.00323220
6848.00   0.29044175   0.00319726
6850.00   0.28781351   0.00317239
6852.00   0.28304267   0.00312449
6854.00   0.28424177   0.00319705
6856.00   0.29295975   0.00339215
6858.00   0.29752278   0.00355336
6860.00   0.29723710   0.00368717
6862.00   0.29383650   0.00379674
6864.00   0.28686327   0.00386043
6866.00   0.27435309   0.00388853
6868.00   0.27031559   0.00389445
6870.00   0.27392519   0.00388752
6872.00   0.27390131   0.00382640
6874.00   0.26985317   0.00367379
6876.00   0.26601502   0.00351569
6878.00   0.26553291   0.00343399
6880.00   0.26705354   0.00339639
6882.00   0.26685283   0.00335875
6884.00   0.26429534   0.00323771
6886.00   0.26553050   0.00335403
6888.00   0.27187774   0.00379197
6890.00   0.27648667   0.00407913
6892.00   0.27627856   0.00404980
6894.00   0.27325568   0.00384617
6896.00   0.26896438   0.00367446
6898.00   0.25906613   0.00334129
6900.00   0.25647122   0.00321695
6902.00   0.25976634   0.00327568
6904.00   0.26229614   0.00333268
6906.00   0.26287594   0.00336126
6908.00   0.26268968   0.00338560
6910.00   0.26176196   0.00338935
6912.00   0.25944796   0.00337068
6914.00   0.25869560   0.00336854
6916.00   0.25879851   0.00336922
6918.00   0.25914446   0.00337762
6920.00   0.25911960   0.00340687
6922.00   0.26007184   0.00342877
6924.00   0.26396742   0.00339019
6926.00   0.27063185   0.00327912
6928.00   0.27441722   0.00337296
6930.00   0.27751419   0.00372449
6932.00   0.27883434   0.00384362
6934.00   0.27728388   0.00376378
6936.00   0.27589056   0.00362968
6938.00   0.27688947   0.00350206
6940.00   0.27914554   0.00334467
6942.00   0.28047803   0.00332412
6944.00   0.28049320   0.00346176
6946.00   0.28296864   0.00350690
6948.00   0.28964347   0.00352681
6950.00   0.29348862   0.00351174
6952.00   0.28983369   0.00342808
6954.00   0.28330871   0.00331220
6956.00   0.28589845   0.00331244
6958.00   0.29654360   0.00343327
6960.00   0.30265686   0.00345637
6962.00   0.30854478   0.00343202
6964.00   0.31269887   0.00340594
6966.00   0.31362733   0.00336877
6968.00   0.31396452   0.00333986
6970.00   0.31841323   0.00337293
6972.00   0.32628313   0.00346471
6974.00   0.33107114   0.00350957
6976.00   0.33381218   0.00354390
6978.00   0.33755860   0.00356073
6980.00   0.34181291   0.00355333
6982.00   0.34705666   0.00353843
6984.00   0.35449329   0.00353242
6986.00   0.36400709   0.00352814
6988.00   0.37062153   0.00352178
6990.00   0.37440562   0.00350488
6992.00   0.38039893   0.00350836
6994.00   0.38867602   0.00351575
6996.00   0.39668617   0.00355298
6998.00   0.40314963   0.00365245
7000.00   0.40878150   0.00378760
7002.00   0.41378996   0.00383584
7004.00   0.41615716   0.00382450
7006.00   0.42237595   0.00381675
7008.00   0.43073782   0.00376884
7010.00   0.44109479   0.00375217
7012.00   0.45506153   0.00380729
7014.00   0.47022277   0.00388575
7016.00   0.47947234   0.00388992
7018.00   0.48620719   0.00381458
7020.00   0.48761439   0.00383514
7022.00   0.47869614   0.00393588
7024.00   0.47639951   0.00400426
7026.00   0.48383880   0.00404069
7028.00   0.49455577   0.00405082
7030.00   0.50256079   0.00401137
7032.00   0.51148558   0.00390309
7034.00   0.51425821   0.00390170
7036.00   0.50962210   0.00399487
7038.00   0.50838315   0.00404794
7040.00   0.51038349   0.00407477
7042.00   0.51289654   0.00408479
7044.00   0.51406467   0.00407319
7046.00   0.51465046   0.00404011
7048.00   0.51726699   0.00402563
7050.00   0.52373040   0.00401124
7052.00   0.52531052   0.00401319
7054.00   0.52092588   0.00396961
7056.00   0.51818204   0.00402932
7058.00   0.52070612   0.00433028
7060.00   0.52610898   0.00471889
7062.00   0.53171277   0.00476778
7064.00   0.53928250   0.00454508
7066.00   0.54611665   0.00438940
7068.00   0.55376601   0.00403706
7070.00   0.56014413   0.00392150
7072.00   0.56536472   0.00429066
7074.00   0.56897497   0.00476494
7076.00   0.56881356   0.00483598
7078.00   0.56391060   0.00466885
7080.00   0.56258017   0.00453271
7082.00   0.56320059   0.00422548
7084.00   0.56296867   0.00407233
7086.00   0.56060499   0.00415296
7088.00   0.55904931   0.00429914
7090.00   0.56217235   0.00436593
7092.00   0.56936783   0.00442967
7094.00   0.57200879   0.00439948
7096.00   0.57284611   0.00416151
7098.00   0.57206178   0.00415686
7100.00   0.56764376   0.00445652
7102.00   0.56430733   0.00470949
7104.00   0.56564742   0.00472371
7106.00   0.56986445   0.00460802
7108.00   0.57374716   0.00446937
7110.00   0.57880861   0.00414297
7112.00   0.58372128   0.00401716
7114.00   0.58848614   0.00407648
7116.00   0.59395039   0.00414686
7118.00   0.60049307   0.00417140
7120.00   0.60780019   0.00419025
7122.00   0.61531025   0.00421398
7124.00   0.62173337   0.00423311
7126.00   0.63257301   0.00426798
7128.00   0.64835352   0.00431876
7130.00   0.66293359   0.00436665
7132.00   0.67636758   0.00441402
7134.00   0.68817931   0.00445570
7136.00   0.69507605   0.00447509
7138.00   0.69549680   0.00447014
7140.00   0.70460624   0.00448872
7142.00   0.72108048   0.00449546
7144.00   0.73456544   0.00455101
7146.00   0.74514252   0.00468760
7148.00   0.75459224   0.00481667
7150.00   0.76355886   0.00486128
7152.00   0.77154499   0.00485901
7154.00   0.78076690   0.00481608
7156.00   0.79178095   0.00456410
7158.00   0.80048776   0.00462525
7160.00   0.80746818   0.00507325
7162.00   0.81317669   0.00543281
7164.00   0.81765836   0.00550353
7166.00   0.82090753   0.00542463
7168.00   0.82359898   0.00529675
7170.00   0.82589650   0.00493037
7172.00   0.82646084   0.00480475
7174.00   0.82499725   0.00486406
7176.00   0.82326794   0.00494391
7178.00   0.82278353   0.00500164
7180.00   0.82164633   0.00507127
7182.00   0.81497461   0.00516674
7184.00   0.80239671   0.00534910
7186.00   0.79290247   0.00534421
7188.00   0.78106111   0.00516611
7190.00   0.77466649   0.00501173
7192.00   0.77612269   0.00487925
7194.00   0.78066903   0.00477556
7196.00   0.78263432   0.00476576
7198.00   0.78452522   0.00485503
7200.00   0.78551584   0.00485287
7202.00   0.78417957   0.00471108
7204.00   0.78569514   0.00476352
7206.00   0.79155874   0.00509957
7208.00   0.79693717   0.00539103
7210.00   0.79794043   0.00541758
7212.00   0.79634416   0.00529130
7214.00   0.79376757   0.00513257
7216.00   0.78385442   0.00473565
7218.00   0.78535002   0.00459508
7220.00   0.79927826   0.00472321
7222.00   0.81281126   0.00485857
7224.00   0.82092243   0.00488718
7226.00   0.82644856   0.00488545
7228.00   0.82711142   0.00493095
7230.00   0.81805325   0.00494590
7232.00   0.81849116   0.00509555
7234.00   0.82518983   0.00538289
7236.00   0.83159196   0.00563381
7238.00   0.83813739   0.00578474
7240.00   0.84323412   0.00593395
7242.00   0.83971095   0.00625322
7244.00   0.82582211   0.00681587
7246.00   0.82208300   0.00689830
7248.00   0.82216847   0.00659471
7250.00   0.82605696   0.00632773
7252.00   0.83656305   0.00607028
7254.00   0.84790093   0.00584443
7256.00   0.85188067   0.00578604
7258.00   0.85039222   0.00590393
7260.00   0.85634017   0.00573308
7262.00   0.86815482   0.00516803
7264.00   0.87765765   0.00493766
7266.00   0.88561344   0.00504246
7268.00   0.89317912   0.00529399
7270.00   0.90221524   0.00563856
7272.00   0.91197038   0.00608247
7274.00   0.91109478   0.00627630
7276.00   0.89573538   0.00636196
7278.00   0.89133489   0.00633532
7280.00   0.89117402   0.00603702
7282.00   0.89677447   0.00587532
7284.00   0.91190821   0.00611896
7286.00   0.93230969   0.00651307
7288.00   0.94205076   0.00654098
7290.00   0.93793219   0.00634084
7292.00   0.95298690   0.00612890
7294.00   0.98524904   0.00567437
7296.00   1.01242137   0.00540198
7298.00   1.03177726   0.00548510
7300.00   1.04663706   0.00569674
7302.00   1.05606198   0.00574361
7304.00   1.05688512   0.00572333
7306.00   1.06737447   0.00575499
7308.00   1.08420074   0.00568483
7310.00   1.10015738   0.00586127
7312.00   1.11686122   0.00640977
7314.00   1.13210285   0.00691213
7316.00   1.14222109   0.00705325
7318.00   1.14814055   0.00699549
7320.00   1.15755641   0.00687670
7322.00   1.16752100   0.00645890
7324.00   1.17930865   0.00632188
7326.00   1.19445336   0.00653971
7328.00   1.20862079   0.00669655
7330.00   1.21869624   0.00651629
7332.00   1.22648787   0.00614892
7334.00   1.23686755   0.00612959
7336.00   1.24907100   0.00644113
7338.00   1.25993896   0.00652709
7340.00   1.27413857   0.00646274
7342.00   1.28140056   0.00645468
7344.00   1.27691972   0.00659576
7346.00   1.26572692   0.00678372
7348.00   1.25656974   0.00685036
7350.00   1.24060953   0.00690556
7352.00   1.23989701   0.00677711
7354.00   1.25093710   0.00631987
7356.00   1.26452577   0.00606047
7358.00   1.28242362   0.00614696
7360.00   1.30128765   0.00634134
7362.00   1.31412959   0.00638940
7364.00   1.32418168   0.00637435
7366.00   1.32950294   0.00644669
7368.00   1.32860219   0.00654971
7370.00   1.32793069   0.00670363
7372.00   1.32939255   0.00694730
7374.00   1.32696140   0.00717459
7376.00   1.31374240   0.00732511
7378.00   1.29177845   0.00744329
7380.00   1.28185475   0.00735559
7382.00   1.27846622   0.00703186
7384.00   1.27678227   0.00672889
7386.00   1.28080249   0.00627860
7388.00   1.28299177   0.00594330
7390.00   1.28003550   0.00594340
7392.00   1.27381015   0.00614532
7394.00   1.26310790   0.00619748
7396.00   1.24476743   0.00624329
7398.00   1.23093450   0.00622897
7400.00   1.21911442   0.00609738
7402.00   1.20649850   0.00604652
7404.00   1.19366908   0.00614699
7406.00   1.17929471   0.00631179
7408.00   1.15822279   0.00643384
7410.00   1.12740421   0.00660729
7412.00   1.10933280   0.00660038
7414.00   1.10073531   0.00637171
7416.00   1.09086037   0.00625001
7418.00   1.07649159   0.00634404
7420.00   1.06511390   0.00641481
7422.00   1.06668818   0.00616070
7424.00   1.08052242   0.00558546
7426.00   1.07945693   0.00540799
7428.00   1.06915486   0.00555629
7430.00   1.05939996   0.00560864
7432.00   1.04876971   0.00560292
7434.00   1.03716564   0.00560208
7436.00   1.02449691   0.00563139
7438.00   1.01072788   0.00567769
7440.00   0.99961966   0.00574488
7442.00   0.98666078   0.00591449
7444.00   0.98238254   0.00591198
7446.00   0.98887295   0.00572288
7448.00   0.99415475   0.00555003
7450.00   0.99375278   0.00546662
7452.00   0.99072510   0.00543378
7454.00   0.98621827   0.00548874
7456.00   0.97569162   0.00573624
7458.00   0.97398210   0.00573934
7460.00   0.98213267   0.00552151
7462.00   0.98475665   0.00538146
7464.00   0.97848976   0.00538862
7466.00   0.96809554   0.00545733
7468.00   0.95841646   0.00551271
7470.00   0.94828892   0.00558138
7472.00   0.93375736   0.00567690
7474.00   0.91085428   0.00586997
7476.00   0.89517701   0.00593066
7478.00   0.89009780   0.00583953
7480.00   0.88571459   0.00568190
7482.00   0.87134290   0.00551546
7484.00   0.84973973   0.00529440
7486.00   0.84162498   0.00517300
7488.00   0.84841961   0.00514211
7490.00   0.84399223   0.00508767
7492.00   0.82868898   0.00502368
7494.00   0.81315398   0.00496604
7496.00   0.80380911   0.00492142
7498.00   0.79705638   0.00488661
7500.00   0.78567111   0.00485845
7502.00   0.76671118   0.00474898
7504.00   0.75837147   0.00485460
7506.00   0.75810605   0.00515620
7508.00   0.75990999   0.00545626
7510.00   0.76458758   0.00580348
7512.00   0.76990473   0.00609732
7514.00   0.76454997   0.00592831
7516.00   0.74890542   0.00509770
7518.00   0.73831749   0.00486062
7520.00   0.72665632   0.00505981
7522.00   0.71818238   0.00518331
7524.00   0.71421051   0.00518553
7526.00   0.71225214   0.00516337
7528.00   0.70967996   0.00514154
7530.00   0.70890462   0.00503612
7532.00   0.70207441   0.00527988
7534.00   0.68704849   0.00598840
7536.00   0.67798227   0.00626631
7538.00   0.67553997   0.00618746
7540.00   0.67460591   0.00592067
7542.00   0.67244309   0.00547722
7544.00   0.67082173   0.00473829
7546.00   0.66235554   0.00444156
7548.00   0.64385295   0.00452125
7550.00   0.63355988   0.00459772
7552.00   0.63121063   0.00479508
7554.00   0.62788016   0.00498606
7556.00   0.61977416   0.00515508
7558.00   0.60908651   0.00529854
7560.00   0.59545076   0.00517227
7562.00   0.57372832   0.00458713
7564.00   0.56169087   0.00440218
7566.00   0.55706799   0.00447193
7568.00   0.55210513   0.00459415
7570.00   0.54548234   0.00479467
7572.00   0.53818619   0.00499319
7574.00   0.52906758   0.00492053
7576.00   0.51750225   0.00457039
7578.00   0.50818783   0.00439747
7580.00   0.50022429   0.00427130
7582.00   0.49201384   0.00418550
7584.00   0.48265806   0.00413780
7586.00   0.47410116   0.00414001
7588.00   0.46927780   0.00418594
7590.00   0.46816686   0.00424151
7592.00   0.46169180   0.00455371
7594.00   0.44729012   0.00490361
7596.00   0.44203889   0.00557118
7598.00   0.44807634   0.00660392
7600.00   0.45453218   0.00749959
7602.00   0.45549962   0.00814366
7604.00   0.45418608   0.00868417
7606.00   0.44108936   0.00856240
7608.00   0.40948737   0.00759496
7610.00   0.39197421   0.00689842
7612.00   0.38269296   0.00613829
7614.00   0.37693921   0.00549544
7616.00   0.37472251   0.00516024
7618.00   0.37524024   0.00507534
7620.00   0.37077200   0.00501594
7622.00   0.36311772   0.00510860
7624.00   0.35596821   0.00521892
7626.00   0.34412512   0.00544878
7628.00   0.33909202   0.00560819
7630.00   0.34565917   0.00570043
7632.00   0.35640615   0.00571842
7634.00   0.35983589   0.00557022
7636.00   0.35948563   0.00520193
7638.00   0.36064807   0.00499470
7640.00   0.36230534   0.00485211
7642.00   0.36255625   0.00473244
7644.00   0.35855129   0.00463753
7646.00   0.35669449   0.00457666
7648.00   0.36552855   0.00455694
7650.00   0.38345543   0.00457943
7652.00   0.38888988   0.00461397
7654.00   0.38512710   0.00471131
7656.00   0.38421389   0.00474016
7658.00   0.38429233   0.00470668
7660.00   0.38470623   0.00465426
7662.00   0.38489038   0.00461097
7664.00   0.38520157   0.00456101
7666.00   0.38953879   0.00445937
7668.00   0.39873868   0.00426415
7670.00   0.40550122   0.00415285
7672.00   0.41119632   0.00402988
7674.00   0.41724172   0.00403918
7676.00   0.42542142   0.00432131
7678.00   0.43348747   0.00467518
7680.00   0.43466103   0.00466380
7682.00   0.42812660   0.00431438
7684.00   0.42702353   0.00418089
7686.00   0.42546445   0.00396897
7688.00   0.42894104   0.00406361
7690.00   0.44145027   0.00469514
7692.00   0.45550194   0.00529777
7694.00   0.45916498   0.00527570
7696.00   0.45443243   0.00476734
7698.00   0.45843789   0.00457637
7700.00   0.46619657   0.00440343
7702.00   0.47631696   0.00442184
7704.00   0.49096179   0.00465498
7706.00   0.50562233   0.00498395
7708.00   0.51672620   0.00534148
7710.00   0.52634031   0.00575379
7712.00   0.52884072   0.00607811
7714.00   0.51783144   0.00648699
7716.00   0.51989323   0.00661251
7718.00   0.53434277   0.00650249
7720.00   0.54918194   0.00626135
7722.00   0.55808371   0.00586234
7724.00   0.56507754   0.00530056
7726.00   0.57679725   0.00499353
7728.00   0.58992887   0.00487735
7730.00   0.60764056   0.00478287
7732.00   0.63215649   0.00479959
7734.00   0.65493119   0.00483304
7736.00   0.67382604   0.00482618
7738.00   0.69092208   0.00485459
7740.00   0.70695919   0.00505717
7742.00   0.71671814   0.00531946
7744.00   0.74156702   0.00581502
7746.00   0.78560627   0.00673022
7748.00   0.81764001   0.00718340
7750.00   0.83339721   0.00716488
7752.00   0.84354806   0.00693154
7754.00   0.85634965   0.00664909
7756.00   0.86584526   0.00613619
7758.00   0.88920546   0.00602357
7760.00   0.92899817   0.00628316
7762.00   0.96007961   0.00642288
7764.00   0.98460299   0.00653306
7766.00   1.00590193   0.00657625
7768.00   1.02346301   0.00646790
7770.00   1.03709006   0.00623552
7772.00   1.06152582   0.00617762
7774.00   1.09810030   0.00618501
7776.00   1.12603593   0.00629193
7778.00   1.14924908   0.00654963
7780.00   1.17009437   0.00678424
7782.00   1.18872392   0.00692027
7784.00   1.20532501   0.00702284
7786.00   1.22284424   0.00719496
7788.00   1.24389982   0.00748344
7790.00   1.25542653   0.00757784
7792.00   1.26381862   0.00757206
7794.00   1.26204956   0.00747791
7796.00   1.24664009   0.00722332
7798.00   1.22298038   0.00691780
7800.00   1.19940305   0.00682894
7802.00   1.17021322   0.00686474
7804.00   1.14705849   0.00699589
7806.00   1.12764013   0.00735284
7808.00   1.10797822   0.00754661
7810.00   1.08561325   0.00759985
7812.00   1.06637692   0.00754876
7814.00   1.05701721   0.00735849
7816.00   1.05548000   0.00699316
7818.00   1.05283523   0.00681562
7820.00   1.06239033   0.00679441
7822.00   1.05146039   0.00668088
7824.00   1.01948082   0.00649876
7826.00   0.98153669   0.00628441
7828.00   0.94342029   0.00602347
7830.00   0.90221411   0.00571771
7832.00   0.87466013   0.00558837
7834.00   0.86073399   0.00557385
7836.00   0.84116524   0.00566114
7838.00   0.82100964   0.00591053
7840.00   0.80002499   0.00614858
7842.00   0.77534270   0.00635874
7844.00   0.75081080   0.00653882
7846.00   0.73963541   0.00656003
7848.00   0.74376059   0.00632475
7850.00   0.73655552   0.00640785
7852.00   0.72504932   0.00678247
7854.00   0.71212429   0.00700213
7856.00   0.69463885   0.00706729
7858.00   0.67855388   0.00699964
7860.00   0.67545789   0.00668093
7862.00   0.68379152   0.00595584
7864.00   0.68519753   0.00575291
7866.00   0.66942334   0.00569324
7868.00   0.68530452   0.00614303
7870.00   0.74859446   0.00719804
7872.00   0.81263304   0.00821568
7874.00   0.84291708   0.00895471
7876.00   0.85889781   0.00965487
7878.00   0.81516808   0.00950440
7880.00   0.67538267   0.00825972
7882.00   0.60465622   0.00741172
7884.00   0.58616817   0.00670465
7886.00   0.57847887   0.00615549
7888.00   0.56621408   0.00588440
7890.00   0.55761981   0.00587295
7892.00   0.54176486   0.00585122
7894.00   0.51460606   0.00611194
7896.00   0.50283802   0.00600024
7898.00   0.50404048   0.00548614
7900.00   0.50431681   0.00508760
7902.00   0.49973863   0.00501893
7904.00   0.49426654   0.00511274
7906.00   0.49186993   0.00517549
7908.00   0.49325192   0.00524929
7910.00   0.48886070   0.00546162
7912.00   0.48000291   0.00592386
7914.00   0.47140989   0.00614623
7916.00   0.46281126   0.00610227
7918.00   0.45448080   0.00592288
7920.00   0.44745851   0.00568699
7922.00   0.44106594   0.00529391
7924.00   0.43692684   0.00509557
7926.00   0.43691656   0.00506738
7928.00   0.43361679   0.00498333
7930.00   0.42424446   0.00485340
7932.00   0.41766611   0.00472295
7934.00   0.42203230   0.00461171
7936.00   0.43387258   0.00450957
7938.00   0.43730474   0.00446256
7940.00   0.43533629   0.00445539
7942.00   0.43582058   0.00449350
7944.00   0.43785805   0.00461354
7946.00   0.43912464   0.00471238
7948.00   0.43927598   0.00472862
7950.00   0.43828118   0.00471603
7952.00   0.43341523   0.00481146
7954.00   0.41969770   0.00503743
7956.00   0.41804945   0.00512314
7958.00   0.42763340   0.00508825
7960.00   0.43345279   0.00511508
7962.00   0.43243912   0.00527766
7964.00   0.42836103   0.00545844
7966.00   0.42332491   0.00548019
7968.00   0.41263932   0.00535104
7970.00   0.41492563   0.00538775
7972.00   0.43471548   0.00559607
7974.00   0.44126245   0.00565858
7976.00   0.42983234   0.00556408
7978.00   0.41474384   0.00538522
7980.00   0.40844956   0.00513690
7982.00   0.40510941   0.00474803
7984.00   0.40743396   0.00465476
7986.00   0.41994253   0.00478625
7988.00   0.42562348   0.00496035
7990.00   0.42591059   0.00524796
7992.00   0.42431256   0.00552322
7994.00   0.42165279   0.00578068
7996.00   0.41752419   0.00602424
7998.00   0.41768965   0.00581101
8000.00   0.42173022   0.00485907
8002.00   0.42439717   0.00440214
8004.00   0.42782778   0.00430656
8006.00   0.42990056   0.00431872
8008.00   0.42958596   0.00438167
8010.00   0.42784163   0.00451867
8012.00   0.42634302   0.00462331
8014.00   0.42409748   0.00465960
8016.00   0.42250064   0.00491188
8018.00   0.42482376   0.00548466
8020.00   0.42053238   0.00575192
8022.00   0.40626606   0.00561446
8024.00   0.38795754   0.00531029
8026.00   0.37257949   0.00513505
8028.00   0.35501119   0.00497552
8030.00   0.34792206   0.00479870
8032.00   0.35033232   0.00460592
8034.00   0.35305765   0.00442079
8036.00   0.35836408   0.00421962
8038.00   0.36329320   0.00405124
8040.00   0.36393341   0.00397660
8042.00   0.36177486   0.00397922
8044.00   0.36113694   0.00400211
8046.00   0.35893494   0.00407695
8048.00   0.36041734   0.00416005
8050.00   0.36913303   0.00416846
8052.00   0.37362295   0.00432825
8054.00   0.36563212   0.00480739
8056.00   0.35060844   0.00541246
8058.00   0.34516361   0.00568146
8060.00   0.34629369   0.00586328
8062.00   0.34424439   0.00581416
8064.00   0.34124985   0.00547615
8066.00   0.33863145   0.00508284
8068.00   0.33758205   0.00463907
8070.00   0.33646843   0.00415310
8072.00   0.33113518   0.00388773
8074.00   0.31994584   0.00384143
8076.00   0.31655312   0.00378197
8078.00   0.31923547   0.00381813
8080.00   0.32084206   0.00385351
8082.00   0.32160413   0.00384826
8084.00   0.32139945   0.00388645
8086.00   0.31843677   0.00410095
8088.00   0.31254175   0.00449187
8090.00   0.31003907   0.00453122
8092.00   0.30940118   0.00425328
8094.00   0.30906194   0.00410237
8096.00   0.30955139   0.00405361
8098.00   0.31013170   0.00404834
8100.00   0.30993795   0.00408063
8102.00   0.30932152   0.00415791
8104.00   0.31013528   0.00414411
8106.00   0.31279901   0.00405106
8108.00   0.31389946   0.00398872
8110.00   0.31316081   0.00392298
8112.00   0.31327793   0.00387851
8114.00   0.31608358   0.00387789
8116.00   0.32004908   0.00390262
8118.00   0.32077795   0.00389470
8120.00   0.31935659   0.00386364
8122.00   0.31756935   0.00384938
8124.00   0.31476283   0.00383782
8126.00   0.31128433   0.00383552
8128.00   0.30643776   0.00384574
8130.00   0.30144590   0.00386359
8132.00   0.29917601   0.00388015
8134.00   0.29902673   0.00389461
8136.00   0.29846075   0.00392735
8138.00   0.30034569   0.00399377
8140.00   0.29850578   0.00402787
8142.00   0.29068914   0.00402433
8144.00   0.28243649   0.00400459
8146.00   0.27969471   0.00398538
8148.00   0.28024232   0.00395887
8150.00   0.28052860   0.00392755
8152.00   0.28426310   0.00388310
8154.00   0.28344989   0.00384840
8156.00   0.27685013   0.00381594
8158.00   0.27063727   0.00379517
8160.00   0.26835629   0.00376438
8162.00   0.26815611   0.00373487
8164.00   0.27069914   0.00392122
8166.00   0.27862006   0.00439833
8168.00   0.28246796   0.00458585
8170.00   0.28475505   0.00457980
8172.00   0.28513405   0.00457764
8174.00   0.28255019   0.00461127
8176.00   0.27830508   0.00467433
8178.00   0.27671820   0.00488864
8180.00   0.27575189   0.00523861
8182.00   0.27701476   0.00554007
8184.00   0.28118867   0.00590318
8186.00   0.28495559   0.00616625
8188.00   0.28898293   0.00634404
8190.00   0.29190809   0.00643367
8192.00   0.29023346   0.00637577
8194.00   0.28436106   0.00615991
8196.00   0.27993977   0.00595953
8198.00   0.27120841   0.00564311
8200.00   0.27020195   0.00542107
8202.00   0.28023729   0.00533801
8204.00   0.29139343   0.00527863
8206.00   0.29525000   0.00514740
8208.00   0.29575986   0.00498851
8210.00   0.29225597   0.00475780
8212.00   0.27993366   0.00434084
8214.00   0.27483544   0.00410117
8216.00   0.27568394   0.00404826
8218.00   0.27785417   0.00404732
8220.00   0.27964491   0.00403959
8222.00   0.28192309   0.00405659
8224.00   0.28253290   0.00405704
8226.00   0.28118625   0.00400853
8228.00   0.28141081   0.00406858
8230.00   0.28177011   0.00425504
8232.00   0.28351808   0.00438809
8234.00   0.28869820   0.00445100
8236.00   0.29441878   0.00445188
8238.00   0.29293579   0.00430265
8240.00   0.28406045   0.00388784
8242.00   0.28095201   0.00375365
8244.00   0.28020608   0.00384799
8246.00   0.28003839   0.00389047
8248.00   0.28091061   0.00385705
8250.00   0.28197864   0.00380848
8252.00   0.28127629   0.00377148
8254.00   0.27856827   0.00370284
8256.00   0.28089750   0.00381213
8258.00   0.28910989   0.00411027
8260.00   0.29363370   0.00431411
8262.00   0.29694882   0.00451905
8264.00   0.29623517   0.00461364
8266.00   0.28668824   0.00441694
8268.00   0.26984942   0.00395267
8270.00   0.26397565   0.00404333
8272.00   0.26549762   0.00463215
8274.00   0.26587480   0.00492764
8276.00   0.26974869   0.00506080
8278.00   0.27010700   0.00521902
8280.00   0.26203445   0.00550941
8282.00   0.24945353   0.00582842
8284.00   0.24313396   0.00591962
8286.00   0.23856194   0.00580260
8288.00   0.23781133   0.00577126
8290.00   0.24397010   0.00574969
8292.00   0.24675873   0.00570735
8294.00   0.24264497   0.00563928
8296.00   0.23639686   0.00554861
8298.00   0.23477206   0.00543370
8300.00   0.23504408   0.00530705
8302.00   0.23750104   0.00510066
8304.00   0.24367669   0.00473192
8306.00   0.24876049   0.00446839
8308.00   0.25355381   0.00436356
8310.00   0.25695989   0.00432073
8312.00   0.25673661   0.00425877
8314.00   0.25333115   0.00422715
8316.00   0.25127015   0.00411729
8318.00   0.24809593   0.00390053
8320.00   0.24687491   0.00375894
8322.00   0.24866897   0.00368722
8324.00   0.24974132   0.00364468
8326.00   0.24693935   0.00359881
8328.00   0.24186583   0.00356669
8330.00   0.24097687   0.00363913
8332.00   0.24624304   0.00367710
8334.00   0.24380517   0.00401171
8336.00   0.23358589   0.00453981
8338.00   0.22488564   0.00513125
8340.00   0.22203276   0.00586066
8342.00   0.22118419   0.00656428
8344.00   0.21526718   0.00678247
8346.00   0.20336454   0.00670216
8348.00   0.19874050   0.00648821
8350.00   0.19958292   0.00590244
8352.00   0.19973032   0.00537397
8354.00   0.19633222   0.00498419
8356.00   0.19431259   0.00467541
8358.00   0.20210636   0.00446781
8360.00   0.22097133   0.00441361
8362.00   0.22557569   0.00430768
8364.00   0.21942541   0.00424332
8366.00   0.21604466   0.00413942
8368.00   0.21482100   0.00394628
8370.00   0.21431787   0.00377841
8372.00   0.21466146   0.00376162
8374.00   0.21612321   0.00384782
8376.00   0.21482335   0.00398741
8378.00   0.21276309   0.00429004
8380.00   0.20767926   0.00442551
8382.00   0.19568342   0.00445339
8384.00   0.18748440   0.00441378
8386.00   0.19020990   0.00424016
8388.00   0.19952670   0.00397406
8390.00   0.20540562   0.00416333
8392.00   0.21347021   0.00473706
8394.00   0.21679085   0.00514072
8396.00   0.21796246   0.00569161
8398.00   0.21509139   0.00595189
8400.00   0.20296875   0.00572677
8402.00   0.18907124   0.00526608
8404.00   0.19460668   0.00518508
8406.00   0.21901184   0.00539769
8408.00   0.23124151   0.00535098
8410.00   0.24281360   0.00499284
8412.00   0.24777043   0.00494939
8414.00   0.23979923   0.00544251
8416.00   0.23144855   0.00596975
8418.00   0.24157105   0.00604287
8420.00   0.26615337   0.00581589
8422.00   0.27984986   0.00581684
8424.00   0.29424775   0.00588913
8426.00   0.29869807   0.00599374
8428.00   0.28934798   0.00621231
8430.00   0.27815101   0.00636044
8432.00   0.27472329   0.00630372
8434.00   0.27466789   0.00610908
8436.00   0.27253237   0.00572201
8438.00   0.26687557   0.00481120
8440.00   0.26834473   0.00427528
8442.00   0.27759013   0.00406264
8444.00   0.28696606   0.00406357
8446.00   0.29322556   0.00427516
8448.00   0.29840481   0.00465080
8450.00   0.30330476   0.00492520
8452.00   0.30229056   0.00525017
8454.00   0.31357339   0.00544243
8456.00   0.33520108   0.00551112
8458.00   0.35768741   0.00561651
8460.00   0.38145187   0.00582181
8462.00   0.40463591   0.00603066
8464.00   0.41935480   0.00610160
8466.00   0.42898077   0.00608555
8468.00   0.43225071   0.00603023
8470.00   0.42014897   0.00592197
8472.00   0.42049325   0.00574979
8474.00   0.43581083   0.00545119
8476.00   0.45777109   0.00513157
8478.00   0.48092517   0.00493920
8480.00   0.50931776   0.00480993
8482.00   0.52949727   0.00484892
8484.00   0.54253256   0.00511351
8486.00   0.55879706   0.00530264
8488.00   0.57697576   0.00546379
8490.00   0.59626591   0.00560679
8492.00   0.61555284   0.00571318
8494.00   0.63533723   0.00579399
8496.00   0.66334498   0.00596097
8498.00   0.70352972   0.00623390
8500.00   0.73411185   0.00640126
8502.00   0.76001889   0.00644032
8504.00   0.78238839   0.00656379
8506.00   0.79770023   0.00691057
8508.00   0.81062144   0.00731528
8510.00   0.84026033   0.00741338
8512.00   0.88608521   0.00734854
8514.00   0.92383724   0.00714009
8516.00   0.96433479   0.00654028
8518.00   0.99752760   0.00615963
8520.00   1.02025676   0.00622153
8522.00   1.03769147   0.00644273
8524.00   1.05719912   0.00646343
8526.00   1.07824111   0.00632152
8528.00   1.08782816   0.00659476
8530.00   1.08778858   0.00718716
8532.00   1.08492756   0.00771690
8534.00   1.07372546   0.00833663
8536.00   1.06491137   0.00879698
8538.00   1.07204127   0.00883039
8540.00   1.09109521   0.00854355
8542.00   1.09749150   0.00836617
8544.00   1.10313547   0.00819693
8546.00   1.09612000   0.00789252
8548.00   1.07206047   0.00733004
8550.00   1.04732883   0.00681503
8552.00   1.03055108   0.00660557
8554.00   1.01695812   0.00658866
8556.00   1.00624478   0.00647352
8558.00   0.99914879   0.00632655
8560.00   0.99356788   0.00626988
8562.00   0.99092817   0.00629664
8564.00   0.98891836   0.00634216
8566.00   0.98803866   0.00641153
8568.00   0.98713249   0.00648507
8570.00   0.98111719   0.00646708
8572.00   0.96888721   0.00635386
8574.00   0.96281815   0.00630726
8576.00   0.96064508   0.00625279
8578.00   0.95802701   0.00626519
8580.00   0.95500165   0.00635438
8582.00   0.95158058   0.00649620
8584.00   0.94705808   0.00669450
8586.00   0.94202048   0.00700431
8588.00   0.93463969   0.00702970
8590.00   0.92469674   0.00670551
8592.00   0.91465718   0.00662885
8594.00   0.90190345   0.00692191
8596.00   0.89171594   0.00714016
8598.00   0.88908195   0.00691365
8600.00   0.89183319   0.00636024
8602.00   0.89553118   0.00618027
8604.00   0.90167075   0.00621713
8606.00   0.91027284   0.00627584
8608.00   0.92040563   0.00640218
8610.00   0.93442941   0.00658006
8612.00   0.95474166   0.00681726
8614.00   0.97931021   0.00709286
8616.00   1.00013506   0.00729599
8618.00   1.01451898   0.00743414
8620.00   1.04138732   0.00763230
8622.00   1.08623195   0.00790284
8624.00   1.11851871   0.00810223
8626.00   1.12589335   0.00818735
8628.00   1.12479115   0.00822403
8630.00   1.14229488   0.00829741
8632.00   1.17434299   0.00833727
8634.00   1.19112802   0.00850975
8636.00   1.19789076   0.00898879
8638.00   1.20634842   0.00908678
8640.00   1.21759951   0.00852161
8642.00   1.22819161   0.00791969
8644.00   1.23339832   0.00816291
8646.00   1.23175383   0.00893301
8648.00   1.25104237   0.00953094
8650.00   1.29761255   0.01058069
8652.00   1.32343209   0.01079919
8654.00   1.32586205   0.00994726
8656.00   1.32891738   0.00909641
8658.00   1.34933639   0.00929498
8660.00   1.37884033   0.01004411
8662.00   1.39835668   0.01000223
8664.00   1.41378832   0.00934407
8666.00   1.42735815   0.00900211
8668.00   1.43664873   0.00878550
8670.00   1.44657636   0.00863945
8672.00   1.46094859   0.00857897
8674.00   1.47597659   0.00858315
8676.00   1.48083162   0.00852147
8678.00   1.47612739   0.00843332
8680.00   1.47428668   0.00834898
8682.00   1.47342503   0.00822649
8684.00   1.46836638   0.00815797
8686.00   1.46102691   0.00810728
8688.00   1.44762778   0.00814837
8690.00   1.41692185   0.00849617
8692.00   1.36203730   0.00925705
8694.00   1.34247923   0.00925937
8696.00   1.34966791   0.00857165
8698.00   1.35321438   0.00808839
8700.00   1.35795331   0.00781916
8702.00   1.35902500   0.00764971
8704.00   1.34642375   0.00755889
8706.00   1.32242024   0.00757422
8708.00   1.31159031   0.00756741
8710.00   1.31137455   0.00752952
8712.00   1.30405998   0.00762404
8714.00   1.29284716   0.00796215
8716.00   1.27795219   0.00817731
8718.00   1.25847745   0.00804231
8720.00   1.23501456   0.00768685
8722.00   1.21133447   0.00745518
8724.00   1.18817115   0.00716230
8726.00   1.15865326   0.00702308
8728.00   1.11905575   0.00699564
8730.00   1.08434522   0.00706055
8732.00   1.05824232   0.00727571
8734.00   1.03803790   0.00754115
8736.00   1.02490091   0.00757573
8738.00   1.02188540   0.00745622
8740.00   1.01492238   0.00732075
8742.00   1.00773978   0.00704101
8744.00   1.00191128   0.00684939
8746.00   0.99819869   0.00675397
8748.00   0.99511367   0.00675511
8750.00   0.99065703   0.00690435
8752.00   0.98558533   0.00719409
8754.00   0.98038590   0.00747763
8756.00   0.97090107   0.00733899
8758.00   0.96938330   0.00817154
8760.00   0.98055875   0.01023515
8762.00   0.99034971   0.01179338
8764.00   0.98815572   0.01204513
8766.00   0.97931188   0.01155845
8768.00   0.95922923   0.01102997
8770.00   0.91715282   0.00967551
8772.00   0.89275998   0.00902272
8774.00   0.88042003   0.00912841
8776.00   0.87289685   0.00929475
8778.00   0.86924952   0.00924092
8780.00   0.86934853   0.00913166
8782.00   0.86322087   0.00893048
8784.00   0.85144705   0.00864041
8786.00   0.84421271   0.00826411
8788.00   0.84101194   0.00762637
8790.00   0.83506536   0.00714185
8792.00   0.82344574   0.00703514
8794.00   0.81000918   0.00708481
8796.00   0.80077815   0.00689667
8798.00   0.79064441   0.00652979
8800.00   0.79198962   0.00636279
8802.00   0.80839348   0.00626018
8804.00   0.81807196   0.00630770
8806.00   0.82123893   0.00658326
8808.00   0.81944698   0.00689722
8810.00   0.81015986   0.00705651
8812.00   0.79186553   0.00715838
8814.00   0.78455359   0.00716936
8816.00   0.78155249   0.00678176
8818.00   0.78342289   0.00698971
8820.00   0.79593110   0.00781459
8822.00   0.80524486   0.00866646
8824.00   0.80256009   0.00936462
8826.00   0.79245788   0.01003484
8828.00   0.76855671   0.01015861
8830.00   0.72092289   0.00980360
8832.00   0.68929076   0.00942038
8834.00   0.66465938   0.00874654
8836.00   0.64560544   0.00809593
8838.00   0.63138986   0.00764276
8840.00   0.62282836   0.00729853
8842.00   0.62309420   0.00697520
8844.00   0.63854647   0.00669572
8846.00   0.64188051   0.00654179
8848.00   0.64100689   0.00659227
8850.00   0.63661343   0.00658812
8852.00   0.62564147   0.00645093
8854.00   0.61359167   0.00629727
8856.00   0.61219031   0.00628309
8858.00   0.62082332   0.00632753
8860.00   0.61845124   0.00653088
8862.00   0.61166024   0.00704032
8864.00   0.60047567   0.00726680
8866.00   0.58362639   0.00721741
8868.00   0.56385523   0.00703087
8870.00   0.54177809   0.00675669
8872.00   0.51460809   0.00631067
8874.00   0.50817513   0.00613655
8876.00   0.51999807   0.00580838
8878.00   0.53089029   0.00626369
8880.00   0.54761714   0.00738139
8882.00   0.56217676   0.00858349
8884.00   0.57246989   0.00995514
8886.00   0.57917786   0.01134527
8888.00   0.56148094   0.01120781
8890.00   0.50933373   0.00927533
8892.00   0.48048267   0.00810158
8894.00   0.45792937   0.00691876
8896.00   0.44619697   0.00612775
8898.00   0.45223466   0.00625172
8900.00   0.46703446   0.00686793
8902.00   0.46547788   0.00697310
8904.00   0.45609170   0.00695917
8906.00   0.44276568   0.00682769
8908.00   0.41257343   0.00624761
8910.00   0.39933395   0.00613239
8912.00   0.41379774   0.00673192
8914.00   0.43530244   0.00751248
8916.00   0.43935895   0.00807049
8918.00   0.43894228   0.00871154
8920.00   0.41727427   0.00873432
8922.00   0.35817984   0.00819494
8924.00   0.32741323   0.00761901
8926.00   0.32589969   0.00672210
8928.00   0.33429387   0.00588279
8930.00   0.34121934   0.00576148
8932.00   0.35259697   0.00618732
8934.00   0.36011997   0.00631884
8936.00   0.37007460   0.00647908
8938.00   0.37123084   0.00654400
8940.00   0.36349115   0.00651813
8942.00   0.35308239   0.00646279
8944.00   0.34048301   0.00631839
8946.00   0.32626304   0.00614904
8948.00   0.32369822   0.00648204
8950.00   0.33494860   0.00738917
8952.00   0.33661926   0.00778606
8954.00   0.33559433   0.00802590
8956.00   0.33151209   0.00811953
8958.00   0.32378915   0.00801502
8960.00   0.31330547   0.00779887
8962.00   0.30143365   0.00771797
8964.00   0.28302941   0.00783166
8966.00   0.27851358   0.00745681
8968.00   0.28639784   0.00640659
8970.00   0.29258287   0.00557501
8972.00   0.29739508   0.00514374
8974.00   0.30132318   0.00495564
8976.00   0.30252978   0.00490701
8978.00   0.30103245   0.00507922
8980.00   0.30260581   0.00530188
8982.00   0.30923915   0.00561691
8984.00   0.30892956   0.00600580
8986.00   0.30114877   0.00662963
8988.00   0.29133502   0.00705989
8990.00   0.28173712   0.00697638
8992.00   0.27101910   0.00653816
8994.00   0.26801592   0.00651507
8996.00   0.27395919   0.00667779
8998.00   0.27490103   0.00692222
9000.00   0.27244905   0.00748602
9002.00   0.27103287   0.00776668
9004.00   0.27145362   0.00749644
9006.00   0.27357730   0.00688624
9008.00   0.28115162   0.00642911
9010.00   0.29765210   0.00581551
9012.00   0.30564767   0.00547402
9014.00   0.30962569   0.00542056
9016.00   0.31158075   0.00537534
9018.00   0.31094956   0.00529803
9020.00   0.30888665   0.00523577
9022.00   0.30844343   0.00518700
9024.00   0.30913419   0.00513189
9026.00   0.30723965   0.00517676
9028.00   0.30450720   0.00532420
9030.00   0.29918891   0.00545850
9032.00   0.29003489   0.00560705
9034.00   0.28002176   0.00573060
9036.00   0.27096230   0.00576843
9038.00   0.26063725   0.00573680
9040.00   0.26291886   0.00577232
9042.00   0.28183985   0.00583066
9044.00   0.29018402   0.00590743
9046.00   0.29241455   0.00606162
9048.00   0.28952211   0.00614777
9050.00   0.27829823   0.00606991
9052.00   0.26083180   0.00587908
9054.00   0.25828141   0.00568700
9056.00   0.26963609   0.00537904
9058.00   0.27362481   0.00518246
9060.00   0.27594194   0.00504584
9062.00   0.27628306   0.00497207
9064.00   0.27307850   0.00498262
9066.00   0.26843610   0.00505131
9068.00   0.26893523   0.00509627
9070.00   0.27391008   0.00517340
9072.00   0.27622053   0.00518344
9074.00   0.27880445   0.00512727
9076.00   0.27943096   0.00508945
9078.00   0.27583712   0.00508208
9080.00   0.27231142   0.00508378
9082.00   0.27643043   0.00504963
9084.00   0.28865504   0.00490645
9086.00   0.28770360   0.00518799
9088.00   0.27701017   0.00584913
9090.00   0.26674029   0.00634094
9092.00   0.25223744   0.00690232
9094.00   0.24141468   0.00719723
9096.00   0.24400647   0.00680365
9098.00   0.25672430   0.00574062
9100.00   0.25948411   0.00545862
9102.00   0.25522724   0.00588293
9104.00   0.25618762   0.00591985
9106.00   0.26256901   0.00571580
9108.00   0.26746398   0.00547654
9110.00   0.26765427   0.00528063
9112.00   0.26507881   0.00508632
9114.00   0.26084170   0.00494781
9116.00   0.25199413   0.00486930
9118.00   0.24714133   0.00478904
9120.00   0.24315494   0.00468785
9122.00   0.24186358   0.00467045
9124.00   0.24450210   0.00474689
9126.00   0.24937919   0.00491348
9128.00   0.25335798   0.00523461
9130.00   0.26001740   0.00586083
9132.00   0.25903192   0.00589780
9134.00   0.25101128   0.00536265
9136.00   0.24347040   0.00503070
9138.00   0.23441337   0.00504884
9140.00   0.22733910   0.00514895
9142.00   0.22872643   0.00507389
9144.00   0.23722957   0.00486697
9146.00   0.24241689   0.00499092
9148.00   0.25275353   0.00545212
9150.00   0.25244325   0.00570718
9152.00   0.23894525   0.00586041
9154.00   0.22357538   0.00590184
9156.00   0.21363762   0.00576669
9158.00   0.20544115   0.00546988
9160.00   0.20043907   0.00527682
9162.00   0.19699690   0.00505942
9164.00   0.19882447   0.00494761
9166.00   0.20871033   0.00487235
9168.00   0.21716505   0.00495293
9170.00   0.21909887   0.00535167
9172.00   0.21863356   0.00584704
9174.00   0.22424170   0.00582531
9176.00   0.23674509   0.00527604
9178.00   0.24216768   0.00504903
9180.00   0.24110068   0.00490641
9182.00   0.24354979   0.00484786
9184.00   0.25283313   0.00491774
9186.00   0.26402840   0.00504039
9188.00   0.27034605   0.00506561
9190.00   0.27440056   0.00503865
9192.00   0.27667880   0.00503916
9194.00   0.27574709   0.00503786
9196.00   0.27543446   0.00504795
9198.00   0.27530462   0.00506877
9200.00   0.27569169   0.00509939
9202.00   0.27688941   0.00510624
9204.00   0.27816236   0.00506140
9206.00   0.28525797   0.00536697
9208.00   0.30095193   0.00616801
9210.00   0.31051573   0.00643434
9212.00   0.31549814   0.00622919
9214.00   0.31841663   0.00595923
9216.00   0.31890666   0.00584654
9218.00   0.31728896   0.00577990
9220.00   0.32372013   0.00583269
9222.00   0.33512601   0.00603599
9224.00   0.34992331   0.00618996
9226.00   0.37341201   0.00625853
9228.00   0.39256161   0.00647569
9230.00   0.40256047   0.00705424
9232.00   0.40758783   0.00766960
9234.00   0.41222683   0.00761942
9236.00   0.41154668   0.00689667
9238.00   0.41801500   0.00656652
9240.00   0.42733374   0.00624756
9242.00   0.44102457   0.00616033
9244.00   0.46365577   0.00646710
9246.00   0.48662993   0.00685662
9248.00   0.49518305   0.00692362
9250.00   0.49229342   0.00680303
9252.00   0.49601397   0.00675426
9254.00   0.49862802   0.00665644
9256.00   0.50618011   0.00662571
9258.00   0.51647830   0.00665992
9260.00   0.53296566   0.00673697
9262.00   0.56342745   0.00681439
9264.00   0.60716873   0.00689001
9266.00   0.62164438   0.00725984
9268.00   0.60786253   0.00810607
9270.00   0.60834134   0.00839608
9272.00   0.61622578   0.00825178
9274.00   0.62692219   0.00800722
9276.00   0.64009184   0.00774743
9278.00   0.65556598   0.00743615
9280.00   0.66664058   0.00747600
9282.00   0.68060511   0.00793793
9284.00   0.68099475   0.00808956
9286.00   0.66586649   0.00809479
9288.00   0.65327728   0.00809584
9290.00   0.64789408   0.00810934
9292.00   0.64514172   0.00813021
9294.00   0.64124352   0.00815872
9296.00   0.63349026   0.00774208
9298.00   0.63986313   0.00879411
9300.00   0.66231012   0.01072819
9302.00   0.67900240   0.01249014
9304.00   0.69791412   0.01438411
9306.00   0.70437527   0.01597240
9308.00   0.66929585   0.01671763
9310.00   0.59278536   0.01691840
9312.00   0.56189346   0.01718327
9314.00   0.55401504   0.01736384
9316.00   0.55213219   0.01734296
9318.00   0.56419432   0.01707244
9320.00   0.57726097   0.01669527
9322.00   0.57834685   0.01635082
9324.00   0.57321072   0.01597692
9326.00   0.58327222   0.01525320
9328.00   0.61254025   0.01386469
9330.00   0.62409717   0.01298947
9332.00   0.62077200   0.01244583
9334.00   0.61732870   0.01219475
9336.00   0.62034142   0.01230078
9338.00   0.62497032   0.01269425
9340.00   0.62430245   0.01303320
9342.00   0.62181169   0.01369763
9344.00   0.61416745   0.01376268
9346.00   0.59700239   0.01344068
9348.00   0.58529830   0.01292092
9350.00   0.58383054   0.01202905
9352.00   0.58576167   0.01098545
9354.00   0.58135837   0.01055377
9356.00   0.57172686   0.01062836
9358.00   0.57038188   0.01058950
9360.00   0.57455355   0.01033989
9362.00   0.57994109   0.01075084
9364.00   0.58590579   0.01180045
9366.00   0.59443456   0.01314851
9368.00   0.61085886   0.01457749
9370.00   0.63760030   0.01610454
9372.00   0.63060343   0.01784066
9374.00   0.58240885   0.02042684
9376.00   0.56208980   0.02152218
9378.00   0.56786430   0.02171817
9380.00   0.57528168   0.02106677
9382.00   0.57249415   0.01908872
9384.00   0.56572342   0.01556173
9386.00   0.54895061   0.01309573
9388.00   0.51203734   0.01094052
9390.00   0.49547562   0.00927344
9392.00   0.49016249   0.00864348
9394.00   0.49266621   0.00865503
9396.00   0.50853068   0.00929319
9398.00   0.52960730   0.01035563
9400.00   0.52469951   0.01112123
9402.00   0.48986325   0.01230620
9404.00   0.48524925   0.01224465
9406.00   0.49999097   0.01075250
9408.00   0.51329309   0.00967387
9410.00   0.52605021   0.00945298
9412.00   0.53606939   0.00968096
9414.00   0.53431964   0.01013231
9416.00   0.52293766   0.01100413
9418.00   0.51087922   0.01142434
9420.00   0.48990938   0.01158774
9422.00   0.47641820   0.01183300
9424.00   0.47197321   0.01192656
9426.00   0.46927381   0.01230573
9428.00   0.45763224   0.01340479
9430.00   0.43808877   0.01492516
9432.00   0.46417940   0.01617581
9434.00   0.56234217   0.01768109
9436.00   0.59060425   0.01854707
9438.00   0.55885774   0.01924473
9440.00   0.51375103   0.01926551
9442.00   0.47039500   0.01808478
9444.00   0.42177784   0.01586696
9446.00   0.40055832   0.01411467
9448.00   0.39552584   0.01152911
9450.00   0.40523160   0.01053268
9452.00   0.44849861   0.01145704
9454.00   0.47514331   0.01244810
9456.00   0.47145447   0.01338355
9458.00   0.45072404   0.01421574
9460.00   0.42173523   0.01411346
9462.00   0.36630511   0.01313236
9464.00   0.34745121   0.01239793
9466.00   0.34622186   0.01091490
9468.00   0.36159900   0.01047653
9470.00   0.41179144   0.01160159
9472.00   0.46046931   0.01316938
9474.00   0.45384413   0.01435887
9476.00   0.40712804   0.01561214
9478.00   0.37338963   0.01643211
9480.00   0.31689215   0.01769551
9482.00   0.29524067   0.01738374
9484.00   0.31589782   0.01467306
9486.00   0.34313583   0.01122318
9488.00   0.35339093   0.00941173
9490.00   0.35847211   0.00877680
9492.00   0.35319579   0.00849864
9494.00   0.32375798   0.00910577
9496.00   0.32080284   0.01009014
9498.00   0.34684488   0.01148992
9500.00   0.36560947   0.01303166
9502.00   0.36036000   0.01511794
9504.00   0.34307712   0.01709643
9506.00   0.32993460   0.01668095
9508.00   0.30807367   0.01307074
9510.00   0.30178612   0.01139888
9512.00   0.31403369   0.01004517
9514.00   0.31645623   0.01019012
9516.00   0.29953110   0.01282415
9518.00   0.27666169   0.01551547
9520.00   0.26620138   0.01573515
9522.00   0.25900432   0.01432016
9524.00   0.26403609   0.01338387
9526.00   0.29043320   0.01194301
9528.00   0.30271995   0.01073602
9530.00   0.29626596   0.00972991
9532.00   0.28569949   0.00911646
9534.00   0.28421432   0.00940746
9536.00   0.28687197   0.01056778
9538.00   0.28552830   0.01068080
9540.00   0.27755296   0.01000147
9542.00   0.27960670   0.00978132
9544.00   0.29603389   0.00984648
9546.00   0.30959201   0.01015025
9548.00   0.30880889   0.01080853
9550.00   0.29973489   0.01169400
9552.00   0.29186493   0.01199043
9554.00   0.27966738   0.01193016
9556.00   0.27049822   0.01181656
9558.00   0.26094285   0.01114041
9560.00   0.25510037   0.01102558
9562.00   0.24989265   0.01185091
9564.00   0.25031528   0.01321054
9566.00   0.27913198   0.01495850
9568.00   0.35807481   0.01810343
9570.00   0.37209412   0.01832875
9572.00   0.33990985   0.01621589
9574.00   0.30691355   0.01401532
9576.00   0.27119786   0.01178208
9578.00   0.23782653   0.00940784
9580.00   0.22838746   0.00810437
9582.00   0.24039318   0.00822667
9584.00   0.23844062   0.00795372
9586.00   0.23007981   0.00797401
9588.00   0.22635481   0.00804870
9590.00   0.22792476   0.00829316
9592.00   0.23087272   0.00849491
9594.00   0.23151758   0.00839109
9596.00   0.23085092   0.00804969
9598.00   0.23809017   0.00811853
9600.00   0.26065221   0.00847024
9602.00   0.26500547   0.00879845
9604.00   0.25339150   0.00929715
9606.00   0.23675261   0.00961495
9608.00   0.21631499   0.00948526
9610.00   0.19242369   0.00909465
9612.00   0.18839921   0.00918828
9614.00   0.20420136   0.00963072
9616.00   0.21216166   0.00995962
9618.00   0.22235602   0.01036781
9620.00   0.22830391   0.01067273
9622.00   0.22806849   0.01089288
9624.00   0.22351770   0.01098994
9626.00   0.21576975   0.01074464
9628.00   0.19934632   0.01012603
9630.00   0.19547659   0.00950621
9632.00   0.20190842   0.00845118
9634.00   0.20630567   0.00775764
9636.00   0.20790221   0.00771462
9638.00   0.20876332   0.00794274
9640.00   0.20907776   0.00800192
9642.00   0.20734636   0.00801933
9644.00   0.21308322   0.00838462
9646.00   0.22866324   0.00917421
9648.00   0.23732588   0.00963946
9650.00   0.23963948   0.00988952
9652.00   0.23947391   0.00999806
9654.00   0.23859230   0.00993732
9656.00   0.23601201   0.00970499
9658.00   0.23463568   0.00967253
9660.00   0.23360173   0.00974928
9662.00   0.23250058   0.00982344
9664.00   0.23508549   0.00985962
9666.00   0.23195183   0.01001163
9668.00   0.21742935   0.01034207
9670.00   0.19592695   0.01079052
9672.00   0.17764269   0.01129966
9674.00   0.14590369   0.01209062
9676.00   0.14554708   0.01241793
9678.00   0.18041839   0.01251193
9680.00   0.20288169   0.01242840
9682.00   0.20043585   0.01200614
9684.00   0.18903776   0.01149762
9686.00   0.18626787   0.01160092
9688.00   0.18506320   0.01230316
9690.00   0.18596128   0.01234377
9692.00   0.19245467   0.01193499
9694.00   0.19368142   0.01161869
9696.00   0.18699855   0.01137562
9698.00   0.17933375   0.01119218
9700.00   0.17760862   0.01116225
9702.00   0.17901897   0.01130570
9704.00   0.18139078   0.01112089
9706.00   0.18716384   0.01050671
9708.00   0.19091521   0.01025096
9710.00   0.19583744   0.01026840
9712.00   0.19641618   0.01049862
9714.00   0.18652005   0.01099733
9716.00   0.16931240   0.01169752
9718.00   0.16307898   0.01204378
9720.00   0.16706464   0.01233484
9722.00   0.16282710   0.01229790
9724.00   0.14854090   0.01185383
9726.00   0.14125206   0.01137160
9728.00   0.14837573   0.01089291
9730.00   0.16344115   0.01044249
9732.00   0.17660628   0.01049689
9734.00   0.20095676   0.01117979
9736.00   0.20104660   0.01135212
9738.00   0.17424692   0.01134065
9740.00   0.15833688   0.01122265
9742.00   0.16156945   0.01097201
9744.00   0.17033781   0.01062603
9746.00   0.17033190   0.01027902
9748.00   0.16782318   0.00987491
9750.00   0.16045074   0.00947591
9752.00   0.13901436   0.00896366
9754.00   0.13358764   0.00862661
9756.00   0.15035971   0.00853661
9758.00   0.16929668   0.00852570
9760.00   0.17330365   0.00845322
9762.00   0.16998351   0.00838760
9764.00   0.16296588   0.00828549
9766.00   0.14011669   0.00801688
9768.00   0.13627855   0.00803827
9770.00   0.15255533   0.00829387
9772.00   0.16937719   0.00868524
9774.00   0.17681372   0.00920799
9776.00   0.18056579   0.00982414
9778.00   0.18411651   0.01027192
9780.00   0.18854816   0.01041740
9782.00   0.18610308   0.01106859
9784.00   0.17180943   0.01180044
9786.00   0.16492508   0.01297659
9788.00   0.17718634   0.01489469
9790.00   0.19408923   0.01683028
9792.00   0.18353976   0.01766555
9794.00   0.14254037   0.01813855
9796.00   0.13455641   0.01767707
9798.00   0.15022004   0.01561617
9800.00   0.16048962   0.01401335
9802.00   0.16384706   0.01333966
9804.00   0.16429755   0.01305309
9806.00   0.16274928   0.01269430
9808.00   0.15961784   0.01253371
9810.00   0.14966923   0.01216596
9812.00   0.12348500   0.01153144
9814.00   0.11522693   0.01117650
9816.00   0.13305718   0.01105449
9818.00   0.14796883   0.01116762
9820.00   0.13241903   0.01167127
9822.00   0.09718114   0.01249615
9824.00   0.10029332   0.01250666
9826.00   0.13917299   0.01179450
9828.00   0.15833254   0.01132883
9830.00   0.16871887   0.01086072
9832.00   0.17386082   0.01048829
9834.00   0.17400831   0.01030064
9836.00   0.16923960   0.01024988
9838.00   0.16234374   0.01021639
9840.00   0.14772366   0.01010137
9842.00   0.14109652   0.01039449
9844.00   0.13437308   0.01106648
9846.00   0.13710804   0.01170092
9848.00   0.15937966   0.01238546
9850.00   0.18538606   0.01294420
9852.00   0.18162785   0.01286871
9854.00   0.15096889   0.01217443
9856.00   0.14160544   0.01173009
9858.00   0.13631886   0.01086311
9860.00   0.14185636   0.01075447
9862.00   0.16250831   0.01150954
9864.00   0.18853052   0.01270279
9866.00   0.20976238   0.01391545
9868.00   0.23159607   0.01508299
9870.00   0.24636173   0.01759652
9872.00   0.26526973   0.02251199
9874.00   0.26105917   0.02371208
9876.00   0.22526103   0.02156121
9878.00   0.18865438   0.01845367
9880.00   0.17128849   0.01595022
9882.00   0.16284595   0.01313179
9884.00   0.15598741   0.01231883
9886.00   0.14872810   0.01429751
9888.00   0.15596706   0.01501908
9890.00   0.18456931   0.01554434
9892.00   0.20672697   0.01585997
9894.00   0.21119808   0.01591352
9896.00   0.20704010   0.01577286
9898.00   0.20520113   0.01559653
9900.00   0.19937426   0.01528596
9902.00   0.19789484   0.01496968
9904.00   0.20222643   0.01411111
9906.00   0.20112084   0.01410794
9908.00   0.18927604   0.01534802
9910.00   0.17580292   0.01700914
9912.00   0.17530468   0.01840064
9914.00   0.18619901   0.02007284
9916.00   0.18511112   0.02061010
9918.00   0.17259911   0.02051230
9920.00   0.16919822   0.01988625
9922.00   0.17836690   0.01821530
9924.00   0.18836260   0.01631983
9926.00   0.18776718   0.01537582
9928.00   0.18026458   0.01502520
9930.00   0.18398862   0.01497082
9932.00   0.18471046   0.01508500
9934.00   0.20853484   0.01610914
9936.00   0.27635887   0.01775183
9938.00   0.32413870   0.01988225
9940.00   0.31151631   0.02270725
9942.00   0.26247621   0.02576906
9944.00   0.22245634   0.02726822
9946.00   0.14295630   0.02787184
9948.00   0.13232775   0.02833343
9950.00   0.18835585   0.02828101
9952.00   0.23723947   0.02824156
9954.00   0.26120058   0.02847511
9956.00   0.27405170   0.02868445
9958.00   0.27381700   0.02831096
9960.00   0.25451016   0.02749728
9962.00   0.24378476   0.02644164
9964.00   0.23502021   0.02474583
9966.00   0.22299039   0.02318821
9968.00   0.20186743   0.02178600
9970.00   0.18318543   0.02057053
9972.00   0.18320537   0.01981423
9974.00   0.19558352   0.01957258
9976.00   0.21711722   0.01920539
9978.00   0.26674336   0.01912535
9980.00   0.28943950   0.01871882
9982.00   0.28988630   0.01771849
9984.00   0.27327493   0.01683037
9986.00   0.23056872   0.01677723
9988.00   0.16159184   0.01728138
9990.00   0.15778971   0.01759845
9992.00   0.21338795   0.01822393
9994.00   0.24685828   0.01835382
9996.00   0.28418976   0.01782930
9998.00   0.30463299   0.01751809
10000.00   0.28762779   0.01757858
10002.00   0.25032100   0.01802070
10004.00   0.25357157   0.02001918
10006.00   0.28416163   0.02318278
10008.00   0.31218764   0.02600287
10010.00   0.36788234   0.02985189
10012.00   0.39199832   0.03201253
10014.00   0.36245570   0.03212275
10016.00   0.30856389   0.03111194
10018.00   0.27335131   0.02991473
10020.00   0.23308650   0.02761443
10022.00   0.21921603   0.02626414
10024.00   0.23835692   0.02558842
10026.00   0.24220143   0.02476674
10028.00   0.22519977   0.02362815
10030.00   0.20405592   0.02257260
10032.00   0.19271642   0.02208938
10034.00   0.18501565   0.02209353
10036.00   0.18145993   0.02191592
10038.00   0.18903913   0.02165410
10040.00   0.18539311   0.02168948
10042.00   0.16635482   0.02199949
10044.00   0.15025945   0.02248392
10046.00   0.14466904   0.02329610
10048.00   0.14537671   0.02433999
10050.00   0.18236671   0.02406056
10052.00   0.29081541   0.02183523
10054.00   0.32111338   0.02134005
10056.00   0.29074916   0.02230954
10058.00   0.25009617   0.02322737
10060.00   0.20919798   0.02373958
10062.00   0.16484638   0.02407326
10064.00   0.14689954   0.02388152
10066.00   0.14673974   0.02293703
10068.00   0.15533809   0.02250723
10070.00   0.18585420   0.02176137
10072.00   0.20869778   0.02201078
10074.00   0.22006802   0.02357260
10076.00   0.22510472   0.02570879
10078.00   0.22448248   0.02787970
10080.00   0.21506973   0.03088781
10082.00   0.21194176   0.03130503
10084.00   0.21628751   0.02938015
10086.00   0.21025397   0.02791682
10088.00   0.19040321   0.02678896
10090.00   0.16767199   0.02584314
10092.00   0.14690107   0.02524529
10094.00   0.12134188   0.02498381
10096.00   0.14119904   0.02473206
10098.00   0.22380580   0.02436070
10100.00   0.26116928   0.02464387
10102.00   0.26857322   0.02608040
10104.00   0.25836182   0.02698662
10106.00   0.22612108   0.02630984
10108.00   0.17598958   0.02464972
10110.00   0.16499749   0.02394108
10112.00   0.18634792   0.02285035
10114.00   0.19558157   0.02368640
10116.00   0.20459224   0.02621805
10118.00   0.21365122   0.02881806
10120.00   0.22425096   0.03160876
10122.00   0.23415455   0.03417376
10124.00   0.23636559   0.03489020
10126.00   0.23178893   0.03431924
10128.00   0.22754517   0.03332696
10130.00   0.22525527   0.03097840
10132.00   0.21397516   0.02887009
10134.00   0.17952567   0.02703118
10136.00   0.14961995   0.02554026
10138.00   0.16916709   0.02496202
10140.00   0.23330610   0.02526550
10142.00   0.25470781   0.02574338
10144.00   0.25125852   0.02667433
10146.00   0.25370720   0.02779345
10148.00   0.25321671   0.02928949
10150.00   0.26134956   0.03071044
10152.00   0.29553732   0.03176733
10154.00   0.35038152   0.03265297
10156.00   0.37075198   0.03308203
10158.00   0.37782776   0.03269721
10160.00   0.36339465   0.03303955
10162.00   0.30529699   0.03366202
10164.00   0.26438349   0.03480333
10166.00   0.27735245   0.03681653
10168.00   0.31796664   0.03923638
10170.00   0.32724103   0.04055676
10172.00   0.32950282   0.04181593
10174.00   0.31445038   0.04164879
10176.00   0.26279035   0.03969723
10178.00   0.23610504   0.03796102
10180.00   0.25753343   0.03666158
10182.00   0.29713294   0.03583539
10184.00   0.30811852   0.03657391
10186.00   0.29936519   0.03918386
10188.00   0.31361198   0.04002598
10190.00   0.36483780   0.04053985
10192.00   0.37290421   0.03998193
10194.00   0.30978942   0.03733756
10196.00   0.24108997   0.03445222
10198.00   0.24235757   0.03417537
10200.00   0.28931123   0.03551177
10202.00   0.31468254   0.03756320
10204.00   0.36460531   0.04143478
10206.00   0.36341366   0.04388028
10208.00   0.29325664   0.04595740
10210.00   0.22416833   0.04680990
10212.00   0.20205994   0.04527708
10214.00   0.20368727   0.04172099
10216.00   0.22000238   0.04014163
10218.00   0.27000898   0.03816856
10220.00   0.30161285   0.03945391
10222.00   0.35179228   0.04457082
10224.00   0.35680896   0.04869231
10226.00   0.26498368   0.05143996
10228.00   0.12782760   0.05306675
10230.00   0.09566900   0.05036702
10232.00   0.14012434   0.03985338
10234.00   0.16199608   0.03518574
10236.00   0.19118106   0.03487005
10238.00   0.22701116   0.03485139
10240.00   0.28120711   0.03494560
10242.00   0.33270684   0.03518947
10244.00   0.33656126   0.03425191
10246.00   0.29006639   0.03196489
10248.00   0.30124822   0.03161186
10250.00   0.36005077   0.03275742
10252.00   0.39482081   0.03374174
10254.00   0.41904762   0.03515617
10256.00   0.41655266   0.03601529
10258.00   0.35236299   0.03486909
10260.00   0.23008169   0.03182368
10262.00   0.18003458   0.03132649
10264.00   0.14958999   0.03265572
10266.00   0.16883999   0.03368898
10268.00   0.27497625   0.03493101
10270.00   0.36305314   0.03606764
10272.00   0.36154252   0.03634746
10274.00   0.31181479   0.03631086
10276.00   0.30752587   0.03964544
10278.00   0.30523092   0.04465898
10280.00   0.33981803   0.05047607
10282.00   0.43232754   0.05882990
10284.00   0.50121236   0.06439269
10286.00   0.52203691   0.06613227
10288.00   0.51535571   0.06609860
10290.00   0.49406177   0.06692499
10292.00   0.45464686   0.06873636
10294.00   0.39157823   0.06704352
10296.00   0.26880515   0.06115922
10298.00   0.19512546   0.05601649
10300.00   0.18663937   0.05260690
10302.00   0.21149708   0.04969097
10304.00   0.24526797   0.04596484
10306.00   0.30624512   0.04120584
10308.00   0.34488660   0.03948405
10310.00   0.37633917   0.04107145
10312.00   0.40262026   0.04222628
10314.00   0.43828031   0.04364737
10316.00   0.44976366   0.04475266
10318.00   0.39515704   0.04467391
10320.00   0.28695017   0.04372936
10322.00   0.25422913   0.04388450
10324.00   0.29510599   0.04574646
10326.00   0.27534980   0.04520109
10328.00   0.19427387   0.04164618
10330.00   0.12599285   0.03839246
10332.00   0.09927373   0.03751449
10334.00   0.09811381   0.03799053
10336.00   0.13786222   0.03882237
10338.00   0.26187238   0.04089080
10340.00   0.30493569   0.04221212
10342.00   0.29877204   0.04347036
10344.00   0.28812933   0.04443114
10346.00   0.29316047   0.04529816
10348.00   0.28724241   0.04574877
10350.00   0.21832941   0.04477392
10352.00   0.05939654   0.04182672
10354.00   0.02197116   0.04070712
10356.00   0.07241037   0.04057246
10358.00   0.11783241   0.04070466
10360.00   0.17511028   0.04061413
10362.00   0.21789210   0.04136194
10364.00   0.18695833   0.04415419
10366.00   0.08488442   0.04828640
10368.00   0.08671041   0.05252660
10370.00   0.18112464   0.05979813
10372.00   0.22650035   0.06172760
10374.00   0.22621705   0.05813895
10376.00   0.22275116   0.05315873
10378.00   0.23529793   0.04949058
10380.00   0.25344542   0.04574211
10382.00   0.31235039   0.04506646
10384.00   0.45170105   0.04765578
10386.00   0.50198191   0.04982672
10388.00   0.50034177   0.05424344
10390.00   0.45568338   0.05598907
10392.00   0.33739597   0.05214967
10394.00   0.18411168   0.04480986
10396.00   0.16674793   0.04246833
10398.00   0.30158326   0.04455050
10400.00   0.30209652   0.04382765
10402.00   0.20360537   0.04101653
10404.00   0.14748372   0.04001123
10406.00   0.14710118   0.04150515
10408.00   0.18928938   0.04461466
10410.00   0.30474138   0.04933081
10412.00   0.54526728   0.05682658
10414.00   0.58390689   0.05842527
10416.00   0.44140357   0.05541381
10418.00   0.36265603   0.05341618
10420.00   0.35159779   0.05251709
10422.00   0.35743821   0.05176176
10424.00   0.34849003   0.05067378
10426.00   0.33599731   0.04942059
10428.00   0.35136083   0.04836304
10430.00   0.41009954   0.04783062
10432.00   0.43025404   0.04642828
10434.00   0.41487813   0.04353030
10436.00   0.39282319   0.04099965
10438.00   0.37563339   0.04021117
10440.00   0.35744742   0.04057238
10442.00   0.35697597   0.04151803
10444.00   0.37814257   0.04422865
10446.00   0.38606480   0.04518991
10448.00   0.39838111   0.04542546
10450.00   0.39253536   0.04487944
10452.00   0.35316652   0.04275376
10454.00   0.29792607   0.03997037
10456.00   0.26865634   0.04023477
10458.00   0.25830334   0.04305771
10460.00   0.23215182   0.04482533
10462.00   0.17309706   0.04740142
10464.00   0.16060668   0.04854534
10466.00   0.22768006   0.04776788
10468.00   0.31132001   0.04615839
10470.00   0.32560667   0.04507187
10472.00   0.29747039   0.04398047
10474.00   0.27955592   0.04265729
10476.00   0.24235201   0.04078101
10478.00   0.22478038   0.03947372
10480.00   0.22938244   0.03874180
10482.00   0.24033491   0.03841961
10484.00   0.24533544   0.03848470
10486.00   0.24947740   0.03898436
10488.00   0.26470569   0.03937069
10490.00   0.29186913   0.03996278
10492.00   0.31530520   0.04031683
10494.00   0.33708641   0.04009052
10496.00   0.36026952   0.04039772
10498.00   0.39300662   0.04209343
10500.00   0.42785770   0.04441451
10502.00   0.42225638   0.04521045
10504.00   0.36950153   0.04499308
10506.00   0.34376109   0.04488260
10508.00   0.30953947   0.04412500
10510.00   0.30568650   0.04389781
10512.00   0.36241972   0.04474846
10514.00   0.43684316   0.04594956
10516.00   0.43734211   0.04631132
10518.00   0.38221142   0.04614191
10520.00   0.34777853   0.04619920
10522.00   0.30298060   0.04637841
10524.00   0.27004689   0.04630285
10526.00   0.24625042   0.04579383
10528.00   0.23538852   0.04523488
10530.00   0.24750805   0.04510948
10532.00   0.28180563   0.04525858
10534.00   0.31224930   0.04535208
10536.00   0.37311313   0.04481992
10538.00   0.38410667   0.04576291
10540.00   0.33041304   0.04873805
10542.00   0.27465326   0.05138148
10544.00   0.25749129   0.05239026
10546.00   0.25840777   0.05254956
10548.00   0.28145567   0.05188393
10550.00   0.35776538   0.04913578
10552.00   0.38106057   0.04821748
10554.00   0.35462201   0.04873820
10556.00   0.33521533   0.04947674
10558.00   0.35436592   0.05017005
10560.00   0.38518822   0.05090464
10562.00   0.36508697   0.05092968
10564.00   0.27479628   0.04978705
10566.00   0.26562852   0.05011567
10568.00   0.31810525   0.05162230
10570.00   0.36029816   0.05285341
10572.00   0.38522053   0.05363143
10574.00   0.39921710   0.05420847
10576.00   0.38865209   0.05459340
10578.00   0.34035739   0.05458494
10580.00   0.34773460   0.05520724
10582.00   0.41297975   0.05663181
10584.00   0.44214612   0.05733740
10586.00   0.43187466   0.05721189
10588.00   0.40467355   0.05679596
10590.00   0.36805001   0.05642561
10592.00   0.31026745   0.05583725
10594.00   0.31297383   0.05610232
10596.00   0.38595328   0.05748467
10598.00   0.41325432   0.05800109
10600.00   0.40554669   0.05777341
10602.00   0.38706228   0.05740236
10604.00   0.36744767   0.05721059
10606.00   0.34165275   0.05702263
10608.00   0.31756628   0.05665061
10610.00   0.28095818   0.05589405
10612.00   0.26987919   0.05562434
10614.00   0.28228059   0.05577397
10616.00   0.29706725   0.05592856
10618.00   0.31329241   0.05603950
10620.00   0.32835540   0.05609909
10622.00   0.31815639   0.05578585
10624.00   0.27028871   0.05490073
10626.00   0.26892287   0.05467486
10628.00   0.29630145   0.05486197
10630.00   0.33031547   0.05511506
10632.00   0.37942827   0.05553846
10634.00   0.42735329   0.05592707
10636.00   0.44278246   0.05590230
10638.00   0.43841487   0.05568665
10640.00   0.41579485   0.05489577
10642.00   0.34753776   0.05297391
10644.00   0.31558990   0.05188332
10646.00   0.31988049   0.05176950
10648.00   0.34015536   0.05192543
10650.00   0.37024009   0.05192858
10652.00   0.41698179   0.05202393
10654.00   0.42155641   0.05152638
10656.00   0.38652733   0.05037274
10658.00   0.36709198   0.04944868
10660.00   0.34597880   0.04846374
10662.00   0.33797759   0.04769600
10664.00   0.35676974   0.04741301
10666.00   0.39240929   0.04743811
10668.00   0.41005579   0.04712760
10670.00   0.43800476   0.04692088
10672.00   0.42295915   0.04610107
10674.00   0.33873716   0.04415572
10676.00   0.29861686   0.04293340
10678.00   0.35633457   0.04342403
10680.00   0.44359252   0.04444807
10682.00   0.43318355   0.04389424
10684.00   0.33189711   0.04197393
10686.00   0.32459733   0.04117649
10688.00   0.39486185   0.04123063
10690.00   0.42447114   0.04078771
10692.00   0.39758807   0.03957430
10694.00   0.35440931   0.03816248
10696.00   0.32770082   0.03717618
10698.00   0.29839954   0.03636416
10700.00   0.30229086   0.03577548
10702.00   0.34426630   0.03555628
10704.00   0.37329033   0.03525711
10706.00   0.39556971   0.03499004
10708.00   0.41373628   0.03464378
10710.00   0.42916039   0.03410129
10712.00   0.44162777   0.03340939
10714.00   0.43500343   0.03263225
10716.00   0.40223542   0.03155900
10718.00   0.38434747   0.03076375
10720.00   0.37774029   0.03030496
10722.00   0.36693686   0.02972992
10724.00   0.33942130   0.02874819
10726.00   0.30701175   0.02756715
10728.00   0.30798110   0.02678066
10730.00   0.33913881   0.02602866
10732.00   0.36206731   0.02591571
10734.00   0.41161859   0.02670064
10736.00   0.42216724   0.02717333
10738.00   0.35837647   0.02718957
10740.00   0.27590907   0.02692810
10742.00   0.27081397   0.02631933
10744.00   0.32318249   0.02513335
10746.00   0.34213275   0.02448343
10748.00   0.36742234   0.02422099
10750.00   0.36503375   0.02382581
10752.00   0.31599757   0.02317543
10754.00   0.26598269   0.02259091
10756.00   0.26348573   0.02240163
10758.00   0.28942254   0.02248275
10760.00   0.31907055   0.02275373
10762.00   0.38567632   0.02339402
10764.00   0.41004676   0.02388395
10766.00   0.39433932   0.02454099
10768.00   0.36682993   0.02482452
10770.00   0.33832213   0.02422736
10772.00   0.30336058   0.02299189
10774.00   0.28868517   0.02247516
10776.00   0.28702158   0.02276448
10778.00   0.29151469   0.02209479
10780.00   0.31558976   0.02027594
10782.00   0.32822064   0.01876915
10784.00   0.31621015   0.01833965
10786.00   0.29179904   0.01848130
10788.00   0.27351582   0.01845897
10790.00   0.24457207   0.01877754
10792.00   0.24303178   0.01855215
10794.00   0.26213086   0.01776003
10796.00   0.28832775   0.01717594
10798.00   0.33622825   0.01703596
10800.00   0.37807983   0.01696862
10802.00   0.35840386   0.01650028
10804.00   0.27905369   0.01573190
10806.00   0.26098049   0.01505382
10808.00   0.28270337   0.01418602
10810.00   0.29287422   0.01357790
10812.00   0.28963122   0.01306260
10814.00   0.28941369   0.01299532
10816.00   0.30764514   0.01391614
10818.00   0.34021181   0.01556117
10820.00   0.34315810   0.01606069
10822.00   0.32080644   0.01607014
10824.00   0.30650902   0.01576386
10826.00   0.29235780   0.01476253
10828.00   0.28118706   0.01381172
10830.00   0.26953086   0.01336646
10832.00   0.26119864   0.01322892
10834.00   0.29068515   0.01346518
10836.00   0.37814498   0.01450598
10838.00   0.41438198   0.01474225
10840.00   0.42181084   0.01429951
10842.00   0.42344409   0.01413904
10844.00   0.42731228   0.01479638
10846.00   0.42432499   0.01555349
10848.00   0.39975312   0.01514570
10850.00   0.34412995   0.01358436
10852.00   0.32254013   0.01261742
10854.00   0.32696041   0.01159469
10856.00   0.32251868   0.01091553
10858.00   0.30598474   0.01081776
10860.00   0.28592971   0.01096016
