# File created by shivutils (I.Shivvers)
# Blotched regions marked with a #.
# wl(A)   flm    er(optional)
3460.00   0.15662024
3462.00   0.10586590
3464.00   0.08364405
3466.00   0.15442647
3468.00   0.12498423
3470.00   0.15390618
3472.00   0.17867229
3474.00   0.18845306
3476.00   0.14813978
3478.00   0.16408306
3480.00   0.12866291
3482.00   0.15893734
3484.00   0.15562759
3486.00   0.11027685
3488.00   0.13715146
3490.00   0.14693219
3492.00   0.11967312
3494.00   0.13211257
3496.00   0.15614424
3498.00   0.13354571
3500.00   0.13839432
3502.00   0.14668042
3504.00   0.17106100
3506.00   0.19522815
3508.00   0.18569713
3510.00   0.15024526
3512.00   0.14902379
3514.00   0.16925533
3516.00   0.16093811
3518.00   0.18346527
3520.00   0.14770775
3522.00   0.14703235
3524.00   0.15056438
3526.00   0.16489076
3528.00   0.13769140
3530.00   0.14581060
3532.00   0.17055668
3534.00   0.13305267
3536.00   0.15993642
3538.00   0.14604405
3540.00   0.15695748
3542.00   0.13571495
3544.00   0.09743733
3546.00   0.16807211
3548.00   0.11333891
3550.00   0.13292899
3552.00   0.11683801
3554.00   0.14041361
3556.00   0.14577418
3558.00   0.15976182
3560.00   0.14735993
3562.00   0.14392192
3564.00   0.11414852
3566.00   0.15333734
3568.00   0.14378351
3570.00   0.13126992
3572.00   0.15084972
3574.00   0.15760192
3576.00   0.15265998
3578.00   0.13916130
3580.00   0.17622323
3582.00   0.15799395
3584.00   0.14590291
3586.00   0.14596385
3588.00   0.14845306
3590.00   0.12925243
3592.00   0.15430581
3594.00   0.11650758
3596.00   0.14018646
3598.00   0.12264792
3600.00   0.14276772
3602.00   0.17194782
3604.00   0.15817211
3606.00   0.15098306
3608.00   0.11262288
3610.00   0.13094564
3612.00   0.15038720
3614.00   0.16560853
3616.00   0.16630835
3618.00   0.14611193
3620.00   0.15249189
3622.00   0.15488144
3624.00   0.15845573
3626.00   0.18120523
3628.00   0.18594182
3630.00   0.19364418
3632.00   0.18857578
3634.00   0.17619996
3636.00   0.20359865
3638.00   0.17411295
3640.00   0.16187380
3642.00   0.20440350
3644.00   0.19053300
3646.00   0.16042854
3648.00   0.17725192
3650.00   0.16704187
3652.00   0.12339972
3654.00   0.17508357
3656.00   0.19309079
3658.00   0.17482397
3660.00   0.19880970
3662.00   0.24599168
3664.00   0.17515984
3666.00   0.14014562
3668.00   0.17502838
3670.00   0.18825844
3672.00   0.16676461
3674.00   0.17381567
3676.00   0.19495275
3678.00   0.17079425
3680.00   0.18556823
3682.00   0.19094247
3684.00   0.16506914
3686.00   0.16801357
3688.00   0.14463367
3690.00   0.17625516
3692.00   0.16819793
3694.00   0.17198647
3696.00   0.13198286
3698.00   0.15023913
3700.00   0.16313173
3702.00   0.16188940
3704.00   0.17554546
3706.00   0.16044477
3708.00   0.16034909
3710.00   0.12414200
3712.00   0.15380639
3714.00   0.15850968
3716.00   0.15556530
3718.00   0.15424835
3720.00   0.13662457
3722.00   0.14019771
3724.00   0.15489411
#3726.00   0.15049438
#3728.00   0.16220342
#3730.00   0.22109289
#3732.00   0.34845748
#3734.00   0.51307518
#3736.00   0.47547751
#3738.00   0.26482710
#3740.00   0.15539662
3742.00   0.17035944
3744.00   0.17048633
3746.00   0.15797323
3748.00   0.15141513
3750.00   0.16025984
3752.00   0.16002375
3754.00   0.16860429
3756.00   0.14689041
3758.00   0.16235572
3760.00   0.15080911
3762.00   0.11559081
3764.00   0.15672691
3766.00   0.12598218
3768.00   0.11712775
3770.00   0.12533238
3772.00   0.12205435
3774.00   0.08745962
3776.00   0.11641348
3778.00   0.10437231
3780.00   0.11294513
3782.00   0.10616834
3784.00   0.10669804
3786.00   0.10037973
3788.00   0.09481386
3790.00   0.07855692
3792.00   0.06276266
3794.00   0.06062102
3796.00   0.07280274
3798.00   0.06526508
3800.00   0.06941108
3802.00   0.08402668
3804.00   0.06602503
3806.00   0.05496705
3808.00   0.05566089
3810.00   0.05968838
3812.00   0.05514638
3814.00   0.05743961
3816.00   0.07160232
3818.00   0.06087508
3820.00   0.05414795
3822.00   0.06069541
3824.00   0.05910400
3826.00   0.06168890
3828.00   0.08914766
3830.00   0.06845111
3832.00   0.07773478
3834.00   0.05823136
3836.00   0.04255718
3838.00   0.04210076
3840.00   0.07049160
3842.00   0.06596560
3844.00   0.09776164
3846.00   0.08606464
3848.00   0.09160775
3850.00   0.07328927
3852.00   0.08237575
3854.00   0.06417631
3856.00   0.07535526
3858.00   0.06917413
3860.00   0.07091924
3862.00   0.07554012
3864.00   0.06977154
3866.00   0.07270448
3868.00   0.08081265
3870.00   0.07707169
3872.00   0.07207373
3874.00   0.07738820
3876.00   0.06855353
3878.00   0.08349054
3880.00   0.09192085
3882.00   0.08554408
3884.00   0.08307734
3886.00   0.06248104
3888.00   0.09519177
3890.00   0.08392339
3892.00   0.09545768
3894.00   0.11564917
3896.00   0.11950212
3898.00   0.11692689
3900.00   0.09524488
3902.00   0.10670071
3904.00   0.10299028
3906.00   0.11887992
3908.00   0.11140194
3910.00   0.10474081
3912.00   0.12751414
3914.00   0.11950607
3916.00   0.12680369
3918.00   0.14214352
3920.00   0.13907526
3922.00   0.15885625
3924.00   0.15496814
3926.00   0.15719379
3928.00   0.15653663
3930.00   0.17419368
3932.00   0.18362094
3934.00   0.17614311
3936.00   0.18157376
3938.00   0.20087754
3940.00   0.21421815
3942.00   0.22743724
3944.00   0.21316232
3946.00   0.24321796
3948.00   0.23834935
3950.00   0.26363121
3952.00   0.25669204
3954.00   0.25917637
3956.00   0.25306055
3958.00   0.29364867
3960.00   0.30599719
3962.00   0.30656768
3964.00   0.29353040
3966.00   0.30586731
3968.00   0.29987842
3970.00   0.29562587
3972.00   0.30055548
3974.00   0.34341278
3976.00   0.33403180
3978.00   0.33466114
3980.00   0.30431126
3982.00   0.29752883
3984.00   0.30326424
3986.00   0.33341480
3988.00   0.31207097
3990.00   0.30634679
3992.00   0.31395235
3994.00   0.29330171
3996.00   0.30272995
3998.00   0.29962102
4000.00   0.30786047
4002.00   0.28855332
4004.00   0.32291923
4006.00   0.29650612
4008.00   0.30662014
4010.00   0.31211812
4012.00   0.30834107
4014.00   0.30528873
4016.00   0.29536097
4018.00   0.28467985
4020.00   0.29821196
4022.00   0.30040215
4024.00   0.27541684
4026.00   0.27967784
4028.00   0.29940042
4030.00   0.27933864
4032.00   0.28343079
4034.00   0.28490170
4036.00   0.28697538
4038.00   0.27846612
4040.00   0.29137312
4042.00   0.29599822
4044.00   0.29952770
4046.00   0.21771830
4048.00   0.24802911
4050.00   0.27253403
4052.00   0.27358222
4054.00   0.28525230
4056.00   0.29688597
4058.00   0.26349655
4060.00   0.29435202
4062.00   0.30704653
4064.00   0.32616264
4066.00   0.29645703
4068.00   0.30500994
4070.00   0.31532569
4072.00   0.31396437
4074.00   0.32987261
4076.00   0.35938555
4078.00   0.33123773
4080.00   0.30805384
4082.00   0.30151918
4084.00   0.32113797
4086.00   0.33096358
4088.00   0.29706057
4090.00   0.30597043
4092.00   0.27465750
4094.00   0.27944509
4096.00   0.28270819
4098.00   0.27241320
4100.00   0.26197690
4102.00   0.28420186
4104.00   0.26599776
4106.00   0.28903164
4108.00   0.30066583
4110.00   0.30252821
4112.00   0.29498503
4114.00   0.26368094
4116.00   0.26449223
4118.00   0.25404071
4120.00   0.24551386
4122.00   0.24763751
4124.00   0.25904336
4126.00   0.26936063
4128.00   0.24641803
4130.00   0.23260316
4132.00   0.23850881
4134.00   0.24685697
4136.00   0.24725256
4138.00   0.24730927
4140.00   0.25190276
4142.00   0.23852143
4144.00   0.24469204
4146.00   0.23893794
4148.00   0.24640692
4150.00   0.24545973
4152.00   0.24523463
4154.00   0.26834924
4156.00   0.27731503
4158.00   0.26286184
4160.00   0.28194489
4162.00   0.27014551
4164.00   0.26655296
4166.00   0.30526326
4168.00   0.26202106
4170.00   0.27138647
4172.00   0.26498465
4174.00   0.26763392
4176.00   0.27163545
4178.00   0.27202595
4180.00   0.25549883
4182.00   0.26805789
4184.00   0.27478038
4186.00   0.24849935
4188.00   0.23317749
4190.00   0.25346777
4192.00   0.23008453
4194.00   0.24681730
4196.00   0.23661336
4198.00   0.21478616
4200.00   0.22697466
4202.00   0.21885139
4204.00   0.22016184
4206.00   0.24037831
4208.00   0.23394547
4210.00   0.23554548
4212.00   0.23397689
4214.00   0.22906661
4216.00   0.23846737
4218.00   0.22704103
4220.00   0.25743227
4222.00   0.24664684
4224.00   0.24277809
4226.00   0.25663766
4228.00   0.25018642
4230.00   0.25988254
4232.00   0.26377619
4234.00   0.28319765
4236.00   0.29108938
4238.00   0.28260109
4240.00   0.28246457
4242.00   0.28465489
4244.00   0.28324423
4246.00   0.27157514
4248.00   0.27898635
4250.00   0.26513927
4252.00   0.27991957
4254.00   0.27596015
4256.00   0.27217960
4258.00   0.25457576
4260.00   0.25751328
4262.00   0.24631504
4264.00   0.22558909
4266.00   0.24429104
4268.00   0.24233801
4270.00   0.24545415
4272.00   0.23458259
4274.00   0.23437409
4276.00   0.23184605
4278.00   0.24296935
4280.00   0.22527114
4282.00   0.23441106
4284.00   0.25491231
4286.00   0.23852391
4288.00   0.22051786
4290.00   0.23737028
4292.00   0.25457949
4294.00   0.23359244
4296.00   0.26201683
4298.00   0.24424652
4300.00   0.27414035
4302.00   0.26185949
4304.00   0.27263263
4306.00   0.27322380
4308.00   0.27994009
4310.00   0.28935911
4312.00   0.29837116
4314.00   0.29587748
4316.00   0.29645330
4318.00   0.30975395
4320.00   0.31412957
4322.00   0.31542512
4324.00   0.31950643
4326.00   0.33945971
4328.00   0.30394357
4330.00   0.31806894
4332.00   0.32097226
4334.00   0.31532404
4336.00   0.34447950
4338.00   0.31379394
4340.00   0.32291723
4342.00   0.30114969
4344.00   0.31307446
4346.00   0.34034397
4348.00   0.38895332
4350.00   0.37522188
4352.00   0.31584873
4354.00   0.31524789
4356.00   0.30781572
4358.00   0.35106240
4360.00   0.24028180
4362.00   0.26295248
4364.00   0.29084426
4366.00   0.26008430
4368.00   0.28110807
4370.00   0.27713181
4372.00   0.28490272
4374.00   0.27602532
4376.00   0.29576468
4378.00   0.28679595
4380.00   0.28089158
4382.00   0.29508988
4384.00   0.29680070
4386.00   0.29259567
4388.00   0.31090343
4390.00   0.30486996
4392.00   0.29919894
4394.00   0.33292685
4396.00   0.30917011
4398.00   0.31069697
4400.00   0.29038890
4402.00   0.32158098
4404.00   0.31444274
4406.00   0.31940971
4408.00   0.33120461
4410.00   0.32278223
4412.00   0.33029622
4414.00   0.31919808
4416.00   0.33424297
4418.00   0.30332343
4420.00   0.31394735
4422.00   0.31069774
4424.00   0.29914378
4426.00   0.31428704
4428.00   0.30368605
4430.00   0.31387226
4432.00   0.28945266
4434.00   0.30313613
4436.00   0.30259927
4438.00   0.31951668
4440.00   0.32231724
4442.00   0.32039018
4444.00   0.31167199
4446.00   0.32579212
4448.00   0.32335126
4450.00   0.31664968
4452.00   0.31315373
4454.00   0.31307372
4456.00   0.32445117
4458.00   0.32595010
4460.00   0.32864353
4462.00   0.33636177
4464.00   0.31290200
4466.00   0.30505057
4468.00   0.30353263
4470.00   0.30724148
4472.00   0.31335749
4474.00   0.29658432
4476.00   0.30845601
4478.00   0.30664815
4480.00   0.31228320
4482.00   0.31728121
4484.00   0.32406275
4486.00   0.31521464
4488.00   0.31432313
4490.00   0.33002660
4492.00   0.31479131
4494.00   0.31814357
4496.00   0.31130059
4498.00   0.32143799
4500.00   0.30076702
4502.00   0.31017309
4504.00   0.30347477
4506.00   0.30464017
4508.00   0.32677793
4510.00   0.33100442
4512.00   0.32490139
4514.00   0.33662357
4516.00   0.35674707
4518.00   0.34572082
4520.00   0.34748415
4522.00   0.35929115
4524.00   0.38316126
4526.00   0.40988723
4528.00   0.45365961
4530.00   0.44306542
4532.00   0.44150577
4534.00   0.45566652
4536.00   0.48022700
4538.00   0.49218771
4540.00   0.51436819
4542.00   0.53895994
4544.00   0.55334623
4546.00   0.58871028
4548.00   0.62129018
4550.00   0.63472482
4552.00   0.62081468
4554.00   0.61447666
4556.00   0.63639143
4558.00   0.66366023
4560.00   0.64997852
4562.00   0.65204552
4564.00   0.63348073
4566.00   0.61919779
4568.00   0.60268293
4570.00   0.60004922
4572.00   0.59031990
4574.00   0.58229826
4576.00   0.57875540
4578.00   0.59721863
4580.00   0.57744415
4582.00   0.58204087
4584.00   0.57318528
4586.00   0.57816003
4588.00   0.59254905
4590.00   0.58131497
4592.00   0.54736775
4594.00   0.56310434
4596.00   0.54864135
4598.00   0.57121357
4600.00   0.53672380
4602.00   0.54341257
4604.00   0.52762369
4606.00   0.52352162
4608.00   0.52386577
4610.00   0.52468615
4612.00   0.50626871
4614.00   0.51954816
4616.00   0.52648717
4618.00   0.52725208
4620.00   0.53686743
4622.00   0.53697484
4624.00   0.50646762
4626.00   0.50369117
4628.00   0.49367150
4630.00   0.49425310
4632.00   0.47512503
4634.00   0.47446830
4636.00   0.46889633
4638.00   0.46367557
4640.00   0.45565762
4642.00   0.45066843
4644.00   0.44057009
4646.00   0.45900827
4648.00   0.45358926
4650.00   0.46269656
4652.00   0.44761886
4654.00   0.43637949
4656.00   0.43885660
4658.00   0.44411582
4660.00   0.44691532
4662.00   0.43815951
4664.00   0.44227925
4666.00   0.43492789
4668.00   0.44335081
4670.00   0.46173622
4672.00   0.44471615
4674.00   0.45627473
4676.00   0.43098155
4678.00   0.42367229
4680.00   0.42706143
4682.00   0.43193875
4684.00   0.41368607
4686.00   0.41097250
4688.00   0.42762820
4690.00   0.43280315
4692.00   0.40703304
4694.00   0.40691979
4696.00   0.39592801
4698.00   0.40921437
4700.00   0.40356138
4702.00   0.39497739
4704.00   0.38997118
4706.00   0.38718166
4708.00   0.37572112
4710.00   0.38158900
4712.00   0.39526426
4714.00   0.39250665
4716.00   0.37409480
4718.00   0.37083307
4720.00   0.38646844
4722.00   0.36806331
4724.00   0.38972764
4726.00   0.38733866
4728.00   0.37580516
4730.00   0.36107833
4732.00   0.37057982
4734.00   0.37646577
4736.00   0.38401289
4738.00   0.38078623
4740.00   0.38656921
4742.00   0.38819533
4744.00   0.38011709
4746.00   0.36211544
4748.00   0.35642434
4750.00   0.35754587
4752.00   0.36505568
4754.00   0.36613538
4756.00   0.34262262
4758.00   0.34029730
4760.00   0.34379256
4762.00   0.35684456
4764.00   0.33836118
4766.00   0.34833571
4768.00   0.34571530
4770.00   0.33020289
4772.00   0.32810799
4774.00   0.33324883
4776.00   0.33888320
4778.00   0.33695083
4780.00   0.33180965
4782.00   0.34274256
4784.00   0.33171950
4786.00   0.33791389
4788.00   0.34045788
4790.00   0.35295383
4792.00   0.35364629
4794.00   0.35531964
4796.00   0.37237069
4798.00   0.36549603
4800.00   0.35204430
4802.00   0.37638603
4804.00   0.36594772
4806.00   0.37267108
4808.00   0.35813834
4810.00   0.37863194
4812.00   0.37012286
4814.00   0.36753869
4816.00   0.36663452
4818.00   0.37341460
4820.00   0.37265342
4822.00   0.35776940
4824.00   0.37420292
4826.00   0.34946621
4828.00   0.35827541
4830.00   0.34893311
4832.00   0.35707001
4834.00   0.35245050
4836.00   0.34648117
4838.00   0.35119186
4840.00   0.33101647
4842.00   0.33043339
4844.00   0.34511681
4846.00   0.34523765
4848.00   0.33640572
4850.00   0.33619218
4852.00   0.34244830
4854.00   0.33927577
4856.00   0.32964028
4858.00   0.34043607
4860.00   0.34380956
4862.00   0.33469277
4864.00   0.33295068
#4866.00   0.34188004
#4868.00   0.41469779
#4870.00   0.54020440
#4872.00   0.49511271
#4874.00   0.40677934
#4876.00   0.36794827
4878.00   0.35215200
4880.00   0.35966978
4882.00   0.36605553
4884.00   0.34810848
4886.00   0.35794696
4888.00   0.35112034
4890.00   0.35823339
4892.00   0.35550458
4894.00   0.35219344
4896.00   0.37727824
4898.00   0.38152586
4900.00   0.40018118
4902.00   0.38764030
4904.00   0.39010471
4906.00   0.39554769
4908.00   0.39491408
4910.00   0.41838094
4912.00   0.42421922
4914.00   0.40514233
4916.00   0.41257339
4918.00   0.41836235
4920.00   0.41915326
4922.00   0.39813296
4924.00   0.41435415
4926.00   0.42604118
4928.00   0.41820565
4930.00   0.41506272
4932.00   0.42404390
4934.00   0.40655851
4936.00   0.39470672
4938.00   0.40928282
4940.00   0.38683503
4942.00   0.38192806
4944.00   0.37471872
4946.00   0.37686710
4948.00   0.37202759
4950.00   0.36090339
4952.00   0.35563702
4954.00   0.35884711
4956.00   0.35120245
4958.00   0.33850197
4960.00   0.33863378
4962.00   0.33858821
4964.00   0.33101653
4966.00   0.33335090
4968.00   0.33815610
4970.00   0.33232602
4972.00   0.32269099
4974.00   0.32522346
4976.00   0.34185159
4978.00   0.32519617
4980.00   0.33149036
4982.00   0.31730007
4984.00   0.33975934
4986.00   0.33704787
4988.00   0.34475700
4990.00   0.35323985
4992.00   0.36931438
4994.00   0.36867286
4996.00   0.38628447
4998.00   0.40694184
5000.00   0.42369595
5002.00   0.42377231
5004.00   0.45215521
5006.00   0.47435521
5008.00   0.47697502
5010.00   0.49254880
5012.00   0.49396784
5014.00   0.54259625
5016.00   0.57230150
5018.00   0.58851332
5020.00   0.57299134
5022.00   0.56627529
5024.00   0.57343049
5026.00   0.57362248
5028.00   0.58287219
5030.00   0.59512070
5032.00   0.59741717
5034.00   0.59553271
5036.00   0.59342813
5038.00   0.56648391
5040.00   0.55858259
5042.00   0.56676612
5044.00   0.54842428
5046.00   0.56545599
5048.00   0.52958605
5050.00   0.53468829
5052.00   0.52422262
5054.00   0.51470191
5056.00   0.49037428
5058.00   0.49101224
5060.00   0.47933265
5062.00   0.47031258
5064.00   0.45628210
5066.00   0.43412112
5068.00   0.43506865
5070.00   0.41234117
5072.00   0.41875964
5074.00   0.39608897
5076.00   0.39745444
5078.00   0.37763165
5080.00   0.39493707
5082.00   0.38492503
5084.00   0.36247565
5086.00   0.34929273
5088.00   0.33884317
5090.00   0.36071598
5092.00   0.33610805
5094.00   0.31668205
5096.00   0.31059113
5098.00   0.31696404
5100.00   0.30311330
5102.00   0.29622907
5104.00   0.31828421
5106.00   0.30588033
5108.00   0.30166851
5110.00   0.29823148
5112.00   0.28117505
5114.00   0.28494493
5116.00   0.28641891
5118.00   0.28961139
5120.00   0.28787803
5122.00   0.31015001
5124.00   0.32150294
5126.00   0.31856225
5128.00   0.31655619
5130.00   0.31964476
5132.00   0.30862624
5134.00   0.31803850
5136.00   0.33357426
5138.00   0.36232980
5140.00   0.35870895
5142.00   0.38849042
5144.00   0.41505661
5146.00   0.41876939
5148.00   0.43386629
5150.00   0.46744147
5152.00   0.50069824
5154.00   0.49707157
5156.00   0.51102158
5158.00   0.52618883
5160.00   0.56440443
5162.00   0.59006905
5164.00   0.59466887
5166.00   0.59872032
5168.00   0.59529760
5170.00   0.61555998
5172.00   0.59786648
5174.00   0.59724524
5176.00   0.60129547
5178.00   0.60078251
5180.00   0.58995447
5182.00   0.60423012
5184.00   0.58954535
5186.00   0.59916643
5188.00   0.59746508
5190.00   0.57852442
5192.00   0.57754567
5194.00   0.56128101
5196.00   0.57292647
5198.00   0.56697169
5200.00   0.53061226
5202.00   0.53515696
5204.00   0.50155175
5206.00   0.52061961
5208.00   0.53607381
5210.00   0.51057201
5212.00   0.50572736
5214.00   0.53674518
5216.00   0.49592220
5218.00   0.49794442
5220.00   0.52761345
5222.00   0.51849361
5224.00   0.51896324
5226.00   0.54862343
5228.00   0.52260412
5230.00   0.54606815
5232.00   0.52951668
5234.00   0.52679030
5236.00   0.53304780
5238.00   0.52380754
5240.00   0.54787797
5242.00   0.51894278
5244.00   0.50155995
5246.00   0.53019125
5248.00   0.53033180
5250.00   0.51493743
5252.00   0.51483900
5254.00   0.54206223
5256.00   0.54423991
5258.00   0.52734916
5260.00   0.54653371
5262.00   0.53594450
5264.00   0.53495441
5266.00   0.54577106
5268.00   0.56640806
5270.00   0.54726733
5272.00   0.55750214
5274.00   0.55037583
5276.00   0.57194974
5278.00   0.56744468
5280.00   0.54190254
5282.00   0.51780603
5284.00   0.50872147
5286.00   0.51309446
5288.00   0.48701682
5290.00   0.49952712
5292.00   0.50800160
5294.00   0.50315237
5296.00   0.49341839
5298.00   0.49040759
5300.00   0.48267197
5302.00   0.48694505
5304.00   0.49504862
5306.00   0.48337600
5308.00   0.50851433
5310.00   0.50685864
5312.00   0.50600257
5314.00   0.53130312
5316.00   0.51768936
5318.00   0.52694096
5320.00   0.53160367
5322.00   0.54114526
5324.00   0.52975582
5326.00   0.52010854
5328.00   0.54006124
5330.00   0.53965044
5332.00   0.53124592
5334.00   0.51399405
5336.00   0.51777799
5338.00   0.49723652
5340.00   0.51442723
5342.00   0.50916199
5344.00   0.48923700
5346.00   0.48152923
5348.00   0.48477759
5350.00   0.48445718
5352.00   0.45864252
5354.00   0.46405356
5356.00   0.46924941
5358.00   0.46858529
5360.00   0.47825212
5362.00   0.46266490
5364.00   0.46105249
5366.00   0.47990682
5368.00   0.45929231
5370.00   0.45260172
5372.00   0.45074438
5374.00   0.44998411
5376.00   0.42580778
5378.00   0.44520662
5380.00   0.43333307
5382.00   0.42909507
5384.00   0.42947153
5386.00   0.42298231
5388.00   0.42919641
5390.00   0.42799155
5392.00   0.44040540
5394.00   0.42164732
5396.00   0.45288737
5398.00   0.41045346
5400.00   0.40895279
5402.00   0.41915789
5404.00   0.41358437
5406.00   0.41195319
5408.00   0.41802311
5410.00   0.41850455
5412.00   0.39737240
5414.00   0.41492903
5416.00   0.40968453
5418.00   0.40167490
5420.00   0.40764901
5422.00   0.40066291
5424.00   0.40481501
5426.00   0.39234887
5428.00   0.42131386
5430.00   0.41077928
5432.00   0.40675634
5434.00   0.39878514
5436.00   0.39373562
5438.00   0.39233601
5440.00   0.39126389
5442.00   0.38724576
5444.00   0.38193628
5446.00   0.37999094
5448.00   0.38137928
5450.00   0.38060999
5452.00   0.37905997
5454.00   0.37789416
5456.00   0.37749207
5458.00   0.37721904
5460.00   0.37332517
5462.00   0.36715704
5464.00   0.35871938
5466.00   0.34438485
5468.00   0.33373635
5470.00   0.33227561
5472.00   0.33492555
5474.00   0.32889256
5476.00   0.31518593
5478.00   0.30668972
5480.00   0.29836974
5482.00   0.29396397
5484.00   0.29520656
5486.00   0.29947741
5488.00   0.30160113
5490.00   0.30424765
5492.00   0.30515678
5494.00   0.30250886
5496.00   0.30321358
5498.00   0.31036334
5500.00   0.31946759
5502.00   0.32270662
5504.00   0.32152191
5506.00   0.32434541
5508.00   0.32817344
5510.00   0.33381088
5512.00   0.34170666
5514.00   0.35211022
5516.00   0.36521073
5518.00   0.38261032
5520.00   0.39073089
5522.00   0.38581304
5524.00   0.39270875
5526.00   0.41491394
5528.00   0.43867739
5530.00   0.45082805
5532.00   0.45557502
5534.00   0.46665594
5536.00   0.48208871
5538.00   0.49415947
5540.00   0.50382043
5542.00   0.51143044
5544.00   0.51592346
5546.00   0.51726283
5548.00   0.52236961
5550.00   0.52951287
5552.00   0.53682248
5554.00   0.54351297
5556.00   0.55223148
5558.00   0.56604920
5560.00   0.58353752
5562.00   0.59252067
5564.00   0.59475073
5566.00   0.59801596
5568.00   0.60175410
5570.00   0.60402957
5572.00   0.60394514
5574.00   0.60129842
5576.00   0.59298289
5578.00   0.57512045
5580.00   0.56477125
5582.00   0.55775107
5584.00   0.55256000
5586.00   0.55026750
5588.00   0.54834446
5590.00   0.53890589
5592.00   0.52393813
5594.00   0.50809503
5596.00   0.48902991
5598.00   0.46925305
5600.00   0.44791257
5602.00   0.42673108
5604.00   0.41067453
5606.00   0.39979815
5608.00   0.38490550
5610.00   0.36570650
5612.00   0.35125297
5614.00   0.34521987
5616.00   0.34064087
5618.00   0.32646510
5620.00   0.30368711
5622.00   0.29086908
5624.00   0.28318734
5626.00   0.27738339
5628.00   0.27486653
5630.00   0.27405203
5632.00   0.27191208
5634.00   0.26933176
5636.00   0.26856849
5638.00   0.27003416
5640.00   0.27029138
5642.00   0.26887701
5644.00   0.26758154
5646.00   0.26827605
5648.00   0.27044158
5650.00   0.27158064
5652.00   0.27178261
5654.00   0.27329986
5656.00   0.27655247
5658.00   0.27980069
5660.00   0.28186902
5662.00   0.28320505
5664.00   0.28352924
5666.00   0.28341185
5668.00   0.28142278
5670.00   0.27619293
5672.00   0.27195124
5674.00   0.27025472
5676.00   0.26978260
5678.00   0.27173570
5680.00   0.28048296
5682.00   0.28044440
5684.00   0.27437843
5686.00   0.26549955
5688.00   0.25322469
5690.00   0.23893019
5692.00   0.23122865
5694.00   0.22876322
5696.00   0.22528874
5698.00   0.22331510
5700.00   0.22083906
5702.00   0.21782764
5704.00   0.21434316
5706.00   0.20960993
5708.00   0.20356697
5710.00   0.19796476
5712.00   0.19283447
5714.00   0.18654644
5716.00   0.17787919
5718.00   0.16877773
5720.00   0.16324022
5722.00   0.16064402
5724.00   0.15668306
5726.00   0.15286241
5728.00   0.14868345
5730.00   0.14387923
5732.00   0.13905606
5734.00   0.13513346
5736.00   0.13226412
5738.00   0.12743299
5740.00   0.11985277
5742.00   0.11479582
5744.00   0.11293955
5746.00   0.11150716
5748.00   0.10837740
5750.00   0.10444506
5752.00   0.10131444
5754.00   0.09836295
5756.00   0.09601080
5758.00   0.09436115
5760.00   0.09214462
5762.00   0.08906101
5764.00   0.08533552
5766.00   0.08070629
5768.00   0.07328372
5770.00   0.06945377
5772.00   0.06893503
5774.00   0.06899630
5776.00   0.06841698
5778.00   0.06757742
5780.00   0.06536551
5782.00   0.06160554
5784.00   0.05839446
5786.00   0.05290134
5788.00   0.05068318
5790.00   0.05518884
5792.00   0.06348418
5794.00   0.06708821
5796.00   0.06814636
5798.00   0.06937516
5800.00   0.06951645
5802.00   0.07045661
5804.00   0.07251254
5806.00   0.07489760
5808.00   0.07630837
5810.00   0.07700249
5812.00   0.07807650
5814.00   0.07910578
5816.00   0.08033657
5818.00   0.08158299
5820.00   0.08326335
5822.00   0.08606611
5824.00   0.09047839
5826.00   0.09210090
5828.00   0.09093768
5830.00   0.09097694
5832.00   0.09222710
5834.00   0.09491143
5836.00   0.09932500
5838.00   0.10594778
5840.00   0.11113283
5842.00   0.11599709
5844.00   0.12051196
5846.00   0.12487723
5848.00   0.12939851
5850.00   0.13416538
5852.00   0.13919882
5854.00   0.14366576
5856.00   0.14805082
5858.00   0.15163006
5860.00   0.15345806
5862.00   0.15637147
5864.00   0.16266079
5866.00   0.17127759
5868.00   0.17785159
5870.00   0.18325816
5872.00   0.18952821
5874.00   0.19389568
5876.00   0.20187467
5878.00   0.21851986
5880.00   0.24120128
5882.00   0.25737905
5884.00   0.27863444
5886.00   0.28133021
5888.00   0.26368225
5890.00   0.24607033
5892.00   0.23423042
5894.00   0.22399189
5896.00   0.22121885
5898.00   0.22576015
5900.00   0.23118218
5902.00   0.24110354
5904.00   0.25081775
5906.00   0.25941716
5908.00   0.26683152
5910.00   0.27088812
5912.00   0.27098943
5914.00   0.27291007
5916.00   0.27505376
5918.00   0.27713710
5920.00   0.27947357
5922.00   0.28067905
5924.00   0.27839247
5926.00   0.27218318
5928.00   0.26746850
5930.00   0.26186341
5932.00   0.25776470
5934.00   0.25533731
5936.00   0.25299131
5938.00   0.24888040
5940.00   0.24314190
5942.00   0.24023315
5944.00   0.24001691
5946.00   0.23850872
5948.00   0.23594020
5950.00   0.23309968
5952.00   0.22961865
5954.00   0.22479619
5956.00   0.22487137
5958.00   0.23076260
5960.00   0.23336299
5962.00   0.23336541
5964.00   0.23201574
5966.00   0.23021621
5968.00   0.22786605
5970.00   0.22502535
5972.00   0.22055242
5974.00   0.21793213
5976.00   0.21612566
5978.00   0.21543389
5980.00   0.21774870
5982.00   0.22238847
5984.00   0.22313718
5986.00   0.22098221
5988.00   0.21980631
5990.00   0.21778677
5992.00   0.21672106
5994.00   0.21798655
5996.00   0.22047433
5998.00   0.22098758
6000.00   0.21971516
6002.00   0.21989188
6004.00   0.22234959
6006.00   0.22256101
6008.00   0.21871291
6010.00   0.21294357
6012.00   0.20774519
6014.00   0.19913544
6016.00   0.19718152
6018.00   0.20240683
6020.00   0.20517996
6022.00   0.20347713
6024.00   0.19993186
6026.00   0.19612765
6028.00   0.19027898
6030.00   0.18656944
6032.00   0.18430854
6034.00   0.18182895
6036.00   0.17884237
6038.00   0.17607326
6040.00   0.17421123
6042.00   0.17329550
6044.00   0.17052681
6046.00   0.16533942
6048.00   0.16222577
6050.00   0.16084124
6052.00   0.16081981
6054.00   0.16271123
6056.00   0.16716872
6058.00   0.16719648
6060.00   0.16362035
6062.00   0.16094460
6064.00   0.15818041
6066.00   0.15613985
6068.00   0.15574245
6070.00   0.15661623
6072.00   0.15831193
6074.00   0.16268098
6076.00   0.16432828
6078.00   0.16265114
6080.00   0.16148037
6082.00   0.16387851
6084.00   0.16858283
6086.00   0.17015015
6088.00   0.16873673
6090.00   0.16975734
6092.00   0.17296518
6094.00   0.17614846
6096.00   0.17848183
6098.00   0.18055989
6100.00   0.18178515
6102.00   0.18136296
6104.00   0.18260389
6106.00   0.18445759
6108.00   0.18715176
6110.00   0.19144133
6112.00   0.19638694
6114.00   0.19988942
6116.00   0.20380341
6118.00   0.20503334
6120.00   0.20168915
6122.00   0.20111360
6124.00   0.20590705
6126.00   0.21297944
6128.00   0.21747547
6130.00   0.22024246
6132.00   0.22531851
6134.00   0.23269305
6136.00   0.23891868
6138.00   0.24397088
6140.00   0.24777074
6142.00   0.24897757
6144.00   0.24636340
6146.00   0.24816752
6148.00   0.25277755
6150.00   0.25745337
6152.00   0.26320655
6154.00   0.26797027
6156.00   0.26834706
6158.00   0.26487256
6160.00   0.26316889
6162.00   0.26098046
6164.00   0.25966070
6166.00   0.25914048
6168.00   0.25946662
6170.00   0.26052574
6172.00   0.26247665
6174.00   0.26306163
6176.00   0.26369541
6178.00   0.26234183
6180.00   0.25828340
6182.00   0.25382505
6184.00   0.25129328
6186.00   0.25026826
6188.00   0.24669734
6190.00   0.24135835
6192.00   0.23569950
6194.00   0.22719204
6196.00   0.22244354
6198.00   0.22644975
6200.00   0.23638380
6202.00   0.23959776
6204.00   0.23779792
6206.00   0.23985410
6208.00   0.24358971
6210.00   0.24902765
6212.00   0.25670457
6214.00   0.26599931
6216.00   0.27489332
6218.00   0.28439423
6220.00   0.29392613
6222.00   0.30277670
6224.00   0.31293976
6226.00   0.32319155
6228.00   0.33558397
6230.00   0.35909188
6232.00   0.39461504
6234.00   0.42696902
6236.00   0.46337649
6238.00   0.49627538
6240.00   0.52236523
6242.00   0.54711483
6244.00   0.57975867
6246.00   0.61788452
6248.00   0.65566877
6250.00   0.69521919
6252.00   0.73556465
6254.00   0.77700248
6256.00   0.81949767
6258.00   0.86340284
6260.00   0.91124457
6262.00   0.94901958
6264.00   0.97397313
6266.00   1.00760898
6268.00   1.05241996
6270.00   1.09877858
6272.00   1.13842666
6274.00   1.17465112
6276.00   1.21480173
6278.00   1.25868899
6280.00   1.29915947
6282.00   1.34153688
6284.00   1.37667495
6286.00   1.39521652
6288.00   1.40041065
6290.00   1.40375942
6292.00   1.39631271
6294.00   1.39432508
6296.00   1.39376909
6298.00   1.39701331
6300.00   1.40520650
6302.00   1.41702980
6304.00   1.43407756
6306.00   1.45882624
6308.00   1.48199791
6310.00   1.50882232
6312.00   1.53018808
6314.00   1.54144889
6316.00   1.54602104
6318.00   1.55179304
6320.00   1.56068999
6322.00   1.55706263
6324.00   1.53937209
6326.00   1.52222639
6328.00   1.51179260
6330.00   1.50288314
6332.00   1.48718894
6334.00   1.46596104
6336.00   1.44524080
6338.00   1.42186433
6340.00   1.39964265
6342.00   1.37968010
6344.00   1.36087179
6346.00   1.34055829
6348.00   1.31993747
6350.00   1.29730642
6352.00   1.27417701
6354.00   1.24771255
6356.00   1.21653163
6358.00   1.18366367
6360.00   1.15276521
6362.00   1.11969918
6364.00   1.09870249
6366.00   1.08894411
6368.00   1.07940388
6370.00   1.07271326
6372.00   1.06540239
6374.00   1.05159056
6376.00   1.03329071
6378.00   1.01554954
6380.00   0.99823740
6382.00   0.97658500
6384.00   0.94978806
6386.00   0.92140153
6388.00   0.89373359
6390.00   0.86525947
6392.00   0.84095877
6394.00   0.82072741
6396.00   0.79962340
6398.00   0.77915084
6400.00   0.75791338
6402.00   0.73434675
6404.00   0.70929587
6406.00   0.68731883
6408.00   0.66317096
6410.00   0.64860293
6412.00   0.65002793
6414.00   0.64482436
6416.00   0.61808261
6418.00   0.57937941
6420.00   0.55850014
6422.00   0.54698977
6424.00   0.53775015
6426.00   0.53548191
6428.00   0.53310965
6430.00   0.52746327
6432.00   0.52071054
6434.00   0.51540260
6436.00   0.51093076
6438.00   0.50627896
6440.00   0.50185090
6442.00   0.49724020
6444.00   0.49250346
6446.00   0.48787785
6448.00   0.48341639
6450.00   0.47829293
6452.00   0.47608867
6454.00   0.47846812
6456.00   0.47744121
6458.00   0.47102194
6460.00   0.46293071
6462.00   0.45875876
6464.00   0.45817311
6466.00   0.45293193
6468.00   0.44276442
6470.00   0.43580996
6472.00   0.43338521
6474.00   0.43276489
6476.00   0.43054977
6478.00   0.42754063
6480.00   0.42557526
6482.00   0.42512852
6484.00   0.42318103
6486.00   0.41872661
6488.00   0.41437101
6490.00   0.41241041
6492.00   0.41167115
6494.00   0.41355552
6496.00   0.42107496
6498.00   0.42337275
6500.00   0.42015290
6502.00   0.41629998
6504.00   0.41522165
6506.00   0.41557147
6508.00   0.41505823
6510.00   0.41389754
6512.00   0.41375425
6514.00   0.41513057
6516.00   0.41599460
6518.00   0.41548321
6520.00   0.41400462
6522.00   0.41174135
6524.00   0.40761861
6526.00   0.40505539
6528.00   0.40474108
6530.00   0.40253125
6532.00   0.39564067
6534.00   0.38595927
6536.00   0.38022961
6538.00   0.37804320
6540.00   0.37298705
6542.00   0.36662054
6544.00   0.35938518
6546.00   0.35006683
6548.00   0.33983217
6550.00   0.33482270
6552.00   0.33411765
6554.00   0.33381069
6556.00   0.33800282
6558.00   0.33830588
6560.00   0.32963561
#6562.00   0.32052830
#6564.00   0.32498460
#6566.00   0.33189259
#6568.00   0.36536495
#6570.00   0.43596213
#6572.00   0.49113601
#6574.00   0.54108512
#6576.00   0.57030013
#6578.00   0.54078899
#6580.00   0.45345038
#6582.00   0.39620301
#6584.00   0.32718779
#6586.00   0.28737777
6588.00   0.28356518
6590.00   0.29452113
6592.00   0.30244218
6594.00   0.31785691
6596.00   0.31820561
6598.00   0.30816798
6600.00   0.29635776
6602.00   0.27778045
6604.00   0.26051889
6606.00   0.25244814
6608.00   0.25033544
6610.00   0.24461034
6612.00   0.23591644
6614.00   0.23250269
6616.00   0.23549376
6618.00   0.23818644
6620.00   0.23661012
6622.00   0.23283876
6624.00   0.22898888
6626.00   0.22239629
6628.00   0.21932346
6630.00   0.21894056
6632.00   0.21978170
6634.00   0.22153924
6636.00   0.22387161
6638.00   0.22407869
6640.00   0.22226970
6642.00   0.22177022
6644.00   0.22203507
6646.00   0.22151472
6648.00   0.21971479
6650.00   0.21746581
6652.00   0.21647288
6654.00   0.21625140
6656.00   0.21607739
6658.00   0.21665637
6660.00   0.21667264
6662.00   0.21570501
6664.00   0.21417063
6666.00   0.21287962
6668.00   0.21189783
6670.00   0.20968872
6672.00   0.20477091
6674.00   0.20282944
6676.00   0.20525996
6678.00   0.20899346
6680.00   0.21042006
6682.00   0.21131252
6684.00   0.20995655
6686.00   0.20600975
6688.00   0.20220985
6690.00   0.19779486
6692.00   0.19355496
6694.00   0.19112442
6696.00   0.19015834
6698.00   0.18765558
6700.00   0.18473324
6702.00   0.18104605
6704.00   0.17516819
6706.00   0.17017312
6708.00   0.16920499
6710.00   0.17112695
6712.00   0.17058734
6714.00   0.16858412
6716.00   0.16765186
6718.00   0.16501757
6720.00   0.16634471
6722.00   0.17668724
6724.00   0.19355071
6726.00   0.20358175
6728.00   0.21527862
6730.00   0.21615077
6732.00   0.20404980
6734.00   0.19159290
6736.00   0.18403707
6738.00   0.17842890
6740.00   0.17630034
6742.00   0.18264914
6744.00   0.17900961
6746.00   0.16799758
6748.00   0.15592134
6750.00   0.14353592
6752.00   0.13102712
6754.00   0.12442513
6756.00   0.12360941
6758.00   0.12134389
6760.00   0.11999686
6762.00   0.11884630
6764.00   0.11785762
6766.00   0.11705959
6768.00   0.11643016
6770.00   0.11607251
6772.00   0.11534198
6774.00   0.11412056
6776.00   0.11336927
6778.00   0.11336434
6780.00   0.11357372
6782.00   0.11289425
6784.00   0.11142485
6786.00   0.11049215
6788.00   0.10989884
6790.00   0.10901289
6792.00   0.10760658
6794.00   0.10630242
6796.00   0.10585637
6798.00   0.10631298
6800.00   0.10600156
6802.00   0.10540381
6804.00   0.10458768
6806.00   0.10383009
6808.00   0.10263943
6810.00   0.10046511
6812.00   0.09727010
6814.00   0.09695277
6816.00   0.09977245
6818.00   0.10089627
6820.00   0.10057672
6822.00   0.09982165
6824.00   0.09937965
6826.00   0.09891341
6828.00   0.09819221
6830.00   0.09694571
6832.00   0.09629871
6834.00   0.09630482
6836.00   0.09624275
6838.00   0.09575682
6840.00   0.09499838
6842.00   0.09360091
6844.00   0.09086512
6846.00   0.08947656
6848.00   0.08880040
6850.00   0.08906765
6852.00   0.09044309
6854.00   0.09223779
6856.00   0.09227395
6858.00   0.09079654
6860.00   0.09001368
6862.00   0.08952166
6864.00   0.08850514
6866.00   0.08670314
6868.00   0.08496748
6870.00   0.08418125
6872.00   0.08358556
6874.00   0.08401052
6876.00   0.08640071
6878.00   0.08743579
6880.00   0.08604981
6882.00   0.08410240
6884.00   0.08413845
6886.00   0.08552318
6888.00   0.08621974
6890.00   0.08749145
6892.00   0.08758364
6894.00   0.08559730
6896.00   0.08303201
6898.00   0.08234188
6900.00   0.08279169
6902.00   0.08352305
6904.00   0.08537469
6906.00   0.08657161
6908.00   0.08777072
6910.00   0.08802046
6912.00   0.08582687
6914.00   0.08130218
6916.00   0.07951527
6918.00   0.07919773
6920.00   0.07916088
6922.00   0.07904866
6924.00   0.07975120
6926.00   0.08264211
6928.00   0.08736102
6930.00   0.08929847
6932.00   0.08908076
6934.00   0.08970311
6936.00   0.09055167
6938.00   0.09167004
6940.00   0.09315852
6942.00   0.09472044
6944.00   0.09527157
6946.00   0.09500378
6948.00   0.09465284
6950.00   0.09377414
6952.00   0.09301927
6954.00   0.09239091
6956.00   0.09176341
6958.00   0.09192351
6960.00   0.09252253
6962.00   0.09402315
6964.00   0.09653315
6966.00   0.09915734
6968.00   0.10236629
6970.00   0.10543464
6972.00   0.10582217
6974.00   0.10267328
6976.00   0.10285065
6978.00   0.10531889
6980.00   0.10725775
6982.00   0.10749580
6984.00   0.10739059
6986.00   0.10952584
6988.00   0.11395165
6990.00   0.11600701
6992.00   0.11579587
6994.00   0.11726557
6996.00   0.12120134
6998.00   0.12558498
7000.00   0.12810745
7002.00   0.12935387
7004.00   0.13194895
7006.00   0.13533390
7008.00   0.13864787
7010.00   0.14215280
7012.00   0.14538797
7014.00   0.14816060
7016.00   0.15083610
7018.00   0.15177551
7020.00   0.15054283
7022.00   0.15018643
7024.00   0.14968201
7026.00   0.14994855
7028.00   0.15265565
7030.00   0.15743788
7032.00   0.15986723
7034.00   0.16143285
7036.00   0.16212418
7038.00   0.16137429
7040.00   0.16045728
7042.00   0.16010988
7044.00   0.16009727
7046.00   0.16108397
7048.00   0.16413426
7050.00   0.16485325
7052.00   0.16256936
7054.00   0.16222971
7056.00   0.16677772
7058.00   0.17382852
7060.00   0.17603601
7062.00   0.17432994
7064.00   0.17447922
7066.00   0.17486919
7068.00   0.17567903
7070.00   0.17701714
7072.00   0.17857250
7074.00   0.17977294
7076.00   0.18136205
7078.00   0.18178464
7080.00   0.18044972
7082.00   0.18023106
7084.00   0.18242656
7086.00   0.18516482
7088.00   0.18524684
7090.00   0.18245780
7092.00   0.18376831
7094.00   0.18923804
7096.00   0.19235770
7098.00   0.19217426
7100.00   0.19095021
7102.00   0.19122083
7104.00   0.19207673
7106.00   0.19300238
7108.00   0.19373412
7110.00   0.19556472
7112.00   0.19837440
7114.00   0.20195171
7116.00   0.20649351
7118.00   0.21201735
7120.00   0.21755247
7122.00   0.22442221
7124.00   0.22961077
7126.00   0.23174304
7128.00   0.23456984
7130.00   0.24168899
7132.00   0.25198436
7134.00   0.26099537
7136.00   0.27197088
7138.00   0.27925275
7140.00   0.28128728
7142.00   0.28427988
7144.00   0.29346826
7146.00   0.30667870
7148.00   0.31472513
7150.00   0.31985152
7152.00   0.32484709
7154.00   0.32825752
7156.00   0.33263786
7158.00   0.33990395
7160.00   0.34811419
7162.00   0.35065430
7164.00   0.34705421
7166.00   0.34701307
7168.00   0.34861566
7170.00   0.34968452
7172.00   0.34956370
7174.00   0.34864987
7176.00   0.34695254
7178.00   0.34266560
7180.00   0.34224606
7182.00   0.34634060
7184.00   0.34792615
7186.00   0.34531701
7188.00   0.34059885
7190.00   0.33511165
7192.00   0.32604343
7194.00   0.32170331
7196.00   0.32015143
7198.00   0.31977406
7200.00   0.32154764
7202.00   0.32375346
7204.00   0.32226805
7206.00   0.31775565
7208.00   0.31580468
7210.00   0.31432416
7212.00   0.31412335
7214.00   0.31713472
7216.00   0.31981383
7218.00   0.31721964
7220.00   0.31014368
7222.00   0.30761559
7224.00   0.30595845
7226.00   0.30751493
7228.00   0.31413235
7230.00   0.32100591
7232.00   0.32351540
7234.00   0.32344854
7236.00   0.32141757
7238.00   0.31445746
7240.00   0.31136353
7242.00   0.31197226
7244.00   0.31314820
7246.00   0.31237254
7248.00   0.31069131
7250.00   0.31132160
7252.00   0.31213409
7254.00   0.31638047
7256.00   0.32617791
7258.00   0.33488020
7260.00   0.33803211
7262.00   0.33831646
7264.00   0.34283306
7266.00   0.35223146
7268.00   0.35614468
7270.00   0.35569774
7272.00   0.35467185
7274.00   0.35378122
7276.00   0.35274817
7278.00   0.35534357
7280.00   0.36234859
7282.00   0.36667992
7284.00   0.36929189
7286.00   0.37268749
7288.00   0.37713864
7290.00   0.38320564
7292.00   0.39357677
7294.00   0.41029277
7296.00   0.42153372
7298.00   0.43148516
7300.00   0.43831177
7302.00   0.44084288
7304.00   0.44172321
7306.00   0.44495280
7308.00   0.44848399
7310.00   0.45464043
7312.00   0.46527418
7314.00   0.47266500
7316.00   0.47601570
7318.00   0.47812866
7320.00   0.48143533
7322.00   0.48390372
7324.00   0.49166180
7326.00   0.50531675
7328.00   0.51710163
7330.00   0.52879328
7332.00   0.53825167
7334.00   0.54231568
7336.00   0.54198989
7338.00   0.54160270
7340.00   0.53909017
7342.00   0.53641894
7344.00   0.53172061
7346.00   0.52853422
7348.00   0.52989303
7350.00   0.53422026
7352.00   0.53976810
7354.00   0.54870950
7356.00   0.55615287
7358.00   0.56248473
7360.00   0.56900102
7362.00   0.57688127
7364.00   0.58564964
7366.00   0.58996487
7368.00   0.59038740
7370.00   0.59095469
7372.00   0.59051196
7374.00   0.59013133
7376.00   0.59070018
7378.00   0.59156135
7380.00   0.58918205
7382.00   0.58175431
7384.00   0.57951446
7386.00   0.58018340
7388.00   0.58243626
7390.00   0.58813243
7392.00   0.59427056
7394.00   0.59063157
7396.00   0.57735635
7398.00   0.56877251
7400.00   0.56016393
7402.00   0.55265155
7404.00   0.54654388
7406.00   0.54092938
7408.00   0.53484555
7410.00   0.52839637
7412.00   0.52366988
7414.00   0.52103494
7416.00   0.51742597
7418.00   0.51245609
7420.00   0.50722700
7422.00   0.50287439
7424.00   0.49868099
7426.00   0.49582745
7428.00   0.49484934
7430.00   0.49306969
7432.00   0.49129020
7434.00   0.48820487
7436.00   0.48143363
7438.00   0.47116564
7440.00   0.46388458
7442.00   0.45759748
7444.00   0.45185505
7446.00   0.44707645
7448.00   0.44277900
7450.00   0.43836284
7452.00   0.43416844
7454.00   0.43083546
7456.00   0.42915937
7458.00   0.42584050
7460.00   0.42192906
7462.00   0.41662619
7464.00   0.40853542
7466.00   0.39835550
7468.00   0.39192188
7470.00   0.38852042
7472.00   0.38374968
7474.00   0.37977472
7476.00   0.37433265
7478.00   0.36547920
7480.00   0.35442959
7482.00   0.34473988
7484.00   0.33424743
7486.00   0.32594177
7488.00   0.31906043
7490.00   0.31322639
7492.00   0.30914395
7494.00   0.30614874
7496.00   0.30157918
7498.00   0.29636087
7500.00   0.29093914
7502.00   0.28438003
7504.00   0.27890415
7506.00   0.27554446
7508.00   0.27243252
7510.00   0.26662323
7512.00   0.25779780
7514.00   0.25252195
7516.00   0.24950641
7518.00   0.24668247
7520.00   0.24445648
7522.00   0.24185658
7524.00   0.23660245
7526.00   0.22812194
7528.00   0.22451153
7530.00   0.22458348
7532.00   0.22428580
7534.00   0.22384980
7536.00   0.22323317
7538.00   0.22212479
7540.00   0.22074322
7542.00   0.21899071
7544.00   0.21730737
7546.00   0.21442777
7548.00   0.20951091
7550.00   0.20479888
7552.00   0.20259736
7554.00   0.20210948
7556.00   0.19872448
7558.00   0.19276255
7560.00   0.18818900
7562.00   0.18438470
7564.00   0.18072619
7566.00   0.17740353
7568.00   0.17445315
7570.00   0.16982688
7572.00   0.16226634
7574.00   0.15812571
7576.00   0.15748248
7578.00   0.15632822
7580.00   0.15254934
7582.00   0.14769497
7584.00   0.14533312
7586.00   0.14471252
7588.00   0.14406570
7590.00   0.14585255
7592.00   0.14467998
7594.00   0.13690747
7596.00   0.12651289
7598.00   0.12427438
7600.00   0.13049490
7602.00   0.12952244
7604.00   0.12312683
7606.00   0.11915415
7608.00   0.12028251
7610.00   0.12358736
7612.00   0.12417992
7614.00   0.12501971
7616.00   0.12170650
7618.00   0.11322414
7620.00   0.10619229
7622.00   0.10073943
7624.00   0.09715667
7626.00   0.09775778
7628.00   0.10301205
7630.00   0.10557202
7632.00   0.10774197
7634.00   0.10955223
7636.00   0.11043220
7638.00   0.11164933
7640.00   0.11501328
7642.00   0.12097543
7644.00   0.12118800
7646.00   0.11530675
7648.00   0.11251596
7650.00   0.11313228
7652.00   0.11435274
7654.00   0.11392535
7656.00   0.11276772
7658.00   0.11280243
7660.00   0.11326578
7662.00   0.11444172
7664.00   0.11668675
7666.00   0.11938706
7668.00   0.12201998
7670.00   0.12483562
7672.00   0.12773332
7674.00   0.13143815
7676.00   0.13369918
7678.00   0.13488079
7680.00   0.13552390
7682.00   0.13516741
7684.00   0.13402044
7686.00   0.13488303
7688.00   0.13754667
7690.00   0.13938108
7692.00   0.14100667
7694.00   0.14292362
7696.00   0.14524511
7698.00   0.14796250
7700.00   0.15090930
7702.00   0.15575118
7704.00   0.15694474
7706.00   0.15440215
7708.00   0.15259913
7710.00   0.15241687
7712.00   0.15316740
7714.00   0.15601836
7716.00   0.16301672
7718.00   0.16528329
7720.00   0.16216343
7722.00   0.16297153
7724.00   0.17043385
7726.00   0.18031168
7728.00   0.18704848
7730.00   0.19256954
7732.00   0.19938607
7734.00   0.20780344
7736.00   0.21441583
7738.00   0.21739558
7740.00   0.22107818
7742.00   0.23198034
7744.00   0.24960555
7746.00   0.26136178
7748.00   0.27407558
7750.00   0.27927253
7752.00   0.27192916
7754.00   0.26442445
7756.00   0.27085154
7758.00   0.28714062
7760.00   0.29625720
7762.00   0.30298670
7764.00   0.30966456
7766.00   0.31555057
7768.00   0.32184355
7770.00   0.32938126
7772.00   0.33764130
7774.00   0.34862520
7776.00   0.36388454
7778.00   0.37626475
7780.00   0.38750435
7782.00   0.39731658
7784.00   0.40456882
7786.00   0.40938632
7788.00   0.41334659
7790.00   0.41691737
7792.00   0.41694511
7794.00   0.41401577
7796.00   0.40875676
7798.00   0.39942849
7800.00   0.38738862
7802.00   0.38260001
7804.00   0.38659553
7806.00   0.38238353
7808.00   0.37268580
7810.00   0.36247240
7812.00   0.35297674
7814.00   0.34364587
7816.00   0.33615081
7818.00   0.33085392
7820.00   0.32461236
7822.00   0.31949931
7824.00   0.31224048
7826.00   0.30134669
7828.00   0.28900258
7830.00   0.27989579
7832.00   0.27211032
7834.00   0.26692183
7836.00   0.26595763
7838.00   0.26334897
7840.00   0.25807793
7842.00   0.25180609
7844.00   0.24717401
7846.00   0.24458450
7848.00   0.23836768
7850.00   0.22854321
7852.00   0.22002958
7854.00   0.21282329
7856.00   0.20698131
7858.00   0.20289351
7860.00   0.20032190
7862.00   0.20001718
7864.00   0.20440045
7866.00   0.20523044
7868.00   0.20217141
7870.00   0.19860499
7872.00   0.19707294
7874.00   0.19657162
7876.00   0.19586777
7878.00   0.19712595
7880.00   0.19470232
7882.00   0.18850639
7884.00   0.18157964
7886.00   0.17541745
7888.00   0.16934018
7890.00   0.16453083
7892.00   0.16073783
7894.00   0.15734628
7896.00   0.15455674
7898.00   0.15227241
7900.00   0.15105306
7902.00   0.15064031
7904.00   0.14812993
7906.00   0.14303045
7908.00   0.14026476
7910.00   0.13899915
7912.00   0.13829282
7914.00   0.13805727
7916.00   0.13819817
7918.00   0.13692298
7920.00   0.13457555
7922.00   0.13201324
7924.00   0.12679607
7926.00   0.12506718
7928.00   0.12962209
7930.00   0.13668985
7932.00   0.13905479
7934.00   0.13961339
7936.00   0.13825484
7938.00   0.13133499
7940.00   0.12914865
7942.00   0.13512790
7944.00   0.14391832
7946.00   0.14770528
7948.00   0.15015826
7950.00   0.14919769
7952.00   0.14001322
7954.00   0.13838743
7956.00   0.14763661
7958.00   0.16052705
7960.00   0.16958667
7962.00   0.17998631
7964.00   0.17846669
7966.00   0.16277508
7968.00   0.15263583
7970.00   0.14649203
7972.00   0.14318430
7974.00   0.14387163
7976.00   0.14909656
7978.00   0.14952055
7980.00   0.14688375
7982.00   0.14528120
7984.00   0.14325931
7986.00   0.14302311
7988.00   0.14699377
7990.00   0.15426478
7992.00   0.15683210
7994.00   0.15782539
7996.00   0.15593919
7998.00   0.14811210
8000.00   0.14294598
8002.00   0.14569676
8004.00   0.15286136
8006.00   0.15651638
8008.00   0.15958240
8010.00   0.16190407
8012.00   0.16386407
8014.00   0.16414284
8016.00   0.16157684
8018.00   0.15751660
8020.00   0.15661561
8022.00   0.16005423
8024.00   0.15799695
8026.00   0.15172911
8028.00   0.14507293
8030.00   0.13841935
8032.00   0.13222273
8034.00   0.13019696
8036.00   0.13221652
8038.00   0.13369115
8040.00   0.13627313
8042.00   0.13919407
8044.00   0.14341993
8046.00   0.14700148
8048.00   0.14637479
8050.00   0.14234449
8052.00   0.13868972
8054.00   0.13258065
8056.00   0.12872668
8058.00   0.12853373
8060.00   0.12909212
8062.00   0.12644655
8064.00   0.12142523
8066.00   0.11893371
8068.00   0.11767191
8070.00   0.11675552
8072.00   0.11627141
8074.00   0.11655483
8076.00   0.11816785
8078.00   0.12132989
8080.00   0.12173589
8082.00   0.11967495
8084.00   0.11873757
8086.00   0.11810008
8088.00   0.11789773
8090.00   0.11908030
8092.00   0.12147463
8094.00   0.12198510
8096.00   0.12166783
8098.00   0.12048079
8100.00   0.11787831
8102.00   0.11523609
8104.00   0.11323799
8106.00   0.11144730
8108.00   0.10986283
8110.00   0.10876562
8112.00   0.10723968
8114.00   0.10472599
8116.00   0.10331038
8118.00   0.10407855
8120.00   0.10650175
8122.00   0.10859999
8124.00   0.11162792
8126.00   0.11345464
8128.00   0.11532202
8130.00   0.11581971
8132.00   0.11418901
8134.00   0.11143682
8136.00   0.10951900
8138.00   0.10685558
8140.00   0.10626076
8142.00   0.10829424
8144.00   0.10907264
8146.00   0.10758584
8148.00   0.10518605
8150.00   0.10341187
8152.00   0.10112616
8154.00   0.10040299
8156.00   0.10173541
8158.00   0.10193080
8160.00   0.10014041
8162.00   0.09779551
8164.00   0.09676533
8166.00   0.09613131
8168.00   0.09674895
8170.00   0.09915176
8172.00   0.10100282
8174.00   0.10226857
8176.00   0.10305725
8178.00   0.10373173
8180.00   0.10457890
8182.00   0.10348357
8184.00   0.09998313
8186.00   0.09751840
8188.00   0.09621444
8190.00   0.09490005
8192.00   0.09227477
8194.00   0.08851023
8196.00   0.08859626
8198.00   0.09276415
8200.00   0.09509487
8202.00   0.09630505
8204.00   0.09696094
8206.00   0.09705843
8208.00   0.09641866
8210.00   0.09794608
8212.00   0.10232460
8214.00   0.10426150
8216.00   0.10309580
8218.00   0.10302965
8220.00   0.10736358
8222.00   0.11411026
8224.00   0.11564318
8226.00   0.11388926
8228.00   0.11148233
8230.00   0.10536981
8232.00   0.10125513
8234.00   0.10245872
8236.00   0.10625552
8238.00   0.10654041
8240.00   0.10519465
8242.00   0.10363745
8244.00   0.10078849
8246.00   0.09840787
8248.00   0.09683640
8250.00   0.09578393
8252.00   0.09562938
8254.00   0.09719314
8256.00   0.09651551
8258.00   0.09376476
8260.00   0.09197535
8262.00   0.09120624
8264.00   0.09116523
8266.00   0.09228298
8268.00   0.09556117
8270.00   0.09505425
8272.00   0.09129835
8274.00   0.08828504
8276.00   0.08574004
8278.00   0.08335168
8280.00   0.08167823
8282.00   0.08027400
8284.00   0.08186719
8286.00   0.08651004
8288.00   0.09140550
8290.00   0.09843148
8292.00   0.10337916
8294.00   0.10255550
8296.00   0.09731445
8298.00   0.09391490
8300.00   0.08810853
8302.00   0.08678189
8304.00   0.09023684
8306.00   0.09413343
8308.00   0.09615987
8310.00   0.09750604
8312.00   0.09846742
8314.00   0.09877621
8316.00   0.09907673
8318.00   0.09905167
8320.00   0.09881384
8322.00   0.09844290
8324.00   0.09776945
8326.00   0.09688099
8328.00   0.09545667
8330.00   0.09453104
8332.00   0.09342879
8334.00   0.09319180
8336.00   0.09459245
8338.00   0.09682152
8340.00   0.09698377
8342.00   0.09532704
8344.00   0.09424799
8346.00   0.09366205
8348.00   0.09240521
8350.00   0.08904860
8352.00   0.08469813
8354.00   0.08269037
8356.00   0.08194670
8358.00   0.08245515
8360.00   0.08635793
8362.00   0.08750910
8364.00   0.08367033
8366.00   0.07863908
8368.00   0.07855101
8370.00   0.08209799
8372.00   0.08366460
8374.00   0.08622015
8376.00   0.08625859
8378.00   0.08220547
8380.00   0.07734958
8382.00   0.07586796
8384.00   0.07628801
8386.00   0.07673295
8388.00   0.07794457
8390.00   0.07952321
8392.00   0.08150328
8394.00   0.08371512
8396.00   0.08709807
8398.00   0.09277515
8400.00   0.08970618
8402.00   0.07320635
8404.00   0.06889842
8406.00   0.07783113
8408.00   0.08862112
8410.00   0.09402584
8412.00   0.09766701
8414.00   0.09910962
8416.00   0.09605492
8418.00   0.09636214
8420.00   0.09897769
8422.00   0.10234534
8424.00   0.10553864
8426.00   0.10894950
8428.00   0.11353273
8430.00   0.12360317
8432.00   0.12394244
8434.00   0.11362470
8436.00   0.10506144
8438.00   0.10304403
8440.00   0.10446482
8442.00   0.10747812
8444.00   0.11377835
8446.00   0.11983911
8448.00   0.12952745
8450.00   0.13498230
8452.00   0.13307706
8454.00   0.12748604
8456.00   0.12452371
8458.00   0.12043562
8460.00   0.12038784
8462.00   0.12378338
8464.00   0.12780556
8466.00   0.13269187
8468.00   0.13822343
8470.00   0.14304541
8472.00   0.14801944
8474.00   0.15175129
8476.00   0.15324657
8478.00   0.15660413
8480.00   0.16358411
8482.00   0.17084993
8484.00   0.17273141
8486.00   0.16862440
8488.00   0.17325882
8490.00   0.18387095
8492.00   0.19491095
8494.00   0.20732857
8496.00   0.21998378
8498.00   0.23077236
8500.00   0.24074260
8502.00   0.24882012
8504.00   0.25373834
8506.00   0.26036992
8508.00   0.26735091
8510.00   0.27679300
8512.00   0.29106023
8514.00   0.30959120
8516.00   0.32505505
8518.00   0.34266248
8520.00   0.35357124
8522.00   0.35749973
8524.00   0.35990129
8526.00   0.36311698
8528.00   0.36560683
8530.00   0.36925462
8532.00   0.37342045
8534.00   0.37808587
8536.00   0.38378757
8538.00   0.38952030
8540.00   0.39449456
8542.00   0.39889191
8544.00   0.40299669
8546.00   0.40934901
8548.00   0.40924612
8550.00   0.40317062
8552.00   0.39632140
8554.00   0.38937356
8556.00   0.38169017
8558.00   0.37620461
8560.00   0.37388627
8562.00   0.36823110
8564.00   0.35995260
8566.00   0.35223384
8568.00   0.34532116
8570.00   0.33933115
8572.00   0.33651666
8574.00   0.33883061
8576.00   0.33510420
8578.00   0.32525341
8580.00   0.31920777
8582.00   0.31966193
8584.00   0.32191032
8586.00   0.31957974
8588.00   0.31424400
8590.00   0.31061234
8592.00   0.30628072
8594.00   0.30403987
8596.00   0.30466200
8598.00   0.30607608
8600.00   0.30574188
8602.00   0.30416374
8604.00   0.30611184
8606.00   0.31228782
8608.00   0.31571595
8610.00   0.31603037
8612.00   0.31638497
8614.00   0.31918713
8616.00   0.32348169
8618.00   0.32669561
8620.00   0.32853793
8622.00   0.33259344
8624.00   0.33850229
8626.00   0.34575607
8628.00   0.35491380
8630.00   0.36617178
8632.00   0.37228197
8634.00   0.37410970
8636.00   0.37661880
8638.00   0.37826826
8640.00   0.38092948
8642.00   0.38525528
8644.00   0.39055273
8646.00   0.39746049
8648.00   0.40478477
8650.00   0.41594587
8652.00   0.43307307
8654.00   0.44782650
8656.00   0.45738393
8658.00   0.46340299
8660.00   0.46680392
8662.00   0.46468604
8664.00   0.46667741
8666.00   0.47075367
8668.00   0.47469757
8670.00   0.47775988
8672.00   0.47991100
8674.00   0.48217754
8676.00   0.48419313
8678.00   0.48759899
8680.00   0.49329825
8682.00   0.49710697
8684.00   0.49868023
8686.00   0.49852072
8688.00   0.49686831
8690.00   0.49264596
8692.00   0.49217322
8694.00   0.49541533
8696.00   0.49640065
8698.00   0.49592037
8700.00   0.49348968
8702.00   0.48717424
8704.00   0.47660974
8706.00   0.47006983
8708.00   0.46564783
8710.00   0.46097824
8712.00   0.45709138
8714.00   0.45236807
8716.00   0.44487731
8718.00   0.43528953
8720.00   0.42578883
8722.00   0.41487935
8724.00   0.40486151
8726.00   0.39527747
8728.00   0.38687532
8730.00   0.38016696
8732.00   0.37494320
8734.00   0.36905038
8736.00   0.36287794
8738.00   0.35750200
8740.00   0.35245837
8742.00   0.34842305
8744.00   0.34557679
8746.00   0.34398293
8748.00   0.34506080
8750.00   0.35080990
8752.00   0.35295071
8754.00   0.35545574
8756.00   0.35337643
8758.00   0.34293284
8760.00   0.32794987
8762.00   0.32081909
8764.00   0.31912780
8766.00   0.31555541
8768.00   0.31298470
8770.00   0.30906160
8772.00   0.30207272
8774.00   0.29438107
8776.00   0.29273117
8778.00   0.29649175
8780.00   0.29906231
8782.00   0.30418905
8784.00   0.30690537
8786.00   0.30631973
8788.00   0.30356787
8790.00   0.29935666
8792.00   0.29209691
8794.00   0.28631308
8796.00   0.27974326
8798.00   0.27509301
8800.00   0.27237913
8802.00   0.27140716
8804.00   0.27152903
8806.00   0.27328936
8808.00   0.27218036
8810.00   0.26754089
8812.00   0.26598279
8814.00   0.26716199
8816.00   0.27019062
8818.00   0.27545474
8820.00   0.28414426
8822.00   0.28234840
8824.00   0.27265424
8826.00   0.26146469
8828.00   0.24299329
8830.00   0.22780856
8832.00   0.22616860
8834.00   0.23365422
8836.00   0.23365566
8838.00   0.23058889
8840.00   0.22864733
8842.00   0.22610023
8844.00   0.22443540
8846.00   0.22615249
8848.00   0.23027264
8850.00   0.22625855
8852.00   0.21168482
8854.00   0.20619109
8856.00   0.20879802
8858.00   0.21039613
8860.00   0.20658592
8862.00   0.20027064
8864.00   0.19616802
8866.00   0.19232337
8868.00   0.18969833
8870.00   0.18904624
8872.00   0.18743718
8874.00   0.18288177
8876.00   0.17770592
8878.00   0.17799690
8880.00   0.18518637
8882.00   0.18496194
8884.00   0.18017215
8886.00   0.17503410
8888.00   0.16962906
8890.00   0.16406413
8892.00   0.15938575
8894.00   0.15502232
8896.00   0.15104658
8898.00   0.14599586
8900.00   0.14399903
8902.00   0.14684018
8904.00   0.15143734
8906.00   0.15264151
8908.00   0.15007550
8910.00   0.15692622
8912.00   0.17591873
8914.00   0.18664820
8916.00   0.19158964
8918.00   0.18804513
8920.00   0.16873629
8922.00   0.13192628
8924.00   0.11825357
8926.00   0.11964478
8928.00   0.11980029
8930.00   0.12179050
8932.00   0.12475489
8934.00   0.12639990
8936.00   0.12747109
8938.00   0.12971051
8940.00   0.13708730
8942.00   0.13548560
8944.00   0.12182529
8946.00   0.10879103
8948.00   0.10528365
8950.00   0.10697570
8952.00   0.10803932
8954.00   0.11499264
8956.00   0.11315649
8958.00   0.10259154
8960.00   0.09216319
8962.00   0.08360295
8964.00   0.07592829
8966.00   0.07837729
8968.00   0.09523467
8970.00   0.10134531
8972.00   0.10204314
8974.00   0.10154502
8976.00   0.10011770
8978.00   0.09806415
8980.00   0.09893528
8982.00   0.10256656
8984.00   0.10391001
8986.00   0.10554848
8988.00   0.10481182
8990.00   0.09808743
8992.00   0.09071644
8994.00   0.09480848
8996.00   0.11189992
8998.00   0.11513083
9000.00   0.10921422
9002.00   0.10439376
9004.00   0.10073424
9006.00   0.09810831
9008.00   0.09790824
9010.00   0.09977964
9012.00   0.10099152
9014.00   0.10259872
9016.00   0.10413199
9018.00   0.10639923
9020.00   0.10804788
9022.00   0.10627058
9024.00   0.10108953
9026.00   0.10096616
9028.00   0.10585201
9030.00   0.10733141
9032.00   0.10599046
9034.00   0.10370884
9036.00   0.10087543
9038.00   0.09665877
9040.00   0.09489585
9042.00   0.09500829
9044.00   0.09504535
9046.00   0.09575609
9048.00   0.09548093
9050.00   0.09278492
9052.00   0.08838803
9054.00   0.08668463
9056.00   0.08560799
9058.00   0.08687572
9060.00   0.09249891
9062.00   0.09663499
9064.00   0.09595344
9066.00   0.09269914
9068.00   0.09033937
9070.00   0.08613564
9072.00   0.08484736
9074.00   0.08581421
9076.00   0.08795698
9078.00   0.09135191
9080.00   0.09568176
9082.00   0.09841247
9084.00   0.10063159
9086.00   0.10181301
9088.00   0.10209532
9090.00   0.10155318
9092.00   0.10009499
9094.00   0.09772995
9096.00   0.09438886
9098.00   0.08913528
9100.00   0.08507102
9102.00   0.07990620
9104.00   0.07766493
9106.00   0.07931062
9108.00   0.08254085
9110.00   0.08493572
9112.00   0.08849913
9114.00   0.09015300
9116.00   0.09019198
9118.00   0.09037399
9120.00   0.09160927
9122.00   0.09201160
9124.00   0.08920534
9126.00   0.08330154
9128.00   0.08061455
9130.00   0.07909041
9132.00   0.07866972
9134.00   0.08045037
9136.00   0.08256474
9138.00   0.08248655
9140.00   0.08093090
9142.00   0.08098571
9144.00   0.08306578
9146.00   0.08270806
9148.00   0.07934135
9150.00   0.07612397
9152.00   0.07514156
9154.00   0.07524297
9156.00   0.07582021
9158.00   0.07832346
9160.00   0.07887837
9162.00   0.07735695
9164.00   0.07587683
9166.00   0.07537321
9168.00   0.07532141
9170.00   0.07700019
9172.00   0.08352325
9174.00   0.08330487
9176.00   0.07629645
9178.00   0.06984559
9180.00   0.06615015
9182.00   0.06378470
9184.00   0.06512653
9186.00   0.07181730
9188.00   0.07526334
9190.00   0.07759854
9192.00   0.07988225
9194.00   0.08252297
9196.00   0.08486637
9198.00   0.08515903
9200.00   0.08166080
9202.00   0.08368010
9204.00   0.09028334
9206.00   0.09607614
9208.00   0.10122682
9210.00   0.10550357
9212.00   0.10626321
9214.00   0.10316608
9216.00   0.10280889
9218.00   0.10272928
9220.00   0.10395829
9222.00   0.10680043
9224.00   0.11122315
9226.00   0.11725121
9228.00   0.12554846
9230.00   0.13181636
9232.00   0.13832913
9234.00   0.14245808
9236.00   0.14337362
9238.00   0.14305070
9240.00   0.14344717
9242.00   0.14337108
9244.00   0.14481440
9246.00   0.14819448
9248.00   0.15031502
9250.00   0.15134433
9252.00   0.15170759
9254.00   0.15114925
9256.00   0.14919555
9258.00   0.15032461
9260.00   0.15361914
9262.00   0.15740728
9264.00   0.16217408
9266.00   0.16746846
9268.00   0.17228758
9270.00   0.17666305
9272.00   0.18069956
9274.00   0.18397510
9276.00   0.18776855
9278.00   0.19328913
9280.00   0.19747233
9282.00   0.19862735
9284.00   0.19833737
9286.00   0.19582114
9288.00   0.18763530
9290.00   0.18554420
9292.00   0.18730538
9294.00   0.19132978
9296.00   0.19782872
9298.00   0.20679201
9300.00   0.21479676
9302.00   0.22699739
9304.00   0.22679117
9306.00   0.21222559
9308.00   0.20316090
9310.00   0.20630439
9312.00   0.21219274
9314.00   0.20282575
9316.00   0.17862128
9318.00   0.16488183
9320.00   0.14880089
9322.00   0.14508275
9324.00   0.16355650
9326.00   0.18581863
9328.00   0.18053472
9330.00   0.15066205
9332.00   0.14853863
9334.00   0.16753234
9336.00   0.17793175
9338.00   0.18015741
9340.00   0.17889622
9342.00   0.17510744
9344.00   0.16619761
9346.00   0.16962098
9348.00   0.18755618
9350.00   0.19579354
9352.00   0.19473477
9354.00   0.19051607
9356.00   0.18734781
9358.00   0.18353266
9360.00   0.18144727
9362.00   0.18110776
9364.00   0.17945398
9366.00   0.17754496
9368.00   0.17573014
9370.00   0.17508440
9372.00   0.17626183
9374.00   0.16116755
9376.00   0.12436806
9378.00   0.10252984
9380.00   0.08311875
9382.00   0.07872638
9384.00   0.10394309
9386.00   0.15057089
9388.00   0.17140729
9390.00   0.18072864
9392.00   0.18587720
9394.00   0.18082976
9396.00   0.17735536
9398.00   0.18074763
9400.00   0.18608833
9402.00   0.18529052
9404.00   0.18120573
9406.00   0.17446852
9408.00   0.15992311
9410.00   0.15132747
9412.00   0.15376321
9414.00   0.16064122
9416.00   0.16027351
9418.00   0.15591934
9420.00   0.15307472
9422.00   0.14649614
9424.00   0.14618227
9426.00   0.15400302
9428.00   0.16682819
9430.00   0.18317277
9432.00   0.20764587
9434.00   0.22357336
9436.00   0.25300557
9438.00   0.24609274
9440.00   0.18252791
9442.00   0.10945830
9444.00   0.08339228
9446.00   0.08293697
9448.00   0.08316839
9450.00   0.09788810
9452.00   0.11021848
9454.00   0.12347429
9456.00   0.13369998
9458.00   0.13469849
9460.00   0.12858266
9462.00   0.12630548
9464.00   0.12181126
9466.00   0.12246445
9468.00   0.12701956
9470.00   0.13552467
9472.00   0.15322115
9474.00   0.17865616
9476.00   0.17254281
9478.00   0.13365330
9480.00   0.10949219
9482.00   0.08613400
9484.00   0.07220929
9486.00   0.07662828
9488.00   0.09330107
9490.00   0.09307969
9492.00   0.07648360
9494.00   0.07575718
9496.00   0.08859370
9498.00   0.10023705
9500.00   0.10422657
9502.00   0.10471983
9504.00   0.10583195
9506.00   0.10586238
9508.00   0.10443993
9510.00   0.10284149
9512.00   0.09989002
9514.00   0.09340278
9516.00   0.08287428
9518.00   0.06953507
9520.00   0.04805413
9522.00   0.04112521
9524.00   0.04172832
9526.00   0.04947435
9528.00   0.07036956
9530.00   0.09518228
9532.00   0.10590294
9534.00   0.11044862
9536.00   0.10970481
9538.00   0.09335645
9540.00   0.08980073
9542.00   0.10637349
9544.00   0.12834385
9546.00   0.14029907
9548.00   0.15303243
9550.00   0.14641684
9552.00   0.11561986
9554.00   0.09363665
9556.00   0.08076454
9558.00   0.07173976
9560.00   0.06316882
9562.00   0.05572520
9564.00   0.05139810
9566.00   0.05025015
9568.00   0.05044670
9570.00   0.05421901
9572.00   0.05670078
9574.00   0.05187951
9576.00   0.04075912
9578.00   0.03923628
9580.00   0.04344956
9582.00   0.04945618
9584.00   0.05878568
9586.00   0.06741424
9588.00   0.07412893
9590.00   0.07920025
9592.00   0.07973044
9594.00   0.07418204
9596.00   0.07139263
9598.00   0.06617481
9600.00   0.06545853
9602.00   0.07470162
9604.00   0.08864668
9606.00   0.09019697
9608.00   0.08143663
9610.00   0.07677018
9612.00   0.07078475
9614.00   0.06657462
9616.00   0.06614467
9618.00   0.06787235
9620.00   0.06600798
9622.00   0.06059189
9624.00   0.05663503
9626.00   0.05150416
9628.00   0.04898598
9630.00   0.04835840
9632.00   0.04982706
9634.00   0.05595363
9636.00   0.06941270
9638.00   0.07356613
9640.00   0.07020067
9642.00   0.06930789
9644.00   0.07348457
9646.00   0.07644184
9648.00   0.06931753
9650.00   0.05155675
9652.00   0.04716898
9654.00   0.05109047
9656.00   0.05549153
9658.00   0.06331882
9660.00   0.07070208
9662.00   0.07040727
9664.00   0.06357302
9666.00   0.06171121
9668.00   0.06023206
9670.00   0.06227603
9672.00   0.07125268
9674.00   0.07580237
9676.00   0.06802985
9678.00   0.05259132
9680.00   0.04575388
9682.00   0.04407618
9684.00   0.04029410
9686.00   0.03360447
9688.00   0.02885722
9690.00   0.03192902
9692.00   0.04095327
9694.00   0.04395245
9696.00   0.04329791
9698.00   0.04432140
9700.00   0.04585107
9702.00   0.04823742
9704.00   0.05167331
9706.00   0.05542930
9708.00   0.05706593
9710.00   0.05983844
9712.00   0.05602045
9714.00   0.04177743
9716.00   0.03307377
9718.00   0.03675730
9720.00   0.04547999
9722.00   0.04749145
9724.00   0.04639908
9726.00   0.04773727
9728.00   0.04911919
9730.00   0.05146649
9732.00   0.05786443
9734.00   0.06491930
9736.00   0.06415779
9738.00   0.05752515
9740.00   0.05196080
9742.00   0.04182766
9744.00   0.03676140
9746.00   0.03951107
9748.00   0.04575294
9750.00   0.05116872
9752.00   0.05953126
9754.00   0.06082242
9756.00   0.05529965
9758.00   0.05163801
9760.00   0.04947506
9762.00   0.04793661
9764.00   0.04724435
9766.00   0.04742651
9768.00   0.04513411
9770.00   0.03849455
9772.00   0.03679755
9774.00   0.03919547
9776.00   0.04489226
9778.00   0.05353738
9780.00   0.06557617
9782.00   0.07358485
9784.00   0.08319801
9786.00   0.08450679
9788.00   0.07725617
9790.00   0.06726938
9792.00   0.05510700
9794.00   0.03900074
9796.00   0.03472411
9798.00   0.04152904
9800.00   0.04480179
9802.00   0.04740307
9804.00   0.04984847
9806.00   0.05252832
9808.00   0.05580912
9810.00   0.05702480
9812.00   0.05722885
9814.00   0.05545558
9816.00   0.05116695
9818.00   0.04782989
9820.00   0.04635052
9822.00   0.04621215
9824.00   0.04553781
9826.00   0.04494236
9828.00   0.04329164
9830.00   0.04232623
9832.00   0.03929977
9834.00   0.02945585
9836.00   0.01875098
9838.00   0.02351917
9840.00   0.04714872
9842.00   0.05094283
9844.00   0.04095250
9846.00   0.03362664
9848.00   0.02822790
9850.00   0.02648670
9852.00   0.03549602
9854.00   0.05684749
9856.00   0.06654501
9858.00   0.06988223
9860.00   0.07359750
9862.00   0.07943561
9864.00   0.08348120
9866.00   0.07983154
9868.00   0.06800308
9870.00   0.06098172
9872.00   0.05306667
9874.00   0.04982827
9876.00   0.05074717
9878.00   0.05304963
9880.00   0.05491545
9882.00   0.05687790
9884.00   0.06274981
9886.00   0.07579880
9888.00   0.08222116
9890.00   0.08536520
9892.00   0.08086084
9894.00   0.06400750
9896.00   0.03654926
9898.00   0.02411482
9900.00   0.01648087
9902.00   0.01858795
9904.00   0.03557973
9906.00   0.05052984
9908.00   0.05393956
9910.00   0.04991180
9912.00   0.04776262
9914.00   0.04101869
9916.00   0.04106741
9918.00   0.04701504
9920.00   0.05342794
9922.00   0.05676197
9924.00   0.05806897
9926.00   0.05914175
9928.00   0.05765561
9930.00   0.06072554
9932.00   0.06596432
9934.00   0.07223770
9936.00   0.08248808
9938.00   0.09429804
9940.00   0.10158326
9942.00   0.11510725
9944.00   0.10719392
9946.00   0.06845686
9948.00   0.04770333
9950.00   0.05969598
9952.00   0.08424981
9954.00   0.09336283
9956.00   0.10149198
9958.00   0.08875791
9960.00   0.03589452
9962.00   0.01712243
9964.00   0.05107365
9966.00   0.09931033
9968.00   0.10971813
9970.00   0.09803683
9972.00   0.09172809
9974.00   0.07661317
9976.00   0.06862162
9978.00   0.07067088
9980.00   0.07803141
9982.00   0.08328816
9984.00   0.09029129
9986.00   0.09178340
9988.00   0.09021165
9990.00   0.08474490
9992.00   0.07281589
9994.00   0.06317279
9996.00   0.06399165
9998.00   0.07281686
10000.00   0.07266611
10002.00   0.06828058
10004.00   0.06205859
10006.00   0.05545006
10008.00   0.04677378
10010.00   0.02942566
10012.00   0.00567884
10014.00   0.00318355
10016.00   0.01838900
10018.00   0.03151927
10020.00   0.04935664
10022.00   0.06852321
10024.00   0.08804715
10026.00   0.10689152
10028.00   0.10917189
10030.00   0.09400983
10032.00   0.08261108
10034.00   0.06270287
10036.00   0.05551090
10038.00   0.07427273
10040.00   0.10576268
10042.00   0.10330296
10044.00   0.06501761
10046.00   0.05368295
10048.00   0.05548330
10050.00   0.05843671
10052.00   0.06152187
10054.00   0.06432854
10056.00   0.06020770
10058.00   0.04442563
10060.00   0.05059639
10062.00   0.08082081
10064.00   0.09851118
10066.00   0.10197708
10068.00   0.09740834
10070.00   0.08445734
10072.00   0.05215450
10074.00   0.05812318
10076.00   0.11246241
10078.00   0.13143326
10080.00   0.10287815
10082.00   0.06333148
10084.00   0.04682244
10086.00   0.03796457
10088.00   0.03847678
10090.00   0.06021992
10092.00   0.06515174
10094.00   0.04452557
10096.00   0.02948906
10098.00   0.05223257
10100.00   0.10429278
10102.00   0.11393486
10104.00   0.08916904
10106.00   0.07988255
10108.00   0.08014794
10110.00   0.08351097
10112.00   0.08837424
10114.00   0.09541286
10116.00   0.08727216
10118.00   0.05407785
10120.00   0.04650460
10122.00   0.07010448
10124.00   0.08710324
10126.00   0.06768576
10128.00   0.02589568
10130.00   0.02187387
10132.00   0.04076713
10134.00   0.06395354
10136.00   0.10463526
10138.00   0.13710666
10140.00   0.15426195
10142.00   0.16079476
10144.00   0.14833619
10146.00   0.08959559
10148.00   0.08934364
10150.00   0.14907991
10152.00   0.18218615
10154.00   0.15867308
10156.00   0.11480253
10158.00   0.10331108
10160.00   0.10215735
10162.00   0.11167838
10164.00   0.14684897
10166.00   0.16629711
10168.00   0.16006479
10170.00   0.14072435
10172.00   0.12639369
10174.00   0.11163149
10176.00   0.10164327
10178.00   0.08884494
10180.00   0.08941622
10182.00   0.11380590
10184.00   0.13761138
10186.00   0.13602300
10188.00   0.11461572
10190.00   0.10963237
10192.00   0.10794615
10194.00   0.11579604
10196.00   0.12937840
10198.00   0.14565036
10200.00   0.17337956
10202.00   0.21673154
10204.00   0.21601066
10206.00   0.17971078
10208.00   0.14293359
10210.00   0.08057453
10212.00   0.03557145
10214.00   0.05070725
10216.00   0.10672270
10218.00   0.12257497
10220.00   0.11866410
10222.00   0.12001721
10224.00   0.12426677
10226.00   0.12000065
10228.00   0.09502097
10230.00   0.05898913
10232.00   0.06257167
10234.00   0.12064651
10236.00   0.12422366
10238.00   0.07752539
10240.00   0.04340079
10242.00   0.05258432
10244.00   0.08325297
10246.00   0.09094365
10248.00   0.08475839
10250.00   0.08629865
10252.00   0.08915385
10254.00   0.09780404
10256.00   0.11006791
10258.00   0.12509629
10260.00   0.14283090
10262.00   0.16946205
10264.00   0.17462797
10266.00   0.16064361
10268.00   0.14971926
10270.00   0.13884585
10272.00   0.12629069
10274.00   0.11919355
10276.00   0.11555041
10278.00   0.09828763
10280.00   0.04946389
10282.00   0.04022820
10284.00   0.09043468
10286.00   0.15078432
10288.00   0.14731810
10290.00   0.09252701
10292.00   0.07297623
10294.00   0.06021025
10296.00   0.05760031
10298.00   0.07399366
10300.00   0.09459355
10302.00   0.09472231
10304.00   0.08381114
10306.00   0.08863311
10308.00   0.11442221
10310.00   0.11409205
10312.00   0.08901152
10314.00   0.06449809
10316.00   0.05299994
10318.00   0.04792061
10320.00   0.06845489
10322.00   0.12477187
10324.00   0.16267539
10326.00   0.20435737
10328.00   0.22485328
10330.00   0.19964118
10332.00   0.14229610
10334.00   0.10800592
10336.00   0.05450265
10338.00   0.05489099
10340.00   0.12656331
10342.00   0.18655968
10344.00   0.19717234
10346.00   0.18270104
10348.00   0.15792077
10350.00   0.09117659
10352.00   0.07075304
10354.00   0.07751265
10356.00   0.09593863
10358.00   0.13435888
10360.00   0.17989481
10362.00   0.17972780
10364.00   0.12979585
10366.00   0.11588194
10368.00   0.11333811
10370.00   0.11948531
10372.00   0.13923602
10374.00   0.16498499
10376.00   0.16692577
10378.00   0.13460208
10380.00   0.15390840
10382.00   0.22663783
10384.00   0.27316839
10386.00   0.27944643
10388.00   0.26859859
10390.00   0.27121529
10392.00   0.28549336
10394.00   0.25858589
10396.00   0.18420636
10398.00   0.13098633
10400.00   0.09301340
10402.00   0.07002032
10404.00   0.07100856
10406.00   0.09681464
10408.00   0.11853666
10410.00   0.15509743
10412.00   0.17570806
10414.00   0.18428149
10416.00   0.18767192
10418.00   0.18784843
10420.00   0.18519259
10422.00   0.16343118
10424.00   0.09643887
10426.00   0.08216298
10428.00   0.13773130
10430.00   0.18671255
10432.00   0.16694531
10434.00   0.10523818
10436.00   0.08969890
10438.00   0.09774955
10440.00   0.10470319
10442.00   0.11731832
10444.00   0.13547426
10446.00   0.16134047
10448.00   0.19194088
10450.00   0.19583042
10452.00   0.17663779
10454.00   0.15944690
10456.00   0.13188456
10458.00   0.10914883
10460.00   0.08785741
10462.00   0.07324518
10464.00   0.11062375
10466.00   0.24513368
10468.00   0.26599700
10470.00   0.19332627
10472.00   0.13666599
10474.00   0.12681013
10476.00   0.13774515
10478.00   0.14749233
10480.00   0.17346071
10482.00   0.18083272
10484.00   0.17245742
10486.00   0.16950748
10488.00   0.18044276
10490.00   0.19341661
10492.00   0.18987023
10494.00   0.17339753
10496.00   0.15935048
10498.00   0.13107937
10500.00   0.12384336
10502.00   0.15127616
10504.00   0.18186629
10506.00   0.17132065
10508.00   0.12551734
10510.00   0.13147847
10512.00   0.18544737
10514.00   0.21231241
10516.00   0.21963886
10518.00   0.21579465
10520.00   0.19692263
10522.00   0.16067687
10524.00   0.14120268
10526.00   0.12991123
10528.00   0.11802688
10530.00   0.10812997
10532.00   0.09899966
10534.00   0.08788280
10536.00   0.07660941
10538.00   0.07304221
10540.00   0.07404526
10542.00   0.08033025
10544.00   0.09202332
10546.00   0.10869879
10548.00   0.14009819
10550.00   0.18350127
10552.00   0.18263264
10554.00   0.13332151
10556.00   0.11211624
10558.00   0.09742926
10560.00   0.09757302
10562.00   0.12662391
10564.00   0.17372951
10566.00   0.18315656
10568.00   0.16397082
10570.00   0.15336446
10572.00   0.13864047
10574.00   0.12530768
10576.00   0.11454157
10578.00   0.10631141
10580.00   0.10984856
10582.00   0.13383552
10584.00   0.14162407
10586.00   0.13905023
10588.00   0.13873531
10590.00   0.14898673
10592.00   0.15907431
10594.00   0.15467133
10596.00   0.13891702
10598.00   0.13175427
10600.00   0.12642695
10602.00   0.12373544
10604.00   0.12415427
10606.00   0.12502682
10608.00   0.12974200
10610.00   0.14110132
10612.00   0.14815230
10614.00   0.15583101
10616.00   0.15886501
10618.00   0.15725726
10620.00   0.15251398
10622.00   0.14221350
10624.00   0.12299307
10626.00   0.12900823
10628.00   0.17035186
10630.00   0.17996672
10632.00   0.15156252
10634.00   0.12993534
10636.00   0.14811639
10638.00   0.19303811
10640.00   0.19793098
10642.00   0.17101571
10644.00   0.15791979
10646.00   0.15190214
10648.00   0.14730670
10650.00   0.14386665
10652.00   0.14395792
10654.00   0.14688628
10656.00   0.15920461
10658.00   0.15911153
10660.00   0.14674464
10662.00   0.13621888
10664.00   0.13659335
10666.00   0.14326676
10668.00   0.13844855
10670.00   0.11965754
10672.00   0.11518209
10674.00   0.11975992
10676.00   0.12797251
10678.00   0.14246854
10680.00   0.15832326
10682.00   0.15650725
10684.00   0.13390362
10686.00   0.12869982
10688.00   0.13063370
10690.00   0.13675381
10692.00   0.14820175
10694.00   0.16024541
10696.00   0.16347211
10698.00   0.15859061
10700.00   0.15766730
10702.00   0.15564134
10704.00   0.15723760
10706.00   0.16208229
10708.00   0.16754641
10710.00   0.17235403
10712.00   0.17862998
10714.00   0.17706549
10716.00   0.16514467
10718.00   0.15989333
10720.00   0.16221192
10722.00   0.16388627
10724.00   0.16084577
10726.00   0.15729177
10728.00   0.14807245
10730.00   0.12201171
10732.00   0.11793011
10734.00   0.14124867
10736.00   0.16682461
10738.00   0.17777050
10740.00   0.18440974
10742.00   0.18924085
10744.00   0.19328246
10746.00   0.18881320
10748.00   0.17301026
10750.00   0.16019143
10752.00   0.16175117
10754.00   0.17214210
10756.00   0.15956466
10758.00   0.11708470
10760.00   0.10299939
10762.00   0.11288993
10764.00   0.12148783
10766.00   0.12155426
10768.00   0.12120990
10770.00   0.11852993
10772.00   0.11366758
10774.00   0.10630565
10776.00   0.09211076
10778.00   0.08560230
10780.00   0.09216384
10782.00   0.10624232
10784.00   0.11927124
10786.00   0.14185403
10788.00   0.14877643
10790.00   0.14080194
10792.00   0.13593075
10794.00   0.14051372
10796.00   0.14687725
10798.00   0.14531979
10800.00   0.13938135
10802.00   0.13343398
10804.00   0.11880401
10806.00   0.11616266
10808.00   0.13303674
10810.00   0.15463690
10812.00   0.16277023
10814.00   0.16642018
10816.00   0.15824441
10818.00   0.13241043
10820.00   0.11343571
10822.00   0.09785351
10824.00   0.08733278
10826.00   0.09036259
10828.00   0.11090701
10830.00   0.11345777
10832.00   0.10111250
10834.00   0.09664906
10836.00   0.10816414
10838.00   0.11998513
10840.00   0.11248847
10842.00   0.09024210
10844.00   0.09159664
10846.00   0.11952376
10848.00   0.12437852
10850.00   0.10379609
10852.00   0.08747939
10854.00   0.09222339
10856.00   0.10754497
10858.00   0.11186259
10860.00   0.10849992
10862.00   0.11159537
10864.00   0.12301303
10866.00   0.13050880
10868.00   0.12720954
10870.00   0.11536945
10872.00   0.09874570
10874.00   0.06148254
10876.00   0.05292851
10878.00   0.06001857
10880.00   0.08040404
10882.00   0.08040404
