# File created by shivutils (I.Shivvers)
# 
# wl(A)   flm    er(optional)
3470.00   0.33091840   0.05768639
3472.00   0.31334645   0.05627179
3474.00   0.40852147   0.05680238
3476.00   0.40250722   0.05705214
3478.00   0.32573688   0.05883509
3480.00   0.35441706   0.06106917
3482.00   0.36349228   0.06115058
3484.00   0.47297868   0.06303805
3486.00   0.38427454   0.06124446
3488.00   0.33214626   0.05922820
3490.00   0.40142909   0.05988542
3492.00   0.45327654   0.05896971
3494.00   0.40762535   0.05854450
3496.00   0.27027002   0.05544895
3498.00   0.33627146   0.05635917
3500.00   0.34702426   0.05536867
3502.00   0.38837734   0.05598829
3504.00   0.49964708   0.05884387
3506.00   0.43786782   0.05727570
3508.00   0.45540923   0.05815601
3510.00   0.30827072   0.05616555
3512.00   0.44026592   0.05842437
3514.00   0.36886498   0.05660595
3516.00   0.34919646   0.05634543
3518.00   0.37640426   0.05702592
3520.00   0.34855479   0.05562932
3522.00   0.38889438   0.05599241
3524.00   0.40723494   0.05686425
3526.00   0.33512741   0.05530109
3528.00   0.29914585   0.05478752
3530.00   0.37839627   0.05675886
3532.00   0.37557730   0.05663684
3534.00   0.26562864   0.05404317
3536.00   0.39493841   0.05584737
3538.00   0.18066032   0.05366706
3540.00   0.36854687   0.05832993
3542.00   0.35731545   0.05949908
3544.00   0.31321618   0.06007509
3546.00   0.19157471   0.05799038
3548.00   0.21463710   0.05755776
3550.00   0.28251472   0.05913497
3552.00   0.29881045   0.05739138
3554.00   0.34486228   0.05947902
3556.00   0.24674204   0.05732233
3558.00   0.28371671   0.05685203
3560.00   0.27001688   0.05643835
3562.00   0.23497795   0.05609563
3564.00   0.24094866   0.05582154
3566.00   0.20890747   0.05296487
3568.00   0.36512274   0.05518362
3570.00   0.36171752   0.05368909
3572.00   0.32766986   0.05310227
3574.00   0.38609469   0.05406569
3576.00   0.34072056   0.05345191
3578.00   0.43227825   0.05399483
3580.00   0.40763333   0.05443273
3582.00   0.36743110   0.05371291
3584.00   0.31347057   0.04838990
3586.00   0.36752093   0.04770712
3588.00   0.40376633   0.04852673
3590.00   0.38723713   0.04912218
3592.00   0.33022147   0.04828456
3594.00   0.39366299   0.04771942
3596.00   0.43749964   0.04825120
3598.00   0.45137185   0.04837991
3600.00   0.39575583   0.04752681
3602.00   0.33353421   0.04557625
3604.00   0.44199693   0.04692283
3606.00   0.38878298   0.04598560
3608.00   0.44687173   0.04630562
3610.00   0.40301919   0.04477622
3612.00   0.43510729   0.04621555
3614.00   0.43480608   0.04710310
3616.00   0.34786904   0.04592150
3618.00   0.44197136   0.04632045
3620.00   0.40967530   0.04537377
3622.00   0.40838125   0.04538321
3624.00   0.36230302   0.04305427
3626.00   0.36845279   0.04326541
3628.00   0.36072382   0.04345916
3630.00   0.40565529   0.04495873
3632.00   0.44033721   0.04487692
3634.00   0.35720462   0.04394290
3636.00   0.42831671   0.04412802
3638.00   0.42111322   0.04403779
3640.00   0.42153624   0.04350790
3642.00   0.45073849   0.04453888
3644.00   0.33915791   0.04334335
3646.00   0.39745200   0.04366815
3648.00   0.45874885   0.04949483
3650.00   0.49626979   0.05638057
3652.00   0.35884899   0.05373346
3654.00   0.46451211   0.05043990
3656.00   0.50122923   0.04899025
3658.00   0.36958146   0.04289453
3660.00   0.42864913   0.04242625
3662.00   0.37265378   0.04454609
3664.00   0.42724586   0.04545515
3666.00   0.34781072   0.04111909
3668.00   0.34727785   0.03786305
3670.00   0.43096557   0.03866284
3672.00   0.45533904   0.03873069
3674.00   0.45275971   0.03844851
3676.00   0.37948748   0.03628106
3678.00   0.38588750   0.03612296
3680.00   0.43153280   0.03673968
3682.00   0.33378011   0.03520445
3684.00   0.41545877   0.03637568
3686.00   0.37776679   0.03582278
3688.00   0.32993150   0.03385821
3690.00   0.39373562   0.03520983
3692.00   0.33339730   0.03486405
3694.00   0.37414587   0.03500194
3696.00   0.30443934   0.03349256
3698.00   0.36274013   0.03508857
3700.00   0.36514083   0.03530905
3702.00   0.36481878   0.03565130
3704.00   0.31903732   0.03452795
3706.00   0.34965983   0.03463551
3708.00   0.37305179   0.03443386
3710.00   0.34985620   0.03375278
3712.00   0.39574498   0.03469570
3714.00   0.35812706   0.03329418
3716.00   0.36806253   0.03336166
3718.00   0.39894700   0.03401938
3720.00   0.32617468   0.03218043
3722.00   0.37393495   0.03311004
3724.00   0.28443456   0.03147337
3726.00   0.36269829   0.03336665
3728.00   0.41454488   0.03441333
3730.00   0.39024013   0.03388883
3732.00   0.38375530   0.03615720
3734.00   0.64398253   0.04081526
3736.00   0.60769618   0.03998559
3738.00   0.51594532   0.03688372
3740.00   0.32859749   0.03243783
3742.00   0.23735444   0.03098830
3744.00   0.31616220   0.03139132
3746.00   0.21935986   0.02949407
3748.00   0.24430886   0.02973596
3750.00   0.24265924   0.02916909
3752.00   0.23555255   0.02907457
3754.00   0.27009961   0.03023384
3756.00   0.24147223   0.02915046
3758.00   0.18766916   0.02729247
3760.00   0.17024501   0.02676717
3762.00   0.15679599   0.02622450
3764.00   0.18255264   0.02694989
3766.00   0.13615531   0.02577399
3768.00   0.16145189   0.02582431
3770.00   0.13856007   0.02543552
3772.00   0.11022892   0.02510803
3774.00   0.14817071   0.02572662
3776.00   0.12116848   0.02498729
3778.00   0.14453150   0.02539402
3780.00   0.11145718   0.02476872
3782.00   0.13275224   0.02546919
3784.00   0.13309181   0.02552127
3786.00   0.10098250   0.02454190
3788.00   0.14453508   0.02458540
3790.00   0.12020347   0.02453044
3792.00   0.05322329   0.02366616
3794.00   0.09750251   0.02441837
3796.00   0.08447938   0.02342315
3798.00   0.06390206   0.02254618
3800.00   0.08500699   0.02296873
3802.00   0.14783189   0.02434080
3804.00   0.17884526   0.02484786
3806.00   0.09919836   0.02275221
3808.00   0.09938340   0.02285449
3810.00   0.07466386   0.02244411
3812.00   0.11015846   0.02293844
3814.00   0.08536799   0.02270231
3816.00   0.07882026   0.02268901
3818.00   0.12268718   0.02329733
3820.00   0.11053159   0.02294773
3822.00   0.08702691   0.02229009
3824.00   0.08367692   0.02267372
3826.00   0.09705051   0.02222597
3828.00   0.12029590   0.02350466
3830.00   0.12871048   0.02449159
3832.00   0.13056585   0.02417933
3834.00   0.09037720   0.02281098
3836.00   0.12123653   0.02309336
3838.00   0.10471147   0.02205836
3840.00   0.08917557   0.02208773
3842.00   0.16502570   0.02362231
3844.00   0.17872310   0.02343537
3846.00   0.14461485   0.02307913
3848.00   0.14016552   0.02252100
3850.00   0.14014159   0.02264098
3852.00   0.16334237   0.02303249
3854.00   0.12698820   0.02229948
3856.00   0.12624463   0.02207634
3858.00   0.12194690   0.02211839
3860.00   0.09751336   0.02143223
3862.00   0.08385625   0.02184611
3864.00   0.20837347   0.02382859
3866.00   0.19484159   0.02352257
3868.00   0.12131974   0.02204526
3870.00   0.15056416   0.02233714
3872.00   0.24633037   0.02388509
3874.00   0.16896378   0.02361390
3876.00   0.20401543   0.02429113
3878.00   0.21580733   0.02384814
3880.00   0.24794133   0.02404836
3882.00   0.21087377   0.02352807
3884.00   0.22601821   0.02421070
3886.00   0.28049639   0.02626410
3888.00   0.29040495   0.02840916
3890.00   0.28230050   0.02833572
3892.00   0.32633319   0.02571430
3894.00   0.38175294   0.02607091
3896.00   0.40770084   0.02672299
3898.00   0.39600554   0.02645973
3900.00   0.39699754   0.02623044
3902.00   0.40331894   0.02667090
3904.00   0.39488092   0.02733598
3906.00   0.43162611   0.02930271
3908.00   0.48585254   0.03094128
3910.00   0.48564246   0.03179812
3912.00   0.48051295   0.03366962
3914.00   0.52150375   0.03425910
3916.00   0.55304348   0.03145108
3918.00   0.57650840   0.02834881
3920.00   0.56679624   0.02748803
3922.00   0.60662907   0.02739535
3924.00   0.64425689   0.02806414
3926.00   0.69921184   0.02838139
3928.00   0.68446910   0.02777777
3930.00   0.70893902   0.02775179
3932.00   0.66866285   0.02782638
3934.00   0.73365867   0.02870099
3936.00   0.74854213   0.02825210
3938.00   0.81510013   0.02868678
3940.00   0.77177268   0.02832809
3942.00   0.74468374   0.02856886
3944.00   0.78848255   0.02925520
3946.00   0.84256649   0.02970825
3948.00   0.83543104   0.02964710
3950.00   0.87289393   0.02969294
3952.00   0.83959562   0.02927335
3954.00   0.85087252   0.02916577
3956.00   0.89621639   0.02972356
3958.00   0.91750205   0.02970449
3960.00   0.84385812   0.02925023
3962.00   0.85899842   0.02959530
3964.00   0.88285273   0.02902167
3966.00   0.85149819   0.02826523
3968.00   0.85756409   0.02803084
3970.00   0.90989321   0.02832987
3972.00   0.87105477   0.02809985
3974.00   0.91103703   0.02875106
3976.00   0.93086356   0.02892748
3978.00   0.94594222   0.02906412
3980.00   0.95841163   0.02922384
3982.00   0.93272364   0.02890374
3984.00   0.93773776   0.02894840
3986.00   0.92686218   0.02882894
3988.00   0.92613697   0.02910258
3990.00   0.91797447   0.02910808
3992.00   0.94983655   0.02930074
3994.00   0.93559062   0.02932343
3996.00   0.94902855   0.02988343
3998.00   0.97808337   0.03003871
4000.00   0.93419272   0.02930333
4002.00   0.92728251   0.02889689
4004.00   1.00198114   0.02945957
4006.00   0.95294106   0.02906482
4008.00   0.95138699   0.02947162
4010.00   0.94811714   0.02946958
4012.00   0.94974518   0.02926617
4014.00   0.92979467   0.02890767
4016.00   1.04318583   0.02977337
4018.00   0.96391916   0.02983068
4020.00   0.99620306   0.03122199
4022.00   1.00539386   0.03166633
4024.00   0.98122913   0.03119320
4026.00   0.99380708   0.03064442
4028.00   1.03170705   0.03024327
4030.00   1.00053060   0.02980300
4032.00   1.00099456   0.02960069
4034.00   0.97151560   0.02911952
4036.00   1.01957619   0.02953717
4038.00   1.03937125   0.02949898
4040.00   1.01569104   0.02941392
4042.00   1.00623298   0.02953384
4044.00   1.07920778   0.03395565
4046.00   0.97949189   0.03960028
4048.00   1.08966672   0.03975756
4050.00   1.02571249   0.03286867
4052.00   1.06263661   0.03032371
4054.00   1.05312455   0.03025029
4056.00   1.06791699   0.03023949
4058.00   1.11100590   0.03002872
4060.00   1.16252363   0.03007536
4062.00   1.13450456   0.02971392
4064.00   1.22063160   0.03055995
4066.00   1.12910223   0.02969193
4068.00   1.15947688   0.02997812
4070.00   1.16538405   0.02981218
4072.00   1.23085642   0.03021640
4074.00   1.22383642   0.03000938
4076.00   1.20678413   0.03100709
4078.00   1.14164984   0.03103156
4080.00   1.17926967   0.03096597
4082.00   1.15671444   0.03027450
4084.00   1.14426005   0.02988788
4086.00   1.12879777   0.02952789
4088.00   1.11861956   0.02915080
4090.00   1.13968003   0.02871438
4092.00   1.12650585   0.02841909
4094.00   1.12674046   0.02839740
4096.00   1.05547822   0.02766684
4098.00   1.07910836   0.02782875
4100.00   1.11475396   0.02791280
4102.00   1.10232222   0.02763885
4104.00   1.10171020   0.02736036
4106.00   1.09812832   0.02729975
4108.00   1.06795394   0.02721987
4110.00   1.09349883   0.02738026
4112.00   1.10262012   0.02732383
4114.00   1.05464244   0.02695641
4116.00   1.00125396   0.02648916
4118.00   1.02162755   0.02650862
4120.00   0.97432905   0.02599868
4122.00   0.98798800   0.02619355
4124.00   1.00058806   0.02625236
4126.00   0.96336198   0.02601268
4128.00   0.97526556   0.02616846
4130.00   0.86828333   0.02512761
4132.00   0.94013435   0.02599166
4134.00   0.92351013   0.02592178
4136.00   0.95171249   0.02599789
4138.00   0.91335773   0.02560775
4140.00   0.90123898   0.02558011
4142.00   0.90834510   0.02534879
4144.00   0.90746641   0.02491967
4146.00   0.89133459   0.02473083
4148.00   0.92624235   0.02506051
4150.00   0.92230523   0.02519359
4152.00   0.88280737   0.02512055
4154.00   0.88550675   0.02520612
4156.00   0.91744179   0.02508701
4158.00   0.82296658   0.02422480
4160.00   0.86361551   0.02453587
4162.00   0.89309531   0.02503191
4164.00   0.85405064   0.02525848
4166.00   0.89823061   0.02577337
4168.00   0.81785548   0.02436838
4170.00   0.84793347   0.02411076
4172.00   0.83757001   0.02393645
4174.00   0.83829701   0.02380917
4176.00   0.85395688   0.02385340
4178.00   0.83577079   0.02383834
4180.00   0.83167684   0.02370814
4182.00   0.81728959   0.02317215
4184.00   0.78669846   0.02284095
4186.00   0.79914802   0.02294465
4188.00   0.76735491   0.02264223
4190.00   0.77481759   0.02279697
4192.00   0.72833186   0.02237351
4194.00   0.71486592   0.02225741
4196.00   0.75387657   0.02246369
4198.00   0.75115132   0.02226146
4200.00   0.73719943   0.02205892
4202.00   0.75909299   0.02219714
4204.00   0.80679107   0.02249536
4206.00   0.79600477   0.02248133
4208.00   0.79310930   0.02286725
4210.00   0.77667081   0.02262249
4212.00   0.77884024   0.02252491
4214.00   0.72145003   0.02189098
4216.00   0.77677244   0.02242859
4218.00   0.81621259   0.02265098
4220.00   0.77515382   0.02233624
4222.00   0.81045640   0.02246316
4224.00   0.82792449   0.02264505
4226.00   0.80337995   0.02240598
4228.00   0.79617649   0.02225833
4230.00   0.84948230   0.02287194
4232.00   0.81095862   0.02263241
4234.00   0.81636119   0.02282552
4236.00   0.84088987   0.02314234
4238.00   0.84421736   0.02302039
4240.00   0.83876437   0.02267235
4242.00   0.83920139   0.02239727
4244.00   0.79899848   0.02247686
4246.00   0.76303357   0.02317695
4248.00   0.78302294   0.02329906
4250.00   0.73914778   0.02202203
4252.00   0.73291206   0.02156418
4254.00   0.78972340   0.02197986
4256.00   0.79823458   0.02212599
4258.00   0.79795593   0.02205201
4260.00   0.79433066   0.02189235
4262.00   0.78114969   0.02163147
4264.00   0.74222976   0.02132357
4266.00   0.81500542   0.02203910
4268.00   0.72195756   0.02125206
4270.00   0.73183364   0.02122656
4272.00   0.75902003   0.02154888
4274.00   0.70292628   0.02118507
4276.00   0.72914875   0.02177360
4278.00   0.79231310   0.02215685
4280.00   0.76026845   0.02151755
4282.00   0.76686054   0.02133381
4284.00   0.74661142   0.02108978
4286.00   0.75958222   0.02112329
4288.00   0.78028017   0.02118998
4290.00   0.79640144   0.02126405
4292.00   0.73892093   0.02080866
4294.00   0.77952290   0.02115095
4296.00   0.76974636   0.02088460
4298.00   0.77268833   0.02087181
4300.00   0.78839391   0.02085978
4302.00   0.78840715   0.02097862
4304.00   0.80057025   0.02118275
4306.00   0.79062486   0.02093903
4308.00   0.79601240   0.02106709
4310.00   0.84909832   0.02141593
4312.00   0.83992165   0.02204990
4314.00   0.82764280   0.02249945
4316.00   0.82060951   0.02207903
4318.00   0.82972842   0.02197340
4320.00   0.85725921   0.02240397
4322.00   0.80789441   0.02206636
4324.00   0.83798957   0.02199743
4326.00   0.81707442   0.02173002
4328.00   0.80806214   0.02137133
4330.00   0.81588650   0.02135263
4332.00   0.80482590   0.02106158
4334.00   0.82750088   0.02136344
4336.00   0.82522070   0.02135193
4338.00   0.81248367   0.02126133
4340.00   0.79039389   0.02117586
4342.00   0.80313861   0.02129266
4344.00   0.80206203   0.02141853
4346.00   0.77572143   0.02169799
4348.00   0.86731601   0.02268698
4350.00   0.85268772   0.02211407
4352.00   0.79719985   0.02140256
4354.00   0.74684417   0.02161556
4356.00   0.76194811   0.02970000
4358.00   0.79665476   0.03615038
4360.00   0.71444058   0.03347474
4362.00   0.71928734   0.02584093
4364.00   0.77704483   0.02255931
4366.00   0.75195122   0.02157863
4368.00   0.76277477   0.02152113
4370.00   0.73831838   0.02108460
4372.00   0.74587041   0.02116833
4374.00   0.75021398   0.02146782
4376.00   0.74379414   0.02132686
4378.00   0.75433606   0.02103923
4380.00   0.76418626   0.02088438
4382.00   0.76092249   0.02048823
4384.00   0.74759728   0.02016451
4386.00   0.70549673   0.01994877
4388.00   0.72993243   0.02009265
4390.00   0.73271298   0.02005303
4392.00   0.69817203   0.01973249
4394.00   0.75150770   0.02017076
4396.00   0.71633327   0.01984492
4398.00   0.68051571   0.01975960
4400.00   0.71143442   0.02017114
4402.00   0.69253665   0.01999296
4404.00   0.67092568   0.01961778
4406.00   0.68216389   0.01967774
4408.00   0.67846912   0.01958966
4410.00   0.64959526   0.01934293
4412.00   0.65776402   0.01944796
4414.00   0.68800008   0.01997913
4416.00   0.65982538   0.01982968
4418.00   0.67348212   0.01969130
4420.00   0.68345827   0.01955427
4422.00   0.70454419   0.01968858
4424.00   0.65541923   0.01924766
4426.00   0.67413151   0.01926029
4428.00   0.67945641   0.01935513
4430.00   0.68934691   0.01952573
4432.00   0.71199846   0.01960332
4434.00   0.71274006   0.01944687
4436.00   0.72455466   0.01948281
4438.00   0.70527029   0.01948209
4440.00   0.72882092   0.01965034
4442.00   0.72260284   0.01952577
4444.00   0.78320283   0.02003443
4446.00   0.74928552   0.01978246
4448.00   0.77304184   0.01981874
4450.00   0.74929804   0.01958675
4452.00   0.77391398   0.01972020
4454.00   0.79177141   0.01996188
4456.00   0.80269712   0.01998112
4458.00   0.80143768   0.01997964
4460.00   0.76805031   0.01962520
4462.00   0.82654464   0.02010274
4464.00   0.77354807   0.01962782
4466.00   0.79060030   0.01983760
4468.00   0.79997659   0.01978412
4470.00   0.84708124   0.02013292
4472.00   0.81569397   0.01989053
4474.00   0.83106411   0.02012646
4476.00   0.83288366   0.02007667
4478.00   0.82544237   0.02001240
4480.00   0.87530643   0.02038575
4482.00   0.82961690   0.02003335
4484.00   0.83046913   0.02015678
4486.00   0.81692457   0.01997779
4488.00   0.86070675   0.02025254
4490.00   0.86841404   0.02028957
4492.00   0.84483314   0.02028431
4494.00   0.87488949   0.02063138
4496.00   0.87198913   0.02048593
4498.00   0.87974012   0.02061772
4500.00   0.86926347   0.02050125
4502.00   0.89714569   0.02060428
4504.00   0.89671946   0.02062798
4506.00   0.89576745   0.02060257
4508.00   0.91221803   0.02071096
4510.00   0.91565287   0.02061244
4512.00   0.90871882   0.02052000
4514.00   0.96413362   0.02103901
4516.00   0.89401954   0.02036523
4518.00   0.96040571   0.02083953
4520.00   0.95507181   0.02083302
4522.00   1.00220239   0.02104351
4524.00   0.98154086   0.02095076
4526.00   0.98519272   0.02100234
4528.00   1.03397369   0.02129231
4530.00   1.04203987   0.02135135
4532.00   1.05391967   0.02148500
4534.00   1.06588888   0.02163967
4536.00   1.06805241   0.02154856
4538.00   1.12096524   0.02189458
4540.00   1.13192344   0.02200321
4542.00   1.12363362   0.02210331
4544.00   1.19568706   0.02272819
4546.00   1.16624200   0.02239000
4548.00   1.23993504   0.02276349
4550.00   1.21323192   0.02254841
4552.00   1.22992373   0.02269258
4554.00   1.28351951   0.02294339
4556.00   1.31351423   0.02320551
4558.00   1.32053685   0.02320388
4560.00   1.32587373   0.02318470
4562.00   1.37823701   0.02357251
4564.00   1.40943408   0.02368533
4566.00   1.43423569   0.02378825
4568.00   1.45796442   0.02390040
4570.00   1.51751649   0.02434890
4572.00   1.52401900   0.02437510
4574.00   1.55241573   0.02453502
4576.00   1.58529842   0.02471122
4578.00   1.56845486   0.02459438
4580.00   1.66446280   0.02507111
4582.00   1.66558802   0.02500666
4584.00   1.70998907   0.02530043
4586.00   1.67368472   0.02509714
4588.00   1.68082952   0.02511236
4590.00   1.71881163   0.02532354
4592.00   1.67396474   0.02501178
4594.00   1.69477153   0.02522562
4596.00   1.70927334   0.02533587
4598.00   1.70824659   0.02521448
4600.00   1.69827986   0.02509458
4602.00   1.68108821   0.02501730
4604.00   1.71026206   0.02504816
4606.00   1.72435987   0.02517870
4608.00   1.70436883   0.02511320
4610.00   1.73595202   0.02535278
4612.00   1.76261771   0.02543399
4614.00   1.79491115   0.02562031
4616.00   1.78989577   0.02544309
4618.00   1.77786660   0.02543686
4620.00   1.78483605   0.02539375
4622.00   1.73892295   0.02521039
4624.00   1.72950470   0.02510327
4626.00   1.78059018   0.02541571
4628.00   1.75341976   0.02539187
4630.00   1.74623144   0.02526391
4632.00   1.72196901   0.02502904
4634.00   1.75333214   0.02517995
4636.00   1.68235576   0.02479239
4638.00   1.68031538   0.02477232
4640.00   1.74026990   0.02511469
4642.00   1.69535136   0.02478961
4644.00   1.70420837   0.02482841
4646.00   1.75153124   0.02507107
4648.00   1.73201716   0.02500714
4650.00   1.69162822   0.02483660
4652.00   1.79083884   0.02539087
4654.00   1.80344331   0.02549810
4656.00   1.75525880   0.02518073
4658.00   1.79894018   0.02554996
4660.00   1.84423947   0.02582039
4662.00   1.84113646   0.02588369
4664.00   1.83757186   0.02595893
4666.00   1.78881061   0.02578423
4668.00   1.83311808   0.02610461
4670.00   1.79466653   0.02596207
4672.00   1.76590931   0.02573083
4674.00   1.82835972   0.02595975
4676.00   1.81991792   0.02580130
4678.00   1.77980244   0.02541069
4680.00   1.79307199   0.02545116
4682.00   1.80434358   0.02541816
4684.00   1.81688249   0.02548007
4686.00   1.78863895   0.02525247
4688.00   1.77455676   0.02516614
4690.00   1.82697678   0.02538124
4692.00   1.83431625   0.02553843
4694.00   1.80772018   0.02537233
4696.00   1.86903441   0.02560108
4698.00   1.85214484   0.02542290
4700.00   1.86961770   0.02547838
4702.00   1.88407397   0.02562340
4704.00   1.85384870   0.02553341
4706.00   1.89759564   0.02574367
4708.00   1.84621131   0.02557213
4710.00   1.88676989   0.02577181
4712.00   1.90885282   0.02581584
4714.00   1.87106180   0.02550024
4716.00   1.85435736   0.02534591
4718.00   1.87030637   0.02547564
4720.00   1.82658362   0.02520372
4722.00   1.85679638   0.02538828
4724.00   1.89301693   0.02557098
4726.00   1.87945986   0.02554853
4728.00   1.86375916   0.02568163
4730.00   1.85865271   0.02584203
4732.00   1.83411038   0.02565962
4734.00   1.83374953   0.02560267
4736.00   1.79976010   0.02558334
4738.00   1.78686130   0.02563270
4740.00   1.82392526   0.02592406
4742.00   1.75773323   0.02586083
4744.00   1.70951915   0.02538383
4746.00   1.73113573   0.02502827
4748.00   1.65989876   0.02434154
4750.00   1.70277238   0.02444091
4752.00   1.68116164   0.02440714
4754.00   1.58977389   0.02389287
4756.00   1.66652668   0.02413565
4758.00   1.61679769   0.02369389
4760.00   1.60565484   0.02356691
4762.00   1.59088385   0.02333935
4764.00   1.66945064   0.02383337
4766.00   1.62789750   0.02347966
4768.00   1.61988378   0.02346157
4770.00   1.61858523   0.02341745
4772.00   1.54845059   0.02302160
4774.00   1.61432314   0.02329100
4776.00   1.58892071   0.02330494
4778.00   1.61654758   0.02356645
4780.00   1.53157437   0.02313530
4782.00   1.57039666   0.02325759
4784.00   1.61645007   0.02336903
4786.00   1.57936645   0.02311200
4788.00   1.59771764   0.02320225
4790.00   1.53806877   0.02296496
4792.00   1.58321035   0.02321033
4794.00   1.58284414   0.02313164
4796.00   1.51652145   0.02268277
4798.00   1.56048918   0.02291264
4800.00   1.58910847   0.02300701
4802.00   1.56154931   0.02293826
4804.00   1.53437257   0.02268780
4806.00   1.47908056   0.02239202
4808.00   1.50599289   0.02250916
4810.00   1.50581527   0.02258288
4812.00   1.44822979   0.02216680
4814.00   1.42483163   0.02204477
4816.00   1.45895863   0.02216122
4818.00   1.39786744   0.02189024
4820.00   1.39068663   0.02188635
4822.00   1.39510632   0.02190703
4824.00   1.33563352   0.02155887
4826.00   1.29035830   0.02133107
4828.00   1.30486357   0.02135219
4830.00   1.27561212   0.02115643
4832.00   1.21825767   0.02087405
4834.00   1.18810630   0.02066150
4836.00   1.19171715   0.02061420
4838.00   1.20306456   0.02074694
4840.00   1.19622183   0.02073885
4842.00   1.20001602   0.02066021
4844.00   1.14752436   0.02027821
4846.00   1.16079080   0.02024541
4848.00   1.17344642   0.02036750
4850.00   1.13803148   0.02015754
4852.00   1.11778998   0.02005348
4854.00   1.08671331   0.01968300
4856.00   1.07962203   0.01947329
4858.00   1.05064940   0.01924706
4860.00   1.06984365   0.01950921
4862.00   1.00456178   0.01913899
4864.00   1.02244961   0.01914731
4866.00   1.00288486   0.01898435
4868.00   0.96503907   0.01895341
4870.00   1.11385846   0.01999575
4872.00   1.07884789   0.01956256
4874.00   0.95513988   0.01851334
4876.00   0.87426770   0.01798164
4878.00   0.90978748   0.01825042
4880.00   0.86837339   0.01792830
4882.00   0.85325718   0.01772220
4884.00   0.83517218   0.01756577
4886.00   0.82782000   0.01742419
4888.00   0.77577519   0.01705003
4890.00   0.77869338   0.01712474
4892.00   0.76004440   0.01692625
4894.00   0.75487393   0.01694110
4896.00   0.73028165   0.01661911
4898.00   0.71891397   0.01649420
4900.00   0.74865639   0.01668691
4902.00   0.75777185   0.01674323
4904.00   0.72939044   0.01661090
4906.00   0.75246930   0.01687685
4908.00   0.74797612   0.01684446
4910.00   0.77318257   0.01701364
4912.00   0.81883430   0.01723777
4914.00   0.84167314   0.01749158
4916.00   0.79822189   0.01721434
4918.00   0.80581045   0.01720862
4920.00   0.80847561   0.01708562
4922.00   0.79108882   0.01704852
4924.00   0.86833799   0.01747436
4926.00   0.87512130   0.01760852
4928.00   0.89632154   0.01770898
4930.00   0.91977882   0.01779900
4932.00   0.96711677   0.01811020
4934.00   0.96804869   0.01811320
4936.00   1.02099931   0.01858154
4938.00   1.06843281   0.01888980
4940.00   1.07378745   0.01892264
4942.00   1.13952172   0.01939259
4944.00   1.19567955   0.01965686
4946.00   1.20770836   0.01972124
4948.00   1.21917307   0.01977338
4950.00   1.28215194   0.02023451
4952.00   1.26791799   0.02025371
4954.00   1.34115541   0.02071362
4956.00   1.31572020   0.02045824
4958.00   1.36293876   0.02073056
4960.00   1.41370285   0.02107403
4962.00   1.38736761   0.02089910
4964.00   1.42425752   0.02120775
4966.00   1.47788739   0.02166707
4968.00   1.54370761   0.02207627
4970.00   1.55393791   0.02217162
4972.00   1.61086273   0.02255880
4974.00   1.70542467   0.02324565
4976.00   1.63326550   0.02307526
4978.00   1.71547496   0.02382097
4980.00   1.71673489   0.02407457
4982.00   1.79304552   0.02470249
4984.00   1.85179043   0.02493430
4986.00   1.83362818   0.02473500
4988.00   1.87072599   0.02470473
4990.00   2.00377131   0.02511298
4992.00   2.02768421   0.02509424
4994.00   2.04950237   0.02504951
4996.00   2.08011198   0.02497186
4998.00   2.10079527   0.02496147
5000.00   2.15204287   0.02513740
5002.00   2.19539380   0.02528792
5004.00   2.25230289   0.02548070
5006.00   2.28505301   0.02560864
5008.00   2.33724046   0.02585530
5010.00   2.35808754   0.02591902
5012.00   2.37605858   0.02604141
5014.00   2.39830208   0.02633499
5016.00   2.42777634   0.02653466
5018.00   2.48473454   0.02672408
5020.00   2.48883820   0.02668520
5022.00   2.50068450   0.02667455
5024.00   2.51539898   0.02662600
5026.00   2.47141242   0.02635795
5028.00   2.47623610   0.02641939
5030.00   2.51054978   0.02668590
5032.00   2.54548907   0.02685767
5034.00   2.44865012   0.02637366
5036.00   2.35809112   0.02586759
5038.00   2.30318832   0.02561289
5040.00   2.29769564   0.02549353
5042.00   2.26403666   0.02541515
5044.00   2.23665953   0.02527838
5046.00   2.21344161   0.02514595
5048.00   2.18168664   0.02501308
5050.00   2.18041253   0.02498466
5052.00   2.13508606   0.02478944
5054.00   2.10573864   0.02463844
5056.00   2.01763678   0.02419873
5058.00   2.00823498   0.02417647
5060.00   1.98531270   0.02401779
5062.00   1.90558243   0.02380808
5064.00   1.90152419   0.02380791
5066.00   1.88171172   0.02373189
5068.00   1.76850426   0.02336669
5070.00   1.72929180   0.02326257
5072.00   1.70230007   0.02299017
5074.00   1.68224764   0.02274420
5076.00   1.60951185   0.02234237
5078.00   1.62576842   0.02242470
5080.00   1.59929383   0.02267613
5082.00   1.55804265   0.02300729
5084.00   1.56957006   0.02345219
5086.00   1.51984072   0.02326513
5088.00   1.52524924   0.02294002
5090.00   1.47904158   0.02216226
5092.00   1.45972705   0.02172485
5094.00   1.41843450   0.02128747
5096.00   1.44155133   0.02140296
5098.00   1.37014854   0.02124680
5100.00   1.34229708   0.02120068
5102.00   1.36969328   0.02121457
5104.00   1.39294648   0.02111159
5106.00   1.36049604   0.02080294
5108.00   1.36996222   0.02086748
5110.00   1.36581659   0.02080579
5112.00   1.37172055   0.02090245
5114.00   1.36978090   0.02093260
5116.00   1.37353575   0.02092318
5118.00   1.36026740   0.02089581
5120.00   1.34411752   0.02077687
5122.00   1.37152970   0.02086493
5124.00   1.36927164   0.02088066
5126.00   1.43836641   0.02121423
5128.00   1.41054952   0.02105510
5130.00   1.41577721   0.02113499
5132.00   1.43085897   0.02132459
5134.00   1.41987848   0.02132054
5136.00   1.48676348   0.02166107
5138.00   1.48134220   0.02170074
5140.00   1.51872385   0.02193216
5142.00   1.53230166   0.02200953
5144.00   1.54763019   0.02218379
5146.00   1.51516020   0.02216384
5148.00   1.62486315   0.02287303
5150.00   1.61972165   0.02300260
5152.00   1.63395381   0.02330604
5154.00   1.68076897   0.02363440
5156.00   1.71497202   0.02377561
5158.00   1.67457676   0.02336490
5160.00   1.67968893   0.02328163
5162.00   1.71219063   0.02345890
5164.00   1.69656515   0.02329105
5166.00   1.71225190   0.02335967
5168.00   1.72252345   0.02340051
5170.00   1.73366165   0.02339348
5172.00   1.77711904   0.02365061
5174.00   1.71659780   0.02333872
5176.00   1.69624662   0.02333496
5178.00   1.73688340   0.02356342
5180.00   1.74290884   0.02364138
5182.00   1.72832596   0.02350727
5184.00   1.70328414   0.02340599
5186.00   1.70470524   0.02349566
5188.00   1.70290709   0.02362541
5190.00   1.69352615   0.02362474
5192.00   1.70026422   0.02359984
5194.00   1.67423534   0.02351484
5196.00   1.65688002   0.02353658
5198.00   1.63934195   0.02357554
5200.00   1.62832177   0.02358594
5202.00   1.62455881   0.02355972
5204.00   1.60761583   0.02340587
5206.00   1.57932258   0.02319006
5208.00   1.58874476   0.02337250
5210.00   1.59547436   0.02351495
5212.00   1.60522485   0.02365154
5214.00   1.54946017   0.02327048
5216.00   1.61652088   0.02367112
5218.00   1.62374461   0.02386500
5220.00   1.54680395   0.02350610
5222.00   1.56818855   0.02362558
5224.00   1.65836203   0.02413139
5226.00   1.62940085   0.02394227
5228.00   1.63327670   0.02403838
5230.00   1.62358618   0.02401028
5232.00   1.63074493   0.02409318
5234.00   1.65609443   0.02426556
5236.00   1.69907939   0.02461549
5238.00   1.68935966   0.02462746
5240.00   1.63440228   0.02441025
5242.00   1.59509933   0.02411421
5244.00   1.62005889   0.02432523
5246.00   1.61002851   0.02430682
5248.00   1.62993753   0.02445216
5250.00   1.67875493   0.02477287
5252.00   1.67007244   0.02481445
5254.00   1.67887402   0.02496495
5256.00   1.66430664   0.02503210
5258.00   1.67611325   0.02522212
5260.00   1.76144910   0.02565089
5262.00   1.75153553   0.02556421
5264.00   1.81742811   0.02598354
5266.00   1.79330635   0.02586259
5268.00   1.76765943   0.02570277
5270.00   1.74548662   0.02561910
5272.00   1.82600534   0.02621425
5274.00   1.76793408   0.02595256
5276.00   1.79355872   0.02616730
5278.00   1.76915693   0.02603899
5280.00   1.81438410   0.02636159
5282.00   1.71808958   0.02581750
5284.00   1.79308593   0.02636728
5286.00   1.80029666   0.02646769
5288.00   1.77887130   0.02649480
5290.00   1.78152514   0.02649761
5292.00   1.80796182   0.02674146
5294.00   1.75695670   0.02652862
5296.00   1.79114699   0.02678080
5298.00   1.86768234   0.02735661
5300.00   1.82510662   0.02722448
5302.00   1.85780942   0.02742779
5304.00   1.84851015   0.02732862
5306.00   1.88117135   0.02768012
5308.00   1.82362902   0.02742958
5310.00   1.89278877   0.02789996
5312.00   1.94553304   0.02836232
5314.00   1.90473568   0.02816837
5316.00   1.96864617   0.02861321
5318.00   1.98044741   0.02875567
5320.00   1.99050260   0.02888395
5322.00   1.93499339   0.02863151
5324.00   2.00311637   0.02914794
5326.00   2.01547194   0.02915659
5328.00   2.00006175   0.02917626
5330.00   2.01803923   0.02944716
5332.00   1.99771774   0.02939607
5334.00   2.02745056   0.02959506
5336.00   2.02058887   0.02957995
5338.00   1.99979210   0.02961159
5340.00   2.03703523   0.02992924
5342.00   2.02304125   0.03007190
5344.00   2.02183414   0.03013498
5346.00   2.05273151   0.03044096
5348.00   2.04333496   0.03054223
5350.00   2.07495117   0.03086653
5352.00   2.03605056   0.03064034
5354.00   2.00582623   0.03058425
5356.00   2.05146146   0.03102297
5358.00   2.03636622   0.03100196
5360.00   2.04763842   0.03091827
5362.00   2.05416298   0.03093649
5364.00   2.09404063   0.03124112
5366.00   2.10896540   0.03135096
5368.00   2.10701299   0.03134232
5370.00   2.12683511   0.03154972
5372.00   2.10971069   0.03169325
5374.00   2.12856340   0.03192485
5376.00   2.18424559   0.03242217
5378.00   2.11719418   0.03211054
5380.00   2.08880067   0.03188992
5382.00   2.15893149   0.03252856
5384.00   2.11649394   0.03233599
5386.00   2.11005425   0.03233391
5388.00   2.10858822   0.03246266
5390.00   2.13400602   0.03298552
5392.00   2.09517884   0.03280302
5394.00   2.10572314   0.03294282
5396.00   2.11644530   0.03300732
5398.00   2.06273317   0.03277300
5400.00   2.07712650   0.03298808
5402.00   2.10200620   0.03313220
5404.00   2.13278103   0.03345248
5406.00   2.09807110   0.03348753
5408.00   2.13265538   0.03386663
5410.00   2.26304317   0.03479273
5412.00   2.18109679   0.03457613
5414.00   2.21762490   0.03507999
5416.00   2.21879721   0.03518653
5418.00   2.20621562   0.03533740
5420.00   2.17934537   0.03543468
5422.00   2.32180166   0.03622993
5424.00   2.20134878   0.03572201
5426.00   2.23456740   0.03592258
5428.00   2.25814772   0.03613618
5430.00   2.22251391   0.03609268
5432.00   2.32353354   0.03677544
5434.00   2.21291709   0.03616749
5436.00   2.29133749   0.03676957
5438.00   2.28562331   0.03699192
5440.00   2.24247909   0.03687437
5442.00   2.27791715   0.03722003
5444.00   2.27777123   0.03734967
5446.00   2.29337096   0.03757337
5448.00   2.19241166   0.03700350
5450.00   2.18384171   0.03704685
5452.00   2.20108938   0.03718054
5454.00   2.26038146   0.03776434
5456.00   2.14859009   0.01436141
5458.00   2.13492727   0.01407640
5460.00   2.11028552   0.01425662
5462.00   2.10203028   0.01426558
5464.00   2.11607099   0.01420129
5466.00   2.12924075   0.01405347
5468.00   2.12364316   0.01371167
5470.00   2.10753846   0.01319430
5472.00   2.09919333   0.01312321
5474.00   2.09380007   0.01360969
5476.00   2.08670330   0.01362599
5478.00   2.08124638   0.01320122
5480.00   2.07157278   0.01284902
5482.00   2.04845119   0.01287383
5484.00   2.02053022   0.01306106
5486.00   2.02669573   0.01294431
5488.00   2.06387711   0.01249473
5490.00   2.09478235   0.01236319
5492.00   2.14035130   0.01245878
5494.00   2.17313886   0.01252146
5496.00   2.17850089   0.01241458
5498.00   2.17632747   0.01232370
5500.00   2.20475912   0.01259532
5502.00   2.25521755   0.01304128
5504.00   2.30044198   0.01380354
5506.00   2.35239506   0.01529661
5508.00   2.40064120   0.01599281
5510.00   2.43914771   0.01581492
5512.00   2.48057032   0.01520781
5514.00   2.54502606   0.01437669
5516.00   2.63406205   0.01269087
5518.00   2.68059897   0.01321721
5520.00   2.69121027   0.01589425
5522.00   2.71200442   0.01732134
5524.00   2.72863173   0.01804825
5526.00   2.76023555   0.01837343
5528.00   2.83812070   0.01816976
5530.00   2.95403910   0.01739906
5532.00   2.98682189   0.01770645
5534.00   2.93563867   0.01924046
5536.00   2.93492436   0.01961613
5538.00   2.96074271   0.01902660
5540.00   3.00165510   0.01835567
5542.00   3.06865025   0.01806905
5544.00   3.15063524   0.01789220
5546.00   3.16010571   0.01747836
5548.00   3.08355975   0.01693281
5550.00   3.07139540   0.01627134
5552.00   3.09733057   0.01512326
5554.00   3.11782026   0.01440228
5556.00   3.12260008   0.01461335
5558.00   3.12044239   0.01524841
5560.00   3.11246753   0.01544343
5562.00   3.08994102   0.01551131
5564.00   3.08688068   0.01555983
5566.00   3.10370183   0.01532180
5568.00   3.10924864   0.01547603
5570.00   3.10467386   0.01625114
5572.00   3.08834028   0.01712468
5574.00   3.05021334   0.01752423
5576.00   2.99058437   0.01768562
5578.00   2.93271828   0.01781011
5580.00   2.85209966   0.01814746
5582.00   2.80074954   0.01775318
5584.00   2.78832412   0.01615684
5586.00   2.78038168   0.01434943
5588.00   2.74864817   0.01357753
5590.00   2.70580006   0.01346893
5592.00   2.65967870   0.01343096
5594.00   2.60472798   0.01409978
5596.00   2.55029440   0.01409343
5598.00   2.48769736   0.01341248
5600.00   2.43386936   0.01268910
5602.00   2.40270042   0.01229569
5604.00   2.38546062   0.01204965
5606.00   2.35023475   0.01185868
5608.00   2.29952860   0.01183379
5610.00   2.26256800   0.01173783
5612.00   2.23541188   0.01163425
5614.00   2.20759916   0.01152324
5616.00   2.17471719   0.01127694
5618.00   2.14118934   0.01107192
5620.00   2.11495543   0.01153348
5622.00   2.09731698   0.01282860
5624.00   2.07159114   0.01315610
5626.00   2.03308272   0.01303315
5628.00   2.00959611   0.01267899
5630.00   2.00767136   0.01185318
5632.00   2.01583385   0.01090744
5634.00   2.02175522   0.01077353
5636.00   2.03356123   0.01135178
5638.00   2.03455877   0.01135411
5640.00   2.03047037   0.01082097
5642.00   2.01994467   0.01085609
5644.00   1.99300694   0.01176105
5646.00   1.97162914   0.01257309
5648.00   1.98128724   0.01253070
5650.00   2.01405215   0.01193571
5652.00   2.03117561   0.01157027
5654.00   2.04589224   0.01101993
5656.00   2.05694795   0.01076041
5658.00   2.06675386   0.01084895
5660.00   2.07000208   0.01098187
5662.00   2.06277466   0.01098702
5664.00   2.04721522   0.01095791
5666.00   2.02875328   0.01096262
5668.00   1.99842286   0.01098929
5670.00   1.97955000   0.01099844
5672.00   1.97597051   0.01097592
5674.00   1.96184385   0.01098573
5676.00   1.92589319   0.01094877
5678.00   1.87796831   0.01098045
5680.00   1.83393645   0.01158234
5682.00   1.78099334   0.01311380
5684.00   1.74457610   0.01328525
5686.00   1.72665358   0.01239749
5688.00   1.70014369   0.01163739
5690.00   1.66172469   0.01123909
5692.00   1.61561728   0.01095997
5694.00   1.56108069   0.01068281
5696.00   1.49364114   0.01047362
5698.00   1.43720794   0.01026834
5700.00   1.38367677   0.01012323
5702.00   1.33488762   0.00993770
5704.00   1.29213607   0.00955001
5706.00   1.25239396   0.00930780
5708.00   1.21390557   0.00975677
5710.00   1.17952824   0.01078380
5712.00   1.13119078   0.01075355
5714.00   1.06131816   0.00983496
5716.00   1.01219177   0.00915723
5718.00   0.98181230   0.00849301
5720.00   0.95836109   0.00798038
5722.00   0.93786716   0.00788037
5724.00   0.92262524   0.00810321
5726.00   0.89501667   0.00802627
5728.00   0.85176015   0.00778942
5730.00   0.82352674   0.00762636
5732.00   0.80432200   0.00748335
5734.00   0.79047626   0.00735750
5736.00   0.78218144   0.00721551
5738.00   0.77863759   0.00709831
5740.00   0.77308089   0.00719889
5742.00   0.76577705   0.00756978
5744.00   0.76454610   0.00774840
5746.00   0.76960540   0.00795795
5748.00   0.77386391   0.00797572
5750.00   0.77529907   0.00764015
5752.00   0.77664465   0.00717791
5754.00   0.78130257   0.00711257
5756.00   0.78768426   0.00735759
5758.00   0.79691470   0.00741431
5760.00   0.81055731   0.00738051
5762.00   0.82296699   0.00742808
5764.00   0.83497059   0.00760799
5766.00   0.84548080   0.00778926
5768.00   0.85185081   0.00780918
5770.00   0.85423738   0.00767823
5772.00   0.86015409   0.00787095
5774.00   0.86412632   0.00846508
5776.00   0.87556422   0.00868471
5778.00   0.89588618   0.00856272
5780.00   0.91853422   0.00833953
5782.00   0.93878084   0.00811730
5784.00   0.95887733   0.00782599
5786.00   0.98190969   0.00785139
5788.00   1.00547361   0.00815958
5790.00   1.03394711   0.00842625
5792.00   1.07039249   0.00872514
5794.00   1.10442042   0.00904346
5796.00   1.13042819   0.00946861
5798.00   1.15248060   0.00989400
5800.00   1.17845631   0.00980031
5802.00   1.20790052   0.00894476
5804.00   1.23268294   0.00874695
5806.00   1.25197899   0.00899152
5808.00   1.27464628   0.00918132
5810.00   1.30346525   0.00923531
5812.00   1.33511412   0.00923125
5814.00   1.36524117   0.00913851
5816.00   1.39558661   0.00887892
5818.00   1.42595494   0.00883170
5820.00   1.45565927   0.00875687
5822.00   1.48688114   0.00902103
5824.00   1.51536012   0.00983217
5826.00   1.54945016   0.01063045
5828.00   1.60386741   0.01085255
5830.00   1.67895794   0.01073834
5832.00   1.73058987   0.01061285
5834.00   1.76717806   0.01022558
5836.00   1.80651963   0.01000321
5838.00   1.84752464   0.00993070
5840.00   1.88739002   0.00993707
5842.00   1.92342246   0.00998421
5844.00   1.95616031   0.01008767
5846.00   1.99929953   0.01028264
5848.00   2.05398464   0.01066367
5850.00   2.10162687   0.01086634
5852.00   2.14576054   0.01093602
5854.00   2.18743539   0.01097298
5856.00   2.22546315   0.01096145
5858.00   2.26100135   0.01092962
5860.00   2.30251908   0.01121994
5862.00   2.33946705   0.01205947
5864.00   2.39706898   0.01220228
5866.00   2.48043442   0.01175399
5868.00   2.55636668   0.01142275
5870.00   2.61629224   0.01143140
5872.00   2.66801763   0.01158181
5874.00   2.71529269   0.01170199
5876.00   2.75031233   0.01182494
5878.00   2.79922247   0.01207855
5880.00   2.85272980   0.01190430
5882.00   2.91462946   0.01277941
5884.00   2.99729276   0.01471028
5886.00   3.07680988   0.01700683
5888.00   3.11638594   0.01951820
5890.00   3.12932658   0.02284617
5892.00   3.12812662   0.02307596
5894.00   3.09092164   0.02042196
5896.00   3.07213140   0.01834537
5898.00   3.06825519   0.01665923
5900.00   3.07349396   0.01515829
5902.00   3.08628178   0.01402965
5904.00   3.10713005   0.01333596
5906.00   3.13900590   0.01273159
5908.00   3.20006061   0.01247451
5910.00   3.22923851   0.01227129
5912.00   3.23052645   0.01225397
5914.00   3.22388721   0.01226189
5916.00   3.21513796   0.01208903
5918.00   3.20171976   0.01187117
5920.00   3.20568299   0.01237599
5922.00   3.22571731   0.01344722
5924.00   3.24020767   0.01445463
5926.00   3.26454329   0.01610315
5928.00   3.27307653   0.01686080
5930.00   3.25177479   0.01617300
5932.00   3.21591473   0.01463663
5934.00   3.19820666   0.01360635
5936.00   3.19154549   0.01238530
5938.00   3.17548108   0.01171363
5940.00   3.14728260   0.01142307
5942.00   3.13242102   0.01161419
5944.00   3.13625860   0.01258916
5946.00   3.14938402   0.01365084
5948.00   3.16355920   0.01388473
5950.00   3.18915725   0.01367210
5952.00   3.18801546   0.01328613
5954.00   3.16657567   0.01217399
5956.00   3.14177680   0.01161352
5958.00   3.10783696   0.01186030
5960.00   3.07390714   0.01224253
5962.00   3.05056858   0.01221542
5964.00   3.03282833   0.01201136
5966.00   3.02223444   0.01184167
5968.00   3.02140808   0.01156230
5970.00   3.02044201   0.01139908
5972.00   3.02096033   0.01135291
5974.00   3.02338862   0.01133273
5976.00   3.02843690   0.01122985
5978.00   3.03567481   0.01110560
5980.00   3.03967118   0.01140464
5982.00   3.05274701   0.01214131
5984.00   3.04049802   0.01265748
5986.00   2.99621725   0.01317538
5988.00   2.96087193   0.01357416
5990.00   2.95425534   0.01393473
5992.00   2.95814776   0.01414559
5994.00   2.93654084   0.01362656
5996.00   2.88448262   0.01131927
5998.00   2.86990738   0.01158778
6000.00   2.89381862   0.01454583
6002.00   2.89583683   0.01576429
6004.00   2.86226439   0.01463702
6006.00   2.81383681   0.01252630
6008.00   2.77229190   0.01175405
6010.00   2.72541189   0.01177766
6012.00   2.69056892   0.01142639
6014.00   2.66668010   0.01086780
6016.00   2.64073849   0.01069568
6018.00   2.61032104   0.01096035
6020.00   2.58260393   0.01147927
6022.00   2.56652689   0.01227279
6024.00   2.56146216   0.01347299
6026.00   2.53785944   0.01329839
6028.00   2.49427366   0.01155285
6030.00   2.46561337   0.01049552
6032.00   2.44746709   0.00994854
6034.00   2.43659234   0.00978148
6036.00   2.43693042   0.01009743
6038.00   2.44692564   0.01082463
6040.00   2.42904067   0.01110564
6042.00   2.38445687   0.01122774
6044.00   2.35181141   0.01128412
6046.00   2.31706548   0.01131450
6048.00   2.29241395   0.01116234
6050.00   2.28817701   0.01058923
6052.00   2.29457068   0.00978991
6054.00   2.28164363   0.00977370
6056.00   2.25288248   0.01071249
6058.00   2.23485494   0.01073390
6060.00   2.22128344   0.01013998
6062.00   2.20761681   0.00963740
6064.00   2.19325495   0.00938486
6066.00   2.17877865   0.00923764
6068.00   2.16429281   0.00912930
6070.00   2.15247512   0.00907562
6072.00   2.13062286   0.00914384
6074.00   2.08992934   0.00915103
6076.00   2.06804729   0.00956514
6078.00   2.07842755   0.01064904
6080.00   2.08918571   0.01162020
6082.00   2.06097484   0.01179299
6084.00   2.00200486   0.01149073
6086.00   1.98023379   0.01104107
6088.00   1.98224556   0.00971267
6090.00   1.98111475   0.00926210
6092.00   1.98386037   0.01014742
6094.00   1.98341751   0.01084165
6096.00   1.97126818   0.01032179
6098.00   1.95105791   0.00896000
6100.00   1.94069886   0.00852678
6102.00   1.93666446   0.00877381
6104.00   1.93051124   0.00880878
6106.00   1.92673862   0.00878468
6108.00   1.91874683   0.00883461
6110.00   1.89953339   0.00901818
6112.00   1.87531233   0.00928345
6114.00   1.87010455   0.00952802
6116.00   1.87961745   0.01001954
6118.00   1.88887250   0.00997237
6120.00   1.90742373   0.00933101
6122.00   1.92113328   0.00885035
6124.00   1.92413592   0.00880107
6126.00   1.92407179   0.00892074
6128.00   1.93364692   0.00889468
6130.00   1.94815528   0.00880575
6132.00   1.96651411   0.00882679
6134.00   1.99621761   0.00898148
6136.00   2.01634526   0.00904304
6138.00   2.01991844   0.00896053
6140.00   2.02225161   0.00885286
6142.00   2.04266000   0.00885857
6144.00   2.07665277   0.00893522
6146.00   2.09904957   0.00897300
6148.00   2.11961055   0.00900452
6150.00   2.13325787   0.00903847
6152.00   2.13711214   0.00907643
6154.00   2.13928103   0.00911213
6156.00   2.14664054   0.00914290
6158.00   2.15616107   0.00917103
6160.00   2.16233754   0.00917944
6162.00   2.17012572   0.00919887
6164.00   2.16957235   0.00914916
6166.00   2.15546989   0.00886860
6168.00   2.14629841   0.00880289
6170.00   2.15331674   0.00929395
6172.00   2.16893888   0.01004289
6174.00   2.17555523   0.01028577
6176.00   2.18306494   0.01028165
6178.00   2.17942286   0.01018037
6180.00   2.16218877   0.00970415
6182.00   2.14724374   0.00946965
6184.00   2.14149690   0.00976112
6186.00   2.13690901   0.01025280
6188.00   2.11867571   0.01046003
6190.00   2.08539200   0.01062229
6192.00   2.06624484   0.01056366
6194.00   2.05060291   0.01030049
6196.00   2.04343843   0.00992516
6198.00   2.04940796   0.00928865
6200.00   2.05941558   0.00861735
6202.00   2.05945730   0.00841788
6204.00   2.05235672   0.00861456
6206.00   2.05640125   0.00862527
6208.00   2.07035494   0.00862053
6210.00   2.08021331   0.00864691
6212.00   2.08435941   0.00870473
6214.00   2.08994174   0.00878049
6216.00   2.10270524   0.00888501
6218.00   2.12018394   0.00902677
6220.00   2.13918734   0.00900951
6222.00   2.16502953   0.00856495
6224.00   2.18416548   0.00875613
6226.00   2.19159102   0.00973016
6228.00   2.20635581   0.01045881
6230.00   2.24174452   0.01051569
6232.00   2.28951764   0.01021061
6234.00   2.32536626   0.00993575
6236.00   2.35861540   0.00931160
6238.00   2.38687658   0.00908898
6240.00   2.41030407   0.00923132
6242.00   2.43021083   0.00934738
6244.00   2.44615817   0.00931781
6246.00   2.45899773   0.00924826
6248.00   2.47215843   0.00923027
6250.00   2.48201871   0.00918157
6252.00   2.49763846   0.00928832
6254.00   2.52163148   0.00962005
6256.00   2.53869295   0.00980083
6258.00   2.54646087   0.00975013
6260.00   2.54903173   0.00962656
6262.00   2.54959774   0.00962889
6264.00   2.54613113   0.00971609
6266.00   2.54255867   0.00966697
6268.00   2.53533340   0.00935394
6270.00   2.53140664   0.00936735
6272.00   2.52514648   0.00986263
6274.00   2.52740693   0.01034781
6276.00   2.55405211   0.01041996
6278.00   2.60247493   0.01025080
6280.00   2.62322211   0.01015931
6282.00   2.62912345   0.00983976
6284.00   2.63146591   0.00992052
6286.00   2.62713790   0.01058961
6288.00   2.61870384   0.01106165
6290.00   2.60849071   0.01080825
6292.00   2.59521031   0.01011742
6294.00   2.57522798   0.01020504
6296.00   2.54169273   0.01105873
6298.00   2.52143264   0.01128284
6300.00   2.50753427   0.01115939
6302.00   2.50008631   0.01094540
6304.00   2.50437951   0.01059296
6306.00   2.51355886   0.01019598
6308.00   2.50165343   0.01039756
6310.00   2.45975518   0.01147111
6312.00   2.45676851   0.01143157
6314.00   2.49055791   0.01047298
6316.00   2.50873041   0.00967144
6318.00   2.49955130   0.00923716
6320.00   2.48087692   0.00900049
6322.00   2.47121119   0.00894103
6324.00   2.45989251   0.00905869
6326.00   2.46305203   0.00943418
6328.00   2.49172235   0.01031817
6330.00   2.49788070   0.01076661
6332.00   2.46776748   0.01083199
6334.00   2.43822193   0.01066402
6336.00   2.44920111   0.01025371
6338.00   2.48885489   0.00947295
6340.00   2.50394607   0.00914590
6342.00   2.51588273   0.00913178
6344.00   2.51235795   0.00912539
6346.00   2.48332787   0.00919761
6348.00   2.45765662   0.00930134
6350.00   2.45263815   0.00935263
6352.00   2.45921016   0.00939142
6354.00   2.48599076   0.00974435
6356.00   2.58247471   0.01071591
6358.00   2.57679105   0.01083951
6360.00   2.45509028   0.01002415
6362.00   2.36209464   0.00945448
6364.00   2.36566973   0.00982514
6366.00   2.41173410   0.01058144
6368.00   2.40752411   0.01083488
6370.00   2.38116336   0.01050242
6372.00   2.35389352   0.01110815
6374.00   2.29930067   0.01290719
6376.00   2.27342582   0.01360283
6378.00   2.30383754   0.01260446
6380.00   2.34891176   0.01080196
6382.00   2.33488679   0.01007780
6384.00   2.26996279   0.00999950
6386.00   2.25279808   0.00975927
6388.00   2.26603460   0.00954241
6390.00   2.27040219   0.00957840
6392.00   2.26131034   0.01009268
6394.00   2.25266266   0.01056048
6396.00   2.25869894   0.01039472
6398.00   2.27735329   0.00974878
6400.00   2.27693057   0.00934419
6402.00   2.25941610   0.00886772
6404.00   2.25065088   0.00856796
6406.00   2.24996638   0.00845675
6408.00   2.24990463   0.00846724
6410.00   2.24613333   0.00852305
6412.00   2.24079037   0.00865132
6414.00   2.23481894   0.00912777
6416.00   2.23475409   0.01006829
6418.00   2.21832585   0.01061454
6420.00   2.18087959   0.01084128
6422.00   2.14740515   0.01116749
6424.00   2.12383199   0.01199184
6426.00   2.10830021   0.01288545
6428.00   2.12362790   0.01248493
6430.00   2.19149852   0.01001185
6432.00   2.21037674   0.00933620
6434.00   2.19763851   0.01032113
6436.00   2.18805146   0.01070398
6438.00   2.18900919   0.00982313
6440.00   2.19298363   0.00840674
6442.00   2.19659328   0.00798456
6444.00   2.20242643   0.00827362
6446.00   2.20491815   0.00843339
6448.00   2.20292902   0.00885663
6450.00   2.20480013   0.00911994
6452.00   2.21399093   0.00916297
6454.00   2.22301674   0.00916603
6456.00   2.22220612   0.00925318
6458.00   2.21395588   0.00924974
6460.00   2.20997119   0.00994569
6462.00   2.20017982   0.01170404
6464.00   2.20396352   0.01225119
6466.00   2.22757411   0.01147575
6468.00   2.25084567   0.01057193
6470.00   2.25631070   0.01075486
6472.00   2.25129271   0.01153723
6474.00   2.25713086   0.01125953
6476.00   2.26879072   0.00965764
6478.00   2.27921629   0.00917764
6480.00   2.29342318   0.00998219
6482.00   2.30256319   0.01056741
6484.00   2.30020332   0.01028954
6486.00   2.29090619   0.00957046
6488.00   2.28843093   0.00915325
6490.00   2.28468108   0.00863467
6492.00   2.29027796   0.00850775
6494.00   2.30852079   0.00883737
6496.00   2.32225990   0.00910489
6498.00   2.32363153   0.00918546
6500.00   2.32198048   0.00921066
6502.00   2.33562899   0.00928777
6504.00   2.37100983   0.00944301
6506.00   2.37250876   0.00939632
6508.00   2.35270882   0.00911901
6510.00   2.32433748   0.00893144
6512.00   2.28117132   0.00887968
6514.00   2.23492718   0.00888044
6516.00   2.20757389   0.00887492
6518.00   2.19464135   0.00890762
6520.00   2.16750979   0.00885879
6522.00   2.13225436   0.00860971
6524.00   2.09819961   0.00863486
6526.00   2.06403446   0.00910200
6528.00   2.03032041   0.00948766
6530.00   1.99932039   0.00936315
6532.00   1.97079074   0.00889112
6534.00   1.93361831   0.00859029
6536.00   1.88470995   0.00825045
6538.00   1.84582508   0.00798646
6540.00   1.81521618   0.00778743
6542.00   1.78649163   0.00764418
6544.00   1.75517559   0.00756487
6546.00   1.72414744   0.00754652
6548.00   1.70426500   0.00752474
6550.00   1.69530475   0.00753861
6552.00   1.68519676   0.00753489
6554.00   1.68043256   0.00744562
6556.00   1.67234933   0.00749173
6558.00   1.65476322   0.00780775
6560.00   1.63494408   0.00821581
6562.00   1.63010836   0.00836834
6564.00   1.62882078   0.00837156
6566.00   1.65029860   0.00837372
6568.00   1.69708347   0.00818812
6570.00   1.74527252   0.00822025
6572.00   1.80240822   0.00863625
6574.00   1.85403407   0.00910107
6576.00   1.86855567   0.00921240
6578.00   1.85399735   0.00913840
6580.00   1.83767200   0.00895123
6582.00   1.79430187   0.00850592
6584.00   1.77407730   0.00812419
6586.00   1.77690756   0.00762964
6588.00   1.79257894   0.00735078
6590.00   1.81780255   0.00777710
6592.00   1.85667384   0.00871082
6594.00   1.88153386   0.00915241
6596.00   1.89876091   0.00959188
6598.00   1.91720569   0.00964392
6600.00   1.93498218   0.00919523
6602.00   1.95273829   0.00868501
6604.00   1.97123551   0.00841196
6606.00   1.99005294   0.00823211
6608.00   2.00823951   0.00804938
6610.00   2.02053094   0.00778724
6612.00   2.04542065   0.00782157
6614.00   2.08583617   0.00821302
6616.00   2.12145948   0.00852634
6618.00   2.14450788   0.00864933
6620.00   2.16145039   0.00867724
6622.00   2.18008661   0.00861709
6624.00   2.19682050   0.00836257
6626.00   2.21419787   0.00828924
6628.00   2.23445868   0.00834342
6630.00   2.24911380   0.00836563
6632.00   2.25350881   0.00831696
6634.00   2.25547647   0.00825791
6636.00   2.26817203   0.00826415
6638.00   2.28920460   0.00832326
6640.00   2.30378795   0.00834372
6642.00   2.31852770   0.00833722
6644.00   2.32754159   0.00835486
6646.00   2.32647848   0.00841858
6648.00   2.32553506   0.00847282
6650.00   2.33685374   0.00841395
6652.00   2.35710049   0.00821752
6654.00   2.36754680   0.00849866
6656.00   2.36933374   0.00936060
6658.00   2.37817264   0.00972687
6660.00   2.39493132   0.00976832
6662.00   2.41127181   0.00961013
6664.00   2.42130470   0.00912072
6666.00   2.42799735   0.00829559
6668.00   2.43951297   0.00854005
6670.00   2.45804262   0.01005216
6672.00   2.46714783   0.01040318
6674.00   2.47169375   0.00978700
6676.00   2.46942616   0.00942340
6678.00   2.45273542   0.01001948
6680.00   2.43028021   0.01092787
6682.00   2.43762660   0.01103447
6684.00   2.47764230   0.01068182
6686.00   2.49375534   0.01020881
6688.00   2.50328493   0.00910790
6690.00   2.50493407   0.00833120
6692.00   2.49416518   0.00829702
6694.00   2.47860003   0.00860597
6696.00   2.47444773   0.00873466
6698.00   2.47703791   0.00889742
6700.00   2.47808504   0.00905517
6702.00   2.48236299   0.00931844
6704.00   2.48337269   0.00939459
6706.00   2.47996306   0.00921823
6708.00   2.47525978   0.00896017
6710.00   2.47273898   0.00880083
6712.00   2.47176409   0.00865634
6714.00   2.46555328   0.00858270
6716.00   2.45777917   0.00860524
6718.00   2.44388819   0.00859558
6720.00   2.41844201   0.00842960
6722.00   2.39577699   0.00844290
6724.00   2.38755131   0.00899089
6726.00   2.38832927   0.00985839
6728.00   2.38541746   0.01006109
6730.00   2.38319945   0.00970027
6732.00   2.38155532   0.00966103
6734.00   2.38204527   0.00975652
6736.00   2.38073635   0.00994896
6738.00   2.37877083   0.01031174
6740.00   2.37418437   0.01074519
6742.00   2.35139060   0.01080511
6744.00   2.30092120   0.01066858
6746.00   2.27413869   0.01030811
6748.00   2.26011968   0.00943705
6750.00   2.24713373   0.00873827
6752.00   2.23488045   0.00841492
6754.00   2.22236991   0.00836030
6756.00   2.20193362   0.00858110
6758.00   2.17422533   0.00913125
6760.00   2.14953828   0.00965188
6762.00   2.12098885   0.01059570
6764.00   2.09943223   0.01090427
6766.00   2.08575821   0.01039930
6768.00   2.07742524   0.00955865
6770.00   2.07382131   0.00895620
6772.00   2.07779908   0.00829330
6774.00   2.07183576   0.00795506
6776.00   2.05614448   0.00799751
6778.00   2.04744840   0.00799509
6780.00   2.04734945   0.00801874
6782.00   2.04709220   0.00803691
6784.00   2.04096651   0.00799296
6786.00   2.03193069   0.00791044
6788.00   2.01652622   0.00785202
6790.00   1.98771930   0.00778540
6792.00   1.97193992   0.00774658
6794.00   1.96933103   0.00774236
6796.00   1.96521235   0.00773720
6798.00   1.95168304   0.00769419
6800.00   1.93396366   0.00764221
6802.00   1.92181349   0.00771140
6804.00   1.91235125   0.00791544
6806.00   1.90349209   0.00804179
6808.00   1.89468670   0.00806230
6810.00   1.88903916   0.00822123
6812.00   1.88880968   0.00859754
6814.00   1.89101732   0.00907321
6816.00   1.88932335   0.00952312
6818.00   1.88924527   0.01022201
6820.00   1.87803078   0.01021954
6822.00   1.85567248   0.00954532
6824.00   1.83346188   0.00893811
6826.00   1.80825222   0.00838563
6828.00   1.78583729   0.00792880
6830.00   1.77844286   0.00786978
6832.00   1.78457463   0.00823432
6834.00   1.78217375   0.00821905
6836.00   1.78006208   0.00777396
6838.00   1.77282166   0.00782949
6840.00   1.75985730   0.00867272
6842.00   1.74389291   0.00932867
6844.00   1.72664499   0.00905461
6846.00   1.70705652   0.00808586
6848.00   1.68849957   0.00775441
6850.00   1.66489506   0.00763849
6852.00   1.65204322   0.00778959
6854.00   1.65526307   0.00849756
6856.00   1.65352833   0.00894409
6858.00   1.63484192   0.00865701
6860.00   1.60629582   0.00792016
6862.00   1.57768261   0.00771032
6864.00   1.53580189   0.00774056
6866.00   1.51307690   0.00789961
6868.00   1.49822783   0.00839669
6870.00   1.49795640   0.00870802
6872.00   1.52387381   0.00857998
6874.00   1.56060016   0.00831894
6876.00   1.56386864   0.00864626
6878.00   1.55135870   0.00971633
6880.00   1.51949286   0.00969184
6882.00   1.44636190   0.00872382
6884.00   1.39772618   0.00791508
6886.00   1.38088274   0.00739462
6888.00   1.38324046   0.00710289
6890.00   1.40254939   0.00728199
6892.00   1.45343125   0.00804240
6894.00   1.46023285   0.00811766
6896.00   1.43441176   0.00772251
6898.00   1.41364384   0.00745671
6900.00   1.39402783   0.00719751
6902.00   1.37619448   0.00711017
6904.00   1.36559641   0.00753838
6906.00   1.36132348   0.00838074
6908.00   1.34614873   0.00838254
6910.00   1.31856394   0.00761375
6912.00   1.30143762   0.00718103
6914.00   1.29417276   0.00695924
6916.00   1.28797817   0.00684160
6918.00   1.27962017   0.00682925
6920.00   1.27073920   0.00692222
6922.00   1.25264394   0.00688902
6924.00   1.22371280   0.00674663
6926.00   1.19936895   0.00670377
6928.00   1.16963255   0.00675988
6930.00   1.15040064   0.00677705
6932.00   1.15022194   0.00668788
6934.00   1.16083193   0.00655414
6936.00   1.16472518   0.00650613
6938.00   1.16932774   0.00646530
6940.00   1.17132902   0.00654837
6942.00   1.17038429   0.00677257
6944.00   1.17028034   0.00697431
6946.00   1.16893375   0.00719295
6948.00   1.17028248   0.00735403
6950.00   1.18411934   0.00726240
6952.00   1.21221709   0.00689984
6954.00   1.22546029   0.00672783
6956.00   1.23005986   0.00656034
6958.00   1.23474443   0.00653777
6960.00   1.23475623   0.00675477
6962.00   1.23880029   0.00698109
6964.00   1.25965190   0.00696291
6966.00   1.29471242   0.00676356
6968.00   1.31590891   0.00686024
6970.00   1.32656980   0.00697753
6972.00   1.34519267   0.00745864
6974.00   1.37313223   0.00859865
6976.00   1.39973295   0.00933532
6978.00   1.41736877   0.00904727
6980.00   1.42989504   0.00804954
6982.00   1.44824851   0.00768040
6984.00   1.46768939   0.00758674
6986.00   1.49133599   0.00754383
6988.00   1.51735854   0.00771577
6990.00   1.54854465   0.00782416
6992.00   1.58414924   0.00763893
6994.00   1.62562883   0.00738074
6996.00   1.68263364   0.00779713
6998.00   1.77130127   0.00909992
7000.00   1.82168925   0.00929128
7002.00   1.84836507   0.00870000
7004.00   1.86886322   0.00820003
7006.00   1.88197339   0.00791776
7008.00   1.89137304   0.00778543
7010.00   1.91149402   0.00799412
7012.00   1.93988061   0.00856672
7014.00   1.96108031   0.00893131
7016.00   1.97194159   0.00940292
7018.00   1.99599051   0.00959132
7020.00   2.03222752   0.00918285
7022.00   2.07996774   0.00889098
7024.00   2.14648104   0.00980517
7026.00   2.23758888   0.01159561
7028.00   2.28377891   0.01163156
7030.00   2.29951262   0.01005089
7032.00   2.31016231   0.00914581
7034.00   2.30614781   0.00891041
7036.00   2.30096006   0.00887321
7038.00   2.30596852   0.00873751
7040.00   2.31559610   0.00864169
7042.00   2.32562637   0.00898206
7044.00   2.33024120   0.01006110
7046.00   2.35304570   0.01030620
7048.00   2.39991021   0.00959228
7050.00   2.44182348   0.00925920
7052.00   2.46585226   0.01020028
7054.00   2.48075104   0.01156542
7056.00   2.49509358   0.01184959
7058.00   2.50788927   0.01154580
7060.00   2.51190591   0.01110955
7062.00   2.50201893   0.01002164
7064.00   2.49826026   0.00915816
7066.00   2.50424480   0.00884943
7068.00   2.51659369   0.00887440
7070.00   2.53617215   0.00904632
7072.00   2.56741691   0.00963515
7074.00   2.58926702   0.00970878
7076.00   2.60596395   0.00937169
7078.00   2.62409258   0.00918086
7080.00   2.64477301   0.00913200
7082.00   2.66528487   0.00921214
7084.00   2.68598008   0.00954252
7086.00   2.71352172   0.01016617
7088.00   2.70157599   0.01027363
7090.00   2.64543605   0.01002212
7092.00   2.60558486   0.00977281
7094.00   2.57833791   0.00937304
7096.00   2.55363607   0.00904559
7098.00   2.52561855   0.00906426
7100.00   2.49653625   0.00932558
7102.00   2.47790718   0.00940346
7104.00   2.46400595   0.00941628
7106.00   2.46070075   0.00945318
7108.00   2.47075486   0.00954485
7110.00   2.48399377   0.00956502
7112.00   2.50020432   0.00942377
7114.00   2.51795840   0.00918147
7116.00   2.51074314   0.00904941
7118.00   2.47748446   0.00895651
7120.00   2.45378447   0.00889572
7122.00   2.42255998   0.00869474
7124.00   2.40276456   0.00883163
7126.00   2.40361071   0.00957817
7128.00   2.41388750   0.01047912
7130.00   2.41298962   0.01083550
7132.00   2.41266775   0.01104563
7134.00   2.39705062   0.01077998
7136.00   2.35953450   0.00968649
7138.00   2.33326888   0.00890571
7140.00   2.32200241   0.00870641
7142.00   2.31752801   0.00874707
7144.00   2.31396985   0.00871429
7146.00   2.31437612   0.00875537
7148.00   2.31520128   0.00877867
7150.00   2.32316899   0.00884897
7152.00   2.32123113   0.00885761
7154.00   2.31002045   0.00876025
7156.00   2.29253078   0.00868379
7158.00   2.26710200   0.00874652
7160.00   2.23223615   0.00889878
7162.00   2.21951509   0.00903516
7164.00   2.22551775   0.00908626
7166.00   2.22733235   0.00938175
7168.00   2.22918963   0.00998127
7170.00   2.23197079   0.01050481
7172.00   2.24041581   0.01075317
7174.00   2.25072551   0.01087620
7176.00   2.23136115   0.01120030
7178.00   2.17044139   0.01205565
7180.00   2.14486837   0.01191956
7182.00   2.13496923   0.01061688
7184.00   2.13750672   0.00955699
7186.00   2.15598202   0.00950958
7188.00   2.18494153   0.00989666
7190.00   2.20558906   0.00985570
7192.00   2.22453070   0.00965172
7194.00   2.24379826   0.00952297
7196.00   2.27001452   0.00936357
7198.00   2.28246617   0.00927018
7200.00   2.27411389   0.00928760
7202.00   2.25782800   0.00933751
7204.00   2.25093675   0.00930165
7206.00   2.24777246   0.00919597
7208.00   2.24019122   0.00919954
7210.00   2.23109198   0.00938741
7212.00   2.21950603   0.00936143
7214.00   2.20100474   0.00903159
7216.00   2.18548441   0.00865987
7218.00   2.18526506   0.00851345
7220.00   2.19737458   0.00849332
7222.00   2.19242811   0.00846396
7224.00   2.16989660   0.00845508
7226.00   2.16234827   0.00851707
7228.00   2.16094184   0.00854347
7230.00   2.17258835   0.00876682
7232.00   2.20597339   0.00939775
7234.00   2.25604272   0.01024403
7236.00   2.29563189   0.01065639
7238.00   2.35286570   0.01092469
7240.00   2.36623573   0.01097527
7242.00   2.33520436   0.01070437
7244.00   2.30327058   0.01044440
7246.00   2.28195095   0.01034446
7248.00   2.26397204   0.01028040
7250.00   2.25645804   0.01005014
7252.00   2.25773716   0.00952356
7254.00   2.26411557   0.00943169
7256.00   2.27869749   0.00979334
7258.00   2.29584408   0.00995625
7260.00   2.31643629   0.00977775
7262.00   2.33859348   0.00949041
7264.00   2.35815287   0.00937489
7266.00   2.38118553   0.00930423
7268.00   2.38531590   0.00936854
7270.00   2.36746669   0.00950495
7272.00   2.35782290   0.00980623
7274.00   2.35830069   0.01046997
7276.00   2.35983419   0.01100179
7278.00   2.35287189   0.01087923
7280.00   2.33787155   0.01023344
7282.00   2.34945703   0.01003073
7284.00   2.38939762   0.01006333
7286.00   2.41642165   0.01002538
7288.00   2.43068933   0.00995194
7290.00   2.44844961   0.00988197
7292.00   2.48270512   0.00982616
7294.00   2.52696419   0.00977894
7296.00   2.55002880   0.00977048
7298.00   2.56477809   0.00983041
7300.00   2.56443548   0.00982778
7302.00   2.54256296   0.00977035
7304.00   2.52028918   0.00972113
7306.00   2.50124145   0.00969329
7308.00   2.48508453   0.00968303
7310.00   2.49172878   0.00973527
7312.00   2.52677226   0.00986748
7314.00   2.54417253   0.00995474
7316.00   2.55790949   0.00981323
7318.00   2.56727815   0.01006225
7320.00   2.56633043   0.01109819
7322.00   2.56519699   0.01213910
7324.00   2.58644366   0.01204101
7326.00   2.62860727   0.01082574
7328.00   2.65617085   0.01062078
7330.00   2.69007301   0.01110675
7332.00   2.70105076   0.01135443
7334.00   2.68043232   0.01139551
7336.00   2.64966559   0.01130394
7338.00   2.63252306   0.01095937
7340.00   2.62117410   0.01022196
7342.00   2.59549618   0.01039243
7344.00   2.55462909   0.01151560
7346.00   2.52161932   0.01203332
7348.00   2.48715639   0.01224997
7350.00   2.46489215   0.01214246
7352.00   2.47014213   0.01144545
7354.00   2.49635506   0.01013731
7356.00   2.50564241   0.00971043
7358.00   2.51397347   0.01007896
7360.00   2.51165223   0.01012273
7362.00   2.49613523   0.00991117
7364.00   2.47970343   0.00993486
7366.00   2.46574903   0.01057922
7368.00   2.45281696   0.01143830
7370.00   2.44895744   0.01143910
7372.00   2.46423578   0.01067155
7374.00   2.45437884   0.01019339
7376.00   2.42621684   0.00953158
7378.00   2.39703608   0.00910716
7380.00   2.36695337   0.00916041
7382.00   2.33790779   0.00941751
7384.00   2.32154322   0.00939371
7386.00   2.31189299   0.00917796
7388.00   2.31521034   0.00921513
7390.00   2.33616948   0.00947589
7392.00   2.35544372   0.00963715
7394.00   2.38184118   0.00953585
7396.00   2.39910197   0.00953424
7398.00   2.37831473   0.01015055
7400.00   2.32304740   0.01126979
7402.00   2.29368138   0.01161698
7404.00   2.27345347   0.01139875
7406.00   2.25400329   0.01141082
7408.00   2.23902440   0.01168567
7410.00   2.22261024   0.01189814
7412.00   2.19644475   0.01186795
7414.00   2.16310120   0.01169485
7416.00   2.15145588   0.01117506
7418.00   2.15868163   0.00992322
7420.00   2.16232586   0.00916754
7422.00   2.17177892   0.00853446
7424.00   2.17555332   0.00851712
7426.00   2.16363835   0.00970550
7428.00   2.14357924   0.01134334
7430.00   2.14246631   0.01151062
7432.00   2.15924501   0.01050257
7434.00   2.16474199   0.00995039
7436.00   2.16778684   0.00925437
7438.00   2.16696548   0.00876881
7440.00   2.15960765   0.00870327
7442.00   2.14958596   0.00886829
7444.00   2.14717317   0.00889408
7446.00   2.15326357   0.00878091
7448.00   2.14768052   0.00911622
7450.00   2.12627316   0.01003970
7452.00   2.11892271   0.01049938
7454.00   2.13062263   0.01042955
7456.00   2.15077066   0.01010788
7458.00   2.17022753   0.00971356
7460.00   2.19609189   0.00899876
7462.00   2.20840192   0.00886353
7464.00   2.21053839   0.00928934
7466.00   2.21164918   0.00951556
7468.00   2.21420193   0.00947640
7470.00   2.21027017   0.00954109
7472.00   2.19065738   0.01010549
7474.00   2.15768743   0.01101149
7476.00   2.13977671   0.01102627
7478.00   2.13264871   0.01004911
7480.00   2.11949444   0.00974776
7482.00   2.10313582   0.00997852
7484.00   2.08495021   0.01034941
7486.00   2.06155515   0.01083551
7488.00   2.03576469   0.01139736
7490.00   2.03215480   0.01121069
7492.00   2.04998875   0.01007712
7494.00   2.06263804   0.00951578
7496.00   2.08155966   0.00919665
7498.00   2.09543252   0.00901429
7500.00   2.09998322   0.00898215
7502.00   2.09935164   0.00907504
7504.00   2.09913111   0.00914223
7506.00   2.09586716   0.00931838
7508.00   2.09480691   0.00929469
7510.00   2.09338260   0.00908234
7512.00   2.09439039   0.00891229
7514.00   2.09852123   0.00879229
7516.00   2.10451484   0.00871731
7518.00   2.11110592   0.00871295
7520.00   2.11955786   0.00869762
7522.00   2.12573957   0.00906449
7524.00   2.13513851   0.01003154
7526.00   2.13513112   0.01042919
7528.00   2.12368512   0.01028508
7530.00   2.10795283   0.00990825
7532.00   2.09260106   0.00945063
7534.00   2.07419729   0.00874913
7536.00   2.06686234   0.00848632
7538.00   2.07234669   0.00864265
7540.00   2.07024765   0.00866390
7542.00   2.06355095   0.00864225
7544.00   2.05419374   0.00860515
7546.00   2.04242277   0.00850314
7548.00   2.02813482   0.00836623
7550.00   2.01348686   0.00855521
7552.00   1.99584639   0.00913232
7554.00   1.98141909   0.00941298
7556.00   1.96607816   0.00961966
7558.00   1.95650315   0.00967227
7560.00   1.95900476   0.00948464
7562.00   1.96643710   0.00914688
7564.00   1.95804071   0.00895553
7566.00   1.93959939   0.00882961
7568.00   1.91850793   0.00867289
7570.00   1.88962662   0.00830284
7572.00   1.86120713   0.00831722
7574.00   1.83399975   0.00903071
7576.00   1.80708158   0.00982310
7578.00   1.78069627   0.00992594
7580.00   1.75334048   0.00962686
7582.00   1.73220396   0.00923317
7584.00   1.71057844   0.00825074
7586.00   1.70177543   0.00772509
7588.00   1.70790529   0.00770845
7590.00   1.72223890   0.00809741
7592.00   1.74251604   0.00883963
7594.00   1.77469015   0.00985327
7596.00   1.77375603   0.01107967
7598.00   1.76073682   0.01286542
7600.00   1.71611154   0.01387360
7602.00   1.62208533   0.01437561
7604.00   1.52921104   0.01463345
7606.00   1.46783161   0.01481401
7608.00   1.42204225   0.01484430
7610.00   1.40209270   0.01424187
7612.00   1.41132629   0.01251997
7614.00   1.42711842   0.01145819
7616.00   1.46950364   0.01079585
7618.00   1.50064933   0.01033877
7620.00   1.50744379   0.01008508
7622.00   1.49845517   0.01004250
7624.00   1.47170818   0.00995389
7626.00   1.40261555   0.00983148
7628.00   1.38146424   0.00997663
7630.00   1.39094615   0.01049751
7632.00   1.40415978   0.01080387
7634.00   1.41934943   0.01080262
7636.00   1.43715048   0.01063992
7638.00   1.44916594   0.01041057
7640.00   1.45493567   0.00995899
7642.00   1.47250104   0.00979767
7644.00   1.50091922   0.00988316
7646.00   1.52636445   0.00990185
7648.00   1.55127788   0.00985707
7650.00   1.57227111   0.00978011
7652.00   1.58425450   0.00965366
7654.00   1.59079993   0.00945642
7656.00   1.58144355   0.00939680
7658.00   1.55159938   0.00953589
7660.00   1.52613342   0.00947919
7662.00   1.49889827   0.00924495
7664.00   1.47543538   0.00891622
7666.00   1.46123517   0.00843653
7668.00   1.45363820   0.00777647
7670.00   1.44903886   0.00783475
7672.00   1.44865429   0.00867306
7674.00   1.45254731   0.00906096
7676.00   1.46482432   0.00943926
7678.00   1.47488654   0.00947814
7680.00   1.47775781   0.00881603
7682.00   1.47690904   0.00766063
7684.00   1.47656381   0.00736592
7686.00   1.46762025   0.00783435
7688.00   1.47590303   0.00798345
7690.00   1.49601972   0.00817404
7692.00   1.52176332   0.00829458
7694.00   1.55539012   0.00831148
7696.00   1.59246027   0.00827238
7698.00   1.61992121   0.00822529
7700.00   1.64360082   0.00801192
7702.00   1.66030288   0.00824630
7704.00   1.66787887   0.00876097
7706.00   1.67550874   0.00939575
7708.00   1.68637764   0.01039593
7710.00   1.69338024   0.01119142
7712.00   1.68647337   0.01109606
7714.00   1.66572583   0.01025102
7716.00   1.66030121   0.00985274
7718.00   1.66047144   0.00955021
7720.00   1.66721177   0.00927362
7722.00   1.68192339   0.00903650
7724.00   1.70108187   0.00884175
7726.00   1.72349262   0.00868976
7728.00   1.75045049   0.00858519
7730.00   1.76779318   0.00850653
7732.00   1.77488577   0.00847611
7734.00   1.78927064   0.00845040
7736.00   1.80687559   0.00837617
7738.00   1.82839036   0.00841267
7740.00   1.85452175   0.00863835
7742.00   1.88480425   0.00899021
7744.00   1.91848087   0.00939703
7746.00   1.95250070   0.01010765
7748.00   1.99804080   0.01032204
7750.00   2.05955553   0.01010557
7752.00   2.11620641   0.00996941
7754.00   2.16159153   0.01007594
7756.00   2.20245886   0.01025623
7758.00   2.24690366   0.01032616
7760.00   2.29440904   0.01038281
7762.00   2.33412004   0.01032323
7764.00   2.37167001   0.01008234
7766.00   2.40035915   0.00993212
7768.00   2.41566110   0.00992020
7770.00   2.42659688   0.00995434
7772.00   2.44703388   0.00992704
7774.00   2.47569370   0.00982520
7776.00   2.48454571   0.01000546
7778.00   2.46720600   0.01032386
7780.00   2.47050929   0.01082927
7782.00   2.50323105   0.01184743
7784.00   2.53332639   0.01253467
7786.00   2.53184175   0.01209412
7788.00   2.50969076   0.01069797
7790.00   2.50667524   0.01051346
7792.00   2.51395988   0.01145640
7794.00   2.51706767   0.01160214
7796.00   2.52320337   0.01111855
7798.00   2.52169991   0.01057626
7800.00   2.50312686   0.01022895
7802.00   2.47374249   0.00995540
7804.00   2.45786023   0.00999775
7806.00   2.45438027   0.01023738
7808.00   2.43817115   0.01077106
7810.00   2.40949416   0.01200903
7812.00   2.38607645   0.01261339
7814.00   2.37601042   0.01209837
7816.00   2.37062669   0.01102001
7818.00   2.35333729   0.01065118
7820.00   2.32381415   0.01056859
7822.00   2.30818534   0.01071236
7824.00   2.30217886   0.01150303
7826.00   2.29532933   0.01174158
7828.00   2.28201699   0.01101132
7830.00   2.27267456   0.01006097
7832.00   2.28627181   0.01026899
7834.00   2.32882118   0.01144249
7836.00   2.32294822   0.01143032
7838.00   2.26963663   0.01041828
7840.00   2.24000359   0.00988685
7842.00   2.23599982   0.00980153
7844.00   2.23798585   0.01005918
7846.00   2.23417497   0.01082691
7848.00   2.23136449   0.01207543
7850.00   2.21442747   0.01214975
7852.00   2.18225884   0.01113863
7854.00   2.15429163   0.01058480
7856.00   2.12128067   0.01032516
7858.00   2.09699106   0.01015083
7860.00   2.09355927   0.00994551
7862.00   2.10399270   0.00977847
7864.00   2.10158682   0.00991084
7866.00   2.09593987   0.01022639
7868.00   2.08629847   0.01076656
7870.00   2.07098699   0.01184394
7872.00   2.05496764   0.01246994
7874.00   2.03550386   0.01236132
7876.00   2.01719522   0.01182293
7878.00   2.02129889   0.01123911
7880.00   2.05709434   0.01006356
7882.00   2.06000829   0.00961920
7884.00   2.03632116   0.00970709
7886.00   2.02325177   0.00995972
7888.00   2.03000450   0.01044759
7890.00   2.04185987   0.01098388
7892.00   2.04166436   0.01120791
7894.00   2.03685474   0.01135511
7896.00   2.02491903   0.01106140
7898.00   1.99625719   0.01001557
7900.00   1.98195207   0.00933708
7902.00   1.98640764   0.00910458
7904.00   1.99495184   0.00913622
7906.00   1.99526596   0.00935013
7908.00   1.99337518   0.00978880
7910.00   1.98482120   0.01024835
7912.00   1.96830738   0.01103223
7914.00   1.95251238   0.01134455
7916.00   1.93331254   0.01124938
7918.00   1.91706371   0.01099653
7920.00   1.90748036   0.01061662
7922.00   1.90258813   0.01006670
7924.00   1.90728724   0.01015494
7926.00   1.93228233   0.01069498
7928.00   1.93686855   0.01134121
7930.00   1.91706097   0.01263180
7932.00   1.90943086   0.01324847
7934.00   1.93506467   0.01258558
7936.00   1.97503161   0.01114514
7938.00   1.98373210   0.01048100
7940.00   1.96666932   0.01022901
7942.00   1.96431470   0.00990332
7944.00   1.96995986   0.00969048
7946.00   1.96858990   0.00951060
7948.00   1.95710111   0.00935117
7950.00   1.93953133   0.00923057
7952.00   1.91891897   0.00914679
7954.00   1.89166605   0.00904661
7956.00   1.86914754   0.00919495
7958.00   1.84656549   0.00971795
7960.00   1.82764196   0.00996054
7962.00   1.81245053   0.00989106
7964.00   1.80037987   0.00969369
7966.00   1.79002202   0.00942731
7968.00   1.78002930   0.00890188
7970.00   1.78587031   0.00931465
7972.00   1.81471705   0.01092351
7974.00   1.82856607   0.01141825
7976.00   1.83619356   0.01093930
7978.00   1.83064616   0.01022512
7980.00   1.79884088   0.00971085
7982.00   1.74583650   0.00916507
7984.00   1.72578740   0.00905231
7986.00   1.72756195   0.00939846
7988.00   1.72692263   0.00965750
7990.00   1.73448205   0.01010267
7992.00   1.73738647   0.01034183
7994.00   1.72865736   0.01018211
7996.00   1.71344614   0.00976808
7998.00   1.70083463   0.00939031
8000.00   1.68254423   0.00848656
8002.00   1.67557788   0.00857153
8004.00   1.68109667   0.00975399
8006.00   1.68198812   0.01039791
8008.00   1.67210162   0.01019245
8010.00   1.65944624   0.00963879
8012.00   1.65637553   0.00938328
8014.00   1.66043091   0.00911601
8016.00   1.66102827   0.00912429
8018.00   1.66419673   0.00952348
8020.00   1.66184127   0.00971139
8022.00   1.65230823   0.00961543
8024.00   1.63956082   0.00945010
8026.00   1.62763155   0.00943565
8028.00   1.61472619   0.00951339
8030.00   1.60126913   0.00944199
8032.00   1.58314312   0.00927797
8034.00   1.57261705   0.00907875
8036.00   1.56993043   0.00877161
8038.00   1.57069755   0.00849301
8040.00   1.57255888   0.00838117
8042.00   1.57685840   0.00838318
8044.00   1.57972121   0.00838187
8046.00   1.58517563   0.00838344
8048.00   1.58446920   0.00849623
8050.00   1.57741070   0.00878858
8052.00   1.56930101   0.00901187
8054.00   1.56272316   0.00904963
8056.00   1.55601430   0.00898507
8058.00   1.54713202   0.00893353
8060.00   1.53332448   0.00881808
8062.00   1.52632260   0.00875533
8064.00   1.51895630   0.00873385
8066.00   1.52163041   0.00869561
8068.00   1.54204106   0.00861569
8070.00   1.56984437   0.00852277
8072.00   1.58241725   0.00846941
8074.00   1.58916414   0.00845259
8076.00   1.58722591   0.00840286
8078.00   1.57196999   0.00831254
8080.00   1.55935895   0.00826446
8082.00   1.54928684   0.00827667
8084.00   1.54141438   0.00831259
8086.00   1.53847444   0.00833283
8088.00   1.54007387   0.00835243
8090.00   1.54152942   0.00838092
8092.00   1.54775870   0.00838823
8094.00   1.54832065   0.00845656
8096.00   1.54241705   0.00855830
8098.00   1.53461301   0.00872915
8100.00   1.52740824   0.00905668
8102.00   1.51906991   0.00951985
8104.00   1.51746094   0.00959689
8106.00   1.52452111   0.00940049
8108.00   1.52559924   0.00916058
8110.00   1.52459157   0.00869780
8112.00   1.51917362   0.00830736
8114.00   1.50534916   0.00822546
8116.00   1.48602498   0.00832495
8118.00   1.47767258   0.00828218
8120.00   1.47564209   0.00811623
8122.00   1.47592306   0.00814486
8124.00   1.48240268   0.00834047
8126.00   1.48756897   0.00853677
8128.00   1.49050474   0.00873788
8130.00   1.49123955   0.00891228
8132.00   1.48498523   0.00886603
8134.00   1.47051859   0.00854232
8136.00   1.45986724   0.00844955
8138.00   1.44989610   0.00846574
8140.00   1.43913031   0.00850927
8142.00   1.42623866   0.00857865
8144.00   1.41370976   0.00867463
8146.00   1.40543330   0.00879931
8148.00   1.40011263   0.00901331
8150.00   1.39601195   0.00896256
8152.00   1.39456475   0.00858197
8154.00   1.39310050   0.00839333
8156.00   1.39249945   0.00843228
8158.00   1.39141107   0.00853001
8160.00   1.38926733   0.00857475
8162.00   1.38727915   0.00862420
8164.00   1.37480116   0.00861139
8166.00   1.34523952   0.00854320
8168.00   1.33071733   0.00846755
8170.00   1.32968092   0.00826944
8172.00   1.33126223   0.00820586
8174.00   1.33164227   0.00845437
8176.00   1.33272791   0.00889743
8178.00   1.32403994   0.00933526
8180.00   1.29499066   0.01017572
8182.00   1.29280508   0.01025957
8184.00   1.31466901   0.00952153
8186.00   1.33545446   0.00894497
8188.00   1.34791946   0.00899024
8190.00   1.35722172   0.00931330
8192.00   1.36301911   0.00950670
8194.00   1.36394393   0.00984409
8196.00   1.36561394   0.00986430
8198.00   1.36531854   0.00953294
8200.00   1.36594748   0.00934253
8202.00   1.36614275   0.00949370
8204.00   1.36849332   0.00966305
8206.00   1.37968886   0.00935864
8208.00   1.40180206   0.00854036
8210.00   1.41016531   0.00825984
8212.00   1.40131247   0.00825480
8214.00   1.40881526   0.00841993
8216.00   1.43947601   0.00887090
8218.00   1.47298813   0.00933377
8220.00   1.49231970   0.00955998
8222.00   1.50701332   0.00968948
8224.00   1.49971461   0.00962149
8226.00   1.46285343   0.00918396
8228.00   1.43816185   0.00900359
8230.00   1.41674125   0.00911507
8232.00   1.40286672   0.00920325
8234.00   1.40515530   0.00906995
8236.00   1.41930175   0.00881276
8238.00   1.41104794   0.00861868
8240.00   1.38153529   0.00831417
8242.00   1.36605072   0.00825582
8244.00   1.36030698   0.00839547
8246.00   1.35276747   0.00863736
8248.00   1.33475852   0.00904234
8250.00   1.31487048   0.00949545
8252.00   1.31920433   0.00953055
8254.00   1.35351515   0.00921593
8256.00   1.36267698   0.00895309
8258.00   1.36017644   0.00849252
8260.00   1.35432053   0.00816521
8262.00   1.34302473   0.00807643
8264.00   1.33059335   0.00811371
8266.00   1.33005297   0.00814545
8268.00   1.34338725   0.00823564
8270.00   1.33631992   0.00832550
8272.00   1.31505394   0.00838599
8274.00   1.29283631   0.00855458
8276.00   1.26723003   0.00887791
8278.00   1.24164367   0.00921943
8280.00   1.22316217   0.00946074
8282.00   1.21095896   0.00967503
8284.00   1.18691111   0.00974659
8286.00   1.15180826   0.00961047
8288.00   1.12158716   0.00959840
8290.00   1.09274828   0.00976966
8292.00   1.06775606   0.00986345
8294.00   1.05045497   0.00958050
8296.00   1.03922522   0.00901719
8298.00   1.02233255   0.00935567
8300.00   0.99848956   0.01095728
8302.00   0.98499858   0.01110787
8304.00   0.98059380   0.00998056
8306.00   0.97817612   0.00874869
8308.00   0.97437960   0.00798213
8310.00   0.97168535   0.00745079
8312.00   0.97436190   0.00751420
8314.00   0.98783720   0.00854547
8316.00   0.98817909   0.00879765
8318.00   0.97980988   0.00872241
8320.00   0.97009248   0.00859455
8322.00   0.96071899   0.00847459
8324.00   0.94978821   0.00829245
8326.00   0.93617386   0.00797923
8328.00   0.92310750   0.00744592
8330.00   0.89813727   0.00712381
8332.00   0.85413045   0.00670701
8334.00   0.82326621   0.00675400
8336.00   0.81274378   0.00741557
8338.00   0.80546170   0.00823278
8340.00   0.78223157   0.00887441
8342.00   0.74845314   0.00957882
8344.00   0.72395855   0.00978548
8346.00   0.70641243   0.00964946
8348.00   0.68326288   0.00935670
8350.00   0.65554708   0.00862134
8352.00   0.62482589   0.00794909
8354.00   0.58897108   0.00801433
8356.00   0.54784989   0.00857319
8358.00   0.52571756   0.00839994
8360.00   0.51983398   0.00763166
8362.00   0.51245826   0.00705718
8364.00   0.50878900   0.00645058
8366.00   0.50544989   0.00596230
8368.00   0.50067544   0.00575311
8370.00   0.49551564   0.00576295
8372.00   0.48992372   0.00576715
8374.00   0.48135158   0.00579952
8376.00   0.47843298   0.00601692
8378.00   0.48034242   0.00652023
8380.00   0.48258010   0.00684707
8382.00   0.48452219   0.00692687
8384.00   0.48647529   0.00685796
8386.00   0.48651108   0.00664785
8388.00   0.48016617   0.00603986
8390.00   0.48928317   0.00601368
8392.00   0.51553053   0.00638889
8394.00   0.53468084   0.00682561
8396.00   0.54457444   0.00744432
8398.00   0.55030185   0.00797856
8400.00   0.55343509   0.00804556
8402.00   0.54917717   0.00775475
8404.00   0.56321871   0.00760166
8406.00   0.59659863   0.00726243
8408.00   0.62103152   0.00723534
8410.00   0.63604182   0.00752246
8412.00   0.65026373   0.00797091
8414.00   0.66889191   0.00858632
8416.00   0.68917096   0.00938456
8418.00   0.71529108   0.00946495
8420.00   0.75468117   0.00882811
8422.00   0.77906805   0.00851216
8424.00   0.79085368   0.00825463
8426.00   0.79835057   0.00822738
8428.00   0.80489153   0.00870991
8430.00   0.80865335   0.00944333
8432.00   0.81143576   0.00938601
8434.00   0.81137329   0.00849470
8436.00   0.81255871   0.00813012
8438.00   0.81077111   0.00798214
8440.00   0.81435847   0.00796625
8442.00   0.82546502   0.00815627
8444.00   0.84240872   0.00842349
8446.00   0.86549884   0.00834840
8448.00   0.89945179   0.00787279
8450.00   0.92510438   0.00784074
8452.00   0.94832033   0.00814455
8454.00   0.96896642   0.00836437
8456.00   0.98330975   0.00840613
8458.00   0.99837279   0.00846140
8460.00   1.02728522   0.00876970
8462.00   1.06998253   0.00928697
8464.00   1.09624064   0.00958850
8466.00   1.11628973   0.00998458
8468.00   1.12817597   0.00997987
8470.00   1.12479949   0.00940115
8472.00   1.12219894   0.00868489
8474.00   1.13752198   0.00831635
8476.00   1.16456378   0.00811491
8478.00   1.18381417   0.00797866
8480.00   1.20481968   0.00799260
8482.00   1.21788847   0.00802136
8484.00   1.22444952   0.00811593
8486.00   1.22545063   0.00821172
8488.00   1.21930027   0.00822922
8490.00   1.20709205   0.00821763
8492.00   1.20199645   0.00846312
8494.00   1.19853020   0.00889765
8496.00   1.19953084   0.00934830
8498.00   1.20872033   0.01012131
8500.00   1.21425080   0.01048370
8502.00   1.20982313   0.01009231
8504.00   1.20173013   0.00928924
8506.00   1.20357549   0.00899194
8508.00   1.21395075   0.00901866
8510.00   1.21897566   0.00887241
8512.00   1.21869671   0.00857799
8514.00   1.22482657   0.00848409
8516.00   1.24048841   0.00875368
8518.00   1.26057947   0.00910487
8520.00   1.27867401   0.00914964
8522.00   1.29669714   0.00901274
8524.00   1.31817663   0.00889781
8526.00   1.34239614   0.00851457
8528.00   1.36818027   0.00853223
8530.00   1.39603567   0.00905951
8532.00   1.42508101   0.00969685
8534.00   1.45639491   0.01022419
8536.00   1.49226594   0.01083195
8538.00   1.50680721   0.01071789
8540.00   1.49221349   0.00954860
8542.00   1.49981380   0.00912209
8544.00   1.53182852   0.00938397
8546.00   1.56179512   0.00987541
8548.00   1.56933546   0.01052602
8550.00   1.56492412   0.01133228
8552.00   1.59014833   0.01125875
8554.00   1.64111388   0.01005430
8556.00   1.68318188   0.00968913
8558.00   1.72555220   0.01001898
8560.00   1.76655149   0.01027400
8562.00   1.80528653   0.01015862
8564.00   1.84239686   0.00991166
8566.00   1.87820756   0.00988720
8568.00   1.91085064   0.01002038
8570.00   1.94659925   0.01008045
8572.00   1.98546565   0.01010218
8574.00   2.02216935   0.01018151
8576.00   2.05722594   0.01022849
8578.00   2.08930278   0.01040388
8580.00   2.11322212   0.01111813
8582.00   2.12730837   0.01248388
8584.00   2.14949107   0.01276994
8586.00   2.17474246   0.01226617
8588.00   2.20140910   0.01188872
8590.00   2.22894573   0.01147655
8592.00   2.25869894   0.01126692
8594.00   2.29384637   0.01182953
8596.00   2.33597970   0.01307927
8598.00   2.36126828   0.01311884
8600.00   2.36793971   0.01207735
8602.00   2.38572311   0.01151396
8604.00   2.40630960   0.01122021
8606.00   2.43844104   0.01122948
8608.00   2.49558306   0.01176133
8610.00   2.57225156   0.01267611
8612.00   2.61831999   0.01290648
8614.00   2.63828087   0.01255969
8616.00   2.67356634   0.01258057
8618.00   2.72193742   0.01282874
8620.00   2.76427174   0.01309239
8622.00   2.79242921   0.01331703
8624.00   2.81207395   0.01353130
8626.00   2.82925153   0.01365978
8628.00   2.83383799   0.01370168
8630.00   2.85302711   0.01376368
8632.00   2.88432932   0.01375328
8634.00   2.91235137   0.01383979
8636.00   2.93272471   0.01416457
8638.00   2.95082712   0.01450343
8640.00   2.97281075   0.01440828
8642.00   2.99408793   0.01388334
8644.00   3.02439451   0.01367946
8646.00   3.06801367   0.01353558
8648.00   3.10356331   0.01355566
8650.00   3.12816858   0.01382272
8652.00   3.14939451   0.01415128
8654.00   3.17430210   0.01432313
8656.00   3.20041084   0.01442742
8658.00   3.22381043   0.01452744
8660.00   3.24780703   0.01461840
8662.00   3.26609874   0.01465459
8664.00   3.28235531   0.01464566
8666.00   3.29011106   0.01458474
8668.00   3.28145432   0.01440205
8670.00   3.25918031   0.01410059
8672.00   3.24606895   0.01424572
8674.00   3.22948384   0.01503677
8676.00   3.22523403   0.01517504
8678.00   3.23143744   0.01452080
8680.00   3.24410248   0.01416431
8682.00   3.26750398   0.01489204
8684.00   3.29685664   0.01605938
8686.00   3.29723573   0.01612205
8688.00   3.26805854   0.01513347
8690.00   3.25362706   0.01485589
8692.00   3.24125910   0.01497438
8694.00   3.23084784   0.01501246
8696.00   3.22610831   0.01490015
8698.00   3.22127104   0.01467550
8700.00   3.20023108   0.01417792
8702.00   3.16211963   0.01316123
8704.00   3.13673782   0.01277719
8706.00   3.11816144   0.01286048
8708.00   3.09710002   0.01298016
8710.00   3.07335663   0.01318798
8712.00   3.04767084   0.01339473
8714.00   3.01858497   0.01339823
8716.00   2.98439956   0.01327995
8718.00   2.95956326   0.01307228
8720.00   2.93338346   0.01235665
8722.00   2.92439938   0.01235544
8724.00   2.93819666   0.01334675
8726.00   2.95718503   0.01429140
8728.00   2.97013855   0.01452266
8730.00   2.98427677   0.01439817
8732.00   2.97185254   0.01410203
8734.00   2.92839742   0.01318887
8736.00   2.89807343   0.01280499
8738.00   2.87079430   0.01299366
8740.00   2.84928894   0.01314653
8742.00   2.83755302   0.01290075
8744.00   2.83284593   0.01247659
8746.00   2.82382083   0.01246608
8748.00   2.81160450   0.01277009
8750.00   2.80591226   0.01302310
8752.00   2.80571294   0.01336859
8754.00   2.80660129   0.01367737
8756.00   2.81027913   0.01382918
8758.00   2.81352925   0.01398686
8760.00   2.80352616   0.01456887
8762.00   2.77999640   0.01568126
8764.00   2.76340866   0.01610437
8766.00   2.75023675   0.01604894
8768.00   2.73276496   0.01608516
8770.00   2.70963264   0.01616776
8772.00   2.68337178   0.01638179
8774.00   2.65436196   0.01711502
8776.00   2.61535716   0.01858762
8778.00   2.60649085   0.01832961
8780.00   2.62769055   0.01620337
8782.00   2.64064670   0.01473717
8784.00   2.64553308   0.01402162
8786.00   2.65048790   0.01369553
8788.00   2.66114354   0.01369411
8790.00   2.67579985   0.01414811
8792.00   2.68408132   0.01402964
8794.00   2.69422436   0.01342821
8796.00   2.69105482   0.01311468
8798.00   2.67091775   0.01293948
8800.00   2.64976358   0.01294760
8802.00   2.63463402   0.01328850
8804.00   2.62187934   0.01384701
8806.00   2.62213087   0.01390158
8808.00   2.64627099   0.01360245
8810.00   2.64587331   0.01331368
8812.00   2.62094498   0.01268816
8814.00   2.60509229   0.01236632
8816.00   2.61200380   0.01259830
8818.00   2.62927413   0.01318515
8820.00   2.63833284   0.01398334
8822.00   2.65674973   0.01532256
8824.00   2.64450121   0.01593742
8826.00   2.60316443   0.01620991
8828.00   2.56245089   0.01631057
8830.00   2.52345371   0.01626709
8832.00   2.48551559   0.01604028
8834.00   2.45599580   0.01555989
8836.00   2.43451452   0.01467824
8838.00   2.40752578   0.01415065
8840.00   2.37658763   0.01384810
8842.00   2.34979248   0.01351121
8844.00   2.32329106   0.01309281
8846.00   2.30391693   0.01273564
8848.00   2.30154991   0.01258494
8850.00   2.31397843   0.01259437
8852.00   2.32007813   0.01268058
8854.00   2.32906580   0.01263118
8856.00   2.33384967   0.01318866
8858.00   2.33146310   0.01458655
8860.00   2.33197498   0.01571623
8862.00   2.35157704   0.01610671
8864.00   2.38207269   0.01609638
8866.00   2.34648681   0.01559745
8868.00   2.23542190   0.01402007
8870.00   2.16761351   0.01314225
8872.00   2.10631013   0.01264437
8874.00   2.07071638   0.01241919
8876.00   2.07400346   0.01238118
8878.00   2.10400724   0.01263436
8880.00   2.13181353   0.01348647
8882.00   2.20466971   0.01537762
8884.00   2.19110584   0.01590266
8886.00   2.10338879   0.01570278
8888.00   2.01718998   0.01527439
8890.00   1.93166780   0.01451966
8892.00   1.85448658   0.01357694
8894.00   1.82852507   0.01303263
8896.00   1.84985983   0.01270665
8898.00   1.85507119   0.01252494
8900.00   1.87972462   0.01267005
8902.00   1.87696600   0.01270390
8904.00   1.83686197   0.01263968
8906.00   1.78619432   0.01250715
8908.00   1.74889052   0.01220194
8910.00   1.71093297   0.01160999
8912.00   1.70019245   0.01190827
8914.00   1.73103642   0.01314032
8916.00   1.73036551   0.01381030
8918.00   1.69865298   0.01419536
8920.00   1.66156888   0.01433202
8922.00   1.63567460   0.01410544
8924.00   1.61294448   0.01354525
8926.00   1.57901359   0.01329652
8928.00   1.52142417   0.01340570
8930.00   1.49683869   0.01302663
8932.00   1.50274384   0.01198171
8934.00   1.51145923   0.01109469
8936.00   1.51183546   0.01082066
8938.00   1.51139712   0.01094092
8940.00   1.51552558   0.01130849
8942.00   1.52275050   0.01231223
8944.00   1.53137600   0.01266389
8946.00   1.54555690   0.01260939
8948.00   1.55518448   0.01261926
8950.00   1.56093848   0.01274911
8952.00   1.56052566   0.01295788
8954.00   1.54367244   0.01334231
8956.00   1.50795937   0.01391757
8958.00   1.48234737   0.01437116
8960.00   1.46257997   0.01518309
8962.00   1.43488955   0.01523804
8964.00   1.38415432   0.01405445
8966.00   1.34212613   0.01255758
8968.00   1.35465658   0.01231613
8970.00   1.41483963   0.01299440
8972.00   1.43235838   0.01288357
8974.00   1.43231702   0.01227035
8976.00   1.42734587   0.01194190
8978.00   1.41019046   0.01184435
8980.00   1.39356780   0.01189365
8982.00   1.38862073   0.01202728
8984.00   1.39012277   0.01225687
8986.00   1.39290369   0.01288598
8988.00   1.40944827   0.01432209
8990.00   1.40510893   0.01472361
8992.00   1.38120461   0.01427972
8994.00   1.35367274   0.01368964
8996.00   1.32638979   0.01316397
8998.00   1.29806411   0.01260622
9000.00   1.28457999   0.01261271
9002.00   1.28761637   0.01347266
9004.00   1.28224194   0.01349875
9006.00   1.27002239   0.01299591
9008.00   1.26628006   0.01245347
9010.00   1.28012490   0.01194741
9012.00   1.29956973   0.01143573
9014.00   1.29970860   0.01108747
9016.00   1.28511751   0.01088237
9018.00   1.27707326   0.01069907
9020.00   1.26714540   0.01058131
9022.00   1.26088381   0.01052499
9024.00   1.25931454   0.01055552
9026.00   1.26020622   0.01062509
9028.00   1.26121485   0.01066131
9030.00   1.26312912   0.01068987
9032.00   1.26720858   0.01074167
9034.00   1.27311420   0.01079943
9036.00   1.28064919   0.01088475
9038.00   1.29106390   0.01097980
9040.00   1.30158973   0.01111696
9042.00   1.30967093   0.01133763
9044.00   1.31642520   0.01162607
9046.00   1.32333851   0.01184735
9048.00   1.33408475   0.01215838
9050.00   1.33529937   0.01220860
9052.00   1.32624161   0.01200582
9054.00   1.31557643   0.01171179
9056.00   1.30713272   0.01137290
9058.00   1.29878390   0.01096137
9060.00   1.29195094   0.01066576
9062.00   1.28338528   0.01014576
9064.00   1.28225124   0.01033828
9066.00   1.28413975   0.01128725
9068.00   1.29414308   0.01205742
9070.00   1.31876755   0.01259081
9072.00   1.34936941   0.01292220
9074.00   1.36260951   0.01260596
9076.00   1.36477888   0.01126908
9078.00   1.36619604   0.01087758
9080.00   1.35794675   0.01113188
9082.00   1.35662067   0.01133558
9084.00   1.36573029   0.01138703
9086.00   1.37868333   0.01148460
9088.00   1.38936555   0.01181039
9090.00   1.40380085   0.01232001
9092.00   1.40213203   0.01274264
9094.00   1.37692678   0.01330120
9096.00   1.36976647   0.01358125
9098.00   1.38734531   0.01358876
9100.00   1.40557671   0.01344144
9102.00   1.40212071   0.01319008
9104.00   1.38485169   0.01277853
9106.00   1.38240969   0.01247112
9108.00   1.39052570   0.01218571
9110.00   1.39248192   0.01191017
9112.00   1.39272976   0.01160629
9114.00   1.38809454   0.01137643
9116.00   1.37631273   0.01134043
9118.00   1.35862970   0.01143051
9120.00   1.33544660   0.01125057
9122.00   1.29563034   0.01057772
9124.00   1.27560711   0.01057873
9126.00   1.26986682   0.01104986
9128.00   1.26769257   0.01170044
9130.00   1.26953602   0.01273143
9132.00   1.27288663   0.01374207
9134.00   1.26096129   0.01346806
9136.00   1.23282433   0.01161656
9138.00   1.21581674   0.01087741
9140.00   1.20075667   0.01067655
9142.00   1.19032419   0.01062308
9144.00   1.18644357   0.01063472
9146.00   1.18573785   0.01084507
9148.00   1.18271804   0.01143472
9150.00   1.17952704   0.01253295
9152.00   1.17662227   0.01278942
9154.00   1.16997445   0.01236407
9156.00   1.17122948   0.01217401
9158.00   1.18555617   0.01230944
9160.00   1.19978595   0.01243040
9162.00   1.19733417   0.01214373
9164.00   1.18097377   0.01143390
9166.00   1.19543362   0.01194255
9168.00   1.23369169   0.01350315
9170.00   1.27145255   0.01458309
9172.00   1.33096635   0.01595739
9174.00   1.36878192   0.01652659
9176.00   1.34606373   0.01522740
9178.00   1.28299046   0.01223321
9180.00   1.26219428   0.01121351
9182.00   1.26913595   0.01180231
9184.00   1.25719333   0.01205880
9186.00   1.22809267   0.01281907
9188.00   1.20765722   0.01312459
9190.00   1.20595932   0.01240641
9192.00   1.21525347   0.01111725
9194.00   1.22715092   0.01082064
9196.00   1.24926281   0.01140902
9198.00   1.26534343   0.01141690
9200.00   1.28186464   0.01116775
9202.00   1.29429185   0.01098251
9204.00   1.29890537   0.01087957
9206.00   1.30179858   0.01086215
9208.00   1.31360769   0.01102936
9210.00   1.32779026   0.01127831
9212.00   1.35542369   0.01186710
9214.00   1.39028418   0.01302390
9216.00   1.44058955   0.01366835
9218.00   1.51929855   0.01374932
9220.00   1.59827077   0.01367041
9222.00   1.64396989   0.01379258
9224.00   1.66903591   0.01399303
9226.00   1.69085455   0.01396425
9228.00   1.68280172   0.01356652
9230.00   1.71016777   0.01354434
9232.00   1.78607297   0.01403673
9234.00   1.85549116   0.01442890
9236.00   1.87479842   0.01423806
9238.00   1.86449623   0.01367910
9240.00   1.89127505   0.01380150
9242.00   1.94429600   0.01450181
9244.00   1.98416424   0.01490495
9246.00   2.02774835   0.01530448
9248.00   2.05534363   0.01549756
9250.00   2.05231524   0.01534186
9252.00   2.03119755   0.01495674
9254.00   2.02861476   0.01469035
9256.00   2.03711104   0.01433505
9258.00   2.03629971   0.01416692
9260.00   2.03112078   0.01388924
9262.00   2.02462769   0.01411383
9264.00   2.01573563   0.01522777
9266.00   2.00658774   0.01650962
9268.00   2.00316453   0.01688164
9270.00   2.00178838   0.01677318
9272.00   2.00844312   0.01645765
9274.00   2.02250910   0.01520166
9276.00   2.04037523   0.01481736
9278.00   2.06261182   0.01587326
9280.00   2.08837414   0.01707373
9282.00   2.11708951   0.01720111
9284.00   2.15125155   0.01667104
9286.00   2.17498803   0.01660660
9288.00   2.19657612   0.01629316
9290.00   2.20630836   0.01682111
9292.00   2.20948005   0.01867778
9294.00   2.19697285   0.02009905
9296.00   2.15547228   0.01983716
9298.00   2.08916998   0.01843800
9300.00   2.04962158   0.01845536
9302.00   2.01842356   0.01895891
9304.00   1.99838603   0.02014626
9306.00   1.99249625   0.02225211
9308.00   1.99159563   0.02415116
9310.00   2.00000572   0.02558103
9312.00   2.01186466   0.02677113
9314.00   1.97763669   0.02739147
9316.00   1.88255095   0.02732471
9318.00   1.83654952   0.02754463
9320.00   1.81879616   0.02802347
9322.00   1.79960179   0.02807017
9324.00   1.76567888   0.02743639
9326.00   1.73356724   0.02637865
9328.00   1.73347497   0.02527484
9330.00   1.76071382   0.02351795
9332.00   1.78572845   0.02289709
9334.00   1.83387566   0.02310620
9336.00   1.85782194   0.02365144
9338.00   1.84385967   0.02432751
9340.00   1.82085466   0.02548859
9342.00   1.82448888   0.02787836
9344.00   1.84509432   0.03182011
9346.00   1.84858322   0.03158466
9348.00   1.84584749   0.02701898
9350.00   1.83697951   0.02383284
9352.00   1.81873775   0.02204798
9354.00   1.79842091   0.02106393
9356.00   1.77823901   0.02090155
9358.00   1.75450039   0.02173469
9360.00   1.76721191   0.02182051
9362.00   1.81491721   0.02103332
9364.00   1.85915267   0.02166377
9366.00   1.92261708   0.02302076
9368.00   1.96830487   0.02532474
9370.00   1.97868419   0.02902770
9372.00   1.96336067   0.03321740
9374.00   1.91244876   0.03518815
9376.00   1.81644928   0.03676230
9378.00   1.71887779   0.03626124
9380.00   1.57995927   0.03324394
9382.00   1.47464406   0.02967345
9384.00   1.42380834   0.02563331
9386.00   1.40949845   0.02091916
9388.00   1.42378318   0.01804004
9390.00   1.48939764   0.01739495
9392.00   1.52760386   0.01684484
9394.00   1.56821990   0.01784000
9396.00   1.59433353   0.01840933
9398.00   1.59286642   0.01809263
9400.00   1.58854473   0.01783816
9402.00   1.62106872   0.01893160
9404.00   1.68444121   0.02111548
9406.00   1.71900070   0.02194398
9408.00   1.74377501   0.02240071
9410.00   1.75850606   0.02217490
9412.00   1.75654209   0.02048719
9414.00   1.75261474   0.01894487
9416.00   1.76271474   0.01972002
9418.00   1.78122711   0.02197484
9420.00   1.78708565   0.02284712
9422.00   1.79610741   0.02323936
9424.00   1.78035390   0.02356536
9426.00   1.73399806   0.02375481
9428.00   1.68433893   0.02381225
9430.00   1.63622236   0.02354530
9432.00   1.58835065   0.02308105
9434.00   1.60767305   0.02385998
9436.00   1.73250747   0.02542617
9438.00   1.75773585   0.02728004
9440.00   1.71832860   0.03073464
9442.00   1.66451406   0.03229728
9444.00   1.58850586   0.03053497
9446.00   1.50970793   0.02684843
9448.00   1.53337908   0.02520833
9450.00   1.67124677   0.02434502
9452.00   1.72914207   0.02421476
9454.00   1.78091252   0.02565693
9456.00   1.78304791   0.02636389
9458.00   1.70997977   0.02607424
9460.00   1.60640621   0.02527136
9462.00   1.53996563   0.02419200
9464.00   1.47354496   0.02234755
9466.00   1.45740294   0.02139516
9468.00   1.48658061   0.02052222
9470.00   1.52852273   0.02084744
9472.00   1.60448503   0.02273006
9474.00   1.67462850   0.02488644
9476.00   1.68991995   0.02654801
9478.00   1.66801906   0.02829646
9480.00   1.65206003   0.02839707
9482.00   1.61076558   0.02695034
9484.00   1.59778941   0.02551507
9486.00   1.61164665   0.02336625
9488.00   1.63348413   0.02136542
9490.00   1.66238618   0.02037977
9492.00   1.69896853   0.02013160
9494.00   1.67505264   0.02033320
9496.00   1.59261239   0.02146419
9498.00   1.52311981   0.02220599
9500.00   1.42996395   0.02323472
9502.00   1.36248040   0.02365498
9504.00   1.34355164   0.02291767
9506.00   1.35434127   0.02150455
9508.00   1.36543143   0.02089684
9510.00   1.40002751   0.02081351
9512.00   1.41365147   0.02043710
9514.00   1.42429113   0.01973951
9516.00   1.41878390   0.01947252
9518.00   1.38895226   0.02006163
9520.00   1.34798706   0.02082538
9522.00   1.31820560   0.02069916
9524.00   1.28833926   0.01994726
9526.00   1.26976871   0.01933789
9528.00   1.23944402   0.01803073
9530.00   1.25524688   0.01775862
9532.00   1.33628964   0.01882339
9534.00   1.43487465   0.02033151
9536.00   1.50718641   0.02180366
9538.00   1.58110356   0.02371053
9540.00   1.58727276   0.02362474
9542.00   1.50975525   0.02112645
9544.00   1.46888554   0.01992981
9546.00   1.44780374   0.01986864
9548.00   1.44171989   0.02033670
9550.00   1.46633899   0.02122970
9552.00   1.51638770   0.02256279
9554.00   1.47709811   0.02295490
9556.00   1.32242048   0.02249357
9558.00   1.26597428   0.02258036
9560.00   1.28403068   0.02258495
9562.00   1.30818772   0.02327535
9564.00   1.31976771   0.02531535
9566.00   1.32792842   0.02781573
9568.00   1.30216992   0.02863640
9570.00   1.21982920   0.02921935
9572.00   1.19765675   0.02777223
9574.00   1.21337962   0.02262958
9576.00   1.23279226   0.01813836
9578.00   1.25471222   0.01695154
9580.00   1.27723062   0.01753534
9582.00   1.28044724   0.01743134
9584.00   1.25719500   0.01756094
9586.00   1.27516365   0.01812957
9588.00   1.34246111   0.01914030
9590.00   1.37379348   0.02024253
9592.00   1.34950876   0.02195741
9594.00   1.31700873   0.02318125
9596.00   1.33046150   0.02242521
9598.00   1.37643528   0.01969125
9600.00   1.38416982   0.01871656
9602.00   1.35753357   0.01874381
9604.00   1.35530019   0.01880886
9606.00   1.37308812   0.01914643
9608.00   1.40202761   0.01952040
9610.00   1.44567680   0.01970178
9612.00   1.50520253   0.01980460
9614.00   1.51525021   0.01990422
9616.00   1.48288393   0.01997824
9618.00   1.45715022   0.02001847
9620.00   1.42166376   0.02001908
9622.00   1.39057088   0.02000022
9624.00   1.36778104   0.02001648
9626.00   1.35212028   0.02001671
9628.00   1.36119151   0.01972580
9630.00   1.40974748   0.01901990
9632.00   1.42665470   0.01860441
9634.00   1.43105102   0.01823924
9636.00   1.42679262   0.01804870
9638.00   1.40867150   0.01814886
9640.00   1.38537514   0.01838234
9642.00   1.38239598   0.01840400
9644.00   1.39896512   0.01834964
9646.00   1.39652729   0.01821279
9648.00   1.38340592   0.01791020
9650.00   1.36976314   0.01768029
9652.00   1.34724283   0.01744278
9654.00   1.33180499   0.01735151
9656.00   1.35260749   0.01771668
9658.00   1.40827727   0.01849687
9660.00   1.42941046   0.01898022
9662.00   1.44909203   0.01946524
9664.00   1.43415833   0.01976155
9666.00   1.35456991   0.01981856
9668.00   1.28742361   0.01982551
9670.00   1.30807078   0.01992691
9672.00   1.38786423   0.02005167
9674.00   1.41400874   0.02022166
9676.00   1.43118536   0.02050633
9678.00   1.41791725   0.02065476
9680.00   1.35649431   0.02069907
9682.00   1.30223703   0.02069422
9684.00   1.28483474   0.02068624
9686.00   1.28645670   0.02064192
9688.00   1.28871071   0.02040508
9690.00   1.29547083   0.01972172
9692.00   1.31569052   0.01960194
9694.00   1.36460328   0.01991134
9696.00   1.39441001   0.02027520
9698.00   1.38788831   0.02068955
9700.00   1.36240077   0.02109670
9702.00   1.34170020   0.02113680
9704.00   1.31361878   0.02092750
9706.00   1.29063749   0.02056166
9708.00   1.28045034   0.01871097
9710.00   1.25004673   0.01905846
9712.00   1.17549801   0.02323349
9714.00   1.10218334   0.02706508
9716.00   1.10161185   0.02679563
9718.00   1.16107190   0.02317258
9720.00   1.18344283   0.02206950
9722.00   1.20742440   0.02233183
9724.00   1.20922506   0.02227684
9726.00   1.16691184   0.02178878
9728.00   1.13436508   0.02150443
9730.00   1.17403114   0.02212252
9732.00   1.26889813   0.02345537
9734.00   1.27742386   0.02333728
9736.00   1.21711731   0.02190417
9738.00   1.18220329   0.02096305
9740.00   1.15167999   0.02020165
9742.00   1.13310099   0.01961265
9744.00   1.13963366   0.01933789
9746.00   1.16307378   0.01930907
9748.00   1.15752733   0.01892256
9750.00   1.12388945   0.01795964
9752.00   1.11276913   0.01780180
9754.00   1.11778808   0.01832593
9756.00   1.12047362   0.01892054
9758.00   1.11105490   0.01939919
9760.00   1.09962749   0.01991616
9762.00   1.10897541   0.02061989
9764.00   1.14549863   0.02198905
9766.00   1.15238225   0.02192506
9768.00   1.13795125   0.02051981
9770.00   1.12721634   0.01924141
9772.00   1.12198746   0.01818413
9774.00   1.11994767   0.01733405
9776.00   1.12463307   0.01712900
9778.00   1.13962126   0.01743528
9780.00   1.13856363   0.01820936
9782.00   1.13059831   0.01979473
9784.00   1.11319375   0.02093777
9786.00   1.07996142   0.02179966
9788.00   1.04511237   0.02241055
9790.00   1.02352571   0.02266714
9792.00   1.00865209   0.02261183
9794.00   0.99869245   0.02249463
9796.00   1.00239599   0.02216539
9798.00   0.99408865   0.02182533
9800.00   0.96189719   0.02138413
9802.00   0.94523871   0.02096527
9804.00   0.97821665   0.02055819
9806.00   1.04291201   0.02016928
9808.00   1.05970502   0.02057261
9810.00   1.04249251   0.02228341
9812.00   1.03669512   0.02258500
9814.00   1.02877140   0.02177941
9816.00   1.02450144   0.02093246
9818.00   1.02514601   0.02038978
9820.00   1.03041196   0.01995559
9822.00   1.04541826   0.01982071
9824.00   1.07379401   0.02019196
9826.00   1.09554386   0.02009682
9828.00   1.12386107   0.01968083
9830.00   1.13849747   0.01933815
9832.00   1.12942934   0.01912746
9834.00   1.11257219   0.01898955
9836.00   1.11457813   0.01891821
9838.00   1.12852871   0.01885982
9840.00   1.13625193   0.01909284
9842.00   1.14701128   0.01965157
9844.00   1.15013611   0.02014073
9846.00   1.14588845   0.02065235
9848.00   1.13516796   0.02105512
9850.00   1.11406243   0.02114584
9852.00   1.07837713   0.02099564
9854.00   1.07659352   0.02082076
9856.00   1.11162746   0.02044670
9858.00   1.12496340   0.02018486
9860.00   1.11530054   0.01962500
9862.00   1.10753465   0.01962825
9864.00   1.11803520   0.02095702
9866.00   1.13877153   0.02307191
9868.00   1.15635002   0.02458280
9870.00   1.18940699   0.02665980
9872.00   1.19219434   0.02716855
9874.00   1.15612042   0.02617870
9876.00   1.13126254   0.02498835
9878.00   1.14545155   0.02405174
9880.00   1.17637014   0.02311923
9882.00   1.17361116   0.02260355
9884.00   1.13892341   0.02239232
9886.00   1.13001060   0.02246226
9888.00   1.12637985   0.02300735
9890.00   1.13739407   0.02349426
9892.00   1.17369473   0.02385828
9894.00   1.21865618   0.02416221
9896.00   1.23759878   0.02436368
9898.00   1.24308538   0.02457574
9900.00   1.23999393   0.02437766
9902.00   1.21786940   0.02336002
9904.00   1.20300126   0.02307151
9906.00   1.19471192   0.02361527
9908.00   1.19200337   0.02465460
9910.00   1.20072913   0.02613963
9912.00   1.22520304   0.02828448
9914.00   1.21652484   0.02901677
9916.00   1.17735922   0.02889798
9918.00   1.14838743   0.02855431
9920.00   1.11800015   0.02782230
9922.00   1.09983373   0.02682580
9924.00   1.11042666   0.02556409
9926.00   1.14317524   0.02392490
9928.00   1.16272128   0.02315369
9930.00   1.19158924   0.02222505
9932.00   1.19586563   0.02332141
9934.00   1.16907012   0.02604151
9936.00   1.14678121   0.02934856
9938.00   1.14543605   0.03355657
9940.00   1.15452492   0.03786541
9942.00   1.16534257   0.03883569
9944.00   1.19952023   0.03637230
9946.00   1.19470334   0.03609994
9948.00   1.13998413   0.03684668
9950.00   1.11462069   0.03740921
9952.00   1.15102398   0.03739669
9954.00   1.20946360   0.03728093
9956.00   1.22530985   0.03776022
9958.00   1.23664963   0.03875250
9960.00   1.18791711   0.03938670
9962.00   1.02479517   0.04092886
9964.00   0.95472944   0.04049467
9966.00   1.02184951   0.03664946
9968.00   1.12981761   0.03157131
9970.00   1.17461228   0.02956045
9972.00   1.19680083   0.02969099
9974.00   1.21843028   0.02957298
9976.00   1.22280288   0.03061288
9978.00   1.23939157   0.03088610
9980.00   1.26856208   0.03050905
9982.00   1.30128860   0.02977552
9984.00   1.33470905   0.02865272
9986.00   1.37201798   0.02699176
9988.00   1.38473248   0.02639021
9990.00   1.37023771   0.02671852
9992.00   1.36767554   0.02685651
9994.00   1.37612069   0.02700988
9996.00   1.37767673   0.02724212
9998.00   1.35704839   0.02747861
10000.00   1.32511926   0.02778433
10002.00   1.32842410   0.02867129
10004.00   1.35319424   0.02890805
10006.00   1.39000571   0.03179474
10008.00   1.48531711   0.03694620
10010.00   1.52068090   0.04127061
10012.00   1.42417848   0.04517403
10014.00   1.28228033   0.04819648
10016.00   1.28848839   0.04756343
10018.00   1.43033993   0.04248632
10020.00   1.46172178   0.04008972
10022.00   1.42923975   0.03870413
10024.00   1.41409957   0.03734230
10026.00   1.42819726   0.03592642
10028.00   1.44868767   0.03461296
10030.00   1.45835233   0.03341996
10032.00   1.47173595   0.03235722
10034.00   1.44623983   0.03144364
10036.00   1.35088456   0.03047588
10038.00   1.32062519   0.03011731
10040.00   1.37374020   0.03066679
10042.00   1.43864977   0.03134243
10044.00   1.45636070   0.03147661
10046.00   1.45246649   0.03137377
10048.00   1.44892776   0.03121185
10050.00   1.42715418   0.03054337
10052.00   1.42295194   0.03059238
10054.00   1.44099009   0.03134297
10056.00   1.45297956   0.03223169
10058.00   1.44293749   0.03307285
10060.00   1.41985703   0.03395263
10062.00   1.39289296   0.03437426
10064.00   1.34325719   0.03445488
10066.00   1.32258499   0.03444555
10068.00   1.32756352   0.03406071
10070.00   1.33073890   0.03388337
10072.00   1.32400298   0.03390821
10074.00   1.31356907   0.03425502
10076.00   1.30126905   0.03577061
10078.00   1.28269589   0.03877132
10080.00   1.27200770   0.04030321
10082.00   1.26555717   0.04171465
10084.00   1.26157355   0.04198808
10086.00   1.25792110   0.04049909
10088.00   1.25843036   0.03827244
10090.00   1.27308285   0.03722738
10092.00   1.31239092   0.03686195
10094.00   1.29949915   0.03604039
10096.00   1.24034095   0.03444225
10098.00   1.18975604   0.03406918
10100.00   1.11992908   0.03488147
10102.00   1.08070433   0.03661190
10104.00   1.15203261   0.03971390
10106.00   1.32479334   0.04430156
10108.00   1.33556330   0.04417028
10110.00   1.18626785   0.03794459
10112.00   1.14471555   0.03632246
10114.00   1.21937704   0.04004509
10116.00   1.27670002   0.04339126
10118.00   1.22425497   0.04355108
10120.00   1.11090326   0.04222368
10122.00   1.07868540   0.04263615
10124.00   1.11744797   0.04482865
10126.00   1.09788394   0.04489167
10128.00   1.01038349   0.04315198
10130.00   0.96515572   0.04127674
10132.00   1.02749896   0.03984197
10134.00   1.13572824   0.03849489
10136.00   1.13802505   0.03735198
10138.00   1.04317796   0.03610674
10140.00   1.02337742   0.03581065
10142.00   1.03161800   0.03607890
10144.00   1.05524647   0.03717120
10146.00   1.10793793   0.03967159
10148.00   1.16484594   0.04230622
10150.00   1.16999972   0.04295782
10152.00   1.13667011   0.04184801
10154.00   1.10936642   0.04259789
10156.00   1.09820735   0.04087957
10158.00   1.03184891   0.04602373
10160.00   0.86048901   0.06130365
10162.00   0.69836342   0.07223728
10164.00   0.67749101   0.06908901
10166.00   0.75137025   0.05324117
10168.00   0.82182133   0.04799141
10170.00   0.94780898   0.04996576
10172.00   1.04548526   0.05083983
10174.00   1.14740801   0.05263390
10176.00   1.20798075   0.05371124
10178.00   1.17032194   0.05224819
10180.00   1.05952299   0.04896802
10182.00   1.05619729   0.04781999
10184.00   1.15746391   0.04797836
10186.00   1.16983342   0.04801140
10188.00   1.10463464   0.04769033
10190.00   1.05084598   0.04848630
10192.00   1.05690980   0.05205014
10194.00   1.08353019   0.05635701
10196.00   1.03978419   0.05548657
10198.00   0.91536218   0.04815451
10200.00   0.86130571   0.04572136
10202.00   0.84548938   0.04564539
10204.00   0.83270252   0.04663875
10206.00   0.81216067   0.04906910
10208.00   0.79793650   0.05193598
10210.00   0.81370258   0.05298446
10212.00   0.88407606   0.05333153
10214.00   0.85487068   0.05241514
10216.00   0.69073850   0.04885750
10218.00   0.63588923   0.04689965
10220.00   0.75243360   0.04723390
10222.00   0.89144075   0.04844902
10224.00   0.88523465   0.04950654
10226.00   0.78543085   0.05109444
10228.00   0.74246472   0.05133238
10230.00   0.71890032   0.05080911
10232.00   0.67986792   0.04963981
10234.00   0.60710186   0.04696178
10236.00   0.55435842   0.04449651
10238.00   0.57364237   0.04422935
10240.00   0.64414221   0.04543454
10242.00   0.65243727   0.04468025
10244.00   0.62598586   0.04226164
10246.00   0.60092819   0.04078579
10248.00   0.55709356   0.03970741
10250.00   0.52541274   0.03908861
10252.00   0.52674276   0.03921006
10254.00   0.54560906   0.03982981
10256.00   0.54060644   0.03974825
10258.00   0.51940084   0.03899530
10260.00   0.50656372   0.03892519
10262.00   0.50714511   0.03906437
10264.00   0.48779726   0.03963890
10266.00   0.43006772   0.04098140
10268.00   0.35836014   0.04252218
10270.00   0.31779167   0.04289554
10272.00   0.26896626   0.04101963
10274.00   0.30533785   0.04386367
10276.00   0.48515877   0.05083138
10278.00   0.55560338   0.05550006
10280.00   0.44535732   0.05758203
10282.00   0.30702856   0.05924813
10284.00   0.32898873   0.06210384
10286.00   0.46496716   0.06493054
10288.00   0.50044972   0.07040437
10290.00   0.47681263   0.08188830
10292.00   0.47810161   0.08474419
10294.00   0.50838554   0.07823991
10296.00   0.53488433   0.06899852
10298.00   0.53029883   0.06307822
10300.00   0.50470543   0.05780248
10302.00   0.50547600   0.05533580
10304.00   0.52715999   0.05813150
10306.00   0.53603578   0.05743586
10308.00   0.56421655   0.05307659
10310.00   0.54877770   0.04958564
10312.00   0.43626648   0.05032809
10314.00   0.26397276   0.05329569
10316.00   0.17326368   0.05404565
10318.00   0.10021196   0.05500463
10320.00   0.09003609   0.05350985
10322.00   0.15064390   0.04831922
10324.00   0.22676243   0.04389764
10326.00   0.32682604   0.04227228
10328.00   0.42925084   0.04215781
10330.00   0.43595403   0.04214283
10332.00   0.35312569   0.04346899
10334.00   0.30644301   0.04332492
10336.00   0.21412489   0.04057597
10338.00   0.20141539   0.04090595
10340.00   0.33012548   0.04643695
10342.00   0.48210186   0.05211074
10344.00   0.48289290   0.05304266
10346.00   0.36770096   0.05081229
10348.00   0.35198292   0.05050167
10350.00   0.39846826   0.05099234
10352.00   0.41246274   0.05080441
10354.00   0.38534310   0.04994174
10356.00   0.35826856   0.04870268
10358.00   0.35937142   0.04690900
10360.00   0.37278235   0.04424162
10362.00   0.43189234   0.04461423
10364.00   0.58531660   0.04812513
10366.00   0.64309937   0.05013531
10368.00   0.62809771   0.05128789
10370.00   0.57366097   0.05242439
10372.00   0.47126818   0.05418945
10374.00   0.32916638   0.05613498
10376.00   0.29954022   0.05612738
10378.00   0.38778165   0.05461271
10380.00   0.39800799   0.05262673
10382.00   0.33347440   0.04853627
10384.00   0.32353470   0.04549925
10386.00   0.44187555   0.04521627
10388.00   0.61014730   0.04645276
10390.00   0.64963424   0.04729077
10392.00   0.59672266   0.04891227
10394.00   0.56902051   0.04946710
10396.00   0.52244765   0.04955098
10398.00   0.48144078   0.04913257
10400.00   0.44208109   0.04771392
10402.00   0.41240183   0.04613057
10404.00   0.41461575   0.04613675
10406.00   0.44597098   0.04743061
10408.00   0.47310680   0.04792649
10410.00   0.54821402   0.04785994
10412.00   0.54612815   0.04851726
10414.00   0.41689783   0.04982853
10416.00   0.29160729   0.05160770
10418.00   0.30945182   0.05418305
10420.00   0.42455989   0.05773843
10422.00   0.46758124   0.05787147
10424.00   0.51368928   0.05497654
10426.00   0.50225878   0.05248586
10428.00   0.39649343   0.04907244
10430.00   0.31100610   0.04632052
10432.00   0.32430518   0.04603221
10434.00   0.39474180   0.04740862
10436.00   0.44528976   0.04732184
10438.00   0.55096430   0.04680780
10440.00   0.55317163   0.04603396
10442.00   0.43985334   0.04414736
10444.00   0.34724456   0.04319936
10446.00   0.31692415   0.04419951
10448.00   0.32187083   0.04628162
10450.00   0.37613595   0.04823270
10452.00   0.54171485   0.05177896
10454.00   0.57434964   0.05209771
10456.00   0.50377572   0.04938033
10458.00   0.45183879   0.04724102
10460.00   0.43675485   0.04621601
10462.00   0.43562013   0.04588711
10464.00   0.44236103   0.04667191
10466.00   0.47010556   0.04895317
10468.00   0.46654266   0.04978457
10470.00   0.43176752   0.05000949
10472.00   0.41405502   0.04997986
10474.00   0.41442865   0.04970025
10476.00   0.42398536   0.04910702
10478.00   0.43880257   0.04799971
10480.00   0.46174344   0.04616670
10482.00   0.48347014   0.04576645
10484.00   0.53175557   0.04715010
10486.00   0.52942622   0.04711338
10488.00   0.45060235   0.04489537
10490.00   0.38569131   0.04342276
10492.00   0.40140575   0.04531115
10494.00   0.46504283   0.04911408
10496.00   0.51049328   0.05070739
10498.00   0.58807820   0.05247671
10500.00   0.60788333   0.05167641
10502.00   0.57374412   0.04689242
10504.00   0.53088641   0.04281579
10506.00   0.49523821   0.04255790
10508.00   0.45674041   0.04419221
10510.00   0.41665381   0.04431160
10512.00   0.34343427   0.04394977
10514.00   0.34506881   0.04386339
10516.00   0.41640323   0.04234501
10518.00   0.48277104   0.04351638
10520.00   0.53590119   0.04885661
10522.00   0.58148175   0.05515897
10524.00   0.60525483   0.05917797
10526.00   0.62043643   0.06407914
10528.00   0.59239018   0.06281458
10530.00   0.49193943   0.05315308
10532.00   0.43644792   0.04634117
10534.00   0.43397102   0.04503668
10536.00   0.45701540   0.04581631
10538.00   0.49255547   0.04575960
10540.00   0.55747831   0.04630004
10542.00   0.57051170   0.04620237
10544.00   0.54025424   0.04535593
10546.00   0.52154839   0.04533318
10548.00   0.50126708   0.04636338
10550.00   0.49177435   0.04737262
10552.00   0.51346874   0.04771995
10554.00   0.55930680   0.04775645
10556.00   0.55666810   0.04709423
10558.00   0.48157042   0.04485427
10560.00   0.49170762   0.04418183
10562.00   0.59736699   0.04452047
10564.00   0.68289667   0.04561912
10566.00   0.70243686   0.04778054
10568.00   0.68311363   0.05050859
10570.00   0.61530930   0.05154163
10572.00   0.42061719   0.05200661
10574.00   0.37537152   0.05117502
10576.00   0.43451965   0.04753203
10578.00   0.50149018   0.04549942
10580.00   0.57119453   0.04724913
10582.00   0.63830614   0.05022101
10584.00   0.64170063   0.05063916
10586.00   0.57954472   0.04965149
10588.00   0.56098580   0.04890800
10590.00   0.54631764   0.04734569
10592.00   0.55359185   0.04652236
10594.00   0.59911716   0.04693870
10596.00   0.64981854   0.04760051
10598.00   0.65987396   0.04731732
10600.00   0.64462209   0.04640711
10602.00   0.63037324   0.04603049
10604.00   0.59748113   0.04587635
10606.00   0.58026844   0.04577621
10608.00   0.57372987   0.04575067
10610.00   0.57952780   0.04580222
10612.00   0.60609931   0.04593793
10614.00   0.65232515   0.04616322
10616.00   0.67123038   0.04632239
10618.00   0.68458867   0.04650256
10620.00   0.67336011   0.04659346
10622.00   0.62048852   0.04642505
10624.00   0.57862711   0.04648219
10626.00   0.57379216   0.04721740
10628.00   0.59071618   0.04828146
10630.00   0.62394458   0.04829465
10632.00   0.70899159   0.04731584
10634.00   0.73348802   0.04680743
10636.00   0.71434188   0.04639261
10638.00   0.69029492   0.04599941
10640.00   0.66123217   0.04555520
10642.00   0.63355887   0.04515780
10644.00   0.64967829   0.04508152
10646.00   0.71673167   0.04542356
10648.00   0.74060088   0.04537955
10650.00   0.73784012   0.04499583
10652.00   0.74324971   0.04484125
10654.00   0.77868193   0.04519065
10656.00   0.80227870   0.04551790
10658.00   0.74268782   0.04498525
10660.00   0.59153455   0.04349254
10662.00   0.56971949   0.04352165
10664.00   0.64412510   0.04530894
10666.00   0.70207453   0.04573235
10668.00   0.77509040   0.04466734
10670.00   0.81983107   0.04314471
10672.00   0.76836896   0.04183288
10674.00   0.63622862   0.04030196
10676.00   0.62006688   0.03987499
10678.00   0.69253242   0.04078883
10680.00   0.73188215   0.04099812
10682.00   0.76078087   0.04072551
10684.00   0.78109503   0.04040410
10686.00   0.79295385   0.04029678
10688.00   0.79593712   0.04024794
10690.00   0.77572697   0.03975514
10692.00   0.71881306   0.03851270
10694.00   0.68681240   0.03807069
10696.00   0.66082609   0.03850923
10698.00   0.64772063   0.03856860
10700.00   0.65358913   0.03742437
10702.00   0.67140418   0.03593425
10704.00   0.68367082   0.03644345
10706.00   0.71325165   0.03827668
10708.00   0.69787753   0.04044459
10710.00   0.61237413   0.04481244
10712.00   0.58183700   0.04648910
10714.00   0.65088642   0.04411250
10716.00   0.74202275   0.04026217
10718.00   0.74151266   0.03949867
10720.00   0.66621697   0.04107423
10722.00   0.67308629   0.03995840
10724.00   0.74383408   0.03574364
10726.00   0.78478235   0.03387449
10728.00   0.81338847   0.03568967
10730.00   0.80958658   0.03784239
10732.00   0.72514379   0.03771602
10734.00   0.56016350   0.03644230
10736.00   0.53007215   0.03501853
10738.00   0.61760265   0.03190063
10740.00   0.65282249   0.03058177
10742.00   0.64428174   0.03172975
10744.00   0.64381331   0.03264694
10746.00   0.69009918   0.03161559
10748.00   0.76243228   0.02946321
10750.00   0.76785630   0.02849332
10752.00   0.70149666   0.02825957
10754.00   0.68608046   0.02781177
10756.00   0.69940341   0.02722637
10758.00   0.71868902   0.02693949
10760.00   0.74071521   0.02713636
10762.00   0.76564074   0.02766757
10764.00   0.77575362   0.02836215
10766.00   0.77353978   0.03013256
10768.00   0.77388328   0.02980183
10770.00   0.78562140   0.02735519
10772.00   0.77137995   0.02524385
10774.00   0.70924419   0.02397591
10776.00   0.63496649   0.02317267
10778.00   0.60936534   0.02288664
10780.00   0.61222160   0.02340869
10782.00   0.62311351   0.02339024
10784.00   0.65563399   0.02261193
10786.00   0.68833286   0.02297763
10788.00   0.74133915   0.02524148
10790.00   0.77539206   0.02724460
10792.00   0.73223954   0.02714394
10794.00   0.62145036   0.02568000
10796.00   0.57886201   0.02411112
10798.00   0.56424791   0.02083515
10800.00   0.56442654   0.01893556
10802.00   0.58824313   0.01876978
10804.00   0.61972880   0.01917320
10806.00   0.65234119   0.01951575
10808.00   0.69019687   0.02011575
10810.00   0.69423455   0.02033367
