# File created by shivutils (I.Shivvers)
# 
# wl(A)   flm    er(optional)
3420.00   -0.10199833   0.09440130
3422.00   0.17657990   0.09741565
3424.00   0.47428845   0.10067474
3426.00   0.28146887   0.10225543
3428.00   0.07972033   0.10356956
3430.00   0.29161836   0.10628636
3432.00   0.37176162   0.10691921
3434.00   0.53656568   0.11002169
3436.00   0.27555210   0.11063740
3438.00   0.22127616   0.10962704
3440.00   0.42843980   0.11153260
3442.00   0.29331844   0.11006383
3444.00   0.09475981   0.10909899
3446.00   0.49665740   0.11193514
3448.00   0.42441648   0.11108526
3450.00   0.26709576   0.11083083
3452.00   0.45351247   0.11308599
3454.00   0.27386397   0.11190011
3456.00   0.33418160   0.11130437
3458.00   0.16385924   0.11008013
3460.00   0.06826624   0.10908203
3462.00   0.27316908   0.11071025
3464.00   0.43288548   0.11114912
3466.00   -0.05176969   0.11009033
3468.00   0.40840577   0.11106022
3470.00   0.52673379   0.11202332
3472.00   0.25785183   0.10984700
3474.00   0.60528735   0.11201404
3476.00   0.31774172   0.11110018
3478.00   0.53194768   0.11463186
3480.00   0.49610955   0.11649612
3482.00   0.23110974   0.11692763
3484.00   0.08415745   0.11630372
3486.00   0.57153592   0.11834073
3488.00   0.44897543   0.11730755
3490.00   0.12941623   0.11581188
3492.00   0.35853824   0.11756717
3494.00   0.40584158   0.11840222
3496.00   0.43898128   0.11871493
3498.00   0.09834367   0.11759227
3500.00   0.28678079   0.12025944
3502.00   0.19732602   0.12004418
3504.00   0.26028737   0.11966617
3506.00   0.45464256   0.12156371
3508.00   0.26260182   0.12011470
3510.00   0.53688246   0.12284993
3512.00   0.21721031   0.12070479
3514.00   0.42071868   0.12171585
3516.00   0.48844994   0.12160941
3518.00   0.36594261   0.12133572
3520.00   0.26123579   0.11990032
3522.00   0.39295055   0.12118915
3524.00   0.22363024   0.11940762
3526.00   0.28767211   0.11970449
3528.00   0.38765765   0.12017393
3530.00   0.24746797   0.11950275
3532.00   0.45809781   0.12020698
3534.00   0.89842558   0.12324992
3536.00   0.65218593   0.12144076
3538.00   0.67207258   0.12143339
3540.00   0.41162099   0.12125293
3542.00   0.71081737   0.12392820
3544.00   0.26773687   0.12209130
3546.00   0.58251337   0.12368659
3548.00   0.60668803   0.12331035
3550.00   0.54845539   0.12189364
3552.00   0.46263920   0.12223084
3554.00   0.30525037   0.12149713
3556.00   0.14172083   0.12212967
3558.00   0.31326115   0.12240609
3560.00   0.21869615   0.12069559
3562.00   0.38675911   0.12018026
3564.00   0.17615052   0.11828817
3566.00   0.91698971   0.12215219
3568.00   0.25890700   0.11894809
3570.00   0.24902838   0.11795284
3572.00   -0.10156380   0.11627533
3574.00   0.25996141   0.11704599
3576.00   0.20166165   0.11619478
3578.00   0.46596275   0.11627995
3580.00   0.33230956   0.11506643
3582.00   0.26029054   0.11455790
3584.00   0.41936372   0.11309140
3586.00   -0.12035227   0.11086919
3588.00   0.16447827   0.11054646
3590.00   -0.07974888   0.11042016
3592.00   0.22465184   0.10898393
3594.00   0.28481602   0.10896895
3596.00   0.50185153   0.10887149
3598.00   0.09895739   0.10697168
3600.00   0.45321647   0.10662041
3602.00   0.55228946   0.10711115
3604.00   0.56823637   0.10689764
3606.00   0.25129095   0.10482585
3608.00   0.55278072   0.10531306
3610.00   0.44047952   0.10382802
3612.00   0.55878243   0.10581190
3614.00   0.42376371   0.10528301
3616.00   0.33587422   0.10421677
3618.00   0.89369973   0.10580219
3620.00   0.32211073   0.10210232
3622.00   0.47391885   0.10261861
3624.00   0.32054761   0.10081703
3626.00   0.21340446   0.09953437
3628.00   0.31677636   0.09890344
3630.00   0.68775169   0.10159989
3632.00   0.75889494   0.10153550
3634.00   0.47748895   0.09900712
3636.00   0.54459441   0.09891253
3638.00   0.23229406   0.09674900
3640.00   0.27506238   0.09595490
3642.00   0.50388878   0.09756587
3644.00   0.38859175   0.09654167
3646.00   0.62511057   0.09726081
3648.00   0.44681703   0.10193961
3650.00   0.66966605   0.11118188
3652.00   0.50083847   0.10708580
3654.00   0.51114956   0.10195179
3656.00   0.34262110   0.09819912
3658.00   0.58012967   0.09415915
3660.00   0.39510345   0.09144415
3662.00   0.36811687   0.09538806
3664.00   0.35372122   0.09444095
3666.00   0.54701035   0.09060240
3668.00   0.20441340   0.08664980
3670.00   0.33718275   0.08600815
3672.00   0.31247975   0.08527682
3674.00   0.59354426   0.08628936
3676.00   0.55248823   0.08555106
3678.00   0.31917903   0.08341773
3680.00   0.27276267   0.08314905
3682.00   0.19298590   0.08122016
3684.00   0.12033791   0.08087308
3686.00   0.40368120   0.08165244
3688.00   0.39239516   0.08098094
3690.00   0.48620136   0.08157364
3692.00   0.48316703   0.08120730
3694.00   0.52281471   0.08050857
3696.00   0.39870053   0.07993447
3698.00   0.31167014   0.07924533
3700.00   0.26645285   0.07960692
3702.00   0.46357758   0.07970714
3704.00   0.50905360   0.07956786
3706.00   0.40198287   0.07837792
3708.00   0.53657058   0.07850511
3710.00   0.56700820   0.07851402
3712.00   0.50059756   0.07706502
3714.00   0.68098276   0.07791993
3716.00   0.40851208   0.07585255
3718.00   0.52879854   0.07619090
3720.00   0.39767717   0.07409464
3722.00   0.47775223   0.07486825
3724.00   0.43280553   0.07409602
3726.00   0.42259066   0.07353937
3728.00   0.44294713   0.07339297
3730.00   0.45212729   0.07357707
3732.00   0.57560129   0.07524008
3734.00   0.66900880   0.07563625
3736.00   0.52740706   0.07427342
3738.00   0.43645895   0.07302930
3740.00   0.38967771   0.07237795
3742.00   0.47827448   0.07257485
3744.00   0.31446477   0.07035276
3746.00   0.64499764   0.07158794
3748.00   0.36341226   0.06983911
3750.00   0.45306693   0.07035228
3752.00   0.23437967   0.06897014
3754.00   0.57374269   0.06953976
3756.00   0.65984121   0.06985229
3758.00   0.49200963   0.06872396
3760.00   0.49458375   0.06812015
3762.00   0.30722390   0.06712454
3764.00   0.43288741   0.06703369
3766.00   0.32334743   0.06612928
3768.00   0.35128332   0.06557230
3770.00   0.15454425   0.06467181
3772.00   0.19116156   0.06501799
3774.00   0.37041232   0.06546364
3776.00   0.28815815   0.06468999
3778.00   0.26558262   0.06407211
3780.00   0.12125633   0.06325481
3782.00   0.40638153   0.06437082
3784.00   -0.11286754   0.06250547
3786.00   0.12921733   0.06309545
3788.00   0.19926680   0.06248890
3790.00   0.16881343   0.06274123
3792.00   0.02476820   0.06205476
3794.00   -0.01603209   0.06119114
3796.00   0.13586487   0.06096818
3798.00   0.03718284   0.06024837
3800.00   0.16580923   0.06059388
3802.00   0.17375360   0.06044945
3804.00   0.16045729   0.06018100
3806.00   0.12795042   0.05905551
3808.00   0.25030058   0.05989687
3810.00   0.04241190   0.05839811
3812.00   0.03011199   0.05896781
3814.00   0.12721456   0.05906725
3816.00   0.08990404   0.05836840
3818.00   0.01726585   0.05810464
3820.00   0.09328561   0.05791562
3822.00   0.23930754   0.05862861
3824.00   0.09569706   0.05727693
3826.00   -0.02324015   0.05689372
3828.00   0.16452685   0.05824317
3830.00   0.03701792   0.05763362
3832.00   0.11596231   0.05816620
3834.00   0.02545415   0.05659894
3836.00   0.19114156   0.05625264
3838.00   0.10776182   0.05646943
3840.00   0.26440204   0.05581231
3842.00   0.20539016   0.05510048
3844.00   0.15843629   0.05447451
3846.00   0.25511883   0.05419944
3848.00   0.06464927   0.05265909
3850.00   0.12375777   0.05275406
3852.00   0.12850912   0.05231840
3854.00   0.14589443   0.05176572
3856.00   0.15327878   0.05121676
3858.00   0.31872485   0.05172246
3860.00   0.15834552   0.05089252
3862.00   0.08192817   0.05014316
3864.00   0.05345331   0.04972765
3866.00   0.13583088   0.04923712
3868.00   0.23560232   0.04938700
3870.00   0.10783799   0.04806859
3872.00   0.19333986   0.04844922
3874.00   0.12414798   0.04843185
3876.00   0.22011496   0.04848479
3878.00   0.10162962   0.04689540
3880.00   0.16821149   0.04650163
3882.00   0.19121689   0.04599086
3884.00   0.33420612   0.04665292
3886.00   0.16986484   0.04532004
3888.00   0.24802549   0.04543734
3890.00   0.25443179   0.04500350
3892.00   0.27079360   0.04465256
3894.00   0.27087576   0.04459504
3896.00   0.33874323   0.04512678
3898.00   0.25916060   0.04417211
3900.00   0.30057370   0.04397455
3902.00   0.22478634   0.04350222
3904.00   0.31973298   0.04448391
3906.00   0.30809190   0.04607025
3908.00   0.30425903   0.04686283
3910.00   0.34103473   0.04711407
3912.00   0.38936604   0.04732152
3914.00   0.43934605   0.04620671
3916.00   0.48212163   0.04516056
3918.00   0.32772102   0.04302640
3920.00   0.43891806   0.04282551
3922.00   0.47230610   0.04264627
3924.00   0.46396977   0.04201334
3926.00   0.49242680   0.04168330
3928.00   0.55733706   0.04172889
3930.00   0.52545340   0.04130361
3932.00   0.51549376   0.04172411
3934.00   0.54806954   0.04173956
3936.00   0.64774395   0.04116444
3938.00   0.61707210   0.04042489
3940.00   0.57537126   0.04012523
3942.00   0.61225698   0.04083780
3944.00   0.78025714   0.04175540
3946.00   0.67578380   0.04069510
3948.00   0.72598903   0.04040649
3950.00   0.73135576   0.04003468
3952.00   0.76841857   0.03975622
3954.00   0.78992730   0.03947558
3956.00   0.82815382   0.03931431
3958.00   0.88970442   0.03975883
3960.00   0.80849585   0.03963409
3962.00   0.80245491   0.03958612
3964.00   0.90179178   0.03948570
3966.00   0.86564738   0.03826530
3968.00   0.88663730   0.03813152
3970.00   0.91540652   0.03809074
3972.00   0.84688460   0.03749391
3974.00   0.91674515   0.03769954
3976.00   0.85826073   0.03710089
3978.00   0.91998178   0.03739703
3980.00   0.81876262   0.03659102
3982.00   0.90254731   0.03678656
3984.00   0.88210781   0.03669093
3986.00   0.81835066   0.03613853
3988.00   0.81795594   0.03608126
3990.00   0.86577902   0.03633682
3992.00   0.82765551   0.03572969
3994.00   0.84258786   0.03607629
3996.00   0.91916213   0.03697894
3998.00   0.87733412   0.03642401
4000.00   0.84834146   0.03576011
4002.00   0.91067024   0.03567388
4004.00   0.83414972   0.03486018
4006.00   0.89168203   0.03523680
4008.00   0.83187913   0.03500995
4010.00   0.86474589   0.03531511
4012.00   0.83632164   0.03503663
4014.00   0.81883835   0.03474831
4016.00   0.86983288   0.03472080
4018.00   0.88925420   0.03572256
4020.00   0.80841257   0.03676939
4022.00   0.84560312   0.03752041
4024.00   0.90338480   0.03737611
4026.00   0.80237609   0.03581971
4028.00   0.90093576   0.03525747
4030.00   0.85912681   0.03466055
4032.00   0.83777932   0.03442836
4034.00   0.80862168   0.03385359
4036.00   0.90900231   0.03430153
4038.00   0.88114307   0.03395731
4040.00   0.86643596   0.03369576
4042.00   0.83223588   0.03392546
4044.00   0.89288135   0.04143742
4046.00   0.79849645   0.05042863
4048.00   0.77414374   0.04911588
4050.00   0.78603832   0.03861200
4052.00   0.89703718   0.03500305
4054.00   0.86395489   0.03447758
4056.00   0.92732063   0.03458820
4058.00   0.90141913   0.03352316
4060.00   0.94325989   0.03324532
4062.00   0.96178202   0.03322944
4064.00   0.88361460   0.03282999
4066.00   0.98961820   0.03327918
4068.00   0.97217894   0.03305938
4070.00   1.02965542   0.03303416
4072.00   0.93491460   0.03235421
4074.00   0.99791150   0.03286609
4076.00   1.01551499   0.03486460
4078.00   1.01247924   0.03569977
4080.00   0.92567368   0.03435805
4082.00   0.92519936   0.03357507
4084.00   0.97985268   0.03356668
4086.00   0.93484129   0.03300522
4088.00   0.89078952   0.03217760
4090.00   0.88363480   0.03133234
4092.00   0.86972459   0.03074619
4094.00   0.88856753   0.03081017
4096.00   0.87311534   0.03066025
4098.00   0.87119099   0.03063897
4100.00   0.86715460   0.03046369
4102.00   0.84992396   0.03016920
4104.00   0.86244950   0.02997032
4106.00   0.84450255   0.02977527
4108.00   0.85004376   0.02984560
4110.00   0.88087560   0.02992112
4112.00   0.86119684   0.02959376
4114.00   0.80547531   0.02930695
4116.00   0.80118398   0.02913171
4118.00   0.79232030   0.02900006
4120.00   0.75909549   0.02853840
4122.00   0.76985759   0.02847529
4124.00   0.72809736   0.02838480
4126.00   0.69793196   0.02816140
4128.00   0.82454163   0.02873691
4130.00   0.67576597   0.02789253
4132.00   0.73322687   0.02864511
4134.00   0.72317551   0.02861680
4136.00   0.69600151   0.02803553
4138.00   0.69461173   0.02796923
4140.00   0.67650933   0.02809248
4142.00   0.67235069   0.02768115
4144.00   0.69870985   0.02715192
4146.00   0.70754773   0.02700003
4148.00   0.74253775   0.02710114
4150.00   0.72044828   0.02732581
4152.00   0.72647312   0.02783746
4154.00   0.73466645   0.02772948
4156.00   0.74765914   0.02715816
4158.00   0.83097889   0.02736009
4160.00   0.75421810   0.02688177
4162.00   0.77300583   0.02720836
4164.00   0.76991143   0.02794618
4166.00   0.76710561   0.02812001
4168.00   0.76737590   0.02723872
4170.00   0.81834466   0.02698136
4172.00   0.80396665   0.02661588
4174.00   0.83601591   0.02662371
4176.00   0.77742831   0.02613757
4178.00   0.78887027   0.02631027
4180.00   0.80476756   0.02617067
4182.00   0.74499401   0.02560222
4184.00   0.75270056   0.02543813
4186.00   0.74242408   0.02540787
4188.00   0.67398200   0.02496344
4190.00   0.68397166   0.02491841
4192.00   0.69034810   0.02495514
4194.00   0.63029879   0.02453005
4196.00   0.64533435   0.02437780
4198.00   0.63450504   0.02417095
4200.00   0.58015519   0.02386404
4202.00   0.67054449   0.02425807
4204.00   0.55628883   0.02441657
4206.00   0.61871942   0.02407097
4208.00   0.67416528   0.02444133
4210.00   0.63091153   0.02424466
4212.00   0.61129614   0.02409239
4214.00   0.66852275   0.02414614
4216.00   0.64167478   0.02398960
4218.00   0.61571049   0.02380026
4220.00   0.66052785   0.02386996
4222.00   0.66557982   0.02371659
4224.00   0.68939415   0.02382837
4226.00   0.73498402   0.02408763
4228.00   0.72315197   0.02395572
4230.00   0.77611987   0.02440962
4232.00   0.70657774   0.02418106
4234.00   0.72586382   0.02421963
4236.00   0.71524988   0.02424427
4238.00   0.69528345   0.02434043
4240.00   0.72356475   0.02412737
4242.00   0.72479161   0.02379944
4244.00   0.73042279   0.02450236
4246.00   0.69151500   0.02567293
4248.00   0.68058041   0.02569483
4250.00   0.70873462   0.02441272
4252.00   0.71532087   0.02376856
4254.00   0.64438227   0.02323684
4256.00   0.62574418   0.02308412
4258.00   0.60897376   0.02299073
4260.00   0.63915269   0.02306372
4262.00   0.66105266   0.02298672
4264.00   0.64601991   0.02280545
4266.00   0.61832485   0.02256579
4268.00   0.64682475   0.02272425
4270.00   0.58460383   0.02253808
4272.00   0.62371874   0.02268569
4274.00   0.55860371   0.02227793
4276.00   0.59615618   0.02254778
4278.00   0.52700267   0.02215195
4280.00   0.57724167   0.02242224
4282.00   0.57978481   0.02239176
4284.00   0.49652707   0.02197058
4286.00   0.50787156   0.02181497
4288.00   0.50246880   0.02168133
4290.00   0.40228778   0.02094579
4292.00   0.49602042   0.02158603
4294.00   0.55378578   0.02200099
4296.00   0.55093877   0.02199442
4298.00   0.63674254   0.02237684
4300.00   0.66320590   0.02236145
4302.00   0.64533137   0.02225117
4304.00   0.63961070   0.02231082
4306.00   0.64798824   0.02246980
4308.00   0.70500115   0.02270773
4310.00   0.65226541   0.02253953
4312.00   0.69294497   0.02358533
4314.00   0.65974573   0.02397237
4316.00   0.66741592   0.02357065
4318.00   0.72067241   0.02360630
4320.00   0.76417025   0.02405777
4322.00   0.66243067   0.02357797
4324.00   0.71497405   0.02358583
4326.00   0.76042894   0.02357153
4328.00   0.79305678   0.02320292
4330.00   0.69187968   0.02248035
4332.00   0.78000013   0.02276353
4334.00   0.71620652   0.02248716
4336.00   0.73357857   0.02270947
4338.00   0.72334315   0.02285542
4340.00   0.73782610   0.02295439
4342.00   0.72804601   0.02287041
4344.00   0.73874845   0.02322741
4346.00   0.78148135   0.02407381
4348.00   0.74539446   0.02421447
4350.00   0.70010501   0.02349018
4352.00   0.69691851   0.02311590
4354.00   0.69592984   0.02451666
4356.00   0.71192562   0.03778219
4358.00   0.64916622   0.04669084
4360.00   0.46919732   0.04307223
4362.00   0.60691258   0.03184742
4364.00   0.66471882   0.02564306
4366.00   0.66761566   0.02363797
4368.00   0.64950556   0.02307656
4370.00   0.71061170   0.02321167
4372.00   0.68083473   0.02337003
4374.00   0.73005581   0.02389126
4376.00   0.64497305   0.02327615
4378.00   0.67579728   0.02270224
4380.00   0.69856592   0.02256325
4382.00   0.71494874   0.02249798
4384.00   0.76156515   0.02242039
4386.00   0.76238841   0.02230272
4388.00   0.71697389   0.02215045
4390.00   0.73503395   0.02235360
4392.00   0.72687771   0.02218397
4394.00   0.72467758   0.02214278
4396.00   0.73208942   0.02200724
4398.00   0.73451200   0.02243261
4400.00   0.74721528   0.02280884
4402.00   0.78569088   0.02293091
4404.00   0.76781530   0.02243146
4406.00   0.76317574   0.02231161
4408.00   0.77136402   0.02231910
4410.00   0.75299134   0.02226751
4412.00   0.76184019   0.02237673
4414.00   0.72241336   0.02249106
4416.00   0.72100476   0.02252490
4418.00   0.69643179   0.02210599
4420.00   0.72486286   0.02204106
4422.00   0.71246961   0.02183182
4424.00   0.67879336   0.02163129
4426.00   0.73511435   0.02178967
4428.00   0.69276416   0.02157686
4430.00   0.68884075   0.02154717
4432.00   0.66527567   0.02135817
4434.00   0.66153514   0.02123753
4436.00   0.67298733   0.02126180
4438.00   0.67597164   0.02130962
4440.00   0.69647232   0.02139448
4442.00   0.66537920   0.02113469
4444.00   0.68666820   0.02117676
4446.00   0.67595282   0.02112620
4448.00   0.67161614   0.02106980
4450.00   0.70680079   0.02121946
4452.00   0.66736517   0.02094160
4454.00   0.69021184   0.02093975
4456.00   0.70563124   0.02107125
4458.00   0.71784479   0.02112516
4460.00   0.73292196   0.02119353
4462.00   0.72123191   0.02103862
4464.00   0.73575624   0.02113824
4466.00   0.68381451   0.02076949
4468.00   0.72392619   0.02085333
4470.00   0.69739719   0.02074331
4472.00   0.72604848   0.02082370
4474.00   0.72615129   0.02083245
4476.00   0.74039825   0.02090049
4478.00   0.76975874   0.02093903
4480.00   0.73325254   0.02079916
4482.00   0.72946517   0.02078191
4484.00   0.72084906   0.02072966
4486.00   0.70310787   0.02072695
4488.00   0.73478924   0.02085135
4490.00   0.75905834   0.02094800
4492.00   0.74567544   0.02104822
4494.00   0.72837988   0.02100722
4496.00   0.72451496   0.02088543
4498.00   0.73465511   0.02108307
4500.00   0.76868820   0.02115068
4502.00   0.73745899   0.02084209
4504.00   0.72373753   0.02073274
4506.00   0.77693442   0.02089736
4508.00   0.81315003   0.02099592
4510.00   0.76336610   0.02068225
4512.00   0.76368439   0.02065203
4514.00   0.74584733   0.02051912
4516.00   0.77519143   0.02058839
4518.00   0.79300137   0.02061826
4520.00   0.82847241   0.02078649
4522.00   0.78337804   0.02055116
4524.00   0.82416091   0.02064223
4526.00   0.81380998   0.02048490
4528.00   0.83563277   0.02060995
4530.00   0.83955870   0.02066581
4532.00   0.84496264   0.02078006
4534.00   0.88500330   0.02089528
4536.00   0.92388627   0.02104523
4538.00   0.94148730   0.02101015
4540.00   0.94624580   0.02113450
4542.00   0.94740250   0.02122223
4544.00   0.93250398   0.02135220
4546.00   0.98325930   0.02146373
4548.00   1.05613550   0.02155440
4550.00   1.01204364   0.02126093
4552.00   1.04389284   0.02134927
4554.00   1.05738781   0.02141100
4556.00   1.10028176   0.02162851
4558.00   1.08053139   0.02158806
4560.00   1.15004103   0.02178387
4562.00   1.15809423   0.02169137
4564.00   1.13958227   0.02150852
4566.00   1.13094636   0.02144722
4568.00   1.19395883   0.02167897
4570.00   1.19710232   0.02179076
4572.00   1.17120075   0.02176275
4574.00   1.19063247   0.02185600
4576.00   1.21278204   0.02180683
4578.00   1.26483402   0.02192407
4580.00   1.29973503   0.02206212
4582.00   1.30280416   0.02197188
4584.00   1.28943600   0.02177662
4586.00   1.22392039   0.02148277
4588.00   1.26583557   0.02169605
4590.00   1.25060234   0.02167400
4592.00   1.28365624   0.02177649
4594.00   1.26536194   0.02175564
4596.00   1.27167593   0.02175211
4598.00   1.22702578   0.02155690
4600.00   1.23427804   0.02143949
4602.00   1.22236331   0.02130136
4604.00   1.27607775   0.02154599
4606.00   1.23519114   0.02138924
4608.00   1.24078330   0.02142939
4610.00   1.27034264   0.02154827
4612.00   1.26894122   0.02145059
4614.00   1.30634278   0.02150738
4616.00   1.27959251   0.02136318
4618.00   1.34861835   0.02165029
4620.00   1.32642885   0.02149193
4622.00   1.32249823   0.02144691
4624.00   1.24831687   0.02112608
4626.00   1.36274728   0.02160031
4628.00   1.28824711   0.02129083
4630.00   1.30878228   0.02136076
4632.00   1.25295036   0.02110302
4634.00   1.24847235   0.02105440
4636.00   1.30769312   0.02125219
4638.00   1.26356965   0.02108206
4640.00   1.27904590   0.02110953
4642.00   1.25073821   0.02095727
4644.00   1.24683178   0.02093000
4646.00   1.23671721   0.02082636
4648.00   1.23696436   0.02091106
4650.00   1.26327805   0.02104211
4652.00   1.30080373   0.02118772
4654.00   1.27086598   0.02110067
4656.00   1.35655841   0.02151135
4658.00   1.28776023   0.02132835
4660.00   1.31961520   0.02160141
4662.00   1.36617436   0.02190158
4664.00   1.34629551   0.02203401
4666.00   1.31136800   0.02208746
4668.00   1.28586617   0.02219507
4670.00   1.33279470   0.02243730
4672.00   1.32835439   0.02240110
4674.00   1.37759088   0.02236049
4676.00   1.34177047   0.02192938
4678.00   1.29990244   0.02152919
4680.00   1.28657907   0.02168875
4682.00   1.29595372   0.02128165
4684.00   1.28907608   0.02110652
4686.00   1.29758222   0.02106020
4688.00   1.28058652   0.02091007
4690.00   1.28397354   0.02086159
4692.00   1.31959920   0.02091412
4694.00   1.30545106   0.02083003
4696.00   1.30346401   0.02074463
4698.00   1.32766135   0.02074995
4700.00   1.33257975   0.02074432
4702.00   1.28250236   0.02057241
4704.00   1.25641122   0.02050950
4706.00   1.25312236   0.02050563
4708.00   1.22779186   0.02054919
4710.00   1.20463097   0.02042112
4712.00   1.22270717   0.02041480
4714.00   1.21057971   0.02027230
4716.00   1.19270731   0.02011429
4718.00   1.23649577   0.02023087
4720.00   1.20969271   0.02005236
4722.00   1.27750428   0.02035835
4724.00   1.23016159   0.02010959
4726.00   1.25900363   0.02046781
4728.00   1.26547217   0.02099107
4730.00   1.23781660   0.02108212
4732.00   1.25283541   0.02111309
4734.00   1.27095312   0.02134686
4736.00   1.23182943   0.02129774
4738.00   1.22172928   0.02150224
4740.00   1.19515665   0.02167652
4742.00   1.20183299   0.02205888
4744.00   1.19992017   0.02179879
4746.00   1.16067599   0.02083179
4748.00   1.14516371   0.02006769
4750.00   1.20057360   0.02010543
4752.00   1.13941804   0.02003460
4754.00   1.14952812   0.01993167
4756.00   1.16309047   0.01964367
4758.00   1.10907380   0.01912790
4760.00   1.11465530   0.01896273
4762.00   1.07196630   0.01871473
4764.00   1.07802491   0.01860802
4766.00   1.09682533   0.01862374
4768.00   1.08746733   0.01855070
4770.00   1.07987573   0.01844493
4772.00   1.07190355   0.01836957
4774.00   1.05039865   0.01826326
4776.00   1.03572062   0.01845684
4778.00   1.05728666   0.01880250
4780.00   1.01757357   0.01872314
4782.00   1.04177192   0.01851500
4784.00   1.09506025   0.01858752
4786.00   1.10140233   0.01854320
4788.00   1.06798165   0.01833383
4790.00   1.08000547   0.01847421
4792.00   1.07673536   0.01847803
4794.00   1.06332829   0.01833040
4796.00   1.02774706   0.01809373
4798.00   1.02696645   0.01801830
4800.00   1.06195150   0.01815814
4802.00   1.06450476   0.01820945
4804.00   1.07706509   0.01823854
4806.00   1.05546866   0.01815925
4808.00   0.99970563   0.01793352
4810.00   1.00784011   0.01796706
4812.00   1.02704609   0.01801830
4814.00   1.00543710   0.01797666
4816.00   0.99137768   0.01787205
4818.00   0.98347966   0.01786864
4820.00   0.98429089   0.01789210
4822.00   0.98397375   0.01801363
4824.00   0.94699753   0.01785926
4826.00   0.99556934   0.01814542
4828.00   0.95485683   0.01796489
4830.00   0.91939737   0.01781179
4832.00   0.90182024   0.01778994
4834.00   0.91379012   0.01783678
4836.00   0.92741614   0.01785295
4838.00   0.92645390   0.01804159
4840.00   0.92706241   0.01816952
4842.00   0.93612235   0.01803288
4844.00   0.91376780   0.01778011
4846.00   0.90663819   0.01771971
4848.00   0.94047302   0.01789791
4850.00   0.93978507   0.01789070
4852.00   0.93764045   0.01789020
4854.00   0.89731937   0.01762518
4856.00   0.92500707   0.01761320
4858.00   0.92651976   0.01756805
4860.00   0.94483199   0.01767813
4862.00   0.92160320   0.01761320
4864.00   0.95052035   0.01780329
4866.00   0.92410594   0.01774778
4868.00   0.99037291   0.01805627
4870.00   1.06234988   0.01835419
4872.00   0.96976404   0.01791390
4874.00   0.92430748   0.01769372
4876.00   0.90270963   0.01757992
4878.00   0.95665578   0.01783845
4880.00   0.96255581   0.01780014
4882.00   0.95230681   0.01769979
4884.00   0.90235921   0.01738404
4886.00   0.87246182   0.01721853
4888.00   0.88663599   0.01718257
4890.00   0.87196927   0.01710712
4892.00   0.87728012   0.01719091
4894.00   0.89134613   0.01725780
4896.00   0.87036018   0.01713953
4898.00   0.89178167   0.01713679
4900.00   0.87443093   0.01696807
4902.00   0.86779557   0.01693585
4904.00   0.88702014   0.01704254
4906.00   0.83389674   0.01687363
4908.00   0.89804208   0.01722351
4910.00   0.86451783   0.01710167
4912.00   0.87486485   0.01708513
4914.00   0.85085656   0.01701842
4916.00   0.83875744   0.01694555
4918.00   0.82178315   0.01679320
4920.00   0.81577775   0.01677289
4922.00   0.80343292   0.01667311
4924.00   0.80640998   0.01657468
4926.00   0.76626700   0.01631324
4928.00   0.82409927   0.01646306
4930.00   0.83719874   0.01644783
4932.00   0.84508073   0.01649440
4934.00   0.80918807   0.01642592
4936.00   0.81922739   0.01647645
4938.00   0.83722878   0.01655210
4940.00   0.84192168   0.01660737
4942.00   0.85996824   0.01665581
4944.00   0.85873705   0.01659434
4946.00   0.85275896   0.01647913
4948.00   0.86359561   0.01644126
4950.00   0.91532787   0.01678763
4952.00   0.89418411   0.01688074
4954.00   0.87812168   0.01686827
4956.00   0.94106570   0.01710971
4958.00   0.91110407   0.01727859
4960.00   0.96368988   0.01706956
4962.00   0.96856583   0.01713070
4964.00   0.95535964   0.01716326
4966.00   0.99785770   0.01748610
4968.00   0.96524969   0.01741840
4970.00   1.02015110   0.01788103
4972.00   1.05129664   0.01834278
4974.00   1.05436753   0.01874918
4976.00   1.08477981   0.01932170
4978.00   1.11665094   0.02010502
4980.00   1.10157508   0.02078293
4982.00   1.08112823   0.02115674
4984.00   1.11485425   0.02130677
4986.00   1.11358113   0.02093294
4988.00   1.15913398   0.02050970
4990.00   1.23700213   0.02030696
4992.00   1.25385356   0.01994012
4994.00   1.28666904   0.01959670
4996.00   1.32204788   0.01931363
4998.00   1.35822369   0.01910661
5000.00   1.41568397   0.01916483
5002.00   1.39888879   0.01899017
5004.00   1.48130830   0.01918399
5006.00   1.55167385   0.01933768
5008.00   1.57993276   0.01935159
5010.00   1.61873678   0.01945162
5012.00   1.62977789   0.01947656
5014.00   1.61893920   0.01955439
5016.00   1.72349444   0.01998157
5018.00   1.72685714   0.02004637
5020.00   1.72917323   0.02009564
5022.00   1.75748091   0.02011481
5024.00   1.79757403   0.02007494
5026.00   1.78911025   0.01998945
5028.00   1.79339856   0.02009292
5030.00   1.85318772   0.02043239
5032.00   1.81924125   0.02027771
5034.00   1.76914372   0.02000496
5036.00   1.74382949   0.01980230
5038.00   1.75961556   0.01990394
5040.00   1.69977920   0.01959612
5042.00   1.68914398   0.01952965
5044.00   1.67053729   0.01947510
5046.00   1.62789393   0.01936181
5048.00   1.61149252   0.01924880
5050.00   1.56319896   0.01907180
5052.00   1.51955181   0.01887916
5054.00   1.53054459   0.01891342
5056.00   1.46972405   0.01871210
5058.00   1.48755205   0.01875538
5060.00   1.40100679   0.01843047
5062.00   1.39722050   0.01868514
5064.00   1.32804016   0.01865854
5066.00   1.28591535   0.01860419
5068.00   1.24862270   0.01880748
5070.00   1.20971278   0.01880076
5072.00   1.21796384   0.01854610
5074.00   1.20465857   0.01835973
5076.00   1.16558541   0.01804555
5078.00   1.15120760   0.01814134
5080.00   1.12017445   0.01895966
5082.00   1.13025080   0.02015001
5084.00   1.05583072   0.02070472
5086.00   1.01757783   0.02068264
5088.00   0.98462262   0.01989156
5090.00   1.02353215   0.01894080
5092.00   0.99872876   0.01793240
5094.00   0.92498248   0.01717056
5096.00   0.94559601   0.01738195
5098.00   0.94280744   0.01777420
5100.00   0.91175990   0.01775255
5102.00   0.90501926   0.01737327
5104.00   0.90854566   0.01697887
5106.00   0.90013958   0.01667178
5108.00   0.86206856   0.01639528
5110.00   0.87793542   0.01648051
5112.00   0.86953275   0.01645405
5114.00   0.89408061   0.01671499
5116.00   0.86639058   0.01667939
5118.00   0.85604608   0.01654147
5120.00   0.87627342   0.01644173
5122.00   0.88416587   0.01638861
5124.00   0.90663196   0.01642739
5126.00   0.94688363   0.01656339
5128.00   0.93562422   0.01653141
5130.00   0.94642590   0.01659785
5132.00   0.94839239   0.01664535
5134.00   0.93472083   0.01660558
5136.00   0.99445822   0.01688563
5138.00   1.03461205   0.01707594
5140.00   1.04008300   0.01714277
5142.00   1.06607582   0.01730315
5144.00   1.07638504   0.01738951
5146.00   1.13232561   0.01785013
5148.00   1.20987769   0.01844375
5150.00   1.23317590   0.01886651
5152.00   1.25314184   0.01939209
5154.00   1.28304654   0.01964846
5156.00   1.30356716   0.01956785
5158.00   1.35751780   0.01947309
5160.00   1.39186223   0.01930370
5162.00   1.36242040   0.01895463
5164.00   1.38232070   0.01888047
5166.00   1.35793307   0.01871767
5168.00   1.35960366   0.01865362
5170.00   1.36429958   0.01866360
5172.00   1.35785202   0.01866497
5174.00   1.34231925   0.01862183
5176.00   1.35138906   0.01872652
5178.00   1.39485057   0.01891338
5180.00   1.36627764   0.01878785
5182.00   1.32328687   0.01858891
5184.00   1.33937321   0.01867160
5186.00   1.28381755   0.01849122
5188.00   1.29625352   0.01863142
5190.00   1.28330831   0.01856853
5192.00   1.27880275   0.01860370
5194.00   1.28134021   0.01861700
5196.00   1.20859496   0.01843496
5198.00   1.19544674   0.01843494
5200.00   1.19495875   0.01845950
5202.00   1.17426699   0.01834828
5204.00   1.17239417   0.01833634
5206.00   1.15429486   0.01825382
5208.00   1.17988722   0.01855821
5210.00   1.13086203   0.01857088
5212.00   1.14373534   0.01859024
5214.00   1.16538931   0.01855954
5216.00   1.15289531   0.01850980
5218.00   1.09343510   0.01840022
5220.00   1.19593624   0.01890018
5222.00   1.19895664   0.01887059
5224.00   1.24137752   0.01895571
5226.00   1.17631672   0.01856207
5228.00   1.20726758   0.01878082
5230.00   1.23719615   0.01897466
5232.00   1.16092146   0.01865318
5234.00   1.19343081   0.01873346
5236.00   1.17435659   0.01874319
5238.00   1.19286600   0.01893922
5240.00   1.19183972   0.01900324
5242.00   1.17926847   0.01889591
5244.00   1.16138515   0.01882740
5246.00   1.18814313   0.01894010
5248.00   1.20212551   0.01901822
5250.00   1.23828833   0.01927349
5252.00   1.21657849   0.01917548
5254.00   1.19276797   0.01912818
5256.00   1.18107349   0.01943524
5258.00   1.23796722   0.01979256
5260.00   1.20253337   0.01961289
5262.00   1.22922817   0.01964280
5264.00   1.25524757   0.01966338
5266.00   1.24744581   0.01956232
5268.00   1.24539122   0.01965308
5270.00   1.23625906   0.01961485
5272.00   1.26381699   0.01981536
5274.00   1.22921459   0.01973278
5276.00   1.23955237   0.01984931
5278.00   1.27695905   0.02003076
5280.00   1.18005410   0.01961088
5282.00   1.22222101   0.01990839
5284.00   1.19280010   0.01996259
5286.00   1.15687091   0.01986713
5288.00   1.13185762   0.01974009
5290.00   1.15319192   0.01984353
5292.00   1.17506202   0.01991685
5294.00   1.21406896   0.02011248
5296.00   1.17501406   0.01997277
5298.00   1.17453885   0.02007040
5300.00   1.17930788   0.02018199
5302.00   1.15765548   0.02017130
5304.00   1.18220514   0.02028601
5306.00   1.16937199   0.02020755
5308.00   1.19682717   0.02040413
5310.00   1.21633076   0.02055577
5312.00   1.26026663   0.02078382
5314.00   1.24727584   0.02080249
5316.00   1.29913111   0.02099051
5318.00   1.21779027   0.02071506
5320.00   1.25268053   0.02090207
5322.00   1.26057626   0.02099510
5324.00   1.27819227   0.02112751
5326.00   1.23461627   0.02102451
5328.00   1.31244215   0.02144614
5330.00   1.28595843   0.02137284
5332.00   1.27471679   0.02149576
5334.00   1.28064993   0.02150114
5336.00   1.23759444   0.02141532
5338.00   1.22408754   0.02152491
5340.00   1.23414565   0.02180709
5342.00   1.20057681   0.02180668
5344.00   1.19960129   0.02174416
5346.00   1.21596519   0.02207736
5348.00   1.26331267   0.02267904
5350.00   1.24800652   0.02272192
5352.00   1.25585870   0.02270117
5354.00   1.19262666   0.02270092
5356.00   1.21482580   0.02293877
5358.00   1.26041318   0.02299010
5360.00   1.21476233   0.02258387
5362.00   1.29780812   0.02274580
5364.00   1.26380132   0.02256026
5366.00   1.23307033   0.02235619
5368.00   1.29300204   0.02276039
5370.00   1.22773396   0.02256964
5372.00   1.28318543   0.02310365
5374.00   1.23883993   0.02328226
5376.00   1.20490978   0.02327139
5378.00   1.27671472   0.02359282
5380.00   1.20657893   0.02329231
5382.00   1.22784281   0.02341060
5384.00   1.20407658   0.02346036
5386.00   1.23009563   0.02361360
5388.00   1.20015216   0.02365403
5390.00   1.22304939   0.02423611
5392.00   1.24835779   0.02462258
5394.00   1.17147176   0.02430170
5396.00   1.21693632   0.02456321
5398.00   1.17891150   0.02444144
5400.00   1.22902942   0.02486113
5402.00   1.25447394   0.02508616
5404.00   1.27341990   0.02533332
5406.00   1.23937546   0.02544728
5408.00   1.26231275   0.02573759
5410.00   1.28565345   0.02622001
5412.00   1.29453532   0.02672103
5414.00   1.31819129   0.02735396
5416.00   1.32935922   0.02784612
5418.00   1.33334013   0.02824563
5420.00   1.29406182   0.02829124
5422.00   1.29150764   0.02829512
5424.00   1.35248051   0.02869109
5426.00   1.30653700   0.00996440
5428.00   1.29889286   0.00935670
5430.00   1.30540884   0.00915037
5432.00   1.31836882   0.00914579
5434.00   1.32805601   0.00913998
5436.00   1.34707677   0.00925317
5438.00   1.34867629   0.00931180
5440.00   1.32922480   0.00935244
5442.00   1.30862859   0.00936389
5444.00   1.29911545   0.00922096
5446.00   1.29435164   0.00897109
5448.00   1.28484872   0.00918255
5450.00   1.26978597   0.00978654
5452.00   1.26270238   0.01036916
5454.00   1.26883295   0.01095970
5456.00   1.27223366   0.01142689
5458.00   1.25593528   0.01189835
5460.00   1.21176475   0.01217379
5462.00   1.16586488   0.01210855
5464.00   1.10207707   0.01181030
5466.00   1.07339272   0.01136996
5468.00   1.07769173   0.01034858
5470.00   1.08465984   0.00936224
5472.00   1.07904217   0.00879724
5474.00   1.07305491   0.00850849
5476.00   1.07361364   0.00831055
5478.00   1.07952473   0.00832154
5480.00   1.07422850   0.00826526
5482.00   1.05727285   0.00821174
5484.00   1.04211757   0.00816873
5486.00   1.03460220   0.00812583
5488.00   1.03262976   0.00805757
5490.00   1.02520388   0.00796026
5492.00   1.01311401   0.00783010
5494.00   1.01212993   0.00775103
5496.00   1.02039361   0.00768776
5498.00   1.03337118   0.00767989
5500.00   1.05287454   0.00776650
5502.00   1.07752618   0.00789991
5504.00   1.09934017   0.00796308
5506.00   1.12069559   0.00801905
5508.00   1.14659443   0.00806337
5510.00   1.17271027   0.00804747
5512.00   1.20934543   0.00809244
5514.00   1.26225808   0.00829999
5516.00   1.31246826   0.00848227
5518.00   1.35676053   0.00848221
5520.00   1.39790183   0.00850160
5522.00   1.43197471   0.00876150
5524.00   1.45714617   0.00924516
5526.00   1.49662152   0.00930296
5528.00   1.54990286   0.00899514
5530.00   1.59583730   0.00879056
5532.00   1.62858379   0.00874157
5534.00   1.65153319   0.00895739
5536.00   1.68790990   0.00910450
5538.00   1.73206186   0.00920915
5540.00   1.77550799   0.00910678
5542.00   1.82140750   0.00881569
5544.00   1.86498100   0.00866343
5546.00   1.90461951   0.00862354
5548.00   1.93523395   0.00865934
5550.00   1.95248330   0.00861973
5552.00   1.95550108   0.00858469
5554.00   1.96956080   0.00889797
5556.00   1.99239248   0.00977156
5558.00   2.01407200   0.00997966
5560.00   2.03079736   0.00975026
5562.00   2.04519993   0.00948963
5564.00   2.05761093   0.00925987
5566.00   2.06262517   0.00920929
5568.00   2.05243272   0.00953024
5570.00   2.02353966   0.01012098
5572.00   2.00595444   0.01071979
5574.00   2.00250196   0.01182569
5576.00   1.98395306   0.01231954
5578.00   1.93893361   0.01200404
5580.00   1.88507921   0.01129746
5582.00   1.84771276   0.01065313
5584.00   1.81751364   0.00975834
5586.00   1.78963995   0.00912197
5588.00   1.77647567   0.00872314
5590.00   1.74551141   0.00838552
5592.00   1.68860227   0.00811917
5594.00   1.62120336   0.00792318
5596.00   1.56896076   0.00778535
5598.00   1.52326277   0.00772883
5600.00   1.47231936   0.00763650
5602.00   1.41208896   0.00753301
5604.00   1.36479071   0.00744959
5606.00   1.33155859   0.00736009
5608.00   1.29955482   0.00728036
5610.00   1.26388445   0.00727128
5612.00   1.23055980   0.00730663
5614.00   1.19787243   0.00727334
5616.00   1.16175058   0.00719248
5618.00   1.13162547   0.00711088
5620.00   1.10805705   0.00701215
5622.00   1.08955559   0.00692453
5624.00   1.07811961   0.00682579
5626.00   1.07228106   0.00672826
5628.00   1.06634122   0.00667793
5630.00   1.06560960   0.00667801
5632.00   1.05754632   0.00664057
5634.00   1.03821057   0.00656712
5636.00   1.02319604   0.00651952
5638.00   1.01587346   0.00655992
5640.00   1.01125044   0.00670880
5642.00   1.01446384   0.00676238
5644.00   1.02730194   0.00676909
5646.00   1.03536299   0.00675013
5648.00   1.03783667   0.00669706
5650.00   1.04318827   0.00666116
5652.00   1.05624506   0.00669643
5654.00   1.06843618   0.00677235
5656.00   1.07004657   0.00680804
5658.00   1.06447014   0.00682592
5660.00   1.06307665   0.00689427
5662.00   1.06042239   0.00698863
5664.00   1.06388524   0.00712506
5666.00   1.07550609   0.00731818
5668.00   1.08356938   0.00750746
5670.00   1.08100739   0.00764441
5672.00   1.07344019   0.00775534
5674.00   1.06618711   0.00793707
5676.00   1.05871609   0.00808005
5678.00   1.04226178   0.00844518
5680.00   1.01928887   0.00906976
5682.00   1.00357893   0.00957763
5684.00   0.99177536   0.00996273
5686.00   0.97806486   0.01030909
5688.00   0.94715276   0.01038716
5690.00   0.89253089   0.01027345
5692.00   0.85992232   0.01001538
5694.00   0.85480455   0.00942702
5696.00   0.85453895   0.00873139
5698.00   0.84058166   0.00817418
5700.00   0.81742974   0.00772970
5702.00   0.79238516   0.00734900
5704.00   0.76135707   0.00706842
5706.00   0.73758453   0.00683431
5708.00   0.72147430   0.00669546
5710.00   0.70356964   0.00656138
5712.00   0.67857650   0.00643806
5714.00   0.65052523   0.00632327
5716.00   0.63146245   0.00619900
5718.00   0.61981229   0.00607116
5720.00   0.60131459   0.00594628
5722.00   0.57411897   0.00582215
5724.00   0.55100566   0.00570193
5726.00   0.53653300   0.00557169
5728.00   0.52418323   0.00547720
5730.00   0.50500555   0.00544198
5732.00   0.48212130   0.00544714
5734.00   0.46241842   0.00544030
5736.00   0.44282654   0.00548705
5738.00   0.42683747   0.00541695
5740.00   0.41660492   0.00519694
5742.00   0.40772866   0.00503109
5744.00   0.39503030   0.00500912
5746.00   0.38052271   0.00506714
5748.00   0.36739929   0.00507291
5750.00   0.35426170   0.00507867
5752.00   0.34086722   0.00507229
5754.00   0.32734381   0.00499654
5756.00   0.31844276   0.00496245
5758.00   0.31024037   0.00503211
5760.00   0.30390032   0.00520082
5762.00   0.30844750   0.00557373
5764.00   0.32496294   0.00616014
5766.00   0.32670663   0.00646736
5768.00   0.31569818   0.00654862
5770.00   0.30553959   0.00666937
5772.00   0.29315265   0.00687924
5774.00   0.27939785   0.00685810
5776.00   0.27441408   0.00660719
5778.00   0.27387264   0.00617554
5780.00   0.27670859   0.00604149
5782.00   0.29062900   0.00606657
5784.00   0.29564601   0.00619895
5786.00   0.28275649   0.00643843
5788.00   0.27437625   0.00656190
5790.00   0.28101379   0.00657372
5792.00   0.29002770   0.00649454
5794.00   0.29647890   0.00635198
5796.00   0.30760340   0.00608387
5798.00   0.31347868   0.00587884
5800.00   0.30592749   0.00564552
5802.00   0.30469103   0.00548357
5804.00   0.31786402   0.00544671
5806.00   0.33930635   0.00548224
5808.00   0.35376537   0.00548184
5810.00   0.36640939   0.00548425
5812.00   0.37468465   0.00549771
5814.00   0.37852259   0.00552082
5816.00   0.38460677   0.00555053
5818.00   0.39141923   0.00557465
5820.00   0.40025800   0.00561967
5822.00   0.41583298   0.00567183
5824.00   0.43719687   0.00569874
5826.00   0.45827830   0.00612311
5828.00   0.48827152   0.00719643
5830.00   0.50349712   0.00745004
5832.00   0.49711375   0.00691835
5834.00   0.49130976   0.00633759
5836.00   0.50660318   0.00620719
5838.00   0.53166132   0.00630667
5840.00   0.54670238   0.00636259
5842.00   0.55730101   0.00644597
5844.00   0.57354489   0.00656358
5846.00   0.58427188   0.00686666
5848.00   0.58889328   0.00709248
5850.00   0.60071000   0.00702656
5852.00   0.61978443   0.00677118
5854.00   0.64348103   0.00676515
5856.00   0.67740245   0.00688958
5858.00   0.69763751   0.00707510
5860.00   0.70767285   0.00740491
5862.00   0.71695136   0.00783600
5864.00   0.72471771   0.00803660
5866.00   0.73214571   0.00783748
5868.00   0.74866301   0.00772395
5870.00   0.77211668   0.00760307
5872.00   0.79526781   0.00754905
5874.00   0.81944925   0.00728832
5876.00   0.84515122   0.00733388
5878.00   0.87694892   0.00748048
5880.00   0.91673076   0.00796705
5882.00   0.96499017   0.00957848
5884.00   1.03270888   0.01172000
5886.00   1.07379922   0.01388571
5888.00   1.09459490   0.01663676
5890.00   1.08275697   0.01828443
5892.00   1.05836362   0.01934507
5894.00   1.02508003   0.01947022
5896.00   0.97150216   0.01833959
5898.00   0.89846507   0.01598814
5900.00   0.88427916   0.01417840
5902.00   0.92474759   0.01208249
5904.00   0.96058968   0.01026817
5906.00   1.00458249   0.00907011
5908.00   1.04004696   0.00834779
5910.00   1.06368911   0.00799067
5912.00   1.08085245   0.00814925
5914.00   1.09618375   0.00805508
5916.00   1.11075497   0.00791661
5918.00   1.11607382   0.00773615
5920.00   1.09977198   0.00747723
5922.00   1.08840615   0.00765069
5924.00   1.10280555   0.00833129
5926.00   1.12910971   0.00896841
5928.00   1.13322559   0.00918290
5930.00   1.12390453   0.00923888
5932.00   1.11302754   0.00904332
5934.00   1.09410024   0.00819748
5936.00   1.08563215   0.00769021
5938.00   1.08994529   0.00766347
5940.00   1.09440893   0.00766852
5942.00   1.08534843   0.00756264
5944.00   1.06707424   0.00745534
5946.00   1.05592227   0.00740454
5948.00   1.04716498   0.00737490
5950.00   1.04241222   0.00734933
5952.00   1.03829932   0.00734333
5954.00   1.03648016   0.00732789
5956.00   1.04156327   0.00728287
5958.00   1.05081844   0.00720573
5960.00   1.05313399   0.00716766
5962.00   1.05098277   0.00717401
5964.00   1.05000907   0.00718172
5966.00   1.04713687   0.00714227
5968.00   1.04256111   0.00707069
5970.00   1.03836441   0.00692723
5972.00   1.03333384   0.00681855
5974.00   1.03000623   0.00724578
5976.00   1.02606663   0.00835079
5978.00   1.02939516   0.00850088
5980.00   1.03999987   0.00788855
5982.00   1.04967907   0.00736200
5984.00   1.05634993   0.00694436
5986.00   1.06206936   0.00666539
5988.00   1.06311029   0.00693212
5990.00   1.05736840   0.00775581
5992.00   1.05507424   0.00783173
5994.00   1.05900988   0.00729545
5996.00   1.06429997   0.00693530
5998.00   1.06409615   0.00672703
6000.00   1.06259981   0.00663299
6002.00   1.05886957   0.00671804
6004.00   1.05169666   0.00696684
6006.00   1.03884685   0.00702078
6008.00   1.02313918   0.00695299
6010.00   1.00212908   0.00691862
6012.00   0.96973696   0.00693625
6014.00   0.94252157   0.00687787
6016.00   0.93653822   0.00663990
6018.00   0.94743311   0.00628991
6020.00   0.94596455   0.00613584
6022.00   0.93891484   0.00612140
6024.00   0.92630428   0.00608998
6026.00   0.91016537   0.00614720
6028.00   0.89498672   0.00623789
6030.00   0.88699785   0.00619566
6032.00   0.88794252   0.00600789
6034.00   0.88532537   0.00594153
6036.00   0.88246286   0.00596742
6038.00   0.87559313   0.00599242
6040.00   0.86740527   0.00600533
6042.00   0.85514832   0.00600828
6044.00   0.84033662   0.00593410
6046.00   0.82715604   0.00574305
6048.00   0.82031125   0.00565310
6050.00   0.81766090   0.00560625
6052.00   0.81534106   0.00566292
6054.00   0.81588188   0.00578901
6056.00   0.81885138   0.00596872
6058.00   0.82307243   0.00628575
6060.00   0.82444882   0.00641808
6062.00   0.81882960   0.00614039
6064.00   0.80768958   0.00552563
6066.00   0.80432588   0.00541246
6068.00   0.80831388   0.00566319
6070.00   0.80703428   0.00583514
6072.00   0.80164781   0.00615112
6074.00   0.79907343   0.00629986
6076.00   0.79918745   0.00606201
6078.00   0.80036247   0.00560295
6080.00   0.80437392   0.00553231
6082.00   0.81469169   0.00583859
6084.00   0.81956834   0.00583751
6086.00   0.82041720   0.00563843
6088.00   0.81836848   0.00549963
6090.00   0.81482553   0.00549156
6092.00   0.80984667   0.00553410
6094.00   0.80677623   0.00555367
6096.00   0.80402301   0.00555211
6098.00   0.80393723   0.00564430
6100.00   0.80769098   0.00574357
6102.00   0.80943614   0.00602768
6104.00   0.80694672   0.00655159
6106.00   0.80086452   0.00706970
6108.00   0.79522814   0.00732402
6110.00   0.78735039   0.00745169
6112.00   0.78918405   0.00735926
6114.00   0.80418615   0.00692404
6116.00   0.81067577   0.00667250
6118.00   0.80482039   0.00649726
6120.00   0.79660471   0.00638313
6122.00   0.79510178   0.00638339
6124.00   0.79526155   0.00645179
6126.00   0.79769567   0.00641507
6128.00   0.80753975   0.00641139
6130.00   0.81057407   0.00627775
6132.00   0.80388995   0.00584299
6134.00   0.80359539   0.00548838
6136.00   0.81222939   0.00555279
6138.00   0.82387987   0.00586585
6140.00   0.83339787   0.00599703
6142.00   0.84402835   0.00610484
6144.00   0.85434404   0.00615957
6146.00   0.86598727   0.00604963
6148.00   0.87642664   0.00588391
6150.00   0.88344592   0.00588822
6152.00   0.89120597   0.00597964
6154.00   0.89414889   0.00605879
6156.00   0.89124209   0.00618160
6158.00   0.88989562   0.00622654
6160.00   0.88828978   0.00614973
6162.00   0.89121607   0.00619749
6164.00   0.90195376   0.00640358
6166.00   0.91104043   0.00659519
6168.00   0.91237563   0.00656787
6170.00   0.90865138   0.00638015
6172.00   0.90344369   0.00610942
6174.00   0.89158586   0.00560683
6176.00   0.88698423   0.00530150
6178.00   0.88721275   0.00518507
6180.00   0.88787773   0.00515768
6182.00   0.88586965   0.00514381
6184.00   0.88273680   0.00518458
6186.00   0.88199800   0.00518862
6188.00   0.88660315   0.00516329
6190.00   0.88259035   0.00516764
6192.00   0.87072322   0.00522434
6194.00   0.86200619   0.00525886
6196.00   0.85558864   0.00524764
6198.00   0.84850347   0.00523877
6200.00   0.84755805   0.00523043
6202.00   0.85458425   0.00519683
6204.00   0.85741004   0.00517452
6206.00   0.85870466   0.00519296
6208.00   0.86507064   0.00520786
6210.00   0.87100202   0.00520157
6212.00   0.87641919   0.00519221
6214.00   0.89121583   0.00524263
6216.00   0.91258085   0.00535933
6218.00   0.93875104   0.00542940
6220.00   0.97498187   0.00545866
6222.00   1.01070732   0.00545313
6224.00   1.03671533   0.00542703
6226.00   1.06162253   0.00545024
6228.00   1.10239625   0.00555260
6230.00   1.15390077   0.00571728
6232.00   1.20611858   0.00581257
6234.00   1.26506087   0.00579001
6236.00   1.32105282   0.00596221
6238.00   1.37737083   0.00636637
6240.00   1.42897123   0.00673603
6242.00   1.46519038   0.00692528
6244.00   1.49171218   0.00702917
6246.00   1.53944531   0.00718054
6248.00   1.60929185   0.00747878
6250.00   1.66125727   0.00743884
6252.00   1.70317787   0.00701737
6254.00   1.74766332   0.00664888
6256.00   1.79734981   0.00652548
6258.00   1.85058564   0.00650192
6260.00   1.89550060   0.00655601
6262.00   1.93093950   0.00681464
6264.00   1.96992338   0.00696867
6266.00   2.01944631   0.00687241
6268.00   2.06709868   0.00671904
6270.00   2.10049063   0.00688485
6272.00   2.12659991   0.00712228
6274.00   2.16183501   0.00711762
6276.00   2.20286447   0.00693201
6278.00   2.24281383   0.00702257
6280.00   2.28983718   0.00730842
6282.00   2.31706274   0.00738430
6284.00   2.32349581   0.00734465
6286.00   2.31998479   0.00731267
6288.00   2.30672002   0.00730626
6290.00   2.27702016   0.00732118
6292.00   2.25649869   0.00731219
6294.00   2.24091285   0.00720452
6296.00   2.23344851   0.00722233
6298.00   2.23337799   0.00744258
6300.00   2.22704971   0.00756938
6302.00   2.21342963   0.00748783
6304.00   2.19921887   0.00730191
6306.00   2.19421226   0.00741709
6308.00   2.18629092   0.00798209
6310.00   2.19454992   0.00798663
6312.00   2.23175216   0.00743155
6314.00   2.26066381   0.00691834
6316.00   2.26024032   0.00674926
6318.00   2.24648452   0.00669369
6320.00   2.23977888   0.00666256
6322.00   2.23342270   0.00677197
6324.00   2.22078681   0.00689087
6326.00   2.20661730   0.00685404
6328.00   2.19209981   0.00678236
6330.00   2.17620671   0.00706299
6332.00   2.16305584   0.00737725
6334.00   2.14689618   0.00717852
6336.00   2.12476599   0.00649309
6338.00   2.11182415   0.00624407
6340.00   2.11440611   0.00623227
6342.00   2.11393440   0.00626514
6344.00   2.10308498   0.00635854
6346.00   2.08472419   0.00649362
6348.00   2.06042570   0.00673356
6350.00   2.02793515   0.00707658
6352.00   2.00470084   0.00703272
6354.00   1.99175328   0.00655234
6356.00   1.97124195   0.00635713
6358.00   1.94150478   0.00621146
6360.00   1.91040951   0.00603122
6362.00   1.88475841   0.00607342
6364.00   1.86109388   0.00627389
6366.00   1.84096891   0.00647349
6368.00   1.82737041   0.00693114
6370.00   1.81089407   0.00690848
6372.00   1.79155517   0.00634547
6374.00   1.76730496   0.00592042
6376.00   1.74152166   0.00583349
6378.00   1.71451151   0.00581964
6380.00   1.68270469   0.00574209
6382.00   1.64387536   0.00569650
6384.00   1.60928184   0.00565413
6386.00   1.57541552   0.00557512
6388.00   1.54688171   0.00551048
6390.00   1.52101663   0.00546526
6392.00   1.49683142   0.00543552
6394.00   1.49150476   0.00545029
6396.00   1.50759888   0.00551443
6398.00   1.50520611   0.00554917
6400.00   1.49690428   0.00559286
6402.00   1.47083810   0.00558872
6404.00   1.40885776   0.00551572
6406.00   1.34177279   0.00540027
6408.00   1.33155912   0.00533034
6410.00   1.36312166   0.00528729
6412.00   1.35881519   0.00526077
6414.00   1.32680047   0.00526552
6416.00   1.30286556   0.00523475
6418.00   1.28639832   0.00510003
6420.00   1.27385023   0.00499736
6422.00   1.26233321   0.00510204
6424.00   1.25047985   0.00531653
6426.00   1.24293005   0.00542100
6428.00   1.24001169   0.00557322
6430.00   1.24166518   0.00551064
6432.00   1.24564245   0.00512983
6434.00   1.24921143   0.00487596
6436.00   1.25071165   0.00493688
6438.00   1.24885306   0.00511876
6440.00   1.24864131   0.00516797
6442.00   1.24912202   0.00519540
6444.00   1.25165510   0.00515523
6446.00   1.25397587   0.00498984
6448.00   1.25900072   0.00491259
6450.00   1.26431912   0.00489814
6452.00   1.26895136   0.00497391
6454.00   1.27595404   0.00523374
6456.00   1.28615695   0.00568330
6458.00   1.28546917   0.00581206
6460.00   1.27624595   0.00579782
6462.00   1.26753417   0.00567709
6464.00   1.25426039   0.00530281
6466.00   1.24290422   0.00493446
6468.00   1.24169078   0.00487204
6470.00   1.24727130   0.00500640
6472.00   1.24767908   0.00500074
6474.00   1.24745923   0.00494485
6476.00   1.24584785   0.00491488
6478.00   1.23928073   0.00489890
6480.00   1.23411351   0.00487892
6482.00   1.23373529   0.00485083
6484.00   1.23478097   0.00481205
6486.00   1.23379728   0.00484640
6488.00   1.22996607   0.00498155
6490.00   1.23166099   0.00505770
6492.00   1.23776066   0.00502183
6494.00   1.24733385   0.00506050
6496.00   1.25880128   0.00523038
6498.00   1.27441177   0.00542718
6500.00   1.29119125   0.00568810
6502.00   1.31321886   0.00614017
6504.00   1.32392198   0.00622469
6506.00   1.32827154   0.00592851
6508.00   1.32690826   0.00566890
6510.00   1.31789896   0.00549870
6512.00   1.30800578   0.00532471
6514.00   1.30519605   0.00520166
6516.00   1.30630794   0.00513051
6518.00   1.30669117   0.00509296
6520.00   1.30944291   0.00509860
6522.00   1.31108326   0.00509397
6524.00   1.31180483   0.00509347
6526.00   1.30893347   0.00508900
6528.00   1.30051720   0.00506492
6530.00   1.28663021   0.00502797
6532.00   1.26583931   0.00498969
6534.00   1.23322585   0.00494634
6536.00   1.20984253   0.00489489
6538.00   1.19010872   0.00482617
6540.00   1.17132851   0.00476459
6542.00   1.15786952   0.00473271
6544.00   1.14914569   0.00471918
6546.00   1.13656300   0.00470216
6548.00   1.12239733   0.00469233
6550.00   1.10659415   0.00467904
6552.00   1.08818141   0.00466523
6554.00   1.07123038   0.00464307
6556.00   1.05653888   0.00461485
6558.00   1.04260960   0.00458992
6560.00   1.02881336   0.00455524
6562.00   1.01114309   0.00447713
6564.00   1.00790390   0.00447991
6566.00   1.02031556   0.00455609
6568.00   1.03406528   0.00472149
6570.00   1.05173165   0.00495849
6572.00   1.07116836   0.00520341
6574.00   1.06670207   0.00531421
6576.00   1.04587245   0.00535845
6578.00   1.01673764   0.00524926
6580.00   0.96606660   0.00489710
6582.00   0.92641142   0.00466300
6584.00   0.90433291   0.00452123
6586.00   0.89579153   0.00440488
6588.00   0.89312905   0.00442430
6590.00   0.89926133   0.00458486
6592.00   0.89774019   0.00459712
6594.00   0.89176521   0.00447107
6596.00   0.88717490   0.00438797
6598.00   0.88554350   0.00434012
6600.00   0.88235125   0.00429511
6602.00   0.87160772   0.00426561
6604.00   0.85440132   0.00425096
6606.00   0.84256732   0.00420838
6608.00   0.83350021   0.00411713
6610.00   0.82618219   0.00409322
6612.00   0.81817314   0.00413955
6614.00   0.81601831   0.00416484
6616.00   0.82037181   0.00414389
6618.00   0.82653204   0.00409186
6620.00   0.82659423   0.00408648
6622.00   0.82351997   0.00412873
6624.00   0.81977355   0.00415911
6626.00   0.81227562   0.00414972
6628.00   0.80536270   0.00410554
6630.00   0.80114162   0.00402385
6632.00   0.80173105   0.00398923
6634.00   0.80673718   0.00418235
6636.00   0.81752084   0.00454362
6638.00   0.81689878   0.00459538
6640.00   0.80447492   0.00443140
6642.00   0.79824390   0.00438119
6644.00   0.79990849   0.00426073
6646.00   0.80472933   0.00407822
6648.00   0.80446903   0.00400721
6650.00   0.80049790   0.00397494
6652.00   0.79884523   0.00396898
6654.00   0.80007619   0.00404628
6656.00   0.80151318   0.00411535
6658.00   0.80117992   0.00405092
6660.00   0.79646701   0.00403547
6662.00   0.78807542   0.00426461
6664.00   0.77725643   0.00454668
6666.00   0.77108264   0.00451841
6668.00   0.76693310   0.00418647
6670.00   0.76569472   0.00405349
6672.00   0.76696324   0.00382154
6674.00   0.76935925   0.00390192
6676.00   0.77571025   0.00455535
6678.00   0.78014562   0.00518310
6680.00   0.77693950   0.00510608
6682.00   0.76753670   0.00442982
6684.00   0.76309153   0.00412909
6686.00   0.75811833   0.00389760
6688.00   0.75267135   0.00381385
6690.00   0.74761473   0.00399136
6692.00   0.74136171   0.00418285
6694.00   0.73485199   0.00414785
6696.00   0.72789082   0.00396922
6698.00   0.72068462   0.00394339
6700.00   0.71241972   0.00402592
6702.00   0.70592435   0.00405663
6704.00   0.70092909   0.00405378
6706.00   0.69515246   0.00405159
6708.00   0.68817453   0.00400773
6710.00   0.68024920   0.00393757
6712.00   0.67352819   0.00407836
6714.00   0.66616532   0.00457572
6716.00   0.66224417   0.00462281
6718.00   0.66112141   0.00428845
6720.00   0.66324665   0.00397401
6722.00   0.66832708   0.00383223
6724.00   0.67295544   0.00374506
6726.00   0.66755044   0.00374338
6728.00   0.65366836   0.00383594
6730.00   0.64190416   0.00406354
6732.00   0.62477417   0.00442531
6734.00   0.61013877   0.00455711
6736.00   0.60084793   0.00456096
6738.00   0.59770401   0.00447807
6740.00   0.59904604   0.00427642
6742.00   0.60825096   0.00386035
6744.00   0.60388108   0.00371200
6746.00   0.59026061   0.00379987
6748.00   0.57739136   0.00378937
6750.00   0.56504613   0.00369161
6752.00   0.55631095   0.00358317
6754.00   0.54893634   0.00350777
6756.00   0.54180087   0.00343349
6758.00   0.53665017   0.00342512
6760.00   0.53744061   0.00342342
6762.00   0.53557217   0.00359977
6764.00   0.52659662   0.00400748
6766.00   0.51675183   0.00421631
6768.00   0.51695809   0.00409764
6770.00   0.52579176   0.00380114
6772.00   0.52458334   0.00364673
6774.00   0.51267245   0.00347120
6776.00   0.50372064   0.00334419
6778.00   0.50221610   0.00333417
6780.00   0.50013980   0.00335134
6782.00   0.49138096   0.00337557
6784.00   0.48132145   0.00341294
6786.00   0.47761142   0.00339734
6788.00   0.47947076   0.00332884
6790.00   0.47763215   0.00329648
6792.00   0.47437309   0.00327665
6794.00   0.47016962   0.00326315
6796.00   0.46629989   0.00325428
6798.00   0.46139221   0.00325127
6800.00   0.45666654   0.00327071
6802.00   0.45198891   0.00332167
6804.00   0.44938058   0.00331812
6806.00   0.44650561   0.00325433
6808.00   0.44494548   0.00322073
6810.00   0.44757229   0.00322363
6812.00   0.45070717   0.00324148
6814.00   0.44797829   0.00323954
6816.00   0.44005804   0.00322140
6818.00   0.43549745   0.00323266
6820.00   0.43248878   0.00326028
6822.00   0.43387856   0.00332341
6824.00   0.43788257   0.00342985
6826.00   0.44124314   0.00353816
6828.00   0.43887435   0.00361301
6830.00   0.43073414   0.00366773
6832.00   0.42400061   0.00366620
6834.00   0.41761667   0.00360404
6836.00   0.41232059   0.00354094
6838.00   0.40430733   0.00344790
6840.00   0.40082396   0.00335649
6842.00   0.40514642   0.00328893
6844.00   0.41243151   0.00323309
6846.00   0.41184394   0.00318016
6848.00   0.40474311   0.00312475
6850.00   0.40230773   0.00310284
6852.00   0.40249311   0.00309602
6854.00   0.40389192   0.00313897
6856.00   0.40448080   0.00322463
6858.00   0.40290701   0.00334081
6860.00   0.39855811   0.00349592
6862.00   0.39019726   0.00370635
6864.00   0.38621629   0.00381480
6866.00   0.38694704   0.00387690
6868.00   0.38732977   0.00389914
6870.00   0.38414080   0.00384799
6872.00   0.38126560   0.00375379
6874.00   0.38205475   0.00365903
6876.00   0.38461956   0.00353596
6878.00   0.38160937   0.00344604
6880.00   0.37316886   0.00336863
6882.00   0.36960092   0.00333253
6884.00   0.36836879   0.00333711
6886.00   0.36711898   0.00336753
6888.00   0.36647478   0.00341671
6890.00   0.36687908   0.00348058
6892.00   0.36635372   0.00348331
6894.00   0.36500682   0.00343045
6896.00   0.36440092   0.00339281
6898.00   0.36328378   0.00329221
6900.00   0.36021270   0.00328947
6902.00   0.35715529   0.00349462
6904.00   0.35307188   0.00374076
6906.00   0.35172607   0.00375310
6908.00   0.35261709   0.00359014
6910.00   0.35492227   0.00349666
6912.00   0.35859428   0.00335685
6914.00   0.36138947   0.00327640
6916.00   0.36065137   0.00329310
6918.00   0.35838263   0.00334841
6920.00   0.36099975   0.00335443
6922.00   0.36766690   0.00333591
6924.00   0.36689836   0.00335510
6926.00   0.35871898   0.00344502
6928.00   0.35563384   0.00344486
6930.00   0.35552201   0.00334615
6932.00   0.35412507   0.00327958
6934.00   0.35540258   0.00324772
6936.00   0.35976457   0.00320971
6938.00   0.36412093   0.00319650
6940.00   0.36911133   0.00323469
6942.00   0.37288718   0.00328463
6944.00   0.37369933   0.00335504
6946.00   0.37392864   0.00341695
6948.00   0.37998741   0.00343741
6950.00   0.38919387   0.00342481
6952.00   0.38935949   0.00336924
6954.00   0.37738340   0.00321878
6956.00   0.37673009   0.00316223
6958.00   0.38438231   0.00318065
6960.00   0.39157593   0.00319263
6962.00   0.39643998   0.00317224
6964.00   0.40039814   0.00315771
6966.00   0.40353391   0.00319346
6968.00   0.40447966   0.00327318
6970.00   0.40928572   0.00333111
6972.00   0.41849282   0.00341204
6974.00   0.42586814   0.00344873
6976.00   0.43015766   0.00341208
6978.00   0.43530120   0.00336664
6980.00   0.44138373   0.00336494
6982.00   0.44708472   0.00336073
6984.00   0.45351028   0.00351086
6986.00   0.46175739   0.00395425
6988.00   0.47159216   0.00405087
6990.00   0.48216522   0.00377015
6992.00   0.49435432   0.00346837
6994.00   0.50623357   0.00337770
6996.00   0.51792991   0.00337561
6998.00   0.52660091   0.00337118
7000.00   0.53117965   0.00340621
7002.00   0.53925447   0.00349370
7004.00   0.54998608   0.00368903
7006.00   0.56265761   0.00381396
7008.00   0.57812232   0.00377368
7010.00   0.59607863   0.00365345
7012.00   0.60672924   0.00363089
7014.00   0.60805924   0.00361925
7016.00   0.61697975   0.00368359
7018.00   0.63373277   0.00391006
7020.00   0.64824918   0.00404652
7022.00   0.65495396   0.00395771
7024.00   0.65694588   0.00374609
7026.00   0.66621852   0.00370356
7028.00   0.68252949   0.00376777
7030.00   0.69224942   0.00379771
7032.00   0.69553298   0.00382906
7034.00   0.69588034   0.00384206
7036.00   0.69530442   0.00382332
7038.00   0.69345060   0.00379195
7040.00   0.69344258   0.00378744
7042.00   0.69473538   0.00379673
7044.00   0.69913162   0.00381896
7046.00   0.70645961   0.00386878
7048.00   0.71094225   0.00389094
7050.00   0.71611707   0.00389168
7052.00   0.71928206   0.00387924
7054.00   0.71777439   0.00385665
7056.00   0.71240826   0.00382028
7058.00   0.71140890   0.00381703
7060.00   0.71130981   0.00382873
7062.00   0.71654108   0.00387501
7064.00   0.72560023   0.00396181
7066.00   0.73236835   0.00401559
7068.00   0.73874187   0.00402290
7070.00   0.74549644   0.00400918
7072.00   0.75184742   0.00402148
7074.00   0.75947693   0.00406242
7076.00   0.76294714   0.00405457
7078.00   0.75940970   0.00398474
7080.00   0.75754817   0.00395126
7082.00   0.76253554   0.00397051
7084.00   0.76857354   0.00402799
7086.00   0.77044272   0.00413510
7088.00   0.77056640   0.00434287
7090.00   0.77087812   0.00434455
7092.00   0.76925835   0.00413530
7094.00   0.76624683   0.00400975
7096.00   0.76010130   0.00398720
7098.00   0.74986878   0.00397935
7100.00   0.74656890   0.00395024
7102.00   0.74857502   0.00392115
7104.00   0.74733199   0.00388998
7106.00   0.74106918   0.00383071
7108.00   0.73956552   0.00382102
7110.00   0.74305145   0.00386733
7112.00   0.74412729   0.00391861
7114.00   0.74322875   0.00394825
7116.00   0.74314097   0.00397392
7118.00   0.74753089   0.00399420
7120.00   0.75472066   0.00400852
7122.00   0.76059572   0.00401224
7124.00   0.76975350   0.00400576
7126.00   0.77966724   0.00400269
7128.00   0.78374314   0.00399743
7130.00   0.78279629   0.00398987
7132.00   0.79005091   0.00400834
7134.00   0.80423599   0.00406429
7136.00   0.81897581   0.00408137
7138.00   0.83507347   0.00406492
7140.00   0.84851855   0.00406353
7142.00   0.85898894   0.00408242
7144.00   0.86766174   0.00410955
7146.00   0.87543029   0.00413407
7148.00   0.88284537   0.00416867
7150.00   0.88548830   0.00416449
7152.00   0.87872437   0.00409622
7154.00   0.87908059   0.00408979
7156.00   0.89140671   0.00413220
7158.00   0.90470034   0.00422284
7160.00   0.90915582   0.00441798
7162.00   0.90950847   0.00469788
7164.00   0.90883511   0.00472206
7166.00   0.90088680   0.00451869
7168.00   0.89842179   0.00447434
7170.00   0.90623075   0.00440867
7172.00   0.91810441   0.00427572
7174.00   0.91958588   0.00422075
7176.00   0.91359740   0.00422328
7178.00   0.90669349   0.00439050
7180.00   0.89896610   0.00478307
7182.00   0.88805160   0.00499055
7184.00   0.87128738   0.00520253
7186.00   0.85976362   0.00522190
7188.00   0.85471755   0.00489137
7190.00   0.85284832   0.00434978
7192.00   0.85361484   0.00414810
7194.00   0.85634774   0.00418605
7196.00   0.86666021   0.00421073
7198.00   0.89021203   0.00431578
7200.00   0.90522063   0.00436260
7202.00   0.90447336   0.00435628
7204.00   0.89938867   0.00437652
7206.00   0.90633354   0.00450620
7208.00   0.92211816   0.00476097
7210.00   0.92723435   0.00474726
7212.00   0.92217410   0.00442675
7214.00   0.92435494   0.00433923
7216.00   0.93365696   0.00453857
7218.00   0.94391721   0.00470616
7220.00   0.95007327   0.00463185
7222.00   0.95354918   0.00439490
7224.00   0.95619184   0.00432719
7226.00   0.95835599   0.00434997
7228.00   0.96067765   0.00437457
7230.00   0.95861501   0.00439130
7232.00   0.95893800   0.00446125
7234.00   0.96564558   0.00463654
7236.00   0.97367007   0.00485701
7238.00   0.97933355   0.00510039
7240.00   0.98946896   0.00550521
7242.00   0.99272308   0.00571017
7244.00   0.98317891   0.00566577
7246.00   0.97338757   0.00545811
7248.00   0.96985602   0.00523677
7250.00   0.97028035   0.00496693
7252.00   0.97746274   0.00479824
7254.00   0.99596268   0.00469305
7256.00   1.00358504   0.00462558
7258.00   1.00227419   0.00462345
7260.00   0.99950889   0.00462332
7262.00   0.99935570   0.00453805
7264.00   1.00419563   0.00446268
7266.00   1.01311940   0.00463631
7268.00   1.02969289   0.00499368
7270.00   1.03281066   0.00516691
7272.00   1.02278179   0.00531374
7274.00   1.01176724   0.00549695
7276.00   1.00542471   0.00552034
7278.00   1.00749111   0.00537809
7280.00   1.01115832   0.00525842
7282.00   1.01646176   0.00509023
7284.00   1.02478889   0.00499061
7286.00   1.03958696   0.00496245
7288.00   1.05134490   0.00491936
7290.00   1.06323102   0.00483307
7292.00   1.08178762   0.00476728
7294.00   1.10068715   0.00474915
7296.00   1.11986849   0.00476496
7298.00   1.13850877   0.00479783
7300.00   1.16213748   0.00486969
7302.00   1.17580035   0.00492171
7304.00   1.17539594   0.00495388
7306.00   1.18058813   0.00500160
7308.00   1.20080537   0.00509451
7310.00   1.22816598   0.00521077
7312.00   1.24607161   0.00528691
7314.00   1.26133180   0.00530584
7316.00   1.26750213   0.00544191
7318.00   1.26320732   0.00578259
7320.00   1.26299068   0.00588146
7322.00   1.26939160   0.00565227
7324.00   1.28063646   0.00531278
7326.00   1.28562120   0.00515227
7328.00   1.28490767   0.00505707
7330.00   1.29014671   0.00504028
7332.00   1.30355901   0.00513645
7334.00   1.31649855   0.00523200
7336.00   1.32790145   0.00535528
7338.00   1.33882225   0.00547566
7340.00   1.34191880   0.00554381
7342.00   1.33842012   0.00558737
7344.00   1.33820644   0.00555062
7346.00   1.33834726   0.00538980
7348.00   1.34009379   0.00528038
7350.00   1.34632486   0.00515372
7352.00   1.35184827   0.00515046
7354.00   1.35501206   0.00541635
7356.00   1.35686275   0.00579974
7358.00   1.35767168   0.00582670
7360.00   1.35184228   0.00548854
7362.00   1.35881937   0.00541575
7364.00   1.37846044   0.00547936
7366.00   1.39258471   0.00554506
7368.00   1.39402947   0.00557877
7370.00   1.38748991   0.00556194
7372.00   1.37385169   0.00553090
7374.00   1.34618825   0.00551030
7376.00   1.32916567   0.00547611
7378.00   1.32207817   0.00531171
7380.00   1.31844449   0.00512216
7382.00   1.31432295   0.00502859
7384.00   1.31136549   0.00497247
7386.00   1.31057718   0.00497947
7388.00   1.31393450   0.00507212
7390.00   1.30818895   0.00511104
7392.00   1.29142413   0.00509704
7394.00   1.27878904   0.00510192
7396.00   1.27406320   0.00502567
7398.00   1.26861000   0.00510303
7400.00   1.25348446   0.00560960
7402.00   1.23307315   0.00635341
7404.00   1.21572131   0.00637504
7406.00   1.19687384   0.00573457
7408.00   1.17978626   0.00532149
7410.00   1.16564533   0.00495569
7412.00   1.15064946   0.00477476
7414.00   1.13729790   0.00472829
7416.00   1.12593701   0.00474905
7418.00   1.11626229   0.00469058
7420.00   1.10669768   0.00460387
7422.00   1.10151801   0.00456612
7424.00   1.10223773   0.00459332
7426.00   1.10291019   0.00465103
7428.00   1.10292637   0.00468846
7430.00   1.10466716   0.00472175
7432.00   1.09658960   0.00474130
7434.00   1.07770011   0.00475047
7436.00   1.06400302   0.00475209
7438.00   1.05463961   0.00475404
7440.00   1.04726678   0.00473305
7442.00   1.03947932   0.00467562
7444.00   1.03221729   0.00459961
7446.00   1.02975172   0.00454305
7448.00   1.03103653   0.00448755
7450.00   1.03250483   0.00446176
7452.00   1.03530917   0.00446538
7454.00   1.03996179   0.00447760
7456.00   1.04577300   0.00449899
7458.00   1.05246025   0.00452888
7460.00   1.05736095   0.00456186
7462.00   1.06067422   0.00459858
7464.00   1.06102866   0.00463652
7466.00   1.06121743   0.00468288
7468.00   1.05608246   0.00472232
7470.00   1.04299071   0.00475742
7472.00   1.02967033   0.00477933
7474.00   1.01779720   0.00478244
7476.00   1.00610173   0.00477189
7478.00   0.99941429   0.00476498
7480.00   1.00055066   0.00476602
7482.00   0.99374953   0.00473897
7484.00   0.98093170   0.00467911
7486.00   0.97081822   0.00462047
7488.00   0.96575418   0.00454687
7490.00   0.96106502   0.00448651
7492.00   0.95255846   0.00462322
7494.00   0.94104022   0.00499875
7496.00   0.93118843   0.00508703
7498.00   0.91893259   0.00494861
7500.00   0.91439474   0.00477080
7502.00   0.91880217   0.00454527
7504.00   0.92609084   0.00430168
7506.00   0.92412961   0.00423454
7508.00   0.91615412   0.00431022
7510.00   0.90802029   0.00432360
7512.00   0.89585024   0.00429681
7514.00   0.89012313   0.00432028
7516.00   0.89122808   0.00440709
7518.00   0.89482477   0.00451233
7520.00   0.89694169   0.00459343
7522.00   0.89896193   0.00467608
7524.00   0.89667046   0.00477928
7526.00   0.88982993   0.00495131
7528.00   0.88493755   0.00499053
7530.00   0.87951821   0.00493745
7532.00   0.87443620   0.00483375
7534.00   0.86994058   0.00467491
7536.00   0.86535922   0.00447613
7538.00   0.86333248   0.00438226
7540.00   0.86648935   0.00435865
7542.00   0.86356828   0.00436130
7544.00   0.85655087   0.00444671
7546.00   0.84596506   0.00448018
7548.00   0.83036730   0.00444312
7550.00   0.80996224   0.00436171
7552.00   0.79511112   0.00431510
7554.00   0.78315642   0.00428502
7556.00   0.77328791   0.00429946
7558.00   0.76438069   0.00433613
7560.00   0.75763439   0.00432702
7562.00   0.75039272   0.00425713
7564.00   0.74044575   0.00413966
7566.00   0.73361529   0.00413981
7568.00   0.72907954   0.00422503
7570.00   0.71916525   0.00425426
7572.00   0.70495667   0.00426215
7574.00   0.69128364   0.00424495
7576.00   0.67380120   0.00417954
7578.00   0.65782344   0.00409678
7580.00   0.64849661   0.00403504
7582.00   0.64318344   0.00397828
7584.00   0.63638254   0.00395325
7586.00   0.63042367   0.00391433
7588.00   0.62414101   0.00398225
7590.00   0.61915280   0.00410321
7592.00   0.61072876   0.00432690
7594.00   0.60085349   0.00466572
7596.00   0.59053017   0.00512162
7598.00   0.57682222   0.00587048
7600.00   0.55722943   0.00694770
7602.00   0.54691629   0.00765447
7604.00   0.53865865   0.00840358
7606.00   0.52428555   0.00851640
7608.00   0.51146841   0.00777041
7610.00   0.50103639   0.00650318
7612.00   0.50048193   0.00577735
7614.00   0.51124592   0.00531466
7616.00   0.51418129   0.00491682
7618.00   0.51376219   0.00468952
7620.00   0.50822675   0.00466041
7622.00   0.49160297   0.00485659
7624.00   0.46923435   0.00515906
7626.00   0.46271120   0.00547724
7628.00   0.46597871   0.00588029
7630.00   0.47067568   0.00588902
7632.00   0.48016416   0.00547209
7634.00   0.48946269   0.00523400
7636.00   0.49770649   0.00511758
7638.00   0.50108418   0.00498674
7640.00   0.50248046   0.00480801
7642.00   0.50237823   0.00461158
7644.00   0.50468898   0.00448654
7646.00   0.50795817   0.00441909
7648.00   0.51214617   0.00436643
7650.00   0.51461844   0.00433480
7652.00   0.51663303   0.00431388
7654.00   0.52180767   0.00431942
7656.00   0.52987757   0.00432119
7658.00   0.53406629   0.00433152
7660.00   0.53591199   0.00437082
7662.00   0.53470175   0.00440396
7664.00   0.53028762   0.00440920
7666.00   0.52766681   0.00439877
7668.00   0.53149979   0.00429556
7670.00   0.53958708   0.00409515
7672.00   0.54409799   0.00412390
7674.00   0.54807386   0.00434102
7676.00   0.54996213   0.00442548
7678.00   0.54689731   0.00448928
7680.00   0.54810652   0.00442618
7682.00   0.55411914   0.00411532
7684.00   0.55950044   0.00377671
7686.00   0.56191605   0.00373021
7688.00   0.56122689   0.00386720
7690.00   0.56666216   0.00397066
7692.00   0.57839185   0.00414552
7694.00   0.59072515   0.00427812
7696.00   0.60238770   0.00437144
7698.00   0.61485569   0.00446755
7700.00   0.62297572   0.00457471
7702.00   0.62539417   0.00466805
7704.00   0.63353609   0.00467345
7706.00   0.64649789   0.00448260
7708.00   0.66305554   0.00457067
7710.00   0.68349177   0.00489868
7712.00   0.69719660   0.00517963
7714.00   0.70079023   0.00536939
7716.00   0.69685696   0.00549325
7718.00   0.69733760   0.00546367
7720.00   0.69606169   0.00525280
7722.00   0.70442189   0.00510453
7724.00   0.72112980   0.00493493
7726.00   0.73837420   0.00482809
7728.00   0.75255834   0.00472236
7730.00   0.76303652   0.00455567
7732.00   0.78081021   0.00447291
7734.00   0.80389060   0.00443705
7736.00   0.82828984   0.00450649
7738.00   0.85571605   0.00463805
7740.00   0.88064224   0.00485295
7742.00   0.89848199   0.00521394
7744.00   0.91871998   0.00552594
7746.00   0.94979787   0.00563562
7748.00   0.98940066   0.00563660
7750.00   1.01805878   0.00567559
7752.00   1.03942525   0.00570804
7754.00   1.05917206   0.00568042
7756.00   1.07684788   0.00558399
7758.00   1.09620634   0.00545931
7760.00   1.12187770   0.00537133
7762.00   1.15155849   0.00529533
7764.00   1.17534393   0.00523078
7766.00   1.19156283   0.00513007
7768.00   1.21525502   0.00515287
7770.00   1.24569812   0.00522977
7772.00   1.28156945   0.00543586
7774.00   1.31657305   0.00588283
7776.00   1.34687731   0.00632603
7778.00   1.36979795   0.00627515
7780.00   1.38707778   0.00571533
7782.00   1.40192345   0.00554575
7784.00   1.41018739   0.00556039
7786.00   1.41968891   0.00561829
7788.00   1.43111089   0.00574851
7790.00   1.44461742   0.00592260
7792.00   1.45646513   0.00604977
7794.00   1.47188303   0.00617801
7796.00   1.47195926   0.00631147
7798.00   1.45722681   0.00641014
7800.00   1.43099108   0.00650889
7802.00   1.39947543   0.00676945
7804.00   1.37700430   0.00685241
7806.00   1.36509207   0.00654475
7808.00   1.36190438   0.00596499
7810.00   1.34583262   0.00572801
7812.00   1.31759337   0.00557777
7814.00   1.29421151   0.00548490
7816.00   1.27953136   0.00555340
7818.00   1.27252126   0.00589350
7820.00   1.26983821   0.00667540
7822.00   1.26954448   0.00768100
7824.00   1.24744591   0.00780232
7826.00   1.19965577   0.00716336
7828.00   1.16843343   0.00657719
7830.00   1.14369300   0.00576524
7832.00   1.12100801   0.00522107
7834.00   1.10553896   0.00515258
7836.00   1.09207189   0.00531140
7838.00   1.06719601   0.00525731
7840.00   1.03202209   0.00512872
7842.00   1.01091832   0.00510173
7844.00   0.99075037   0.00508731
7846.00   0.97199500   0.00515920
7848.00   0.96750900   0.00536793
7850.00   0.96737161   0.00562171
7852.00   0.96121582   0.00577682
7854.00   0.95505738   0.00591265
7856.00   0.94145298   0.00589760
7858.00   0.91364345   0.00570306
7860.00   0.89599165   0.00553061
7862.00   0.88814479   0.00536244
7864.00   0.88090923   0.00521727
7866.00   0.87635764   0.00514719
7868.00   0.87649572   0.00513798
7870.00   0.86528650   0.00513682
7872.00   0.83879831   0.00520360
7874.00   0.82323062   0.00519248
7876.00   0.81437922   0.00509863
7878.00   0.80427404   0.00500576
7880.00   0.79782915   0.00494875
7882.00   0.79406647   0.00490716
7884.00   0.78276505   0.00490006
7886.00   0.76342192   0.00485283
7888.00   0.74936831   0.00501541
7890.00   0.73560497   0.00552086
7892.00   0.72414613   0.00571174
7894.00   0.71259853   0.00540238
7896.00   0.69760755   0.00483677
7898.00   0.68747273   0.00450804
7900.00   0.68166241   0.00421701
7902.00   0.67608646   0.00410059
7904.00   0.66617961   0.00403742
7906.00   0.66555460   0.00433706
7908.00   0.68124940   0.00515277
7910.00   0.69757420   0.00587595
7912.00   0.68911836   0.00602853
7914.00   0.66220415   0.00586344
7916.00   0.64119895   0.00571325
7918.00   0.61423542   0.00533272
7920.00   0.60062496   0.00505723
7922.00   0.60162349   0.00491530
7924.00   0.60422577   0.00479916
7926.00   0.59877670   0.00467651
7928.00   0.58962633   0.00457555
7930.00   0.58279370   0.00453619
7932.00   0.57370040   0.00461688
7934.00   0.57189323   0.00457562
7936.00   0.57784446   0.00441345
7938.00   0.58254069   0.00425533
7940.00   0.58343375   0.00415882
7942.00   0.58321705   0.00410624
7944.00   0.58483641   0.00415206
7946.00   0.58910908   0.00436207
7948.00   0.59023724   0.00441546
7950.00   0.58674620   0.00436612
7952.00   0.57951982   0.00429349
7954.00   0.57154237   0.00419429
7956.00   0.56327309   0.00410077
7958.00   0.56278130   0.00419144
7960.00   0.57132085   0.00445188
7962.00   0.57159601   0.00461588
7964.00   0.56285106   0.00479171
7966.00   0.55587988   0.00485162
7968.00   0.55257581   0.00474105
7970.00   0.55027093   0.00456054
7972.00   0.55451947   0.00451034
7974.00   0.56668903   0.00452934
7976.00   0.57017583   0.00453207
7978.00   0.56655008   0.00455269
7980.00   0.56033070   0.00452656
7982.00   0.54968609   0.00445464
7984.00   0.54204004   0.00450886
7986.00   0.54067247   0.00467914
7988.00   0.54215012   0.00494944
7990.00   0.54377574   0.00508247
7992.00   0.55152975   0.00519886
7994.00   0.55211581   0.00512157
7996.00   0.54597262   0.00490043
7998.00   0.53877057   0.00464332
8000.00   0.53099892   0.00436983
8002.00   0.52119386   0.00408672
8004.00   0.51496105   0.00401016
8006.00   0.51029356   0.00415707
8008.00   0.50965117   0.00422234
8010.00   0.51630609   0.00432263
8012.00   0.51829405   0.00436065
8014.00   0.50917289   0.00421859
8016.00   0.49695894   0.00408061
8018.00   0.49586140   0.00431145
8020.00   0.50363624   0.00479563
8022.00   0.50428928   0.00517843
8024.00   0.50465028   0.00571403
8026.00   0.49774481   0.00595261
8028.00   0.47522853   0.00589647
8030.00   0.45064981   0.00565178
8032.00   0.44758546   0.00528112
8034.00   0.45850691   0.00467090
8036.00   0.46300778   0.00424136
8038.00   0.46919973   0.00384462
8040.00   0.47246775   0.00362087
8042.00   0.46999544   0.00365169
8044.00   0.46713386   0.00374170
8046.00   0.46672632   0.00377424
8048.00   0.46699181   0.00381625
8050.00   0.46651092   0.00389042
8052.00   0.46651842   0.00401007
8054.00   0.46447589   0.00408884
8056.00   0.46201827   0.00416365
8058.00   0.46087708   0.00420373
8060.00   0.45751758   0.00421031
8062.00   0.45239909   0.00421751
8064.00   0.44681312   0.00419050
8066.00   0.43898574   0.00412069
8068.00   0.43282571   0.00403693
8070.00   0.43025848   0.00391093
8072.00   0.43141164   0.00378485
8074.00   0.43241608   0.00374922
8076.00   0.43296026   0.00376850
8078.00   0.42962940   0.00372735
8080.00   0.42163205   0.00364167
8082.00   0.41884392   0.00363643
8084.00   0.42180116   0.00371312
8086.00   0.42395137   0.00375251
8088.00   0.42335759   0.00372679
8090.00   0.42048070   0.00372083
8092.00   0.41508611   0.00381917
8094.00   0.40606647   0.00398425
8096.00   0.40086364   0.00414674
8098.00   0.39723796   0.00446294
8100.00   0.39811411   0.00449483
8102.00   0.40327096   0.00417384
8104.00   0.40918545   0.00385836
8106.00   0.41272607   0.00382065
8108.00   0.41507439   0.00391983
8110.00   0.41377905   0.00391452
8112.00   0.40935130   0.00383845
8114.00   0.40303392   0.00387043
8116.00   0.39202487   0.00397538
8118.00   0.38362706   0.00409058
8120.00   0.38262304   0.00426686
8122.00   0.38597480   0.00441603
8124.00   0.38780364   0.00428643
8126.00   0.39199417   0.00377345
8128.00   0.39216614   0.00361440
8130.00   0.38653307   0.00370846
8132.00   0.38006746   0.00377085
8134.00   0.37618087   0.00377491
8136.00   0.37311339   0.00380684
8138.00   0.37317038   0.00383128
8140.00   0.37805051   0.00383496
8142.00   0.37533499   0.00384774
8144.00   0.36527343   0.00387269
8146.00   0.35627381   0.00397296
8148.00   0.34378015   0.00418485
8150.00   0.33104397   0.00431467
8152.00   0.33311268   0.00419364
8154.00   0.34750819   0.00386494
8156.00   0.34996717   0.00390481
8158.00   0.34034248   0.00434474
8160.00   0.33830463   0.00442691
8162.00   0.34541664   0.00417120
8164.00   0.35103881   0.00396216
8166.00   0.35036088   0.00401904
8168.00   0.34712216   0.00417237
8170.00   0.34954937   0.00439354
8172.00   0.35487935   0.00449521
8174.00   0.36080416   0.00508693
8176.00   0.37539282   0.00617244
8178.00   0.38990234   0.00732307
8180.00   0.38512889   0.00800407
8182.00   0.36901617   0.00834153
8184.00   0.35877982   0.00862365
8186.00   0.34772118   0.00877911
8188.00   0.33612616   0.00898796
8190.00   0.32681727   0.00929801
8192.00   0.32669272   0.00956446
8194.00   0.33505964   0.00961766
8196.00   0.34610856   0.00942906
8198.00   0.34657072   0.00901616
8200.00   0.33896766   0.00826671
8202.00   0.33723389   0.00760819
8204.00   0.33744244   0.00683642
8206.00   0.34385563   0.00621691
8208.00   0.35543639   0.00583554
8210.00   0.36391166   0.00562601
8212.00   0.36340460   0.00531321
8214.00   0.35552222   0.00494345
8216.00   0.35528015   0.00468756
8218.00   0.36210416   0.00462781
8220.00   0.36690664   0.00457803
8222.00   0.36721841   0.00447512
8224.00   0.35935228   0.00433604
8226.00   0.34812585   0.00426323
8228.00   0.33534827   0.00421074
8230.00   0.33688211   0.00414653
8232.00   0.35509098   0.00408129
8234.00   0.36154145   0.00406701
8236.00   0.36077555   0.00402014
8238.00   0.36210240   0.00398141
8240.00   0.36599816   0.00395945
8242.00   0.36769825   0.00390580
8244.00   0.36656129   0.00389341
8246.00   0.36243901   0.00392895
8248.00   0.36113636   0.00394779
8250.00   0.36138087   0.00396972
8252.00   0.36264081   0.00395780
8254.00   0.35945262   0.00385752
8256.00   0.35229441   0.00374774
8258.00   0.35071593   0.00375360
8260.00   0.35180164   0.00382148
8262.00   0.35132851   0.00396834
8264.00   0.35100145   0.00434117
8266.00   0.35401380   0.00443749
8268.00   0.35730652   0.00409269
8270.00   0.35631204   0.00384643
8272.00   0.35082009   0.00426486
8274.00   0.34259452   0.00500870
8276.00   0.33464000   0.00544358
8278.00   0.32036742   0.00594138
8280.00   0.31361808   0.00609042
8282.00   0.31786413   0.00588302
8284.00   0.32426232   0.00564081
8286.00   0.32640278   0.00545368
8288.00   0.32621390   0.00524966
8290.00   0.32376479   0.00515166
8292.00   0.31820089   0.00517971
8294.00   0.31449723   0.00516460
8296.00   0.30959409   0.00517025
8298.00   0.30596016   0.00515303
8300.00   0.30418361   0.00511424
8302.00   0.30125888   0.00504195
8304.00   0.29739388   0.00483783
8306.00   0.29193812   0.00439217
8308.00   0.29084335   0.00430178
8310.00   0.29458816   0.00462567
8312.00   0.29643865   0.00468079
8314.00   0.29118057   0.00442612
8316.00   0.28338850   0.00405660
8318.00   0.28290015   0.00377252
8320.00   0.28687029   0.00346614
8322.00   0.29077659   0.00336304
8324.00   0.29973428   0.00351835
8326.00   0.30124296   0.00355907
8328.00   0.29336982   0.00352591
8330.00   0.28252856   0.00351476
8332.00   0.27957105   0.00348734
8334.00   0.28168804   0.00342027
8336.00   0.28565951   0.00380888
8338.00   0.29657809   0.00456835
8340.00   0.29899349   0.00515245
8342.00   0.29073261   0.00581127
8344.00   0.27599562   0.00622312
8346.00   0.26292481   0.00619187
8348.00   0.24963597   0.00592804
8350.00   0.23973862   0.00582224
8352.00   0.23124341   0.00580958
8354.00   0.22595453   0.00554794
8356.00   0.22212952   0.00503095
8358.00   0.22102340   0.00460800
8360.00   0.22929082   0.00446955
8362.00   0.24347353   0.00449401
8364.00   0.24579764   0.00443285
8366.00   0.24019563   0.00442213
8368.00   0.23489811   0.00422626
8370.00   0.22472339   0.00369055
8372.00   0.21944459   0.00336797
8374.00   0.22305343   0.00342413
8376.00   0.23064685   0.00366626
8378.00   0.23335907   0.00387779
8380.00   0.23480641   0.00417746
8382.00   0.23141892   0.00423275
8384.00   0.22009236   0.00404854
8386.00   0.21400778   0.00391226
8388.00   0.21265840   0.00378271
8390.00   0.21640565   0.00378018
8392.00   0.22762011   0.00406217
8394.00   0.24680967   0.00453423
8396.00   0.24887452   0.00484390
8398.00   0.23494526   0.00523733
8400.00   0.22327103   0.00529935
8402.00   0.20835107   0.00500079
8404.00   0.20069643   0.00462676
8406.00   0.20968731   0.00432848
8408.00   0.22973177   0.00404058
8410.00   0.24053612   0.00397169
8412.00   0.24795572   0.00418541
8414.00   0.25369175   0.00424357
8416.00   0.25559168   0.00422449
8418.00   0.26128944   0.00423314
8420.00   0.27247288   0.00424470
8422.00   0.28444401   0.00432776
8424.00   0.29156822   0.00469809
8426.00   0.29742245   0.00533149
8428.00   0.29664894   0.00567370
8430.00   0.28479139   0.00602398
8432.00   0.27934498   0.00605351
8434.00   0.27984421   0.00558945
8436.00   0.28141762   0.00489367
8438.00   0.28811640   0.00439138
8440.00   0.30010739   0.00385214
8442.00   0.30760927   0.00360511
8444.00   0.31016052   0.00379262
8446.00   0.31842062   0.00399956
8448.00   0.33169637   0.00427238
8450.00   0.34750678   0.00449281
8452.00   0.36342566   0.00452812
8454.00   0.38097803   0.00444436
8456.00   0.39764188   0.00456834
8458.00   0.41084859   0.00478704
8460.00   0.43052819   0.00510721
8462.00   0.45995121   0.00562320
8464.00   0.48360938   0.00598643
8466.00   0.49910897   0.00600716
8468.00   0.51210874   0.00581503
8470.00   0.52187553   0.00560436
8472.00   0.51952384   0.00523903
8474.00   0.53504902   0.00489659
8476.00   0.56882380   0.00452364
8478.00   0.59791201   0.00431888
8480.00   0.61935234   0.00431366
8482.00   0.63844472   0.00443024
8484.00   0.65722302   0.00450108
8486.00   0.67257486   0.00457228
8488.00   0.69428632   0.00478978
8490.00   0.72285663   0.00508903
8492.00   0.75095332   0.00538631
8494.00   0.77656281   0.00585539
8496.00   0.80508155   0.00621541
8498.00   0.83340660   0.00615332
8500.00   0.86018977   0.00575667
8502.00   0.88557851   0.00574326
8504.00   0.91449249   0.00604863
8506.00   0.93979236   0.00612594
8508.00   0.95628861   0.00602791
8510.00   0.97201946   0.00585731
8512.00   0.99396390   0.00565728
8514.00   1.01786497   0.00539801
8516.00   1.04091772   0.00531119
8518.00   1.06794307   0.00540420
8520.00   1.08955413   0.00544434
8522.00   1.10345834   0.00547170
8524.00   1.11509007   0.00548209
8526.00   1.12491006   0.00547249
8528.00   1.13168660   0.00545462
8530.00   1.13688764   0.00548267
8532.00   1.14387271   0.00554235
8534.00   1.13760448   0.00561420
8536.00   1.11587501   0.00573770
8538.00   1.09857294   0.00580195
8540.00   1.09345880   0.00578647
8542.00   1.09436598   0.00573879
8544.00   1.08542547   0.00577479
8546.00   1.07050291   0.00589225
8548.00   1.05921766   0.00594119
8550.00   1.04858106   0.00593401
8552.00   1.03757495   0.00585757
8554.00   1.02797335   0.00568940
8556.00   1.02091902   0.00545270
8558.00   1.02408177   0.00534052
8560.00   1.03753790   0.00530411
8562.00   1.04546824   0.00528212
8564.00   1.05301198   0.00530027
8566.00   1.05296829   0.00530903
8568.00   1.04191118   0.00529763
8570.00   1.03369337   0.00529053
8572.00   1.03898162   0.00534921
8574.00   1.05067778   0.00547523
8576.00   1.05704111   0.00554801
8578.00   1.06162488   0.00559014
8580.00   1.06905624   0.00560929
8582.00   1.07733718   0.00558252
8584.00   1.08464801   0.00552531
8586.00   1.08874536   0.00551047
8588.00   1.08865646   0.00554204
8590.00   1.08693486   0.00567034
8592.00   1.08092749   0.00594923
8594.00   1.08173159   0.00603444
8596.00   1.08376828   0.00599353
8598.00   1.08929136   0.00592867
8600.00   1.10590395   0.00582396
8602.00   1.12907639   0.00570982
8604.00   1.13996139   0.00566775
8606.00   1.14135131   0.00562072
8608.00   1.15573922   0.00570735
8610.00   1.18071994   0.00600868
8612.00   1.20283097   0.00634706
8614.00   1.22752577   0.00650735
8616.00   1.25761586   0.00652487
8618.00   1.28111264   0.00664491
8620.00   1.29986575   0.00678674
8622.00   1.32110816   0.00693438
8624.00   1.34830993   0.00707358
8626.00   1.36841980   0.00725610
8628.00   1.37751266   0.00759604
8630.00   1.38571700   0.00801033
8632.00   1.40123296   0.00804126
8634.00   1.41845560   0.00775411
8636.00   1.43443871   0.00759086
8638.00   1.45077938   0.00750213
8640.00   1.46814051   0.00740998
8642.00   1.48389885   0.00721583
8644.00   1.50626454   0.00711774
8646.00   1.53751358   0.00721690
8648.00   1.57388380   0.00739455
8650.00   1.59667969   0.00751905
8652.00   1.60770917   0.00766464
8654.00   1.62319028   0.00777787
8656.00   1.64371228   0.00784707
8658.00   1.66418093   0.00789720
8660.00   1.67694008   0.00792162
8662.00   1.68186533   0.00790819
8664.00   1.69116849   0.00787956
8666.00   1.70177215   0.00782757
8668.00   1.71597135   0.00778874
8670.00   1.73579860   0.00776304
8672.00   1.74743348   0.00769571
8674.00   1.75198108   0.00752455
8676.00   1.75085306   0.00738483
8678.00   1.74127311   0.00754293
8680.00   1.72241116   0.00793497
8682.00   1.70276850   0.00798322
8684.00   1.67564625   0.00777853
8686.00   1.65580571   0.00754320
8688.00   1.64652383   0.00717643
8690.00   1.64808285   0.00683438
8692.00   1.64714378   0.00667146
8694.00   1.64685422   0.00666877
8696.00   1.64154142   0.00686521
8698.00   1.63339382   0.00744594
8700.00   1.62100822   0.00760580
8702.00   1.60716087   0.00759534
8704.00   1.59492087   0.00744577
8706.00   1.57806098   0.00705028
8708.00   1.55545768   0.00654791
8710.00   1.53754917   0.00639509
8712.00   1.52324405   0.00653794
8714.00   1.50535864   0.00651541
8716.00   1.48548424   0.00646127
8718.00   1.46711805   0.00640701
8720.00   1.44747242   0.00632070
8722.00   1.42591831   0.00624402
8724.00   1.40271288   0.00631283
8726.00   1.37799862   0.00651917
8728.00   1.35192215   0.00658521
8730.00   1.32034647   0.00656188
8732.00   1.29468673   0.00652104
8734.00   1.27731869   0.00641220
8736.00   1.26434407   0.00627913
8738.00   1.25145146   0.00629601
8740.00   1.24049166   0.00641648
8742.00   1.22726819   0.00635053
8744.00   1.20964301   0.00604328
8746.00   1.19924042   0.00593272
8748.00   1.19433013   0.00594599
8750.00   1.18995488   0.00604143
8752.00   1.18884781   0.00622062
8754.00   1.19149670   0.00646049
8756.00   1.18734923   0.00687326
8758.00   1.17682156   0.00754624
8760.00   1.16821581   0.00799245
8762.00   1.16133988   0.00828201
8764.00   1.14874583   0.00856430
8766.00   1.13168827   0.00875565
8768.00   1.11622518   0.00877402
8770.00   1.11193472   0.00890634
8772.00   1.11966246   0.00922707
8774.00   1.11807561   0.00909532
8776.00   1.11092326   0.00838387
8778.00   1.09862116   0.00786645
8780.00   1.08116183   0.00763248
8782.00   1.06805393   0.00745139
8784.00   1.06745565   0.00714722
8786.00   1.07643053   0.00675035
8788.00   1.07716882   0.00653776
8790.00   1.07869777   0.00650712
8792.00   1.07585615   0.00649554
8794.00   1.06374064   0.00649651
8796.00   1.05062342   0.00652118
8798.00   1.04369795   0.00661469
8800.00   1.04026562   0.00677367
8802.00   1.03579777   0.00664330
8804.00   1.02996847   0.00608653
8806.00   1.02685618   0.00581628
8808.00   1.02743343   0.00584432
8810.00   1.02981982   0.00594058
8812.00   1.03402945   0.00595555
8814.00   1.03816852   0.00604953
8816.00   1.03280213   0.00628717
8818.00   1.01729015   0.00616018
8820.00   1.00612658   0.00713795
8822.00   0.99571323   0.00918375
8824.00   0.99067351   0.01069073
8826.00   0.98941895   0.01160275
8828.00   0.98425743   0.01196373
8830.00   0.96241516   0.01139696
8832.00   0.92098600   0.00948170
8834.00   0.90016192   0.00846360
8836.00   0.89470947   0.00791784
8838.00   0.89069834   0.00746520
8840.00   0.88317648   0.00712101
8842.00   0.87119931   0.00684557
8844.00   0.86039397   0.00673198
8846.00   0.84852722   0.00681817
8848.00   0.84562871   0.00681163
8850.00   0.85558113   0.00686127
8852.00   0.85749006   0.00674584
8854.00   0.84327769   0.00633250
8856.00   0.82597944   0.00594042
8858.00   0.83011153   0.00589005
8860.00   0.84934121   0.00602594
8862.00   0.84974167   0.00623245
8864.00   0.84163603   0.00673458
8866.00   0.82115531   0.00697220
8868.00   0.77678266   0.00692077
8870.00   0.73344378   0.00673528
8872.00   0.70908199   0.00642384
8874.00   0.69053188   0.00588613
8876.00   0.68644024   0.00576717
8878.00   0.70861286   0.00593561
8880.00   0.71400678   0.00636194
8882.00   0.70297270   0.00714144
8884.00   0.68954289   0.00768275
8886.00   0.67741360   0.00790474
8888.00   0.66019812   0.00789325
8890.00   0.63737524   0.00752868
8892.00   0.60398312   0.00657165
8894.00   0.58999015   0.00607611
8896.00   0.59317324   0.00591073
8898.00   0.59553114   0.00591652
8900.00   0.59710412   0.00614226
8902.00   0.59779546   0.00642379
8904.00   0.58794914   0.00645192
8906.00   0.56778665   0.00632724
8908.00   0.55877192   0.00621575
8910.00   0.55856980   0.00577095
8912.00   0.55814542   0.00589374
8914.00   0.56218144   0.00686061
8916.00   0.57157554   0.00801909
8918.00   0.56740247   0.00851489
8920.00   0.55065718   0.00866017
8922.00   0.52554409   0.00836896
8924.00   0.48070990   0.00738738
8926.00   0.45974222   0.00662651
8928.00   0.45715000   0.00594459
8930.00   0.46311729   0.00544286
8932.00   0.47456023   0.00514124
8934.00   0.49535696   0.00506575
8936.00   0.50897460   0.00521099
8938.00   0.52448125   0.00568527
8940.00   0.52324411   0.00599704
8942.00   0.50701432   0.00638047
8944.00   0.48596248   0.00664247
8946.00   0.46213208   0.00643468
8948.00   0.44088486   0.00592568
8950.00   0.43493234   0.00597182
8952.00   0.44357921   0.00635745
8954.00   0.44058992   0.00668116
8956.00   0.43602778   0.00702421
8958.00   0.42178447   0.00744538
8960.00   0.39410446   0.00814363
8962.00   0.37208238   0.00863617
8964.00   0.36765657   0.00819817
8966.00   0.37525842   0.00686816
8968.00   0.37967218   0.00597483
8970.00   0.39064133   0.00510158
8972.00   0.39334682   0.00452733
8974.00   0.38904735   0.00451218
8976.00   0.38544098   0.00470539
8978.00   0.38423339   0.00475385
8980.00   0.38347128   0.00478916
8982.00   0.38648115   0.00505400
8984.00   0.39720935   0.00561896
8986.00   0.40045483   0.00598262
8988.00   0.39643218   0.00617646
8990.00   0.39341766   0.00626108
8992.00   0.39341072   0.00627611
8994.00   0.39278939   0.00621492
8996.00   0.39122666   0.00632852
8998.00   0.39081858   0.00662044
9000.00   0.38852522   0.00678158
9002.00   0.37922870   0.00691764
9004.00   0.37116073   0.00684905
9006.00   0.36970364   0.00647157
9008.00   0.36713080   0.00593657
9010.00   0.36752652   0.00566856
9012.00   0.37262545   0.00555460
9014.00   0.37805514   0.00542733
9016.00   0.38113927   0.00541103
9018.00   0.38322487   0.00532277
9020.00   0.38494926   0.00508720
9022.00   0.38307487   0.00486813
9024.00   0.38277493   0.00481033
9026.00   0.38342058   0.00486091
9028.00   0.38413427   0.00484594
9030.00   0.38411350   0.00473970
9032.00   0.38478681   0.00481688
9034.00   0.38519584   0.00510301
9036.00   0.38563059   0.00537608
9038.00   0.38585260   0.00553846
9040.00   0.38623897   0.00564252
9042.00   0.38854086   0.00566742
9044.00   0.39501982   0.00552887
9046.00   0.39509837   0.00556072
9048.00   0.39289566   0.00575238
9050.00   0.38880675   0.00585935
9052.00   0.38078993   0.00578596
9054.00   0.37291585   0.00560515
9056.00   0.36893790   0.00540432
9058.00   0.36838993   0.00507713
9060.00   0.36476889   0.00486331
9062.00   0.35821662   0.00471289
9064.00   0.35132117   0.00472750
9066.00   0.34910430   0.00491542
9068.00   0.34870999   0.00521515
9070.00   0.35362804   0.00534022
9072.00   0.36615351   0.00538642
9074.00   0.37277144   0.00525508
9076.00   0.37186864   0.00487723
9078.00   0.37202797   0.00471715
9080.00   0.37669379   0.00478742
9082.00   0.38266703   0.00491351
9084.00   0.38436799   0.00493428
9086.00   0.38423694   0.00491858
9088.00   0.38373210   0.00497121
9090.00   0.38073549   0.00507641
9092.00   0.37809638   0.00516380
9094.00   0.37952677   0.00525263
9096.00   0.38015505   0.00534106
9098.00   0.37442084   0.00543029
9100.00   0.36562598   0.00551721
9102.00   0.36591681   0.00552849
9104.00   0.37576312   0.00548486
9106.00   0.37841219   0.00539497
9108.00   0.38265213   0.00523664
9110.00   0.38677274   0.00507201
9112.00   0.37793656   0.00487625
9114.00   0.35956321   0.00469136
9116.00   0.34999735   0.00470545
9118.00   0.34610229   0.00486582
9120.00   0.33968692   0.00510852
9122.00   0.32620695   0.00566205
9124.00   0.32048183   0.00582422
9126.00   0.33066633   0.00541781
9128.00   0.34403375   0.00488851
9130.00   0.34763984   0.00491595
9132.00   0.34740975   0.00531124
9134.00   0.34769716   0.00545539
9136.00   0.34506237   0.00559115
9138.00   0.33991692   0.00559165
9140.00   0.33161972   0.00542277
9142.00   0.32640935   0.00521648
9144.00   0.32745916   0.00503773
9146.00   0.33159684   0.00483184
9148.00   0.32638267   0.00482009
9150.00   0.31406824   0.00501280
9152.00   0.30632316   0.00518274
9154.00   0.29686593   0.00544175
9156.00   0.29024174   0.00556085
9158.00   0.29108848   0.00539934
9160.00   0.29773910   0.00506313
9162.00   0.29729152   0.00490539
9164.00   0.28972318   0.00479627
9166.00   0.28562559   0.00476894
9168.00   0.28738055   0.00492682
9170.00   0.29385605   0.00500500
9172.00   0.29928594   0.00489122
9174.00   0.30149948   0.00468968
9176.00   0.30365537   0.00459760
9178.00   0.30595592   0.00454771
9180.00   0.31063951   0.00453557
9182.00   0.31413256   0.00456835
9184.00   0.31751510   0.00461796
9186.00   0.32157854   0.00474280
9188.00   0.32154803   0.00495947
9190.00   0.32416397   0.00497588
9192.00   0.32943361   0.00482031
9194.00   0.33945718   0.00475247
9196.00   0.35195921   0.00474801
9198.00   0.36067782   0.00481119
9200.00   0.37009613   0.00496626
9202.00   0.37865715   0.00526218
9204.00   0.38517547   0.00548784
9206.00   0.39029902   0.00565396
9208.00   0.39907591   0.00567201
9210.00   0.41151069   0.00554249
9212.00   0.42194149   0.00552317
9214.00   0.43012764   0.00555602
9216.00   0.43710853   0.00561936
9218.00   0.44604602   0.00568281
9220.00   0.45646258   0.00575962
9222.00   0.46868463   0.00584157
9224.00   0.48261571   0.00595988
9226.00   0.49729057   0.00601252
9228.00   0.51069584   0.00600604
9230.00   0.52952676   0.00598741
9232.00   0.55827388   0.00597470
9234.00   0.58898532   0.00594874
9236.00   0.60446142   0.00591317
9238.00   0.60623540   0.00584559
9240.00   0.61836393   0.00585582
9242.00   0.63532609   0.00592497
9244.00   0.65502490   0.00601570
9246.00   0.67482060   0.00612841
9248.00   0.69220966   0.00624464
9250.00   0.70596538   0.00631981
9252.00   0.71598494   0.00636985
9254.00   0.72726843   0.00640519
9256.00   0.73900057   0.00638564
9258.00   0.74974036   0.00643277
9260.00   0.76147035   0.00659505
9262.00   0.77943590   0.00674612
9264.00   0.80010790   0.00671849
9266.00   0.82518527   0.00659226
9268.00   0.84501952   0.00689372
9270.00   0.86283731   0.00774509
9272.00   0.87392056   0.00800433
9274.00   0.88242376   0.00789981
9276.00   0.88822660   0.00768073
9278.00   0.89180842   0.00731620
9280.00   0.89285183   0.00687837
9282.00   0.89786035   0.00703727
9284.00   0.90823224   0.00786545
9286.00   0.91487670   0.00811469
9288.00   0.91689208   0.00810424
9290.00   0.91046694   0.00800915
9292.00   0.89458710   0.00773991
9294.00   0.86813304   0.00740610
9296.00   0.85315856   0.00754818
9298.00   0.83999234   0.00793777
9300.00   0.84486693   0.00862484
9302.00   0.87219289   0.00954800
9304.00   0.89876699   0.01062884
9306.00   0.91478810   0.01162496
9308.00   0.90809777   0.01293016
9310.00   0.86985505   0.01479775
9312.00   0.79578260   0.01708960
9314.00   0.75914297   0.01796971
9316.00   0.74107824   0.01825756
9318.00   0.74104251   0.01785096
9320.00   0.76896533   0.01627620
9322.00   0.78872934   0.01460876
9324.00   0.77289870   0.01385875
9326.00   0.73778662   0.01364850
9328.00   0.72314435   0.01307651
9330.00   0.71134478   0.01230166
9332.00   0.71020888   0.01169914
9334.00   0.73469637   0.01126034
9336.00   0.75509073   0.01100415
9338.00   0.74466668   0.01107902
9340.00   0.72027715   0.01142421
9342.00   0.70860702   0.01133105
9344.00   0.69573119   0.01087430
9346.00   0.69176120   0.01046864
9348.00   0.71597140   0.01009694
9350.00   0.73586640   0.00980060
9352.00   0.71938306   0.00955825
9354.00   0.68322083   0.00956962
9356.00   0.66796872   0.00943084
9358.00   0.65839338   0.00915425
9360.00   0.65575670   0.00889089
9362.00   0.66853170   0.00847099
9364.00   0.68790555   0.00864708
9366.00   0.69870095   0.00895398
9368.00   0.68419808   0.01042579
9370.00   0.65980130   0.01380117
9372.00   0.62373444   0.01798117
9374.00   0.59579264   0.02037682
9376.00   0.55240048   0.02324224
9378.00   0.54331097   0.02333373
9380.00   0.57042986   0.02004107
9382.00   0.58420756   0.01568309
9384.00   0.57450703   0.01270526
9386.00   0.55519186   0.01015607
9388.00   0.55935156   0.00814295
9390.00   0.57973358   0.00812257
9392.00   0.59816632   0.00786924
9394.00   0.61830093   0.00798917
9396.00   0.63109311   0.00826358
9398.00   0.63586926   0.00860759
9400.00   0.63484842   0.00903025
9402.00   0.63748114   0.00928948
9404.00   0.64460123   0.00956472
9406.00   0.64474280   0.00952626
9408.00   0.63313825   0.00905717
9410.00   0.61574236   0.00871033
9412.00   0.60448015   0.00860590
9414.00   0.59419037   0.00871218
9416.00   0.58583659   0.00915916
9418.00   0.57784300   0.00993566
9420.00   0.58518606   0.01061567
9422.00   0.61315942   0.01152446
9424.00   0.62576453   0.01195602
9426.00   0.60845967   0.01184658
9428.00   0.57817400   0.01136133
9430.00   0.58753844   0.01079358
9432.00   0.62852028   0.00982518
9434.00   0.65471713   0.01083993
9436.00   0.69013417   0.01384221
9438.00   0.67650025   0.01526422
9440.00   0.60194562   0.01586922
9442.00   0.52144468   0.01572740
9444.00   0.49592499   0.01458201
9446.00   0.50017214   0.01231156
9448.00   0.50940168   0.01097578
9450.00   0.54470664   0.00992197
9452.00   0.56225905   0.00979308
9454.00   0.56258073   0.01095812
9456.00   0.55302025   0.01199141
9458.00   0.54092370   0.01243994
9460.00   0.52854146   0.01259715
9462.00   0.52823427   0.01230634
9464.00   0.53403251   0.01125617
9466.00   0.54427901   0.01068897
9468.00   0.56948651   0.01013344
9470.00   0.60012774   0.01051717
9472.00   0.62614653   0.01197242
9474.00   0.64045428   0.01358109
9476.00   0.61622481   0.01426520
9478.00   0.55561350   0.01467606
9480.00   0.50102675   0.01426615
9482.00   0.42292687   0.01259939
9484.00   0.37886661   0.01102676
9486.00   0.39106308   0.00965554
9488.00   0.42661536   0.00856597
9490.00   0.43883897   0.00797758
9492.00   0.44962420   0.00792703
9494.00   0.44933413   0.00887363
9496.00   0.42549309   0.01127359
9498.00   0.41287708   0.01216649
9500.00   0.42353600   0.01215542
9502.00   0.44590291   0.01192927
9504.00   0.45457371   0.01142245
9506.00   0.45435797   0.01050903
9508.00   0.45652117   0.00998117
9510.00   0.46937588   0.00959798
9512.00   0.46075259   0.00947808
9514.00   0.42778617   0.00982009
9516.00   0.40819664   0.01046425
9518.00   0.40161343   0.01112127
9520.00   0.39550205   0.01166011
9522.00   0.38984054   0.01149469
9524.00   0.39070008   0.01058389
9526.00   0.38263699   0.00988563
9528.00   0.36001208   0.00915451
9530.00   0.34725279   0.00878768
9532.00   0.35652366   0.00853071
9534.00   0.38067804   0.00815835
9536.00   0.38727137   0.00803880
9538.00   0.38277224   0.00815579
9540.00   0.38338589   0.00830319
9542.00   0.38360053   0.00838701
9544.00   0.40016434   0.00877977
9546.00   0.43853997   0.00937276
9548.00   0.47278535   0.00988194
9550.00   0.46845405   0.01040569
9552.00   0.43673000   0.01098653
9554.00   0.40629996   0.01098571
9556.00   0.35182490   0.01013405
9558.00   0.32873334   0.00988090
9560.00   0.34882558   0.01015392
9562.00   0.37780221   0.01064808
9564.00   0.37478271   0.01136090
9566.00   0.35890666   0.01233334
9568.00   0.36731566   0.01251199
9570.00   0.40779829   0.01208442
9572.00   0.41302636   0.01140306
9574.00   0.39231737   0.01012801
9576.00   0.37118962   0.00914114
9578.00   0.35637681   0.00904795
9580.00   0.34238649   0.00931351
9582.00   0.34141015   0.00903892
9584.00   0.35750050   0.00842107
9586.00   0.35825454   0.00804657
9588.00   0.34275375   0.00769978
9590.00   0.33773490   0.00751452
9592.00   0.34437671   0.00745589
9594.00   0.34726693   0.00754322
9596.00   0.34600653   0.00781811
9598.00   0.34458482   0.00829656
9600.00   0.34857105   0.00851738
9602.00   0.35037640   0.00864985
9604.00   0.35053509   0.00871699
9606.00   0.35889006   0.00851547
9608.00   0.36179614   0.00848608
9610.00   0.35192750   0.00900652
9612.00   0.33405971   0.00981772
9614.00   0.32291843   0.00998989
9616.00   0.30818338   0.00972552
9618.00   0.30278683   0.00957927
9620.00   0.31282026   0.00940442
9622.00   0.32546466   0.00925491
9624.00   0.32453670   0.00905968
9626.00   0.31328020   0.00877975
9628.00   0.30873688   0.00846426
9630.00   0.30744889   0.00802718
9632.00   0.30968305   0.00777658
9634.00   0.31502193   0.00769475
9636.00   0.32305644   0.00762954
9638.00   0.32621028   0.00750010
9640.00   0.32239562   0.00735234
9642.00   0.31592481   0.00723900
9644.00   0.30110219   0.00706735
9646.00   0.30129521   0.00715422
9648.00   0.31640398   0.00756620
9650.00   0.33275963   0.00792037
9652.00   0.34717514   0.00812161
9654.00   0.35436817   0.00823410
9656.00   0.34150483   0.00823577
9658.00   0.30721755   0.00805984
9660.00   0.29361022   0.00811898
9662.00   0.29452781   0.00835161
9664.00   0.29721302   0.00863136
9666.00   0.30408916   0.00911549
9668.00   0.31343607   0.00976833
9670.00   0.31200150   0.01004075
9672.00   0.30558946   0.01014045
9674.00   0.30590138   0.01012634
9676.00   0.30839486   0.00957591
9678.00   0.31012230   0.00968802
9680.00   0.32205644   0.01088533
9682.00   0.33023110   0.01184550
9684.00   0.32751285   0.01203471
9686.00   0.31820615   0.01178299
9688.00   0.30549655   0.01116321
9690.00   0.27720249   0.00938403
9692.00   0.27218407   0.00885680
9694.00   0.29086387   0.00944696
9696.00   0.30662797   0.00997773
9698.00   0.30820259   0.01023484
9700.00   0.29992329   0.01029525
9702.00   0.28224941   0.01020707
9704.00   0.24589980   0.00987137
9706.00   0.23208158   0.00992090
9708.00   0.23900648   0.01011525
9710.00   0.24741993   0.01044115
9712.00   0.25475562   0.01094938
9714.00   0.27048048   0.01125483
9716.00   0.28458066   0.01142713
9718.00   0.30294851   0.01161496
9720.00   0.30733587   0.01169147
9722.00   0.29732767   0.01153112
9724.00   0.28097566   0.01112079
9726.00   0.26513527   0.01050964
9728.00   0.25364198   0.00994644
9730.00   0.25849175   0.00971991
9732.00   0.27903377   0.00976364
9734.00   0.28178500   0.00977147
9736.00   0.26869381   0.00989278
9738.00   0.25764553   0.00981691
9740.00   0.24728395   0.00968492
9742.00   0.23522814   0.00958331
9744.00   0.22496576   0.00945760
9746.00   0.22065079   0.00932262
9748.00   0.22698955   0.00917545
9750.00   0.24844414   0.00904043
9752.00   0.25646594   0.00883546
9754.00   0.25813146   0.00848185
9756.00   0.25269465   0.00809702
9758.00   0.24722278   0.00786252
9760.00   0.24428862   0.00772952
9762.00   0.24272753   0.00770752
9764.00   0.24306845   0.00778800
9766.00   0.24036216   0.00801040
9768.00   0.23139269   0.00847561
9770.00   0.22936859   0.00883920
9772.00   0.23729777   0.00894154
9774.00   0.24699856   0.00876888
9776.00   0.24879463   0.00862312
9778.00   0.24491956   0.00837532
9780.00   0.23870026   0.00886371
9782.00   0.22748663   0.00990241
9784.00   0.22481317   0.01073097
9786.00   0.22855265   0.01162925
9788.00   0.22632119   0.01261986
9790.00   0.21051699   0.01346695
9792.00   0.18699422   0.01424484
9794.00   0.18555663   0.01441686
9796.00   0.20994624   0.01405278
9798.00   0.21209733   0.01358927
9800.00   0.19413130   0.01272773
9802.00   0.18657720   0.01198584
9804.00   0.20138908   0.01179887
9806.00   0.22006638   0.01184958
9808.00   0.21833456   0.01168073
9810.00   0.19701975   0.01148119
9812.00   0.19898745   0.01129019
9814.00   0.21474180   0.01096164
9816.00   0.22292642   0.01066918
9818.00   0.21853730   0.01025603
9820.00   0.20442399   0.00957653
9822.00   0.19368858   0.00922486
9824.00   0.17798441   0.00911446
9826.00   0.18048230   0.00907827
9828.00   0.20702821   0.00917626
9830.00   0.22175701   0.00923031
9832.00   0.21392462   0.00910952
9834.00   0.20372084   0.00904002
9836.00   0.20602080   0.00935229
9838.00   0.21354362   0.00993866
9840.00   0.21637881   0.01013011
9842.00   0.21920891   0.00989369
9844.00   0.22056115   0.01005585
9846.00   0.22390265   0.01069718
9848.00   0.23300213   0.01127198
9850.00   0.24076251   0.01148678
9852.00   0.24684385   0.01155045
9854.00   0.24883212   0.01143070
9856.00   0.25060021   0.01092299
9858.00   0.24975253   0.01066686
9860.00   0.23120552   0.01025955
9862.00   0.21004045   0.01001846
9864.00   0.21277683   0.01057399
9866.00   0.23196545   0.01167111
9868.00   0.25220295   0.01300110
9870.00   0.28719002   0.01500356
9872.00   0.29736568   0.01585163
9874.00   0.28577098   0.01608384
9876.00   0.27817941   0.01581898
9878.00   0.27281364   0.01486812
9880.00   0.26047363   0.01345847
9882.00   0.25313861   0.01262895
9884.00   0.24732520   0.01193731
9886.00   0.24447476   0.01177558
9888.00   0.24243302   0.01230616
9890.00   0.25407585   0.01327868
9892.00   0.26911674   0.01439708
9894.00   0.27360158   0.01494615
9896.00   0.27342766   0.01474224
9898.00   0.26748040   0.01388582
9900.00   0.27467768   0.01343805
9902.00   0.29457679   0.01272964
9904.00   0.31311850   0.01287743
9906.00   0.33008060   0.01385607
9908.00   0.33065583   0.01484254
9910.00   0.30987979   0.01566057
9912.00   0.27165917   0.01657343
9914.00   0.25020240   0.01747882
9916.00   0.23208912   0.01903425
9918.00   0.22636621   0.01896157
9920.00   0.23808697   0.01711525
9922.00   0.25173737   0.01528658
9924.00   0.25401927   0.01454204
9926.00   0.25820236   0.01424885
9928.00   0.25873558   0.01372198
9930.00   0.24527623   0.01293290
9932.00   0.24943540   0.01305852
9934.00   0.29266379   0.01375546
9936.00   0.31782594   0.01502903
9938.00   0.30755457   0.01694274
9940.00   0.29551246   0.01917449
9942.00   0.28293759   0.02087253
9944.00   0.26094688   0.02222877
9946.00   0.22807236   0.02462136
9948.00   0.18200076   0.02904272
9950.00   0.17101836   0.03023139
9952.00   0.18113779   0.02800834
9954.00   0.20299102   0.02499398
9956.00   0.23324067   0.02388869
9958.00   0.27095976   0.02373487
9960.00   0.28335730   0.02313783
9962.00   0.28094023   0.02268702
9964.00   0.28435501   0.02182490
9966.00   0.27476141   0.02043224
9968.00   0.26611163   0.01904116
9970.00   0.26599625   0.01818939
9972.00   0.26374692   0.01766917
9974.00   0.26383481   0.01708738
9976.00   0.26959814   0.01664517
9978.00   0.28276894   0.01616750
9980.00   0.28717824   0.01560992
9982.00   0.29003817   0.01510835
9984.00   0.30395150   0.01473824
9986.00   0.31365311   0.01442685
9988.00   0.32388155   0.01423410
9990.00   0.34220697   0.01410062
9992.00   0.35221838   0.01428949
9994.00   0.33666304   0.01479993
9996.00   0.33285604   0.01538323
9998.00   0.34699587   0.01589766
10000.00   0.34854493   0.01633874
10002.00   0.35190977   0.01698878
10004.00   0.36057118   0.01756767
10006.00   0.34831771   0.01915072
10008.00   0.28853411   0.02132046
10010.00   0.28784753   0.02385412
10012.00   0.34777808   0.02709814
10014.00   0.40037856   0.02949575
10016.00   0.39798377   0.02984312
10018.00   0.35802109   0.02874487
10020.00   0.35220625   0.02746355
10022.00   0.37308949   0.02492506
10024.00   0.38718903   0.02318770
10026.00   0.38856362   0.02193132
10028.00   0.37310103   0.02098961
10030.00   0.33812871   0.02034455
10032.00   0.28455985   0.01999288
10034.00   0.28019720   0.01966607
10036.00   0.32960811   0.01969970
10038.00   0.35337120   0.01936708
10040.00   0.36194398   0.01873610
10042.00   0.36907827   0.01823159
10044.00   0.36898637   0.01784348
10046.00   0.35662535   0.01751320
10048.00   0.35510049   0.01727474
10050.00   0.36466791   0.01704578
10052.00   0.36363783   0.01712917
10054.00   0.34547584   0.01748954
10056.00   0.33480647   0.01815182
10058.00   0.33213608   0.01909066
10060.00   0.33054885   0.02002319
10062.00   0.33217448   0.02055530
10064.00   0.33763900   0.02085104
10066.00   0.33579309   0.02122625
10068.00   0.32843208   0.02168323
10070.00   0.32522659   0.02183351
10072.00   0.32474404   0.02159891
10074.00   0.32272400   0.02156929
10076.00   0.31973258   0.02222991
10078.00   0.32116034   0.02335914
10080.00   0.32017685   0.02440340
10082.00   0.31219844   0.02616187
10084.00   0.30237416   0.02652266
10086.00   0.30268357   0.02537358
10088.00   0.29285403   0.02380299
10090.00   0.28021849   0.02266828
10092.00   0.28334246   0.02159431
10094.00   0.28866562   0.02103699
10096.00   0.29640853   0.02077863
10098.00   0.28604205   0.02128578
10100.00   0.26855125   0.02280029
10102.00   0.25808173   0.02384440
10104.00   0.26158322   0.02431106
10106.00   0.27146278   0.02434115
10108.00   0.28254592   0.02351645
10110.00   0.29997894   0.02117477
10112.00   0.30756389   0.02054575
10114.00   0.31176232   0.02098109
10116.00   0.31650570   0.02219340
10118.00   0.30782118   0.02435347
10120.00   0.29401775   0.02687033
10122.00   0.28687826   0.02865581
10124.00   0.27810789   0.03041660
10126.00   0.28427465   0.03074341
10128.00   0.31816398   0.02955497
10130.00   0.33508419   0.02833941
10132.00   0.33072607   0.02684641
10134.00   0.31960614   0.02565845
10136.00   0.29554495   0.02579879
10138.00   0.24817724   0.02686379
10140.00   0.23434526   0.02709158
10142.00   0.25304485   0.02691117
10144.00   0.28094380   0.02680480
10146.00   0.31313248   0.02648903
10148.00   0.34363946   0.02659336
10150.00   0.34983216   0.02725881
10152.00   0.32952091   0.02818594
10154.00   0.31609008   0.02841538
10156.00   0.29870670   0.02814776
10158.00   0.29491743   0.02787340
10160.00   0.30863499   0.02698316
10162.00   0.31978059   0.02711483
10164.00   0.32080710   0.02894639
10166.00   0.33050345   0.03141687
10168.00   0.31146230   0.03326621
10170.00   0.25181744   0.03509835
10172.00   0.25235682   0.03696041
10174.00   0.31166001   0.03911939
10176.00   0.34690212   0.03997443
10178.00   0.39916144   0.03980009
10180.00   0.44182871   0.03856173
10182.00   0.39493521   0.03665687
10184.00   0.27225929   0.03355170
10186.00   0.23071204   0.03274661
10188.00   0.22634137   0.03439281
10190.00   0.23994271   0.03452819
10192.00   0.29890803   0.03315637
10194.00   0.36180188   0.03155414
10196.00   0.38098598   0.03062184
10198.00   0.37156619   0.02988072
10200.00   0.37433592   0.03020348
10202.00   0.37957847   0.03163376
10204.00   0.39412482   0.03321742
10206.00   0.39804161   0.03551861
10208.00   0.41346543   0.03724471
10210.00   0.44644836   0.03748251
10212.00   0.47394115   0.03674568
10214.00   0.45077828   0.03654693
10216.00   0.37471180   0.03643514
10218.00   0.32747702   0.03642113
10220.00   0.28220236   0.03669946
10222.00   0.25357912   0.03679007
10224.00   0.26945507   0.03580866
10226.00   0.32258529   0.03466913
10228.00   0.33854596   0.03553275
10230.00   0.32870612   0.03823443
10232.00   0.33276377   0.03844514
10234.00   0.36173312   0.03741685
10236.00   0.39417006   0.03613514
10238.00   0.39488079   0.03339545
10240.00   0.39464264   0.03076406
10242.00   0.39956878   0.02994308
10244.00   0.39304018   0.03017619
10246.00   0.35529087   0.02913015
10248.00   0.28956930   0.02743024
10250.00   0.26873519   0.02690578
10252.00   0.26951277   0.02702525
10254.00   0.29307598   0.02759272
10256.00   0.30875829   0.02832963
10258.00   0.31859079   0.02955549
10260.00   0.32186949   0.03042052
10262.00   0.32747727   0.03116780
10264.00   0.31499204   0.03130984
10266.00   0.30271354   0.03077123
10268.00   0.32408031   0.03101866
10270.00   0.32654554   0.03282892
10272.00   0.31758863   0.03537588
10274.00   0.34633116   0.03767790
10276.00   0.43132935   0.04015512
10278.00   0.43939797   0.04224380
10280.00   0.39471931   0.04351951
10282.00   0.38293464   0.04678163
10284.00   0.37486611   0.05234013
10286.00   0.37504604   0.05756198
10288.00   0.37804748   0.05909598
10290.00   0.38949926   0.05824496
10292.00   0.34150588   0.05734614
10294.00   0.22786886   0.05556379
10296.00   0.17209281   0.05360219
10298.00   0.22966514   0.05025711
10300.00   0.33924963   0.04604996
10302.00   0.31935614   0.04332925
10304.00   0.21720800   0.04118875
10306.00   0.20437750   0.03965105
10308.00   0.26260927   0.04001783
10310.00   0.30121753   0.03971940
10312.00   0.32746813   0.03782468
10314.00   0.32600804   0.03610307
10316.00   0.31821420   0.03559332
10318.00   0.29444499   0.03575992
10320.00   0.26425198   0.03695784
10322.00   0.22228185   0.04031538
10324.00   0.19710372   0.04149051
10326.00   0.13097270   0.04164649
10328.00   0.08333668   0.04066708
10330.00   0.15103289   0.03777723
10332.00   0.29637736   0.03369164
10334.00   0.34984609   0.03300587
10336.00   0.35321710   0.03534949
10338.00   0.33608466   0.03658266
10340.00   0.28363846   0.03767841
10342.00   0.24147314   0.03879525
10344.00   0.21242595   0.03959272
10346.00   0.20374299   0.03938172
10348.00   0.20002244   0.03914881
10350.00   0.18941942   0.03862732
10352.00   0.21044847   0.03869568
10354.00   0.30917124   0.03904645
10356.00   0.37914606   0.03930545
10358.00   0.37872593   0.03933018
10360.00   0.36802746   0.03897808
10362.00   0.37076882   0.03842133
10364.00   0.35036906   0.03729420
10366.00   0.31858330   0.03981716
10368.00   0.30429056   0.04537699
10370.00   0.30368219   0.05027569
10372.00   0.23242500   0.05619533
10374.00   0.17618115   0.05922416
10376.00   0.20638419   0.05706008
10378.00   0.28940189   0.05129969
10380.00   0.35762678   0.04948687
10382.00   0.46703960   0.05105898
10384.00   0.51212275   0.04989597
10386.00   0.48533878   0.04703084
10388.00   0.40426073   0.04378736
10390.00   0.37388679   0.04063057
10392.00   0.37341251   0.03843832
10394.00   0.34592680   0.03860864
10396.00   0.31357995   0.04151695
10398.00   0.27180291   0.04245533
10400.00   0.14330484   0.04350358
10402.00   0.04479599   0.04266969
10404.00   0.06405360   0.03919976
10406.00   0.13326982   0.03496270
10408.00   0.21163317   0.03433563
10410.00   0.34202681   0.03619199
10412.00   0.41936618   0.03826916
10414.00   0.46145247   0.04208743
10416.00   0.44371478   0.04431079
10418.00   0.37312889   0.04493273
10420.00   0.31561920   0.04483527
10422.00   0.29329778   0.04403432
10424.00   0.28766651   0.04214251
10426.00   0.28104980   0.04042454
10428.00   0.28556687   0.03819014
10430.00   0.28551963   0.03700493
10432.00   0.28886552   0.03669380
10434.00   0.31747803   0.03695066
10436.00   0.35225394   0.03806233
10438.00   0.38129392   0.03958478
10440.00   0.37748186   0.03919173
10442.00   0.33778740   0.03639805
10444.00   0.31670944   0.03585595
10446.00   0.32476321   0.03600114
10448.00   0.35477468   0.03582760
10450.00   0.33932859   0.03630303
10452.00   0.29606245   0.03736046
10454.00   0.31643532   0.03813536
10456.00   0.40911579   0.03928512
10458.00   0.44227350   0.03879859
10460.00   0.41330427   0.03546713
10462.00   0.36700734   0.03468246
10464.00   0.34183855   0.03779621
10466.00   0.30882769   0.04180937
10468.00   0.29036627   0.04427601
10470.00   0.29639108   0.04693905
10472.00   0.30499771   0.04593744
10474.00   0.29428710   0.03961130
10476.00   0.27400278   0.03542003
10478.00   0.26164270   0.03404965
10480.00   0.23483903   0.03351698
10482.00   0.25858801   0.03323730
10484.00   0.33215991   0.03365551
10486.00   0.34905348   0.03366057
10488.00   0.29590507   0.03346229
10490.00   0.28639333   0.03368385
10492.00   0.29054843   0.03383741
10494.00   0.28351409   0.03414299
10496.00   0.32060900   0.03433463
10498.00   0.39323603   0.03396645
10500.00   0.41768399   0.03390544
10502.00   0.40576139   0.03429185
10504.00   0.39160942   0.03474203
10506.00   0.35743983   0.03488338
10508.00   0.33215231   0.03500942
10510.00   0.32738523   0.03514259
10512.00   0.32589866   0.03521565
10514.00   0.31729364   0.03543034
10516.00   0.30004308   0.03568458
10518.00   0.30543163   0.03620485
10520.00   0.34159967   0.03721699
10522.00   0.36465836   0.03785289
10524.00   0.35202897   0.03782237
10526.00   0.33018275   0.03737580
10528.00   0.32873896   0.03738204
10530.00   0.33490220   0.03767776
10532.00   0.32368765   0.03771585
10534.00   0.29774927   0.03737483
10536.00   0.29221639   0.03726391
10538.00   0.30908571   0.03720949
10540.00   0.34419923   0.03683423
10542.00   0.36158629   0.03679013
10544.00   0.37218864   0.03707876
10546.00   0.38838616   0.03746910
10548.00   0.42070541   0.03808236
10550.00   0.42162116   0.03826325
10552.00   0.39647740   0.03823016
10554.00   0.37009148   0.03804767
10556.00   0.37089375   0.03790328
10558.00   0.39889778   0.03798595
10560.00   0.40345316   0.03824171
10562.00   0.38513632   0.03862471
10564.00   0.37821521   0.03903720
10566.00   0.37667762   0.03946627
10568.00   0.35638289   0.03945539
10570.00   0.35635163   0.03978670
10572.00   0.37975846   0.04050559
10574.00   0.38851306   0.04083340
10576.00   0.39280322   0.04093990
10578.00   0.39123517   0.04107060
10580.00   0.37258534   0.04096644
10582.00   0.36188515   0.04086949
10584.00   0.37899917   0.04131918
10586.00   0.39708939   0.04197519
10588.00   0.40729950   0.04220396
10590.00   0.42820731   0.04230671
10592.00   0.42470625   0.04217587
10594.00   0.36708564   0.04143802
10596.00   0.33424586   0.04106341
10598.00   0.34336492   0.04124000
10600.00   0.34227759   0.04132614
10602.00   0.34232208   0.04128591
10604.00   0.34972385   0.04123098
10606.00   0.34471381   0.04109220
10608.00   0.31073236   0.04065553
10610.00   0.31496269   0.04064754
10612.00   0.34287053   0.04082753
10614.00   0.37782681   0.04119090
10616.00   0.39453824   0.04171348
10618.00   0.38104671   0.04216256
10620.00   0.37370208   0.04230352
10622.00   0.37003157   0.04232833
10624.00   0.37591998   0.04217752
10626.00   0.37675136   0.04153458
10628.00   0.38792412   0.04115792
10630.00   0.39060874   0.04099706
10632.00   0.38730156   0.04085809
10634.00   0.40620787   0.04103913
10636.00   0.44868794   0.04165830
10638.00   0.45326678   0.04168640
10640.00   0.43269038   0.04124701
10642.00   0.42152949   0.04097936
10644.00   0.40382949   0.04066946
10646.00   0.39982152   0.04045339
10648.00   0.43392394   0.04076655
10650.00   0.50687948   0.04160640
10652.00   0.52327643   0.04162076
10654.00   0.48618527   0.04080441
10656.00   0.46485721   0.04028738
10658.00   0.46438141   0.04012623
10660.00   0.48269901   0.04009500
10662.00   0.50913465   0.04004616
10664.00   0.54875821   0.04004314
10666.00   0.55194981   0.03974790
10668.00   0.52194822   0.03918303
10670.00   0.48447369   0.03851994
10672.00   0.45304622   0.03784924
10674.00   0.44420275   0.03742470
10676.00   0.43017167   0.03685572
10678.00   0.41851732   0.03601488
10680.00   0.44462283   0.03617578
10682.00   0.52903023   0.03777344
10684.00   0.56114148   0.03838664
10686.00   0.54342389   0.03774705
10688.00   0.51340081   0.03674197
10690.00   0.50355059   0.03597686
10692.00   0.49483374   0.03477663
10694.00   0.48238470   0.03379754
10696.00   0.46947263   0.03298895
10698.00   0.46578245   0.03240953
10700.00   0.46231017   0.03176725
10702.00   0.45266318   0.03109334
10704.00   0.44780116   0.03060844
10706.00   0.45681471   0.03023439
10708.00   0.46047471   0.02961355
10710.00   0.45267220   0.02878056
10712.00   0.43948233   0.02796855
10714.00   0.43316156   0.02716614
10716.00   0.44209354   0.02647531
10718.00   0.42641388   0.02557344
10720.00   0.40921043   0.02462847
10722.00   0.42278081   0.02447598
10724.00   0.45394355   0.02513211
10726.00   0.45991477   0.02511673
10728.00   0.45000090   0.02447609
10730.00   0.43782182   0.02390709
10732.00   0.42195071   0.02354643
10734.00   0.40152089   0.02281663
10736.00   0.39057511   0.02213613
10738.00   0.40127833   0.02163947
10740.00   0.39597823   0.02128255
10742.00   0.36512503   0.02090678
10744.00   0.35637656   0.02109783
10746.00   0.39323808   0.02187163
10748.00   0.42787585   0.02212360
10750.00   0.42047574   0.02202685
10752.00   0.37611917   0.02188687
10754.00   0.37851040   0.02149573
10756.00   0.41436756   0.02065502
10758.00   0.44100745   0.02081075
10760.00   0.46218848   0.02214406
10762.00   0.47116619   0.02239349
10764.00   0.45858882   0.02166721
10766.00   0.43089376   0.02088607
10768.00   0.40895142   0.02110572
10770.00   0.38924582   0.02204450
10772.00   0.37871419   0.02235628
10774.00   0.36873823   0.02248002
10776.00   0.35315254   0.02206972
10778.00   0.36805774   0.02096858
10780.00   0.40182412   0.01971916
10782.00   0.39484616   0.01861886
10784.00   0.35746577   0.01753477
10786.00   0.33849238   0.01741048
10788.00   0.31920098   0.01877397
10790.00   0.33315818   0.01886297
10792.00   0.38053229   0.01802960
10794.00   0.42543539   0.01773420
10796.00   0.44408707   0.01809828
10798.00   0.44038618   0.01823470
10800.00   0.43798991   0.01777662
10802.00   0.42523579   0.01675860
10804.00   0.43318911   0.01638440
10806.00   0.46106783   0.01613230
10808.00   0.48108381   0.01600441
10810.00   0.48045495   0.01561974
10812.00   0.44467211   0.01480784
10814.00   0.40505614   0.01463495
10816.00   0.34227777   0.01462273
10818.00   0.35925482   0.01553555
10820.00   0.46386188   0.01812879
10822.00   0.51760805   0.01948160
10824.00   0.48556797   0.01855222
10826.00   0.40657232   0.01682031
10828.00   0.40638758   0.01700850
10830.00   0.45737399   0.01828680
10832.00   0.46209955   0.01795915
10834.00   0.41869010   0.01606477
10836.00   0.39513713   0.01469142
10838.00   0.37838848   0.01349868
10840.00   0.37698902   0.01312895
10842.00   0.36673531   0.01309925
