# File created by shivutils (I.Shivvers)
# 
# wl(A)   flm    er(optional)
3450.00   0.86234975   0.29695851
3452.00   1.22687101   0.30272561
3454.00   0.70468348   0.30292878
3456.00   0.26643148   0.28964260
3458.00   0.20934302   0.28938264
3460.00   0.18938287   0.27537870
3462.00   0.62020344   0.27060831
3464.00   1.25802505   0.27826482
3466.00   1.39490128   0.28589681
3468.00   0.88137436   0.27517676
3470.00   1.00823355   0.27240971
3472.00   0.84989274   0.26285467
3474.00   1.32364261   0.27362239
3476.00   1.22858918   0.28809372
3478.00   1.46556294   0.30900550
3480.00   1.42357457   0.32345039
3482.00   1.10553074   0.32304701
3484.00   0.63192129   0.30904353
3486.00   0.90774691   0.30346423
3488.00   0.78475589   0.29720685
3490.00   1.02566659   0.28908482
3492.00   1.21877027   0.29043257
3494.00   1.06251955   0.28019187
3496.00   0.86465931   0.28018889
3498.00   0.70144665   0.27156511
3500.00   1.09603107   0.27255076
3502.00   1.15592575   0.27327964
3504.00   0.58719277   0.26122570
3506.00   1.39919794   0.27208284
3508.00   0.94613761   0.26811010
3510.00   0.95040607   0.26768002
3512.00   1.42249501   0.27081373
3514.00   1.37456608   0.26900434
3516.00   1.68527317   0.27046463
3518.00   1.05595469   0.25564790
3520.00   0.67316580   0.25090477
3522.00   0.60221249   0.24484591
3524.00   1.43345428   0.25913668
3526.00   1.05442560   0.24763978
3528.00   0.66529483   0.24293263
3530.00   1.16606224   0.25029844
3532.00   0.63564944   0.24241383
3534.00   0.88863307   0.24052034
3536.00   0.91660523   0.24992929
3538.00   1.05096483   0.26468030
3540.00   0.71510923   0.28317276
3542.00   0.69507205   0.29311556
3544.00   1.03312910   0.30335328
3546.00   0.85447162   0.29461291
3548.00   1.12056172   0.28616512
3550.00   0.81483638   0.28117371
3552.00   0.35797939   0.28394669
3554.00   1.26094759   0.28900546
3556.00   1.34820640   0.28915083
3558.00   1.22517693   0.28294179
3560.00   0.83207697   0.27158248
3562.00   0.94661498   0.26013663
3564.00   1.04883957   0.25650451
3566.00   0.81421286   0.25374490
3568.00   0.37276500   0.23820457
3570.00   0.58293891   0.25192153
3572.00   1.00348079   0.25532335
3574.00   1.50500989   0.25663802
3576.00   1.00888193   0.24550614
3578.00   0.79924488   0.23286419
3580.00   0.73685396   0.22739454
3582.00   0.87114650   0.22069980
3584.00   0.75737333   0.20896086
3586.00   0.68513721   0.20952624
3588.00   1.26007688   0.22743472
3590.00   0.68311489   0.22327696
3592.00   0.55165738   0.21079542
3594.00   0.84539187   0.20509352
3596.00   1.30307901   0.21055517
3598.00   1.18726182   0.20858841
3600.00   0.58836013   0.20361270
3602.00   1.24742687   0.20952021
3604.00   1.11838138   0.20270699
3606.00   0.64528489   0.19359878
3608.00   0.83188903   0.19451682
3610.00   1.60272932   0.21953043
3612.00   1.02680075   0.22511289
3614.00   1.00935280   0.23057927
3616.00   1.17093062   0.22785272
3618.00   0.61793584   0.21718684
3620.00   0.66681743   0.20706713
3622.00   0.85194254   0.20998502
3624.00   1.08807552   0.20971417
3626.00   1.13445675   0.21544170
3628.00   0.44971356   0.22035122
3630.00   1.01818633   0.23769255
3632.00   0.94638133   0.23438659
3634.00   0.43111917   0.22064580
3636.00   1.19285679   0.22493957
3638.00   0.87148577   0.22233671
3640.00   1.14319527   0.23570943
3642.00   1.08341110   0.24980603
3644.00   1.01621127   0.25156382
3646.00   1.05592752   0.30904278
3648.00   2.34169292   0.39690006
3650.00   1.49323928   0.41167134
3652.00   0.21300864   0.36846641
3654.00   1.63435888   0.33654431
3656.00   0.79178792   0.28386289
3658.00   1.38345528   0.25179976
3660.00   1.43628907   0.27718911
3662.00   0.96873915   0.29025874
3664.00   0.91238821   0.26053122
3666.00   0.82664484   0.21448819
3668.00   0.78274763   0.19312458
3670.00   1.19857645   0.18914816
3672.00   1.38152134   0.18869255
3674.00   1.12863421   0.18026628
3676.00   1.15785587   0.17652400
3678.00   1.29314125   0.17781909
3680.00   0.73483908   0.16903968
3682.00   1.18530834   0.17285626
3684.00   0.98413008   0.16388433
3686.00   1.24534714   0.16581702
3688.00   1.00590110   0.16521876
3690.00   1.02338910   0.17161645
3692.00   0.84028572   0.16403361
3694.00   0.90715176   0.16823751
3696.00   1.16136181   0.17153445
3698.00   0.83292872   0.17662054
3700.00   1.25968838   0.18455300
3702.00   0.97410327   0.17760259
3704.00   1.05648935   0.17629847
3706.00   0.99791014   0.17251614
3708.00   0.68726373   0.16584587
3710.00   0.94274712   0.16723642
3712.00   1.16093779   0.16603735
3714.00   1.14854062   0.16521040
3716.00   1.10183883   0.16079932
3718.00   1.09088683   0.16226564
3720.00   0.90838110   0.15936632
3722.00   1.03432858   0.15646461
3724.00   1.04957378   0.15710998
3726.00   0.96283400   0.15708767
3728.00   1.11392426   0.16007610
3730.00   0.96317255   0.16691054
3732.00   2.31761980   0.18990436
3734.00   3.49495316   0.20550844
3736.00   2.93459511   0.19990626
3738.00   1.22245145   0.18204166
3740.00   0.81125736   0.17135325
3742.00   1.07413900   0.16872458
3744.00   1.06736124   0.16433387
3746.00   1.22339571   0.16100737
3748.00   0.71570790   0.15300497
3750.00   1.07425654   0.15822797
3752.00   0.84034312   0.15332267
3754.00   0.98357832   0.15303181
3756.00   0.53480560   0.14529496
3758.00   0.72384012   0.14592606
3760.00   0.72935009   0.14374508
3762.00   0.67367917   0.14152510
3764.00   0.64359134   0.14318919
3766.00   0.97985291   0.14011788
3768.00   0.80212182   0.13916330
3770.00   0.52846181   0.13986118
3772.00   0.76303154   0.14492042
3774.00   0.55517960   0.13958272
3776.00   0.58882481   0.13775682
3778.00   0.46394268   0.13315548
3780.00   0.87961423   0.13746214
3782.00   0.68150079   0.13528037
3784.00   0.36197942   0.13518025
3786.00   0.46042863   0.13395408
3788.00   0.58027470   0.13867132
3790.00   0.55965185   0.14209945
3792.00   0.21359289   0.13744447
3794.00   0.46749115   0.13497576
3796.00   0.46204358   0.13114055
3798.00   0.50818449   0.13191828
3800.00   0.09649033   0.12682249
3802.00   0.45977530   0.13217847
3804.00   0.52103049   0.12986913
3806.00   0.30454820   0.12619723
3808.00   0.39536101   0.12479768
3810.00   0.06007171   0.12351203
3812.00   0.21257292   0.12966044
3814.00   0.15658407   0.12962669
3816.00   0.36175206   0.13120550
3818.00   0.31848377   0.13066018
3820.00   0.31218824   0.13055390
3822.00   0.24736781   0.12779467
3824.00   0.33877990   0.13202880
3826.00   0.21133175   0.13358290
3828.00   0.05128304   0.14056589
3830.00   0.14221382   0.14746681
3832.00   0.65472573   0.14459065
3834.00   0.50499892   0.13856316
3836.00   0.35497323   0.13452035
3838.00   0.63060534   0.13492133
3840.00   0.20280729   0.13260223
3842.00   0.45469111   0.13243671
3844.00   0.44129139   0.12701137
3846.00   0.52615464   0.12490107
3848.00   0.64293063   0.12282811
3850.00   0.23047681   0.11996215
3852.00   0.43701449   0.12021729
3854.00   0.60707533   0.12110313
3856.00   0.76016372   0.12062262
3858.00   0.31496161   0.11655559
3860.00   0.47666749   0.12048941
3862.00   0.30296004   0.11514641
3864.00   0.16128114   0.11559884
3866.00   0.53841275   0.11676557
3868.00   0.39450401   0.11333153
3870.00   0.72743458   0.11958296
3872.00   0.36460087   0.12374105
3874.00   0.56188947   0.12902059
3876.00   0.49064246   0.12282661
3878.00   0.49941435   0.11617974
3880.00   0.47351456   0.11402237
3882.00   0.39255363   0.11275847
3884.00   0.41848814   0.11160745
3886.00   0.54578972   0.11403047
3888.00   0.53824455   0.11378095
3890.00   0.47940347   0.11311412
3892.00   0.38164037   0.11296977
3894.00   0.78222209   0.11749589
3896.00   0.80172229   0.11917936
3898.00   0.81138217   0.11989918
3900.00   0.82467002   0.12130494
3902.00   0.51159835   0.12482760
3904.00   0.60792142   0.14281167
3906.00   0.58759135   0.16224143
3908.00   0.53429580   0.17184454
3910.00   0.71996540   0.17429604
3912.00   0.71643722   0.16896826
3914.00   0.45587438   0.15185851
3916.00   0.42759264   0.13801044
3918.00   0.59747261   0.13256831
3920.00   0.92845595   0.12802315
3922.00   0.81989586   0.12174100
3924.00   0.87480640   0.12283112
3926.00   1.00180101   0.12187061
3928.00   0.82753527   0.11968822
3930.00   0.99313629   0.12630135
3932.00   1.00898468   0.13300273
3934.00   1.17850173   0.13133407
3936.00   1.12820709   0.12277542
3938.00   1.19042671   0.12064595
3940.00   1.26219428   0.12735075
3942.00   1.05816066   0.13379745
3944.00   1.13359761   0.13775392
3946.00   1.39512777   0.13351643
3948.00   1.57041514   0.12976253
3950.00   1.58389771   0.12819517
3952.00   1.51198685   0.12547643
3954.00   1.36870325   0.12233219
3956.00   1.44781721   0.12272646
3958.00   1.95369232   0.13233373
3960.00   1.71442211   0.13938910
3962.00   1.69574046   0.13622493
3964.00   1.84768355   0.12712540
3966.00   1.76846838   0.12208402
3968.00   1.68117857   0.11948573
3970.00   1.72353482   0.11896329
3972.00   1.64568400   0.12031093
3974.00   2.08590341   0.12303351
3976.00   1.57057762   0.11776719
3978.00   1.84823394   0.12044724
3980.00   1.92883551   0.12076797
3982.00   1.89829993   0.12228383
3984.00   1.82798862   0.12003266
3986.00   1.75948000   0.12157819
3988.00   1.52761889   0.12158800
3990.00   1.68793631   0.12121790
3992.00   1.74819088   0.12248333
3994.00   1.55615652   0.13146563
3996.00   1.85931790   0.13872604
3998.00   1.96345210   0.13432300
4000.00   1.95032310   0.12653774
4002.00   1.82925463   0.12259756
4004.00   1.83704543   0.12215311
4006.00   1.48938215   0.12400808
4008.00   1.53051138   0.12842251
4010.00   1.83470452   0.13068838
4012.00   1.75059843   0.13021509
4014.00   1.66745102   0.12668668
4016.00   1.74612629   0.13307582
4018.00   1.84461486   0.15293270
4020.00   1.68496549   0.16788962
4022.00   1.85321772   0.17341474
4024.00   1.44850647   0.16380247
4026.00   1.60454500   0.14829348
4028.00   1.84361303   0.14257324
4030.00   1.52036202   0.13744409
4032.00   1.70988441   0.13627760
4034.00   1.49551487   0.13052431
4036.00   1.50255990   0.13008630
4038.00   1.42200291   0.12630691
4040.00   1.50764012   0.12866759
4042.00   1.67412364   0.15744387
4044.00   2.05727959   0.27200246
4046.00   2.10545683   0.31868878
4048.00   1.10856235   0.25798735
4050.00   1.23802543   0.17161843
4052.00   1.58634508   0.14786504
4054.00   1.65754604   0.14787421
4056.00   1.70315051   0.13973409
4058.00   1.41552508   0.12935865
4060.00   1.55228961   0.12636626
4062.00   1.89524746   0.12883559
4064.00   1.98059571   0.12941641
4066.00   1.71385026   0.12829353
4068.00   1.78724563   0.12624967
4070.00   1.78568637   0.12306062
4072.00   1.98188221   0.12333702
4074.00   1.67173266   0.13339493
4076.00   1.98029292   0.15890630
4078.00   2.07962489   0.16253208
4080.00   1.90319884   0.14983523
4082.00   1.73536777   0.14195675
4084.00   1.69700611   0.13764252
4086.00   1.58744192   0.13399172
4088.00   1.79765856   0.12710451
4090.00   1.65687883   0.11695451
4092.00   1.54158223   0.11320314
4094.00   1.79874682   0.11624073
4096.00   1.69967580   0.11539416
4098.00   1.75724721   0.11516200
4100.00   1.70400178   0.11214148
4102.00   1.55910420   0.10741594
4104.00   1.55940342   0.10725589
4106.00   1.70337307   0.11059704
4108.00   1.64557457   0.11130168
4110.00   2.12184906   0.11305252
4112.00   1.70141375   0.10820326
4114.00   1.52461398   0.10789151
4116.00   1.60173035   0.10810118
4118.00   1.51892602   0.10543461
4120.00   1.33742917   0.10325762
4122.00   1.50484776   0.10570864
4124.00   1.26871872   0.10469205
4126.00   1.28426635   0.10618655
4128.00   1.30036747   0.10727539
4130.00   1.38815868   0.11375028
4132.00   1.28042698   0.11857285
4134.00   1.44062734   0.11707499
4136.00   1.28524458   0.11143279
4138.00   1.42205596   0.11504430
4140.00   1.43432379   0.11823209
4142.00   1.33014035   0.10957401
4144.00   1.44072628   0.10534968
4146.00   1.29535830   0.10416902
4148.00   1.32544827   0.10608694
4150.00   1.53851581   0.11657320
4152.00   1.44542837   0.12129823
4154.00   1.24582660   0.11530081
4156.00   1.44904006   0.11131056
4158.00   1.48024130   0.10985629
4160.00   1.33491170   0.11005636
4162.00   1.59350789   0.12034733
4164.00   1.55383968   0.12961864
4166.00   1.39697266   0.12576066
4168.00   1.58761501   0.11646277
4170.00   1.58239520   0.11320826
4172.00   1.61086845   0.11016967
4174.00   1.77019393   0.10803682
4176.00   1.79542410   0.11050913
4178.00   1.62648261   0.11007785
4180.00   1.55793977   0.10668571
4182.00   1.63687551   0.10429390
4184.00   1.39832747   0.10217371
4186.00   1.39641011   0.10252282
4188.00   1.50382173   0.10285757
4190.00   1.44164431   0.10259889
4192.00   1.34875286   0.10235561
4194.00   1.13223147   0.09963625
4196.00   1.56711221   0.10077012
4198.00   1.22079134   0.09755595
4200.00   1.35598969   0.09890424
4202.00   1.16797090   0.09755915
4204.00   1.30086267   0.09937549
4206.00   1.41759312   0.10230581
4208.00   1.38347554   0.10738385
4210.00   1.27671111   0.11012623
4212.00   1.36663949   0.10413637
4214.00   1.25087178   0.10212097
4216.00   1.32683265   0.10198661
4218.00   1.54216063   0.10335390
4220.00   1.37568879   0.10199095
4222.00   1.32161617   0.10056727
4224.00   1.44857478   0.10258229
4226.00   1.66538501   0.10443284
4228.00   1.58737552   0.10336332
4230.00   1.67859161   0.10577480
4232.00   1.56484008   0.10736323
4234.00   1.40278924   0.10711577
4236.00   1.76472306   0.11284347
4238.00   1.72632241   0.11317029
4240.00   1.50071490   0.10683358
4242.00   1.55401289   0.10357267
4244.00   1.50663841   0.12030350
4246.00   1.83205211   0.13635807
4248.00   1.28945839   0.12661059
4250.00   1.37056875   0.10736388
4252.00   1.65595508   0.10604923
4254.00   1.47996676   0.10417843
4256.00   1.43136609   0.10492177
4258.00   1.35641515   0.10425910
4260.00   1.51570678   0.10288537
4262.00   1.46823037   0.10034110
4264.00   1.42571688   0.09985518
4266.00   1.33782232   0.09881417
4268.00   1.43227673   0.10040120
4270.00   1.42100120   0.10197210
4272.00   1.24576855   0.10128731
4274.00   1.41729975   0.10274008
4276.00   1.33399200   0.10150827
4278.00   1.52130890   0.10342855
4280.00   1.46329594   0.10300959
4282.00   1.26417267   0.10320565
4284.00   1.24082518   0.10282394
4286.00   1.36475277   0.10186440
4288.00   1.26923680   0.10040775
4290.00   1.52062857   0.10173827
4292.00   1.32760739   0.10214096
4294.00   1.52615678   0.10447580
4296.00   1.55394220   0.10405235
4298.00   1.58995473   0.10391988
4300.00   1.52704191   0.10263065
4302.00   1.54447865   0.10214613
4304.00   1.42986107   0.10344557
4306.00   1.87158966   0.10838501
4308.00   1.41270494   0.10513501
4310.00   1.51607871   0.10832933
4312.00   1.52080023   0.12089981
4314.00   1.73721075   0.12646131
4316.00   1.67496037   0.11694301
4318.00   1.69502699   0.11609533
4320.00   1.62755680   0.12056257
4322.00   1.51883209   0.11901235
4324.00   1.58111560   0.11661264
4326.00   1.62777960   0.11436173
4328.00   1.65365672   0.10806270
4330.00   1.74912965   0.10674430
4332.00   1.81967759   0.10643841
4334.00   1.59510183   0.10724683
4336.00   1.68778956   0.11000767
4338.00   1.74270403   0.11283848
4340.00   1.73675966   0.11361326
4342.00   1.81924260   0.11359099
4344.00   1.73971677   0.11711638
4346.00   2.03895688   0.12643130
4348.00   2.06069326   0.12930314
4350.00   2.08091879   0.12250964
4352.00   1.75513458   0.11841559
4354.00   1.86376214   0.14545776
4356.00   2.55307484   0.28752121
4358.00   1.97237313   0.34166425
4360.00   0.99708414   0.28190047
4362.00   1.33147395   0.16330184
4364.00   1.40392363   0.12964524
4366.00   1.18216538   0.12264533
4368.00   1.22566807   0.11926915
4370.00   1.38689303   0.11839302
4372.00   1.49581456   0.12503670
4374.00   1.34410286   0.12720796
4376.00   1.68469834   0.12476443
4378.00   1.64732170   0.11661108
4380.00   1.76412165   0.11523093
4382.00   1.68851173   0.11335208
4384.00   1.59062266   0.11108590
4386.00   1.83237302   0.11203179
4388.00   1.54530597   0.11040484
4390.00   1.72539127   0.11282688
4392.00   1.57123446   0.11138745
4394.00   1.48054969   0.10988712
4396.00   1.81711042   0.11148213
4398.00   1.61139464   0.11526071
4400.00   1.78324044   0.12011945
4402.00   1.93601167   0.11840013
4404.00   1.87535334   0.11410034
4406.00   1.89629769   0.11415518
4408.00   1.77422702   0.11423565
4410.00   1.82548153   0.11360087
4412.00   2.01747084   0.11568707
4414.00   1.64168143   0.11804165
4416.00   1.84042108   0.11911878
4418.00   1.92017233   0.11555764
4420.00   1.70415974   0.11231806
4422.00   1.83165359   0.11256463
4424.00   1.59251440   0.11126307
4426.00   1.71010566   0.11123474
4428.00   1.47811329   0.10885134
4430.00   1.56552696   0.10970401
4432.00   1.76701057   0.11077777
4434.00   1.56875610   0.10896880
4436.00   1.62949467   0.10875227
4438.00   1.81231403   0.11016309
4440.00   1.80577278   0.10999338
4442.00   1.35967112   0.10663521
4444.00   1.72139287   0.10889958
4446.00   1.80910552   0.10891677
4448.00   1.71842825   0.10801702
4450.00   1.75681317   0.10753335
4452.00   1.70663154   0.10746289
4454.00   1.60163260   0.10700098
4456.00   1.70689893   0.10745747
4458.00   1.91005850   0.10813887
4460.00   1.93741179   0.10847079
4462.00   1.76300180   0.10766903
4464.00   1.84184873   0.10686450
4466.00   1.68221855   0.10656703
4468.00   1.74148035   0.10589648
4470.00   1.68797421   0.10489959
4472.00   1.72976542   0.10550383
4474.00   1.59705460   0.10460962
4476.00   1.71594489   0.10563841
4478.00   1.57779837   0.10477901
4480.00   1.49136746   0.10525447
4482.00   1.70826733   0.10599431
4484.00   1.66609573   0.10579536
4486.00   1.71750951   0.10679416
4488.00   1.84846973   0.10650380
4490.00   1.78606486   0.10702970
4492.00   1.72655833   0.10805822
4494.00   1.63586295   0.10884959
4496.00   1.91493952   0.10944535
4498.00   1.69917154   0.10853381
4500.00   1.30912077   0.10560501
4502.00   1.94900846   0.10703346
4504.00   1.79392970   0.10556882
4506.00   1.77816963   0.10543406
4508.00   1.70980990   0.10477220
4510.00   1.77030897   0.10397911
4512.00   1.78849494   0.10440451
4514.00   1.89674747   0.10427383
4516.00   1.56385255   0.10213263
4518.00   1.90787303   0.10352044
4520.00   1.89910936   0.10325406
4522.00   2.08409882   0.10396512
4524.00   2.14780307   0.10366973
4526.00   2.15737867   0.10374899
4528.00   2.31375885   0.10517067
4530.00   2.19189906   0.10531894
4532.00   2.46040869   0.10649915
4534.00   2.59658861   0.10663962
4536.00   2.47231841   0.10510393
4538.00   2.52648377   0.10494328
4540.00   2.87501550   0.10757548
4542.00   2.74335456   0.11027480
4544.00   2.93982124   0.11179293
4546.00   2.88186646   0.11010472
4548.00   3.29298782   0.11051651
4550.00   3.25705361   0.10946207
4552.00   2.92482495   0.10666049
4554.00   3.38965678   0.10919206
4556.00   3.40537667   0.10998996
4558.00   3.18134260   0.10833778
4560.00   3.52889347   0.10898303
4562.00   3.47115135   0.10850129
4564.00   3.29728889   0.10634628
4566.00   3.06825733   0.10433554
4568.00   3.07928181   0.10398121
4570.00   3.15701699   0.10422733
4572.00   3.18726492   0.10537390
4574.00   3.32978034   0.10728107
4576.00   3.22528958   0.10563327
4578.00   3.10951900   0.10333598
4580.00   3.31339407   0.10431104
4582.00   2.93415952   0.10113333
4584.00   3.02300477   0.10112835
4586.00   3.16120124   0.10172987
4588.00   3.05219269   0.10106477
4590.00   2.92719030   0.10045475
4592.00   3.04729700   0.10103269
4594.00   3.06880736   0.10200943
4596.00   3.14647269   0.10239930
4598.00   2.88858843   0.10015789
4600.00   3.08189678   0.09964524
4602.00   2.94085097   0.09785738
4604.00   2.88682461   0.09819089
4606.00   2.93016911   0.09854933
4608.00   2.83186960   0.09902581
4610.00   2.83263898   0.09946147
4612.00   2.74598718   0.09768881
4614.00   2.84989667   0.09645896
4616.00   2.92028260   0.09654672
4618.00   2.89725757   0.09660797
4620.00   2.95768046   0.09700484
4622.00   3.02080703   0.09701839
4624.00   2.75221825   0.09536854
4626.00   2.47888660   0.09351929
4628.00   2.59441757   0.09471287
4630.00   2.74131918   0.09532832
4632.00   2.92049003   0.09562925
4634.00   2.83656383   0.09537988
4636.00   2.51734877   0.09269299
4638.00   2.44867158   0.09236617
4640.00   2.41103315   0.09218434
4642.00   2.70866203   0.09397098
4644.00   2.59370279   0.09335040
4646.00   2.50187659   0.09246469
4648.00   2.40884376   0.09246205
4650.00   2.37364841   0.09271605
4652.00   2.43111658   0.09409682
4654.00   2.48426199   0.09423539
4656.00   2.54669690   0.09547810
4658.00   2.61001492   0.09773689
4660.00   2.44321823   0.09781229
4662.00   2.51900983   0.10034830
4664.00   2.33721876   0.10148237
4666.00   2.43456197   0.10489617
4668.00   2.57720113   0.10864165
4670.00   2.54855919   0.10932805
4672.00   2.57343507   0.10770056
4674.00   2.57231998   0.10448053
4676.00   2.41047931   0.10112232
4678.00   2.32746458   0.09814455
4680.00   2.41197109   0.09774004
4682.00   2.44841051   0.09733395
4684.00   2.53003144   0.09630565
4686.00   2.54413390   0.09534858
4688.00   2.39406466   0.09303290
4690.00   2.33025432   0.09293349
4692.00   2.25662374   0.09208330
4694.00   2.18909097   0.09164957
4696.00   2.38203764   0.09206427
4698.00   2.24863863   0.08896117
4700.00   2.38943243   0.09040491
4702.00   2.28974128   0.09039735
4704.00   2.26482677   0.09161009
4706.00   2.31813955   0.09285744
4708.00   2.27734542   0.09417380
4710.00   2.06115246   0.09301477
4712.00   2.11692429   0.09211925
4714.00   2.16543365   0.09119241
4716.00   2.17213511   0.09040587
4718.00   2.12336111   0.08897500
4720.00   1.90027618   0.08766001
4722.00   2.15424466   0.08938225
4724.00   1.97084868   0.08809445
4726.00   2.11093569   0.09150307
4728.00   2.34820485   0.10214169
4730.00   2.00207615   0.10254961
4732.00   1.98711681   0.09954587
4734.00   2.23073244   0.10294385
4736.00   2.40560985   0.10759587
4738.00   2.32743382   0.10852285
4740.00   2.45248222   0.11333243
4742.00   2.09809828   0.11668819
4744.00   2.15468907   0.11362612
4746.00   2.12238073   0.10152298
4748.00   2.05059695   0.09118833
4750.00   1.98759282   0.09082428
4752.00   1.84696949   0.09433788
4754.00   1.85895693   0.09435906
4756.00   2.08194256   0.08960067
4758.00   2.20583034   0.08583919
4760.00   2.00317907   0.08428288
4762.00   1.91195631   0.08180620
4764.00   1.92771137   0.08119813
4766.00   1.92542565   0.08111370
4768.00   1.85192120   0.07957552
4770.00   1.90114272   0.07947867
4772.00   1.80747414   0.07858397
4774.00   1.97010815   0.07957537
4776.00   1.76060200   0.08091290
4778.00   1.87880337   0.08695061
4780.00   1.91449225   0.08771276
4782.00   1.73603535   0.08235927
4784.00   1.71689153   0.07874657
4786.00   1.74770832   0.07879226
4788.00   1.86220288   0.08012438
4790.00   2.13349152   0.08317828
4792.00   1.95352852   0.08171661
4794.00   1.90635943   0.08045827
4796.00   1.90964293   0.07864741
4798.00   1.93718994   0.07941140
4800.00   1.93353295   0.07905624
4802.00   1.96469581   0.07898877
4804.00   1.99472523   0.07963622
4806.00   1.98352337   0.07999802
4808.00   2.08301163   0.08150326
4810.00   1.96807218   0.08154090
4812.00   1.98418546   0.08108929
4814.00   1.99985814   0.08128210
4816.00   2.09021258   0.08157761
4818.00   1.92686939   0.08099025
4820.00   2.01906109   0.08264101
4822.00   1.99896348   0.08420431
4824.00   2.02522898   0.08451434
4826.00   1.94403386   0.08525495
4828.00   2.05769563   0.08609628
4830.00   1.96329665   0.08465856
4832.00   1.93576169   0.08560733
4834.00   2.00470710   0.08551922
4836.00   1.98986602   0.08504787
4838.00   1.97359180   0.08749133
4840.00   1.91945410   0.08963553
4842.00   1.89058948   0.08767139
4844.00   1.91606069   0.08349027
4846.00   1.80369020   0.08392657
4848.00   1.92120469   0.08615294
4850.00   1.78652656   0.08460430
4852.00   2.03532505   0.08701192
4854.00   1.82979071   0.08504849
4856.00   1.66519070   0.08178763
4858.00   1.69676316   0.08104174
4860.00   1.88760936   0.08312409
4862.00   1.80743217   0.08388665
4864.00   1.92810726   0.08549567
4866.00   2.04895091   0.08510327
4868.00   2.35329962   0.08699591
4870.00   3.02504706   0.09261978
4872.00   3.07115054   0.09268467
4874.00   2.56055498   0.08846059
4876.00   2.10746455   0.08555812
4878.00   1.84916961   0.08538595
4880.00   1.92576611   0.08581728
4882.00   1.81783462   0.08396694
4884.00   1.92897737   0.08361640
4886.00   1.99027932   0.08364219
4888.00   1.81910801   0.08159849
4890.00   1.81078780   0.08204441
4892.00   1.92220080   0.08270306
4894.00   1.91438603   0.08298776
4896.00   2.11925364   0.08443309
4898.00   2.01595783   0.08269096
4900.00   2.22541904   0.08292334
4902.00   2.13217330   0.08262059
4904.00   2.27273631   0.08342472
4906.00   2.20493817   0.08372746
4908.00   2.18162251   0.08568775
4910.00   2.27794385   0.08640885
4912.00   2.21555901   0.08538134
4914.00   2.27106643   0.08572397
4916.00   2.28454757   0.08638579
4918.00   2.26617408   0.08615002
4920.00   2.04741979   0.08289744
4922.00   2.33649421   0.08535486
4924.00   2.28931355   0.08456504
4926.00   2.23576808   0.08282335
4928.00   2.08917642   0.08045100
4930.00   2.19253755   0.08066752
4932.00   2.24579477   0.08061125
4934.00   2.13379383   0.08149235
4936.00   2.10377812   0.08204713
4938.00   2.01859617   0.08156820
4940.00   2.11594939   0.08300493
4942.00   1.93468332   0.08174630
4944.00   2.11711121   0.08113094
4946.00   2.00593138   0.07940096
4948.00   1.92833066   0.07799619
4950.00   1.80247474   0.07815056
4952.00   1.96223843   0.08188650
4954.00   1.92968154   0.08351782
4956.00   1.87283409   0.08271249
4958.00   1.84101725   0.08011103
4960.00   1.72018290   0.07948169
4962.00   1.89749324   0.08121786
4964.00   1.88132763   0.08181815
4966.00   1.84141707   0.08278421
4968.00   1.88189042   0.08464161
4970.00   1.87352049   0.08620606
4972.00   1.97435868   0.09119038
4974.00   1.90094590   0.09527229
4976.00   1.91406178   0.09952345
4978.00   1.75834107   0.10465606
4980.00   1.89659178   0.11318365
4982.00   2.06462836   0.11881328
4984.00   1.85934770   0.11864685
4986.00   1.88647425   0.11390913
4988.00   2.09207010   0.10725554
4990.00   1.94011903   0.10222842
4992.00   2.11532211   0.09937442
4994.00   1.97564638   0.09463358
4996.00   2.01673436   0.08922832
4998.00   1.96643674   0.08599198
5000.00   2.12654161   0.08456749
5002.00   2.53988767   0.08609955
5004.00   2.60451889   0.08576027
5006.00   2.63114500   0.08517925
5008.00   2.56496382   0.08359909
5010.00   2.64316702   0.08291868
5012.00   2.77343130   0.08394323
5014.00   2.95764327   0.08531526
5016.00   3.23875332   0.08800723
5018.00   3.40330005   0.09091270
5020.00   3.15140486   0.09017299
5022.00   3.10503483   0.08912168
5024.00   3.07482290   0.08640701
5026.00   3.22722340   0.08546168
5028.00   3.15979290   0.08614343
5030.00   3.03434229   0.08832526
5032.00   3.14677334   0.08955465
5034.00   3.17643809   0.08767407
5036.00   3.12975502   0.08496864
5038.00   3.19251418   0.08539326
5040.00   3.12557149   0.08528502
5042.00   3.16336513   0.08506912
5044.00   3.08583999   0.08518354
5046.00   2.96228671   0.08510739
5048.00   3.01625180   0.08493674
5050.00   2.78120351   0.08311244
5052.00   2.85155392   0.08340496
5054.00   2.93791294   0.08409159
5056.00   2.76717496   0.08309074
5058.00   2.76047254   0.08287968
5060.00   2.76915717   0.08257542
5062.00   2.50606990   0.08326569
5064.00   2.53324199   0.08774561
5066.00   2.49257302   0.08980311
5068.00   2.10489941   0.08894931
5070.00   2.42021847   0.09504379
5072.00   2.12862825   0.09148764
5074.00   2.35810566   0.08670125
5076.00   2.17437220   0.08506102
5078.00   2.05860949   0.08477570
5080.00   2.05357409   0.09408184
5082.00   2.02072740   0.10895639
5084.00   2.08849835   0.12028534
5086.00   1.80071867   0.12073614
5088.00   1.88003671   0.11300396
5090.00   1.89525318   0.09860750
5092.00   1.75381660   0.08650786
5094.00   1.73827028   0.08181532
5096.00   1.80590248   0.08452833
5098.00   1.81528139   0.09188450
5100.00   1.98936677   0.09583180
5102.00   1.72458208   0.09056129
5104.00   1.55824804   0.08108304
5106.00   1.60632730   0.07706108
5108.00   1.58494914   0.07703037
5110.00   1.63250101   0.07910166
5112.00   1.68644392   0.07886811
5114.00   1.64835572   0.07991359
5116.00   1.54485643   0.08097215
5118.00   1.59334958   0.08114611
5120.00   1.52588177   0.07731713
5122.00   1.60377955   0.07584611
5124.00   1.50404882   0.07528333
5126.00   1.79148996   0.07730034
5128.00   1.57941747   0.07557743
5130.00   1.61842203   0.07684710
5132.00   1.75347555   0.07815431
5134.00   1.67014647   0.07795244
5136.00   1.69683671   0.07802473
5138.00   1.88528156   0.07931464
5140.00   1.92274928   0.07940810
5142.00   2.16699791   0.08191868
5144.00   2.23895884   0.08298349
5146.00   1.96116173   0.08248544
5148.00   2.25584269   0.08834764
5150.00   2.38635492   0.09331833
5152.00   2.35963178   0.09722559
5154.00   2.31617713   0.10042270
5156.00   2.59282470   0.10062712
5158.00   2.92900920   0.09731152
5160.00   2.84226418   0.09249835
5162.00   2.93703842   0.09117398
5164.00   3.12880397   0.09115265
5166.00   3.00128317   0.09003976
5168.00   3.29523849   0.09053174
5170.00   3.09474397   0.08883556
5172.00   3.08646607   0.08875442
5174.00   3.15715194   0.09031171
5176.00   3.04659081   0.09039585
5178.00   3.21538854   0.09151521
5180.00   3.20133829   0.09066410
5182.00   3.27481294   0.09121276
5184.00   2.98631787   0.08941629
5186.00   3.18679476   0.09151636
5188.00   3.11170220   0.09158644
5190.00   3.05552554   0.09114444
5192.00   3.21028519   0.09238248
5194.00   3.14941716   0.09179410
5196.00   2.92045641   0.09115551
5198.00   2.90924048   0.09333676
5200.00   2.84518743   0.09357203
5202.00   2.71334410   0.09162868
5204.00   2.61310768   0.09005653
5206.00   2.79756761   0.09135874
5208.00   2.79139209   0.09247201
5210.00   2.78075767   0.09677484
5212.00   2.90695715   0.09915034
5214.00   2.62140942   0.09422725
5216.00   2.79894114   0.09293613
5218.00   2.60909629   0.09413946
5220.00   2.54060912   0.09651285
5222.00   2.67281795   0.09630471
5224.00   2.90057588   0.09525973
5226.00   2.71267605   0.09297521
5228.00   2.85390925   0.09333593
5230.00   2.86206150   0.09487829
5232.00   2.84072065   0.09608904
5234.00   3.02317953   0.09666833
5236.00   2.79084396   0.09500219
5238.00   2.78930998   0.09605071
5240.00   2.85083032   0.09749286
5242.00   2.79059434   0.09665979
5244.00   2.56451941   0.09370397
5246.00   2.85369802   0.09465693
5248.00   2.76409626   0.09485741
5250.00   2.74176502   0.09541116
5252.00   2.61933923   0.09442176
5254.00   2.69469213   0.09508596
5256.00   2.82322097   0.09865943
5258.00   2.67252111   0.10258922
5260.00   2.75323606   0.10278797
5262.00   2.77196765   0.09945795
5264.00   2.93848395   0.09836257
5266.00   2.93078828   0.09806020
5268.00   2.67668366   0.09616770
5270.00   3.07169294   0.09891903
5272.00   2.85926533   0.09830189
5274.00   2.90026903   0.09954210
5276.00   3.10793710   0.10096549
5278.00   2.86464286   0.09926311
5280.00   3.16263437   0.10129689
5282.00   2.85402369   0.10003758
5284.00   2.89017797   0.10209906
5286.00   2.78629494   0.10405088
5288.00   2.67876887   0.10338709
5290.00   2.42724013   0.09855526
5292.00   2.67142773   0.09989746
5294.00   2.52068353   0.09930818
5296.00   2.44266248   0.10036417
5298.00   2.49090600   0.10083462
5300.00   2.55788755   0.10222720
5302.00   2.68196058   0.10454023
5304.00   2.33009338   0.10197114
5306.00   2.47413659   0.10193443
5308.00   2.72155571   0.10387678
5310.00   2.71755195   0.10451850
5312.00   2.70634294   0.10626300
5314.00   2.60453606   0.10620121
5316.00   2.70677400   0.10702835
5318.00   2.59936714   0.10610210
5320.00   2.84642863   0.10710775
5322.00   2.75205326   0.10730501
5324.00   2.71046472   0.10789165
5326.00   2.81294131   0.10928759
5328.00   2.70685863   0.10917185
5330.00   2.78951001   0.11134560
5332.00   2.82495141   0.11282498
5334.00   2.80018806   0.11328909
5336.00   2.82749724   0.11206611
5338.00   2.94328332   0.11463499
5340.00   2.77412724   0.11683702
5342.00   2.61852384   0.12009674
5344.00   2.70758319   0.12092666
5346.00   2.53838372   0.11774600
5348.00   2.65603256   0.12383167
5350.00   2.83857346   0.12993778
5352.00   2.79608011   0.12787198
5354.00   2.64034247   0.12601008
5356.00   2.36937165   0.12985745
5358.00   2.78596807   0.13196433
5360.00   2.73443389   0.12399764
5362.00   2.65788436   0.11986814
5364.00   2.51881719   0.11761896
5366.00   2.39655948   0.11593825
5368.00   2.55012035   0.11737428
5370.00   2.67393947   0.11876342
5372.00   2.69101620   0.12022050
5374.00   2.74878359   0.12538144
5376.00   2.59256077   0.12871027
5378.00   2.65837693   0.12848198
5380.00   2.50673389   0.12583974
5382.00   2.30612183   0.12273052
5384.00   2.53504467   0.12563881
5386.00   2.54988432   0.12733488
5388.00   2.35739875   0.12426544
5390.00   2.39891481   0.12892787
5392.00   2.43930101   0.13703999
5394.00   2.31355524   0.13822801
5396.00   1.83675182   0.13101611
5398.00   2.49928379   0.13302574
5400.00   2.63761258   0.13393922
5402.00   2.35696530   0.13458748
5404.00   2.60261750   0.13754377
5406.00   2.67637825   0.13915223
5408.00   2.39544630   0.13881512
5410.00   2.46178722   0.14289741
5412.00   2.33651114   0.14561227
5414.00   2.16057992   0.15142362
5416.00   2.16018867   0.15805535
5418.00   2.57225943   0.16342267
5420.00   2.34996843   0.16315024
5422.00   2.37293339   0.16225219
5424.00   2.00384092   0.16018941
5426.00   2.38696432   0.16126683
5428.00   2.21232510   0.15976413
5430.00   2.07302475   0.15696527
5432.00   2.39465261   0.15992144
5434.00   2.51425362   0.16119836
5436.00   2.31724000   0.15985242
5438.00   2.16343665   0.16000158
5440.00   2.27321792   0.16197254
5442.00   2.34497595   0.16283463
5444.00   2.06780195   0.16228077
5446.00   2.52210593   0.16920558
5448.00   2.16623592   0.16728964
5450.00   2.01689863   0.16487187
5452.00   2.14135933   0.05397746
5454.00   2.19638181   0.06190852
5456.00   2.25518537   0.06970194
5458.00   2.21299100   0.07356821
5460.00   2.09211874   0.07605951
5462.00   2.00238991   0.07535347
5464.00   1.90091419   0.07040037
5466.00   1.81268144   0.06566790
5468.00   1.71373522   0.06017682
5470.00   1.65158534   0.05490929
5472.00   1.68723094   0.05203081
5474.00   1.80395520   0.05120941
5476.00   1.86645794   0.04986863
5478.00   1.94400871   0.04879953
5480.00   1.95934343   0.04836208
5482.00   1.89701331   0.04904402
5484.00   1.83230042   0.04950739
5486.00   1.80701101   0.04866628
5488.00   1.79680765   0.04719762
5490.00   1.77519906   0.04788282
5492.00   1.74113703   0.05228882
5494.00   1.72953355   0.05166107
5496.00   1.72468233   0.04580312
5498.00   1.74317205   0.04092391
5500.00   1.80366743   0.03999054
5502.00   1.88088489   0.04099434
5504.00   1.91020846   0.04164078
5506.00   1.89709926   0.04305513
5508.00   1.92136562   0.04406891
5510.00   1.94400465   0.04488425
5512.00   2.00756621   0.04596190
5514.00   2.14578700   0.04733731
5516.00   2.29078579   0.04886952
5518.00   2.34787869   0.05067427
5520.00   2.34686995   0.05318659
5522.00   2.35454726   0.05304417
5524.00   2.33360100   0.05024094
5526.00   2.33291411   0.04804276
5528.00   2.33654499   0.04603329
5530.00   2.36655331   0.04426998
5532.00   2.45112467   0.04304098
5534.00   2.57970619   0.04226546
5536.00   2.68145061   0.04197150
5538.00   2.79143119   0.04256772
5540.00   2.87394500   0.04275313
5542.00   2.92972851   0.04276910
5544.00   2.97726178   0.04274500
5546.00   3.02220201   0.04269785
5548.00   3.06181908   0.04262651
5550.00   3.10489225   0.04264376
5552.00   3.13726568   0.04270187
5554.00   3.19664741   0.04282386
5556.00   3.29302931   0.04271204
5558.00   3.36768174   0.04317265
5560.00   3.40201402   0.04439995
5562.00   3.42062354   0.04607609
5564.00   3.45483565   0.04747051
5566.00   3.48389173   0.04646123
5568.00   3.54725409   0.05401932
5570.00   3.64171863   0.06760381
5572.00   3.74048495   0.07751156
5574.00   3.91953158   0.08684091
5576.00   4.02301931   0.09303899
5578.00   3.82373238   0.09236579
5580.00   3.35967207   0.08605615
5582.00   3.15659475   0.07950973
5584.00   3.08131361   0.06716669
5586.00   3.01255918   0.05757587
5588.00   2.98483992   0.05118982
5590.00   2.96306348   0.04658303
5592.00   2.92208576   0.04327692
5594.00   2.87501168   0.04215302
5596.00   2.80733037   0.04105802
5598.00   2.73158240   0.04135729
5600.00   2.62302852   0.04134908
5602.00   2.45249748   0.04182726
5604.00   2.31335568   0.04182485
5606.00   2.24877357   0.04075858
5608.00   2.22038031   0.03913980
5610.00   2.16275406   0.03828678
5612.00   2.11386323   0.03775734
5614.00   2.02258348   0.03749183
5616.00   1.87308931   0.03766746
5618.00   1.75409424   0.03785807
5620.00   1.67294765   0.03821780
5622.00   1.61986351   0.03844342
5624.00   1.60527408   0.03780231
5626.00   1.64424038   0.03618585
5628.00   1.63097012   0.03562795
5630.00   1.57522905   0.03581678
5632.00   1.54848516   0.03584710
5634.00   1.55937028   0.03556211
5636.00   1.57355845   0.03550192
5638.00   1.55998898   0.03624655
5640.00   1.52948153   0.03760763
5642.00   1.52575338   0.03814974
5644.00   1.54841673   0.03833324
5646.00   1.55221248   0.03829234
5648.00   1.53639042   0.03769238
5650.00   1.52480268   0.03729269
5652.00   1.52795124   0.03753585
5654.00   1.54015541   0.03816263
5656.00   1.56669533   0.03896040
5658.00   1.63935637   0.04015196
5660.00   1.64538062   0.04116693
5662.00   1.57157755   0.04209596
5664.00   1.53829885   0.04312569
5666.00   1.60209942   0.04430586
5668.00   1.69683588   0.04556882
5670.00   1.70066011   0.04682658
5672.00   1.64957130   0.04795381
5674.00   1.58837783   0.04959594
5676.00   1.44739974   0.05029640
5678.00   1.38947833   0.05358449
5680.00   1.45666718   0.06072293
5682.00   1.55911803   0.06753892
5684.00   1.60286200   0.07044224
5686.00   1.64069974   0.07146796
5688.00   1.58626938   0.07102059
5690.00   1.39196527   0.06813565
5692.00   1.29011393   0.06522171
5694.00   1.28979659   0.06176278
5696.00   1.29874456   0.05799900
5698.00   1.24928200   0.05419099
5700.00   1.17139304   0.05010315
5702.00   1.14021945   0.04708704
5704.00   1.15386510   0.04516412
5706.00   1.13551641   0.04345940
5708.00   1.07222044   0.04238872
5710.00   1.04161465   0.04160927
5712.00   1.10073674   0.04105832
5714.00   1.20140386   0.04074697
5716.00   1.19539118   0.04012975
5718.00   1.09504747   0.03933512
5720.00   1.04421282   0.03857578
5722.00   1.00264907   0.03775649
5724.00   0.96380687   0.03695863
5726.00   0.92991751   0.03620736
5728.00   0.89646858   0.03547423
5730.00   0.84947109   0.03470304
5732.00   0.78408426   0.03379531
5734.00   0.74955982   0.03331941
5736.00   0.73962587   0.03327947
5738.00   0.72747052   0.03319121
5740.00   0.70989156   0.03301744
5742.00   0.69708693   0.03289862
5744.00   0.70156962   0.03295412
5746.00   0.72355551   0.03315146
5748.00   0.71321791   0.03331171
5750.00   0.67556047   0.03351727
5752.00   0.64608896   0.03369177
5754.00   0.62110758   0.03354200
5756.00   0.59529418   0.03380573
5758.00   0.56337941   0.03489033
5760.00   0.52813137   0.03651700
5762.00   0.51331979   0.03884301
5764.00   0.52337295   0.04259365
5766.00   0.51641077   0.04466957
5768.00   0.51136404   0.04633286
5770.00   0.48611873   0.04677852
5772.00   0.41713890   0.04532062
5774.00   0.33138418   0.04260582
5776.00   0.30888045   0.04074849
5778.00   0.32974580   0.03824390
5780.00   0.35605884   0.03789797
5782.00   0.42095253   0.03958862
5784.00   0.46252900   0.04137659
5786.00   0.47710907   0.04293437
5788.00   0.46927622   0.04479364
5790.00   0.42836395   0.04770838
5792.00   0.34664506   0.05230934
5794.00   0.29124233   0.05244702
5796.00   0.20052598   0.04802366
5798.00   0.19693024   0.04529853
5800.00   0.31809497   0.04459815
5802.00   0.45357829   0.04439846
5804.00   0.50829780   0.04386752
5806.00   0.52578163   0.04349693
5808.00   0.51419246   0.04192887
5810.00   0.42687884   0.03807994
5812.00   0.40420592   0.03637794
5814.00   0.44737002   0.03696231
5816.00   0.48418757   0.03784885
5818.00   0.46771577   0.03812708
5820.00   0.42837137   0.03832839
5822.00   0.45189622   0.03862889
5824.00   0.55355579   0.03771023
5826.00   0.57987255   0.03976592
5828.00   0.55659223   0.04555810
5830.00   0.52986574   0.04871888
5832.00   0.50078529   0.04767012
5834.00   0.47507858   0.04469434
5836.00   0.49289167   0.04347286
5838.00   0.54898959   0.04251135
5840.00   0.60035956   0.04238584
5842.00   0.66303915   0.04339883
5844.00   0.72863442   0.04417742
5846.00   0.81546724   0.04464480
5848.00   0.88747692   0.04504808
5850.00   0.88556123   0.04550134
5852.00   0.81833547   0.04595746
5854.00   0.79773241   0.04640564
5856.00   0.80731988   0.04655947
5858.00   0.78662211   0.04731430
5860.00   0.71231806   0.04803976
5862.00   0.65745890   0.04983992
5864.00   0.67977893   0.05442809
5866.00   0.75252008   0.06068848
5868.00   0.83344328   0.06088905
5870.00   0.96304095   0.05506007
5872.00   1.05647779   0.05203606
5874.00   1.12552321   0.04899822
5876.00   1.18947732   0.04856246
5878.00   1.23461521   0.04893122
#5880.00   1.27980256   0.05267347
#5882.00   1.43881631   0.07176264
#5884.00   1.69872487   0.09510903
#5886.00   1.96012270   0.11840449
#5888.00   2.60009837   0.15044340
#5890.00   2.64938641   0.16765907
#5892.00   1.55047071   0.17049076
#5894.00   0.15660025   0.16481046
#5896.00   0.01329805   0.15261641
#5898.00   0.84503895   0.12483352
#5900.00   1.03289640   0.10637915
#5902.00   0.95113432   0.09294728
#5904.00   0.98442519   0.07952952
#5906.00   1.17228091   0.06568681
#5908.00   1.37882674   0.05385521
#5910.00   1.49112308   0.04846814
#5912.00   1.55525029   0.05149306
#5914.00   1.60727000   0.05327639
#5916.00   1.63689840   0.05918835
#5918.00   1.63929546   0.06147278
5920.00   1.59870243   0.06130895
5922.00   1.55510175   0.05975651
5924.00   1.53510058   0.05649570
5926.00   1.52466118   0.05134190
5928.00   1.50979161   0.04948152
5930.00   1.51365101   0.05027943
5932.00   1.47580779   0.05081069
5934.00   1.37894166   0.05207859
5936.00   1.30977237   0.05333859
5938.00   1.30632246   0.05483918
5940.00   1.33403146   0.05609392
5942.00   1.33732820   0.05482978
5944.00   1.35693204   0.05016387
5946.00   1.31673074   0.04807988
5948.00   1.17143106   0.04730598
5950.00   1.11577833   0.04678969
5952.00   1.21326745   0.04643051
5954.00   1.35133231   0.04640212
5956.00   1.38080943   0.04679724
5958.00   1.34928501   0.04782669
5960.00   1.33348286   0.04802720
5962.00   1.30266011   0.04801543
5964.00   1.27641416   0.04734742
5966.00   1.24077106   0.04546278
5968.00   1.22233260   0.04357215
5970.00   1.25285006   0.04307558
5972.00   1.32178235   0.04349953
5974.00   1.37235188   0.04333938
5976.00   1.46377134   0.04308655
5978.00   1.46731400   0.04277346
5980.00   1.35836232   0.04230285
5982.00   1.26283610   0.04189494
5984.00   1.24102402   0.04169447
5986.00   1.25854206   0.04161407
5988.00   1.31440830   0.04146769
5990.00   1.49146998   0.04071184
5992.00   1.51267385   0.04139290
5994.00   1.39247906   0.04397753
5996.00   1.30306959   0.04543007
5998.00   1.29306161   0.04482834
6000.00   1.31426883   0.04330554
6002.00   1.32498872   0.04259724
6004.00   1.35755980   0.04221610
6006.00   1.34265554   0.04144840
6008.00   1.27865660   0.04032406
6010.00   1.23224473   0.03934646
6012.00   1.20798910   0.03851575
6014.00   1.19314814   0.03783426
6016.00   1.18482149   0.03738863
6018.00   1.19236493   0.03714629
6020.00   1.15975273   0.03716247
6022.00   1.06294405   0.03777039
6024.00   1.03209662   0.03788339
6026.00   1.08968699   0.03750338
6028.00   1.14160943   0.03697647
6030.00   1.11102068   0.03648157
6032.00   1.03210306   0.03591720
6034.00   1.01215303   0.03557515
6036.00   1.03513992   0.03544824
6038.00   1.03406239   0.03525509
6040.00   1.01890624   0.03505154
6042.00   1.00355029   0.03486021
6044.00   0.99119955   0.03469219
6046.00   0.98060781   0.03453826
6048.00   0.98008019   0.03436992
6050.00   0.99605721   0.03418279
6052.00   0.99531609   0.03402841
6054.00   0.97727746   0.03377472
6056.00   0.97110963   0.03374892
6058.00   0.98390210   0.03419288
6060.00   1.00632048   0.03471382
6062.00   1.03197002   0.03459510
6064.00   1.08095419   0.03392998
6066.00   1.06801796   0.03363978
6068.00   0.99264961   0.03347315
6070.00   0.93548840   0.03333470
6072.00   0.88720471   0.03316381
6074.00   0.85603350   0.03310405
6076.00   0.86534297   0.03338648
6078.00   0.91155386   0.03400940
6080.00   0.93242455   0.03399048
6082.00   0.94733304   0.03306170
6084.00   0.95961392   0.03308064
6086.00   0.95865613   0.03382542
6088.00   0.96874547   0.03502987
6090.00   1.01457357   0.03702415
6092.00   1.08256114   0.03948198
6094.00   1.10137844   0.03935307
6096.00   1.07059550   0.03577141
6098.00   1.07395041   0.03510522
6100.00   1.09018207   0.03648194
6102.00   1.11868763   0.03807346
6104.00   1.16855299   0.03942098
6106.00   1.22745240   0.04084332
6108.00   1.25270534   0.04230925
6110.00   1.24930632   0.04426080
6112.00   1.25966072   0.04501682
6114.00   1.28318298   0.04514845
6116.00   1.28496850   0.04462830
6118.00   1.25299096   0.04313704
6120.00   1.20898366   0.04115478
6122.00   1.17789125   0.03960407
6124.00   1.13814831   0.03804498
6126.00   1.15423989   0.03690831
6128.00   1.23402572   0.03605531
6130.00   1.29151773   0.03562862
6132.00   1.32572722   0.03576542
6134.00   1.35910797   0.03616377
6136.00   1.41042542   0.03666306
6138.00   1.47439468   0.03740578
6140.00   1.50244486   0.03733295
6142.00   1.48952091   0.03604377
6144.00   1.50393105   0.03594753
6146.00   1.54798889   0.03698433
6148.00   1.58123624   0.03806731
6150.00   1.57597578   0.03874328
6152.00   1.55112183   0.03929341
6154.00   1.56472945   0.03979047
6156.00   1.63463008   0.04047127
6158.00   1.63118398   0.04046875
6160.00   1.56498384   0.03999486
6162.00   1.50700212   0.03913328
6164.00   1.46984446   0.03771644
6166.00   1.44473422   0.03592815
6168.00   1.44397759   0.03443605
6170.00   1.47255647   0.03283815
6172.00   1.48862672   0.03180793
6174.00   1.51104438   0.03143620
6176.00   1.52220178   0.03102417
6178.00   1.51486814   0.03001595
6180.00   1.50464725   0.02956108
6182.00   1.51185679   0.03138482
6184.00   1.53204906   0.03498348
6186.00   1.53536713   0.03677404
6188.00   1.53790498   0.03886125
6190.00   1.51966417   0.03876393
6192.00   1.46567225   0.03549436
6194.00   1.41743386   0.03176069
6196.00   1.40903223   0.03029757
6198.00   1.42469442   0.03010569
6200.00   1.42859292   0.02987927
6202.00   1.43996716   0.03039348
6204.00   1.43603134   0.03062740
6206.00   1.40881991   0.03087904
6208.00   1.39258683   0.03099251
6210.00   1.40403759   0.03072402
6212.00   1.43055618   0.03031725
6214.00   1.45127487   0.03074461
6216.00   1.45447648   0.03229574
6218.00   1.50849450   0.03259919
6220.00   1.61115992   0.03217265
6222.00   1.71170092   0.03160062
6224.00   1.80191863   0.03070452
6226.00   1.89129686   0.02982331
6228.00   1.98002255   0.02996053
6230.00   2.05452418   0.03083427
6232.00   2.18107438   0.03185712
6234.00   2.34293127   0.03363831
6236.00   2.52837348   0.03476153
6238.00   2.75259876   0.03527552
6240.00   2.98499131   0.03543380
6242.00   3.19115472   0.03527724
6244.00   3.38731050   0.03469148
6246.00   3.56560636   0.03454745
6248.00   3.71194148   0.03447844
6250.00   3.87891555   0.03474760
6252.00   4.04784250   0.03538334
6254.00   4.24185705   0.03617514
6256.00   4.48066473   0.03701724
6258.00   4.75346661   0.03795533
6260.00   5.03041029   0.03891955
6262.00   5.37529421   0.04048587
6264.00   5.61131430   0.04081050
6266.00   5.73368168   0.03989585
6268.00   5.87695646   0.03906024
6270.00   6.08581352   0.03866459
6272.00   6.32384777   0.03849636
6274.00   6.56499815   0.03878811
6276.00   6.86156845   0.03966403
6278.00   7.04857349   0.04026055
6280.00   7.12224007   0.04015841
6282.00   7.23612642   0.04131070
6284.00   7.44648218   0.04494068
6286.00   7.64983559   0.04830864
6288.00   7.69623041   0.04784797
6290.00   7.60162163   0.04381927
6292.00   7.63201904   0.04349108
6294.00   7.76239634   0.04580492
6296.00   7.81198120   0.04709266
6298.00   7.73780918   0.04767537
6300.00   7.68000698   0.04786842
6302.00   7.77215290   0.04767945
6304.00   7.96584511   0.04709633
6306.00   8.05232239   0.04619484
6308.00   8.05530357   0.04443033
6310.00   8.12332535   0.04335934
6312.00   8.23944664   0.04289918
6314.00   8.36979485   0.04255700
6316.00   8.52143097   0.04209684
6318.00   8.68315506   0.04166201
6320.00   8.72719383   0.04138338
6322.00   8.67543316   0.04124053
6324.00   8.60803413   0.04115734
6326.00   8.47067261   0.04125180
6328.00   8.34963512   0.04126247
6330.00   8.26316738   0.04110969
6332.00   8.19558907   0.04087850
6334.00   8.15370655   0.04067485
6336.00   8.18659210   0.04052119
6338.00   8.06982803   0.04014012
6340.00   7.78581095   0.03940615
6342.00   7.58782959   0.03891561
6344.00   7.51225471   0.03877664
6346.00   7.46847677   0.03875259
6348.00   7.37886095   0.03861349
6350.00   7.28462696   0.03844960
6352.00   7.12925911   0.03831916
6354.00   6.85775614   0.03772934
6356.00   6.69730759   0.03815052
6358.00   6.68245363   0.04036294
6360.00   6.65600729   0.04189419
6362.00   6.49190521   0.04084167
6364.00   6.24772072   0.03798226
6366.00   6.10851574   0.03671607
6368.00   6.01616192   0.03613887
6370.00   5.95356798   0.03565440
6372.00   5.96244240   0.03556611
6374.00   5.94498301   0.03549007
6376.00   5.86264372   0.03519953
6378.00   5.74095583   0.03487705
6380.00   5.58755636   0.03491665
6382.00   5.37045479   0.03497544
6384.00   5.19342995   0.03575436
6386.00   5.01920891   0.03819228
6388.00   4.86571074   0.03891821
6390.00   4.72844601   0.03653014
6392.00   4.61684942   0.03304277
6394.00   4.56633854   0.03275507
6396.00   4.61523342   0.03513553
6398.00   4.50289297   0.03497263
6400.00   4.22489595   0.03304701
6402.00   4.03773928   0.03180846
6404.00   3.95207548   0.03142644
6406.00   3.90469122   0.03132103
6408.00   3.87110782   0.03117031
6410.00   3.88333344   0.03119104
6412.00   3.73938608   0.03070455
6414.00   3.37693024   0.02956052
6416.00   3.20279956   0.02886688
6418.00   3.22100616   0.02844870
6420.00   3.24713707   0.02831786
6422.00   3.17231750   0.02848921
6424.00   3.05601192   0.02895417
6426.00   2.98538518   0.02986984
6428.00   2.91515422   0.03232468
6430.00   2.89432788   0.03235511
6432.00   2.94654298   0.02987900
6434.00   2.97460270   0.02775851
6436.00   2.93674564   0.02731796
6438.00   2.87310410   0.02761435
6440.00   2.85081697   0.02752149
6442.00   2.86403823   0.02753082
6444.00   2.83668947   0.02737908
6446.00   2.75741196   0.02689552
6448.00   2.72482538   0.02679174
6450.00   2.76931310   0.02725410
6452.00   2.83429408   0.02792834
6454.00   2.85091448   0.02844802
6456.00   2.85137749   0.02902665
6458.00   2.81395173   0.02930850
6460.00   2.70482421   0.02903576
6462.00   2.64810038   0.02936481
6464.00   2.65881276   0.03096624
6466.00   2.67213821   0.03195335
6468.00   2.63129258   0.03044987
6470.00   2.55771518   0.02677833
6472.00   2.53291082   0.02567044
6474.00   2.54719472   0.02656644
6476.00   2.54372287   0.02681892
6478.00   2.53481579   0.02710531
6480.00   2.51909900   0.02711716
6482.00   2.49506164   0.02647636
6484.00   2.46352434   0.02543577
6486.00   2.42350125   0.02516749
6488.00   2.35032296   0.02556537
6490.00   2.32833862   0.02564077
6492.00   2.35308337   0.02532958
6494.00   2.37064743   0.02558505
6496.00   2.36675763   0.02674850
6498.00   2.35627127   0.02830303
6500.00   2.35136771   0.02966447
6502.00   2.34086633   0.03169244
6504.00   2.35305715   0.03160735
6506.00   2.39097476   0.02921994
6508.00   2.42021251   0.02749939
6510.00   2.43794966   0.02675298
6512.00   2.45247722   0.02644117
6514.00   2.47337842   0.02637075
6516.00   2.50424314   0.02679016
6518.00   2.48869586   0.02654664
6520.00   2.41269398   0.02551883
6522.00   2.37650323   0.02520023
6524.00   2.37615991   0.02573767
6526.00   2.38654590   0.02630758
6528.00   2.40190315   0.02629562
6530.00   2.42673182   0.02599030
6532.00   2.39748645   0.02642480
6534.00   2.31134868   0.02768274
6536.00   2.24873638   0.02824336
6538.00   2.18070340   0.02870670
6540.00   2.13318944   0.02851757
6542.00   2.12808943   0.02700432
6544.00   2.14480853   0.02466309
6546.00   2.12169194   0.02397102
6548.00   2.06643248   0.02470145
6550.00   2.03258610   0.02482493
6552.00   2.00115037   0.02497702
6554.00   1.98068118   0.02507313
6556.00   1.97752142   0.02513552
6558.00   1.98120224   0.02511946
6560.00   1.96687365   0.02484342
6562.00   1.91252840   0.02405354
6564.00   1.97881162   0.02434891
6566.00   2.07771897   0.02439662
6568.00   2.32229543   0.02658960
6570.00   2.83058500   0.03170603
6572.00   3.33036208   0.03611964
6574.00   3.55454612   0.03775852
6576.00   3.63784885   0.03816583
6578.00   3.43813109   0.03640223
6580.00   2.79811049   0.03004094
6582.00   2.36328077   0.02590343
6584.00   2.00292754   0.02395457
6586.00   1.75420141   0.02322063
6588.00   1.67980516   0.02352963
6590.00   1.74322808   0.02495266
6592.00   1.78778982   0.02542322
6594.00   1.93408537   0.02585902
6596.00   1.96404207   0.02569115
6598.00   1.92646360   0.02475466
6600.00   1.84407866   0.02383467
6602.00   1.69469762   0.02317852
6604.00   1.51361156   0.02262530
6606.00   1.42928994   0.02219055
6608.00   1.41125453   0.02190126
6610.00   1.38841689   0.02167212
6612.00   1.39111793   0.02155902
6614.00   1.39401901   0.02148861
6616.00   1.39697182   0.02145099
6618.00   1.40014660   0.02146571
6620.00   1.40002120   0.02156568
6622.00   1.40291214   0.02179100
6624.00   1.37987232   0.02181379
6626.00   1.31927514   0.02169510
6628.00   1.28472972   0.02156855
6630.00   1.27581763   0.02130466
6632.00   1.27711892   0.02115904
6634.00   1.28120565   0.02141423
6636.00   1.29258931   0.02195514
6638.00   1.29558098   0.02233861
6640.00   1.29279411   0.02298251
6642.00   1.29280186   0.02302500
6644.00   1.29712892   0.02241107
6646.00   1.29738998   0.02172528
6648.00   1.28684068   0.02119174
6650.00   1.27058136   0.02070590
6652.00   1.26685882   0.02061491
6654.00   1.28330553   0.02107144
6656.00   1.27205336   0.02116343
6658.00   1.23168445   0.02110910
6660.00   1.20395851   0.02103583
6662.00   1.19734430   0.02095009
6664.00   1.20417511   0.02085910
6666.00   1.22687137   0.02082454
6668.00   1.28672218   0.02072517
6670.00   1.28535795   0.02099171
6672.00   1.23167777   0.02181762
6674.00   1.18850017   0.02220306
6676.00   1.15040672   0.02206408
6678.00   1.12332761   0.02169498
6680.00   1.12761688   0.02129098
6682.00   1.16117537   0.02067071
6684.00   1.17409730   0.02048878
6686.00   1.18782496   0.02057595
6688.00   1.18597949   0.02082877
6690.00   1.16568995   0.02146638
6692.00   1.13946128   0.02197954
6694.00   1.11315405   0.02194759
6696.00   1.08340549   0.02157511
6698.00   1.06876063   0.02158506
6700.00   1.07428920   0.02176310
6702.00   1.06256199   0.02199748
6704.00   1.03332222   0.02251087
6706.00   1.01044965   0.02278008
6708.00   1.00427425   0.02234337
6710.00   1.00690079   0.02165098
6712.00   1.00758278   0.02226920
6714.00   1.00588334   0.02457123
6716.00   1.01764214   0.02486671
6718.00   1.03596270   0.02384375
6720.00   1.06695557   0.02278720
6722.00   1.11879051   0.02150418
6724.00   1.17744434   0.02043142
6726.00   1.21971917   0.02120969
6728.00   1.26573682   0.02388533
6730.00   1.26054549   0.02429534
6732.00   1.20170188   0.02333292
6734.00   1.14812219   0.02246593
6736.00   1.08350921   0.02145009
6738.00   1.03289115   0.02054428
6740.00   1.03850305   0.02033935
6742.00   1.09265983   0.02071036
6744.00   1.07924223   0.02056960
6746.00   1.03326464   0.02016215
6748.00   0.96531469   0.01983330
6750.00   0.84590405   0.01951162
6752.00   0.74248832   0.01922084
6754.00   0.69841957   0.01894535
6756.00   0.68956971   0.01870135
6758.00   0.68460095   0.01878266
6760.00   0.71107686   0.01941381
6762.00   0.71393985   0.01949289
6764.00   0.70299691   0.01916147
6766.00   0.69103897   0.01882956
6768.00   0.68248153   0.01861373
6770.00   0.67323983   0.01842849
6772.00   0.65818375   0.01822481
6774.00   0.63878214   0.01748454
6776.00   0.61691308   0.01833288
6778.00   0.57825881   0.02107583
6780.00   0.56240904   0.02244261
6782.00   0.58333826   0.02226506
6784.00   0.61414689   0.02137096
6786.00   0.61910641   0.02033440
6788.00   0.60789824   0.01852983
6790.00   0.61198962   0.01777524
6792.00   0.62727123   0.01793419
6794.00   0.63564724   0.01794664
6796.00   0.63929212   0.01789831
6798.00   0.63806880   0.01787912
6800.00   0.62660486   0.01785318
6802.00   0.60513479   0.01781364
6804.00   0.61250269   0.01815840
6806.00   0.66509795   0.01919112
6808.00   0.66796142   0.01943490
6810.00   0.61785293   0.01895593
6812.00   0.57388645   0.01842215
6814.00   0.56560075   0.01807963
6816.00   0.57387739   0.01781299
6818.00   0.57352567   0.01796610
6820.00   0.57222915   0.01850307
6822.00   0.57463998   0.01909226
6824.00   0.58145833   0.01996515
6826.00   0.58704561   0.02068936
6828.00   0.58959115   0.02117772
6830.00   0.59125340   0.02155679
6832.00   0.59510273   0.02197140
6834.00   0.60174531   0.02264205
6836.00   0.60312343   0.02233914
6838.00   0.60488206   0.02094457
6840.00   0.59772068   0.01977952
6842.00   0.58179992   0.01862693
6844.00   0.55761307   0.01790393
6846.00   0.52033877   0.01865591
6848.00   0.46447948   0.02074223
6850.00   0.44774684   0.02102787
6852.00   0.46021685   0.01996470
6854.00   0.47445738   0.01949044
6856.00   0.50073785   0.01927406
6858.00   0.52461165   0.01946856
6860.00   0.53446430   0.02034925
6862.00   0.53612471   0.02171294
6864.00   0.53240514   0.02273981
6866.00   0.51806974   0.02429504
6868.00   0.50709933   0.02451073
6870.00   0.48814580   0.02336420
6872.00   0.48207536   0.02212241
6874.00   0.50368905   0.02127188
6876.00   0.53899843   0.02053309
6878.00   0.55031383   0.02000937
6880.00   0.55487335   0.01976065
6882.00   0.54057240   0.01951768
6884.00   0.49643564   0.01943417
6886.00   0.46360502   0.01931909
6888.00   0.44886950   0.01893700
6890.00   0.44302803   0.01868922
6892.00   0.44032115   0.01943214
6894.00   0.44242254   0.02126718
6896.00   0.45265841   0.02147929
6898.00   0.48925570   0.02017063
6900.00   0.49435285   0.01969957
6902.00   0.45817456   0.02017388
6904.00   0.41225508   0.02101294
6906.00   0.37827119   0.02206759
6908.00   0.34056407   0.02355039
6910.00   0.36012855   0.02341769
6912.00   0.46058521   0.02156872
6914.00   0.50307363   0.02038620
6916.00   0.49292460   0.01923666
6918.00   0.47969085   0.01873783
6920.00   0.49126226   0.01979532
6922.00   0.51180077   0.02170963
6924.00   0.51498914   0.02166082
6926.00   0.50124669   0.01986339
6928.00   0.50001329   0.01892585
6930.00   0.50587821   0.01811725
6932.00   0.51227582   0.01763137
6934.00   0.51803929   0.01765980
6936.00   0.52371871   0.01800611
6938.00   0.52750915   0.01819143
6940.00   0.53490359   0.01840361
6942.00   0.52661550   0.01861411
6944.00   0.49459678   0.01888809
6946.00   0.47895262   0.01906143
6948.00   0.48593569   0.01914367
6950.00   0.50313622   0.01912422
6952.00   0.52157998   0.01893285
6954.00   0.55090243   0.01853947
6956.00   0.55489981   0.01827506
6958.00   0.52912658   0.01797774
6960.00   0.52256584   0.01782472
6962.00   0.53367645   0.01783601
6964.00   0.55264598   0.01792657
6966.00   0.57711464   0.01802496
6968.00   0.60968804   0.01815893
6970.00   0.62435228   0.01842500
6972.00   0.62644064   0.01894915
6974.00   0.62707114   0.01919878
6976.00   0.62158960   0.01926082
6978.00   0.61576921   0.01922535
6980.00   0.61318475   0.01901038
6982.00   0.61136734   0.01870710
6984.00   0.60544002   0.01899533
6986.00   0.58152646   0.02025459
6988.00   0.59252316   0.02030073
6990.00   0.64054000   0.01934391
6992.00   0.67719615   0.01855720
6994.00   0.68614143   0.01820664
6996.00   0.68766272   0.01809707
6998.00   0.71098757   0.01828061
7000.00   0.75192934   0.01889785
7002.00   0.77783352   0.01918116
7004.00   0.79738843   0.01934992
7006.00   0.81469434   0.01947545
7008.00   0.82604873   0.01955976
7010.00   0.83868200   0.01959449
7012.00   0.86371356   0.01953854
7014.00   0.89899486   0.01933851
7016.00   0.92364049   0.01954252
7018.00   0.94858015   0.01997132
7020.00   0.96090072   0.02059383
7022.00   0.95423889   0.02178022
7024.00   0.94839305   0.02259019
7026.00   0.96050566   0.02234558
7028.00   0.98235995   0.02138466
7030.00   0.98108023   0.02070977
7032.00   0.95854384   0.01970156
7034.00   0.94576478   0.01922764
7036.00   0.92596775   0.01923939
7038.00   0.92339069   0.01940168
7040.00   0.95848578   0.01963713
7042.00   1.01065660   0.01997117
7044.00   1.01903880   0.02022372
7046.00   0.99425763   0.02038604
7048.00   0.97974414   0.02073651
7050.00   0.95257348   0.02151044
7052.00   0.94081271   0.02178316
7054.00   0.95662290   0.02097439
7056.00   0.97997099   0.02005600
7058.00   0.97883070   0.02096698
7060.00   0.95655817   0.02352397
7062.00   0.96308261   0.02391681
7064.00   0.99265277   0.02288932
7066.00   1.01541591   0.02203782
7068.00   1.03535151   0.02116617
7070.00   1.04936635   0.02041513
7072.00   1.04918385   0.02016902
7074.00   1.03616536   0.02032327
7076.00   1.03637719   0.02041252
7078.00   1.03921485   0.02059716
7080.00   1.05092490   0.02085165
7082.00   1.07587826   0.02132921
7084.00   1.10045743   0.02165240
7086.00   1.11890996   0.02157934
7088.00   1.13407969   0.02125474
7090.00   1.13501120   0.02099723
7092.00   1.11087501   0.02062208
7094.00   1.11065161   0.02036177
7096.00   1.12480378   0.01990465
7098.00   1.14356041   0.01992965
7100.00   1.17011654   0.02096363
7102.00   1.19810891   0.02226784
7104.00   1.20192885   0.02234665
7106.00   1.18214953   0.02147237
7108.00   1.17582130   0.02095747
7110.00   1.16622114   0.02019610
7112.00   1.16912746   0.01976983
7114.00   1.19037735   0.01983747
7116.00   1.21840644   0.02012576
7118.00   1.23722470   0.02034579
7120.00   1.24932098   0.02064146
7122.00   1.28099930   0.02085585
7124.00   1.33175349   0.02105874
7126.00   1.37736058   0.02119465
7128.00   1.42098820   0.02126234
7130.00   1.46217334   0.02128376
7132.00   1.49935162   0.02125884
7134.00   1.53344584   0.02118028
7136.00   1.56127131   0.02118303
7138.00   1.57733428   0.02118761
7140.00   1.60285556   0.02130327
7142.00   1.63380456   0.02157798
7144.00   1.66875672   0.02182292
7146.00   1.70712459   0.02194922
7148.00   1.74938130   0.02201782
7150.00   1.79716980   0.02209672
7152.00   1.86675608   0.02219104
7154.00   1.90102708   0.02220109
7156.00   1.90342808   0.02178319
7158.00   1.91078532   0.02196811
7160.00   1.92798555   0.02335868
7162.00   1.95171940   0.02494945
7164.00   1.99163485   0.02511241
7166.00   2.06060719   0.02389852
7168.00   2.08268428   0.02422092
7170.00   2.07480216   0.02560160
7172.00   2.05626440   0.02667395
7174.00   2.01550961   0.02781509
7176.00   1.97447002   0.02845611
7178.00   1.96782422   0.02758383
7180.00   1.98916423   0.02520018
7182.00   1.96920359   0.02392761
7184.00   1.91037393   0.02296375
7186.00   1.87552321   0.02237131
7188.00   1.86426926   0.02237208
7190.00   1.85410988   0.02251047
7192.00   1.82807982   0.02248576
7194.00   1.79444361   0.02245271
7196.00   1.78749967   0.02233564
7198.00   1.81592035   0.02156948
7200.00   1.81232727   0.02208984
7202.00   1.77787888   0.02429869
7204.00   1.75274479   0.02563063
7206.00   1.75302875   0.02518619
7208.00   1.76612556   0.02381357
7210.00   1.77731419   0.02297830
7212.00   1.79884255   0.02193692
7214.00   1.80567896   0.02143532
7216.00   1.79966784   0.02134023
7218.00   1.79680264   0.02149541
7220.00   1.79680550   0.02202826
7222.00   1.80112731   0.02267195
7224.00   1.81943691   0.02290637
7226.00   1.85843599   0.02282392
7228.00   1.86207533   0.02311109
7230.00   1.82861388   0.02315944
7232.00   1.81637716   0.02412406
7234.00   1.83182585   0.02621094
7236.00   1.84957087   0.02838869
7238.00   1.84919131   0.02995369
7240.00   1.83975077   0.03129186
7242.00   1.82436419   0.03255459
7244.00   1.79749203   0.03426865
7246.00   1.77345824   0.03467378
7248.00   1.74045801   0.03399211
7250.00   1.72094965   0.03256897
7252.00   1.72796178   0.03014646
7254.00   1.75420642   0.02663161
7256.00   1.79645693   0.02454379
7258.00   1.88913035   0.02282042
7260.00   1.92114055   0.02289609
7262.00   1.89346313   0.02556143
7264.00   1.88462353   0.02747629
7266.00   1.92518640   0.02762121
7268.00   1.98359931   0.02734975
7270.00   2.01207352   0.02889870
7272.00   2.03222728   0.03217687
7274.00   2.03012919   0.03330791
7276.00   1.98918819   0.03367417
7278.00   1.96969914   0.03313527
7280.00   1.97157371   0.03101652
7282.00   1.99367297   0.02834169
7284.00   2.05057883   0.02719839
7286.00   2.14892006   0.02712883
7288.00   2.20769429   0.02650435
7290.00   2.25144839   0.02540710
7292.00   2.28441596   0.02517537
7294.00   2.29054594   0.02611724
7296.00   2.30535412   0.02714635
7298.00   2.36695099   0.02757273
7300.00   2.46104169   0.02777024
7302.00   2.50623965   0.02747842
7304.00   2.51009488   0.02556475
7306.00   2.53731418   0.02591053
7308.00   2.57283902   0.02862330
7310.00   2.61900449   0.03091284
7312.00   2.68714166   0.03205090
7314.00   2.76619220   0.03261996
7316.00   2.80161834   0.03219827
7318.00   2.79342508   0.03008830
7320.00   2.80863357   0.02900936
7322.00   2.81959510   0.02794676
7324.00   2.84810019   0.02760023
7326.00   2.90850234   0.02838987
7328.00   2.97963524   0.02968970
7330.00   3.02063274   0.03050570
7332.00   3.04203963   0.03136841
7334.00   3.06921172   0.03169829
7336.00   3.10044813   0.03147612
7338.00   3.11757588   0.03134121
7340.00   3.11943507   0.03149370
7342.00   3.11042261   0.03145021
7344.00   3.08887315   0.03058948
7346.00   3.04793692   0.02893511
7348.00   3.04910874   0.02801151
7350.00   3.08514476   0.02723389
7352.00   3.11599946   0.02699945
7354.00   3.14813781   0.02748494
7356.00   3.18135118   0.02814143
7358.00   3.21110559   0.02861543
7360.00   3.23953962   0.02908909
7362.00   3.28866744   0.02971856
7364.00   3.36990857   0.03066753
7366.00   3.42067027   0.03118810
7368.00   3.47262216   0.03166765
7370.00   3.48307276   0.03161891
7372.00   3.41471386   0.03066217
7374.00   3.30679250   0.02911376
7376.00   3.27345872   0.02799129
7378.00   3.28547311   0.02615702
7380.00   3.29408073   0.02648317
7382.00   3.32993269   0.02927223
7384.00   3.34757280   0.03098075
7386.00   3.32749629   0.03109228
7388.00   3.30280304   0.03076702
7390.00   3.32761645   0.03120378
7392.00   3.40406060   0.03189029
7394.00   3.40325236   0.03287568
7396.00   3.34009385   0.03502976
7398.00   3.29204488   0.03556535
7400.00   3.26159000   0.03413418
7402.00   3.22773933   0.03209234
7404.00   3.17580867   0.03072168
7406.00   3.11177278   0.02947351
7408.00   3.04451942   0.02822280
7410.00   2.93961239   0.02674153
7412.00   2.89726949   0.02591944
7414.00   2.92629671   0.02591352
7416.00   2.95752883   0.02607228
7418.00   2.95669532   0.02599680
7420.00   2.94277096   0.02592412
7422.00   2.91436243   0.02630397
7424.00   2.84784555   0.02722395
7426.00   2.82382822   0.02779738
7428.00   2.83950591   0.02851176
7430.00   2.84301305   0.02872761
7432.00   2.81874657   0.02802609
7434.00   2.78115368   0.02689642
7436.00   2.74266529   0.02657994
7438.00   2.69360471   0.02693271
7440.00   2.65426493   0.02669400
7442.00   2.61463904   0.02611733
7444.00   2.58580923   0.02555323
7446.00   2.57171154   0.02490986
7448.00   2.56431198   0.02435674
7450.00   2.55436182   0.02425865
7452.00   2.54699564   0.02453814
7454.00   2.53423166   0.02476869
7456.00   2.51813269   0.02527622
7458.00   2.50022268   0.02546703
7460.00   2.48590398   0.02515092
7462.00   2.46232533   0.02495005
7464.00   2.41523361   0.02539302
7466.00   2.34981847   0.02622653
7468.00   2.30252838   0.02695611
7470.00   2.26603055   0.02817573
7472.00   2.22403884   0.02848121
7474.00   2.17956996   0.02788026
7476.00   2.13410592   0.02719752
7478.00   2.08528972   0.02684858
7480.00   2.03583622   0.02655949
7482.00   2.00160837   0.02594487
7484.00   1.98748887   0.02461001
7486.00   1.95711696   0.02430889
7488.00   1.91913366   0.02486797
7490.00   1.87936687   0.02540190
7492.00   1.83517396   0.02601826
7494.00   1.79168022   0.02644149
7496.00   1.76328397   0.02565425
7498.00   1.74825466   0.02331536
7500.00   1.72825670   0.02240611
7502.00   1.71839929   0.02245141
7504.00   1.69076610   0.02241006
7506.00   1.63557136   0.02222796
7508.00   1.57648480   0.02214019
7510.00   1.53969944   0.02233002
7512.00   1.51611304   0.02276714
7514.00   1.48570836   0.02299140
7516.00   1.44218063   0.02289317
7518.00   1.42574406   0.02329517
7520.00   1.44560730   0.02444715
7522.00   1.46417773   0.02534754
7524.00   1.45617473   0.02531885
7526.00   1.43458009   0.02473234
7528.00   1.41691017   0.02468863
7530.00   1.38663542   0.02489765
7532.00   1.37819839   0.02506448
7534.00   1.40087259   0.02572446
7536.00   1.40764856   0.02565686
7538.00   1.37701905   0.02383669
7540.00   1.32774889   0.02106657
7542.00   1.29142904   0.02078540
7544.00   1.25054955   0.02278236
7546.00   1.22663999   0.02349943
7548.00   1.21536958   0.02438415
7550.00   1.21068144   0.02444009
7552.00   1.21846318   0.02305329
7554.00   1.22763872   0.02116056
7556.00   1.21702361   0.02067645
7558.00   1.19603276   0.02120367
7560.00   1.16039217   0.02119100
7562.00   1.09271824   0.02081506
7564.00   1.04960120   0.02102015
7566.00   1.03058076   0.02194964
7568.00   1.02490485   0.02301031
7570.00   1.03278291   0.02392682
7572.00   1.05932844   0.02495911
7574.00   1.04222143   0.02458528
7576.00   0.98520154   0.02217263
7578.00   0.94247490   0.02112550
7580.00   0.90161967   0.02125214
7582.00   0.86743402   0.02171816
7584.00   0.84311473   0.02232008
7586.00   0.82702065   0.02310774
7588.00   0.82290173   0.02308886
7590.00   0.83112174   0.02099922
7592.00   0.84601527   0.02224390
7594.00   0.89060843   0.02447310
7596.00   0.90674317   0.02891166
7598.00   0.86068052   0.03571127
7600.00   0.79350424   0.04273472
7602.00   0.79348749   0.04792041
7604.00   0.86366010   0.05438934
7606.00   0.85118574   0.05464128
7608.00   0.77056813   0.04881359
7610.00   0.71513629   0.04324374
7612.00   0.69568700   0.03796645
7614.00   0.68766063   0.03291770
7616.00   0.67245620   0.03036612
7618.00   0.65826243   0.03072404
7620.00   0.64295155   0.02976465
7622.00   0.62803805   0.02798124
7624.00   0.61096126   0.02806396
7626.00   0.58006877   0.03075887
7628.00   0.56297672   0.03325669
7630.00   0.58795315   0.03402188
7632.00   0.64381921   0.03398446
7634.00   0.67172414   0.03283909
7636.00   0.68542892   0.02931047
7638.00   0.70513844   0.02724015
7640.00   0.73805845   0.02630556
7642.00   0.75416279   0.02567266
7644.00   0.73069841   0.02505248
7646.00   0.68670297   0.02462524
7648.00   0.68224770   0.02419149
7650.00   0.71407163   0.02365424
7652.00   0.71830642   0.02361747
7654.00   0.70113093   0.02359277
7656.00   0.69787341   0.02444603
7658.00   0.72403848   0.02699973
7660.00   0.75746584   0.02956381
7662.00   0.76053292   0.02954507
7664.00   0.73798573   0.02748807
7666.00   0.73737103   0.02603881
7668.00   0.74918079   0.02374871
7670.00   0.75785393   0.02227045
7672.00   0.76957214   0.02198520
7674.00   0.77329987   0.02227599
7676.00   0.74688476   0.02273290
7678.00   0.68902028   0.02374308
7680.00   0.69384032   0.02334484
7682.00   0.74996942   0.02112907
7684.00   0.79654950   0.02016746
7686.00   0.85341042   0.02014584
7688.00   0.89697671   0.02090746
7690.00   0.90181750   0.02272999
7692.00   0.88103151   0.02522507
7694.00   0.89606160   0.02606264
7696.00   0.94425505   0.02580499
7698.00   0.96404886   0.02574320
7700.00   0.95933580   0.02525960
7702.00   0.96061009   0.02512910
7704.00   0.98212355   0.02554944
7706.00   1.01088202   0.02640470
7708.00   1.02252042   0.02796768
7710.00   1.01998794   0.03057843
7712.00   1.02639639   0.03206815
7714.00   1.05641651   0.03360274
7716.00   1.04853809   0.03399644
7718.00   0.96170199   0.03279235
7720.00   0.86909813   0.03074326
7722.00   0.88979703   0.02902532
7724.00   0.99713653   0.02693262
7726.00   1.07055807   0.02551128
7728.00   1.16750658   0.02472190
7730.00   1.22933686   0.02398312
7732.00   1.25052857   0.02328919
7734.00   1.25589061   0.02281589
7736.00   1.25796187   0.02260139
7738.00   1.24555969   0.02257069
7740.00   1.28538835   0.02358595
7742.00   1.38534570   0.02550950
7744.00   1.44923711   0.02743061
7746.00   1.49130785   0.02996293
7748.00   1.52298927   0.03187358
7750.00   1.54358470   0.03270101
7752.00   1.55470812   0.03285157
7754.00   1.58530319   0.03235143
7756.00   1.62805831   0.02997143
7758.00   1.67303455   0.02963707
7760.00   1.72424805   0.03148682
7762.00   1.77826393   0.03227392
7764.00   1.84104729   0.03086261
7766.00   1.90289593   0.02843145
7768.00   1.93227434   0.02719631
7770.00   1.91513908   0.02627486
7772.00   1.96100020   0.02618203
7774.00   2.05197668   0.02691321
7776.00   2.14274478   0.02804833
7778.00   2.24366117   0.03015169
7780.00   2.33609700   0.03193987
7782.00   2.38204360   0.03161375
7784.00   2.38884330   0.02934608
7786.00   2.41514754   0.02917822
7788.00   2.46303892   0.03040765
7790.00   2.46795654   0.03125688
7792.00   2.41328740   0.03220212
7794.00   2.35733509   0.03272210
7796.00   2.34629846   0.03215273
7798.00   2.35913205   0.03071553
7800.00   2.35734391   0.03015729
7802.00   2.36035895   0.03009617
7804.00   2.34763193   0.02992922
7806.00   2.33084488   0.02976114
7808.00   2.29187202   0.02967546
7810.00   2.20843029   0.02961486
7812.00   2.10155153   0.02965707
7814.00   2.05355191   0.03027189
7816.00   2.05055380   0.03167243
7818.00   2.03685665   0.03240766
7820.00   2.05015635   0.03328945
7822.00   2.03143501   0.03332110
7824.00   1.95848918   0.03204009
7826.00   1.86268449   0.03001385
7828.00   1.78898573   0.02830402
7830.00   1.70860565   0.02612345
7832.00   1.67386734   0.02511541
7834.00   1.70868301   0.02472670
7836.00   1.69371486   0.02545931
7838.00   1.61994016   0.02790784
7840.00   1.52192891   0.03034485
7842.00   1.41429842   0.03125761
7844.00   1.27447855   0.03136586
7846.00   1.24260366   0.03160988
7848.00   1.33157074   0.03015534
7850.00   1.35675263   0.03181190
7852.00   1.33517158   0.03779941
7854.00   1.30001903   0.04180242
7856.00   1.26015544   0.04090534
7858.00   1.21099949   0.03688886
7860.00   1.19450092   0.03388106
7862.00   1.21525240   0.02850983
7864.00   1.20994580   0.02645777
7866.00   1.17574060   0.02848363
7868.00   1.16253066   0.03018887
7870.00   1.19944632   0.03035283
7872.00   1.25710726   0.03001980
7874.00   1.26786172   0.02977868
7876.00   1.25501740   0.02923869
7878.00   1.22604156   0.02903040
7880.00   1.16867483   0.02911959
7882.00   1.11145532   0.02907625
7884.00   1.05244923   0.02880750
7886.00   0.99624062   0.02846557
7888.00   0.95704478   0.02824405
7890.00   0.92651349   0.02816841
7892.00   0.91871250   0.02766251
7894.00   0.94764268   0.02689745
7896.00   0.95739979   0.02583396
7898.00   0.95384723   0.02369787
7900.00   0.93641698   0.02201593
7902.00   0.89287210   0.02277906
7904.00   0.82307029   0.02515198
7906.00   0.80214000   0.02720190
7908.00   0.81948131   0.03025601
7910.00   0.82879215   0.03181907
7912.00   0.85182023   0.03235409
7914.00   0.85721731   0.03242844
7916.00   0.81753606   0.03226187
7918.00   0.75144154   0.03172534
7920.00   0.72710371   0.03077245
7922.00   0.72236735   0.02880125
7924.00   0.73019832   0.02767218
7926.00   0.76275635   0.02703976
7928.00   0.79229921   0.02660458
7930.00   0.81638300   0.02646544
7932.00   0.83422709   0.02643740
7934.00   0.82818830   0.02580054
7936.00   0.79406250   0.02453207
7938.00   0.77830017   0.02373911
7940.00   0.75740397   0.02289680
7942.00   0.75843465   0.02261318
7944.00   0.79157543   0.02326014
7946.00   0.83522940   0.02407651
7948.00   0.86412960   0.02413789
7950.00   0.88972747   0.02373924
7952.00   0.90725541   0.02364026
7954.00   0.91115856   0.02321715
7956.00   0.92333192   0.02364433
7958.00   0.94682419   0.02504129
7960.00   0.96765548   0.02658613
7962.00   0.97919780   0.02798928
7964.00   0.98567498   0.02945192
7966.00   0.96157855   0.02953180
7968.00   0.88098311   0.02808740
7970.00   0.85643923   0.02723823
7972.00   0.88114160   0.02640161
7974.00   0.90665716   0.02587346
7976.00   0.91576999   0.02598221
7978.00   0.91885185   0.02645126
7980.00   0.91146469   0.02637831
7982.00   0.87788242   0.02554250
7984.00   0.87860155   0.02585462
7986.00   0.91457337   0.02689551
7988.00   0.93310434   0.02815408
7990.00   0.92131007   0.03006035
7992.00   0.89582604   0.03173190
7994.00   0.87150842   0.03135063
7996.00   0.83011967   0.02908710
7998.00   0.83104956   0.02747117
8000.00   0.88040245   0.02525478
8002.00   0.90503180   0.02366308
8004.00   0.90128291   0.02279893
8006.00   0.88694847   0.02260975
8008.00   0.87119097   0.02320495
8010.00   0.84631783   0.02459798
8012.00   0.84464806   0.02574925
8014.00   0.85082465   0.02748188
8016.00   0.87981081   0.02821888
8018.00   0.95860100   0.02769919
8020.00   1.01592898   0.02736248
8022.00   1.00175214   0.02839013
8024.00   0.94261515   0.03006888
8026.00   0.88544869   0.03013840
8028.00   0.77822119   0.02921607
8030.00   0.73888618   0.02791636
8032.00   0.76397967   0.02528731
8034.00   0.78291535   0.02301336
8036.00   0.76972789   0.02201612
8038.00   0.74612701   0.02182677
8040.00   0.73624510   0.02189380
8042.00   0.72788775   0.02285692
8044.00   0.73314309   0.02305065
8046.00   0.76383364   0.02273837
8048.00   0.77579844   0.02262947
8050.00   0.75944161   0.02284402
8052.00   0.73140913   0.02317913
8054.00   0.70792282   0.02346464
8056.00   0.67697704   0.02375639
8058.00   0.66872931   0.02412753
8060.00   0.68468958   0.02490917
8062.00   0.69129831   0.02501377
8064.00   0.69153672   0.02432051
8066.00   0.68647647   0.02332898
8068.00   0.66953194   0.02238171
8070.00   0.63997370   0.02124063
8072.00   0.64879251   0.02069572
8074.00   0.70610738   0.02066282
8076.00   0.72495168   0.02070560
8078.00   0.71180713   0.02098805
8080.00   0.69408846   0.02131420
8082.00   0.68434167   0.02165971
8084.00   0.67519391   0.02201224
8086.00   0.66222590   0.02188766
8088.00   0.63824660   0.02096416
8090.00   0.63270271   0.02087895
8092.00   0.64971471   0.02117747
8094.00   0.65552509   0.02185706
8096.00   0.63425982   0.02328512
8098.00   0.60526538   0.02476289
8100.00   0.60481864   0.02473129
8102.00   0.63124615   0.02326730
8104.00   0.63204038   0.02271522
8106.00   0.61738861   0.02222067
8108.00   0.60450661   0.02224651
8110.00   0.59568995   0.02302775
8112.00   0.58539027   0.02402150
8114.00   0.56568992   0.02465828
8116.00   0.53311861   0.02523556
8118.00   0.53511429   0.02549038
8120.00   0.57565463   0.02575288
8122.00   0.59514356   0.02530016
8124.00   0.59409630   0.02337646
8126.00   0.59055507   0.02175530
8128.00   0.59621185   0.02251324
8130.00   0.60563058   0.02470422
8132.00   0.60884327   0.02480137
8134.00   0.59856695   0.02320968
8136.00   0.60958803   0.02261983
8138.00   0.64919758   0.02266012
8140.00   0.67793405   0.02279679
8142.00   0.67855662   0.02288894
8144.00   0.66308665   0.02300527
8146.00   0.64355868   0.02293958
8148.00   0.60934806   0.02269643
8150.00   0.58232468   0.02251987
8152.00   0.54427242   0.02221187
8154.00   0.52795178   0.02212243
8156.00   0.54888302   0.02231080
8158.00   0.58347422   0.02270795
8160.00   0.59360987   0.02329448
8162.00   0.59531236   0.02408555
8164.00   0.58437771   0.02494160
8166.00   0.53289205   0.02574152
8168.00   0.52794784   0.02692495
8170.00   0.59020406   0.02753068
8172.00   0.66319150   0.02944115
8174.00   0.69406360   0.03451084
8176.00   0.70703012   0.04116283
8178.00   0.69617516   0.04624823
8180.00   0.65809435   0.05195147
8182.00   0.60962868   0.05542131
8184.00   0.52743196   0.05690836
8186.00   0.46100307   0.05805035
8188.00   0.44602415   0.05983252
8190.00   0.46332380   0.06170065
8192.00   0.47678149   0.06243407
8194.00   0.50946718   0.06313165
8196.00   0.52673841   0.06170647
8198.00   0.53395450   0.05764628
8200.00   0.54053807   0.05310695
8202.00   0.55388832   0.04860945
8204.00   0.56555945   0.04380924
8206.00   0.55181855   0.03988611
8208.00   0.50179869   0.03674598
8210.00   0.49174854   0.03401294
8212.00   0.50655824   0.03235303
8214.00   0.52363926   0.03085114
8216.00   0.54644674   0.02947458
8218.00   0.56798720   0.02832605
8220.00   0.56994528   0.02729550
8222.00   0.55515045   0.02646566
8224.00   0.55057669   0.02579872
8226.00   0.54401219   0.02552404
8228.00   0.54658234   0.02505068
8230.00   0.55915588   0.02430784
8232.00   0.57715726   0.02356200
8234.00   0.60137057   0.02301943
8236.00   0.63441062   0.02258564
8238.00   0.63460052   0.02242360
8240.00   0.59372586   0.02270385
8242.00   0.58285326   0.02273018
8244.00   0.59516311   0.02225385
8246.00   0.61159462   0.02225233
8248.00   0.62742811   0.02357414
8250.00   0.64431375   0.02546133
8252.00   0.64219189   0.02563391
8254.00   0.62846035   0.02429690
8256.00   0.60232913   0.02365476
8258.00   0.54780549   0.02304498
8260.00   0.50917679   0.02259907
8262.00   0.49650031   0.02244401
8264.00   0.50086904   0.02242487
8266.00   0.52252531   0.02211084
8268.00   0.57940811   0.02098248
8270.00   0.59384823   0.02194745
8272.00   0.58987164   0.02443464
8274.00   0.56688845   0.02686332
8276.00   0.50257170   0.02947439
8278.00   0.44187453   0.03186919
8280.00   0.45327964   0.03343682
8282.00   0.52411348   0.03446296
8284.00   0.53689635   0.03570930
8286.00   0.51044339   0.03732378
8288.00   0.50393873   0.03810138
8290.00   0.51478326   0.03785906
8292.00   0.52950460   0.03753678
8294.00   0.54728311   0.03800662
8296.00   0.57018477   0.03888161
8298.00   0.54518723   0.03825076
8300.00   0.43848094   0.03656738
8302.00   0.41937160   0.03424346
8304.00   0.48239431   0.02986553
8306.00   0.54006416   0.02593346
8308.00   0.55730182   0.02458510
8310.00   0.55821055   0.02487449
8312.00   0.56092370   0.02445617
8314.00   0.55602950   0.02445385
8316.00   0.55333471   0.02396242
8318.00   0.54875064   0.02310681
8320.00   0.54556233   0.02222173
8322.00   0.54334599   0.02122155
8324.00   0.54314327   0.02027750
8326.00   0.54905832   0.01992654
8328.00   0.56398851   0.01995781
8330.00   0.56562233   0.02054026
8332.00   0.56126261   0.02088932
8334.00   0.54988801   0.02300268
8336.00   0.52536064   0.02656201
8338.00   0.50092357   0.03067430
8340.00   0.49152613   0.03517246
8342.00   0.49112108   0.04022882
8344.00   0.49366537   0.04299873
8346.00   0.51954097   0.04536524
8348.00   0.51073718   0.04563457
8350.00   0.44933954   0.04371895
8352.00   0.40339816   0.04050281
8354.00   0.42158923   0.03562284
8356.00   0.47720131   0.02831623
8358.00   0.50020880   0.02499906
8360.00   0.51627469   0.02653777
8362.00   0.52146178   0.02656792
8364.00   0.51382530   0.02736071
8366.00   0.50126499   0.02731829
8368.00   0.48534670   0.02530944
8370.00   0.46541366   0.02224673
8372.00   0.44405422   0.02140940
8374.00   0.40808022   0.02195767
8376.00   0.40497434   0.02319432
8378.00   0.43828154   0.02599204
8380.00   0.45673651   0.02787452
8382.00   0.44892925   0.02890573
8384.00   0.43558863   0.02935813
8386.00   0.43951681   0.02889455
8388.00   0.45217374   0.02690728
8390.00   0.46846446   0.02751746
8392.00   0.51174891   0.03008920
8394.00   0.51584095   0.03220074
8396.00   0.47167656   0.03475473
8398.00   0.41573334   0.03639683
8400.00   0.36710232   0.03575961
8402.00   0.31078935   0.03332871
8404.00   0.33448496   0.03116329
8406.00   0.45128062   0.02694376
8408.00   0.52475250   0.02535640
8410.00   0.58564746   0.02718466
8412.00   0.62706959   0.02887040
8414.00   0.63959634   0.02885748
8416.00   0.62992936   0.02819916
8418.00   0.62024254   0.02821217
8420.00   0.57923758   0.02748333
8422.00   0.58559811   0.02917285
8424.00   0.63635689   0.03331695
8426.00   0.67836326   0.03633466
8428.00   0.71066606   0.03825007
8430.00   0.72678185   0.03919224
8432.00   0.68030435   0.03773238
8434.00   0.54856253   0.03305224
8436.00   0.50826001   0.02971575
8438.00   0.51454222   0.02552184
8440.00   0.53982657   0.02264693
8442.00   0.59336746   0.02206382
8444.00   0.65836036   0.02294140
8446.00   0.71249825   0.02442096
8448.00   0.77410251   0.02704357
8450.00   0.78033632   0.02815207
8452.00   0.72109264   0.02796983
8454.00   0.69072831   0.02885073
8456.00   0.66603577   0.03070788
8458.00   0.66952586   0.03269642
8460.00   0.73834342   0.03445326
8462.00   0.85775328   0.03618515
8464.00   0.89185035   0.03756290
8466.00   0.84261101   0.03964838
8468.00   0.85551703   0.03948291
8470.00   0.92613715   0.03711515
8472.00   0.97760826   0.03397898
8474.00   0.96859509   0.03006141
8476.00   0.93324465   0.02516655
8478.00   0.94662941   0.02264425
8480.00   1.00484633   0.02234880
8482.00   1.02375829   0.02288292
8484.00   1.00034940   0.02564903
8486.00   1.01332903   0.02750963
8488.00   1.09038389   0.02809733
8490.00   1.18986249   0.02823765
8492.00   1.25145292   0.02855273
8494.00   1.29271019   0.02857429
8496.00   1.34627318   0.02940333
8498.00   1.39210773   0.03106263
8500.00   1.45962596   0.03227920
8502.00   1.56799650   0.03313424
8504.00   1.67149937   0.03376536
8506.00   1.71564901   0.03430576
8508.00   1.71492875   0.03485149
8510.00   1.76584733   0.03399520
8512.00   1.86189854   0.03051796
8514.00   1.92322278   0.02932809
8516.00   1.94350088   0.03101833
8518.00   1.97251177   0.03242315
8520.00   2.04811811   0.03183208
8522.00   2.14888239   0.03018045
8524.00   2.19674277   0.02906813
8526.00   2.19966221   0.02695993
8528.00   2.22190595   0.02708562
8530.00   2.24354386   0.02980923
8532.00   2.27298546   0.03171936
8534.00   2.31670666   0.03191346
8536.00   2.36737895   0.03139960
8538.00   2.40729284   0.03130960
8540.00   2.44270921   0.03103587
8542.00   2.47524667   0.03128697
8544.00   2.52558875   0.03225564
8546.00   2.53295660   0.03273683
8548.00   2.47810245   0.03260805
8550.00   2.39700556   0.03212978
8552.00   2.33145976   0.03137415
8554.00   2.25466514   0.02999660
8556.00   2.22252679   0.02966981
8558.00   2.24343276   0.03053262
8560.00   2.23762751   0.03062108
8562.00   2.20580697   0.02987421
8564.00   2.16645575   0.02890476
8566.00   2.12909102   0.02809533
8568.00   2.08847809   0.02722631
8570.00   2.05585504   0.02688849
8572.00   2.03484225   0.02663622
8574.00   2.00167084   0.02732926
8576.00   1.94678378   0.02949492
8578.00   1.90670252   0.03109569
8580.00   1.90348232   0.03127034
8582.00   1.92232466   0.03067004
8584.00   1.93076563   0.03010273
8586.00   1.95507872   0.02856115
8588.00   1.94591057   0.02838616
8590.00   1.89935541   0.02956283
8592.00   1.86489177   0.03032304
8594.00   1.85906136   0.02988809
8596.00   1.86266518   0.02930992
8598.00   1.84877861   0.03062711
8600.00   1.81968093   0.03368770
8602.00   1.81124103   0.03496216
8604.00   1.80346620   0.03570261
8606.00   1.82264483   0.03576636
8608.00   1.88415992   0.03429517
8610.00   1.95476651   0.03298508
8612.00   1.99366188   0.03442134
8614.00   2.01592445   0.03763335
8616.00   2.03994346   0.04017490
8618.00   2.05695629   0.04307646
8620.00   2.07569003   0.04549173
8622.00   2.08204961   0.04773821
8624.00   2.10614300   0.04953890
8626.00   2.18090606   0.05075854
8628.00   2.29205322   0.05154122
8630.00   2.34909797   0.05141336
8632.00   2.38877153   0.05042662
8634.00   2.39249086   0.04891712
8636.00   2.31659031   0.04614578
8638.00   2.28604102   0.04353987
8640.00   2.37246966   0.04162351
8642.00   2.51502252   0.04025252
8644.00   2.57647085   0.04029074
8646.00   2.58855557   0.04125911
8648.00   2.61830711   0.04374617
8650.00   2.63204575   0.04823983
8652.00   2.66828108   0.05195867
8654.00   2.74817371   0.05537090
8656.00   2.83752847   0.05783961
8658.00   2.87739444   0.05724565
8660.00   2.87673759   0.05327009
8662.00   2.90942526   0.05168394
8664.00   2.97038245   0.05103065
8666.00   3.00561714   0.05052581
8668.00   3.00054169   0.05030159
8670.00   2.99549103   0.05022547
8672.00   3.03531814   0.05028547
8674.00   3.10854554   0.05074143
8676.00   3.12828302   0.04903722
8678.00   3.11195445   0.04410464
8680.00   3.09511900   0.04117525
8682.00   3.06974077   0.04028622
8684.00   3.03986502   0.03985048
8686.00   3.00057364   0.03909066
8688.00   2.95559430   0.03842151
8690.00   2.96351767   0.03747285
8692.00   3.05905342   0.03605326
8694.00   3.05861712   0.03516652
8696.00   2.97957635   0.03466709
8698.00   2.90473580   0.03432238
8700.00   2.85075879   0.03408450
8702.00   2.80912185   0.03398582
8704.00   2.80754542   0.03398623
8706.00   2.86034679   0.03437638
8708.00   2.86959505   0.03406804
8710.00   2.86303210   0.03299320
8712.00   2.84617853   0.03224151
8714.00   2.82767940   0.03199857
8716.00   2.79103589   0.03197069
8718.00   2.70699525   0.03180042
8720.00   2.57501721   0.03128066
8722.00   2.47101617   0.03251978
8724.00   2.33405471   0.03672621
8726.00   2.27639723   0.03762725
8728.00   2.33378863   0.03453789
8730.00   2.39647698   0.03067815
8732.00   2.36275053   0.02945545
8734.00   2.27236533   0.02966714
8736.00   2.26219511   0.02967597
8738.00   2.33068252   0.03044329
8740.00   2.33461308   0.03064892
8742.00   2.28332520   0.03038386
8744.00   2.22917795   0.03013387
8746.00   2.19254851   0.02987462
8748.00   2.16200233   0.02971066
8750.00   2.14582777   0.03103029
8752.00   2.17036033   0.03300839
8754.00   2.13664651   0.03615633
8756.00   2.03604770   0.04057769
8758.00   1.97070467   0.04459035
8760.00   1.97388721   0.04860328
8762.00   2.00646329   0.05199596
8764.00   2.01943374   0.05279344
8766.00   2.05162692   0.05106566
8768.00   2.01541042   0.05076243
8770.00   1.90515518   0.05040242
8772.00   1.81669450   0.05078243
8774.00   1.74872446   0.05304676
8776.00   1.69596815   0.05468537
8778.00   1.66348279   0.05242451
8780.00   1.64510524   0.04648456
8782.00   1.67058146   0.04294558
8784.00   1.77035892   0.03998739
8786.00   1.81972790   0.03774793
8788.00   1.83561885   0.03686374
8790.00   1.82203126   0.03625127
8792.00   1.76326501   0.03503740
8794.00   1.66496539   0.03362739
8796.00   1.63295341   0.03219318
8798.00   1.65391469   0.03014927
8800.00   1.65241325   0.02915859
8802.00   1.64094472   0.02932671
8804.00   1.63382185   0.02958858
8806.00   1.63936436   0.02958154
8808.00   1.64994454   0.02954017
8810.00   1.64510155   0.02940783
8812.00   1.61681807   0.02828996
8814.00   1.62124491   0.02947719
8816.00   1.63316429   0.03079722
8818.00   1.67640245   0.03497640
8820.00   1.78695571   0.04255642
8822.00   1.90268886   0.05016779
8824.00   1.90783322   0.05509562
8826.00   1.83985972   0.05979431
8828.00   1.74494040   0.06082945
8830.00   1.55609691   0.05856343
8832.00   1.43082023   0.05580955
8834.00   1.37955534   0.05187836
8836.00   1.35246110   0.04729573
8838.00   1.30491078   0.04289036
8840.00   1.24806786   0.03779564
8842.00   1.27434886   0.03634009
8844.00   1.41959870   0.04007019
8846.00   1.47359586   0.04083697
8848.00   1.45490289   0.03976085
8850.00   1.41166687   0.03792025
8852.00   1.35248482   0.03514906
8854.00   1.27467370   0.03132306
8856.00   1.26853549   0.03074123
8858.00   1.35166550   0.03317089
8860.00   1.35998940   0.03493646
8862.00   1.33345771   0.03771042
8864.00   1.28161442   0.03942062
8866.00   1.19093120   0.03966004
8868.00   1.08228314   0.03889231
8870.00   1.02528596   0.03703291
8872.00   0.98226899   0.03213107
8874.00   0.99832791   0.03104879
8876.00   1.09531403   0.03169382
8878.00   1.17088771   0.03479391
8880.00   1.23525822   0.04125928
8882.00   1.26914895   0.04742366
8884.00   1.21262419   0.05014000
8886.00   1.06516457   0.05169065
8888.00   0.98158491   0.05014474
8890.00   0.88684350   0.04319943
8892.00   0.85948312   0.03829824
8894.00   0.92737204   0.03546381
8896.00   1.00647163   0.03427552
8898.00   1.02854156   0.03502715
8900.00   1.02520192   0.03765557
8902.00   1.01200390   0.04012639
8904.00   0.95802891   0.04425094
8906.00   0.94600827   0.04597016
8908.00   0.96499979   0.04515544
8910.00   0.99825162   0.04489087
8912.00   1.05203700   0.04613451
8914.00   1.11760998   0.04838701
8916.00   1.11997235   0.05348802
8918.00   1.09691322   0.06522776
8920.00   1.01191068   0.06597842
8922.00   0.80857694   0.05809231
8924.00   0.67133039   0.04951799
8926.00   0.65183938   0.04166300
8928.00   0.69150460   0.03371239
8930.00   0.73070514   0.03062408
8932.00   0.81684071   0.03399113
8934.00   0.84177935   0.03498249
8936.00   0.81666911   0.03663756
8938.00   0.80683070   0.03791376
8940.00   0.82883477   0.03906116
8942.00   0.84283549   0.03974784
8944.00   0.79783446   0.03917063
8946.00   0.69809622   0.03715198
8948.00   0.68002540   0.03744530
8950.00   0.72143531   0.03836795
8952.00   0.75347823   0.04124033
8954.00   0.82034039   0.04739350
8956.00   0.84229261   0.05191268
8958.00   0.74114567   0.05237675
8960.00   0.55362689   0.05042017
8962.00   0.43977043   0.04758590
8964.00   0.31279251   0.04127409
8966.00   0.27653590   0.03661997
8968.00   0.34704247   0.03209781
8970.00   0.41713035   0.02918218
8972.00   0.44415057   0.02997377
8974.00   0.45957524   0.03276371
8976.00   0.49314216   0.03250953
8978.00   0.54390216   0.02900463
8980.00   0.57539958   0.02971052
8982.00   0.60004228   0.03367479
8984.00   0.61355418   0.03665988
8986.00   0.62096167   0.03868122
8988.00   0.61297745   0.04003156
8990.00   0.56345344   0.03993520
8992.00   0.45142192   0.03774374
8994.00   0.43948275   0.03851905
8996.00   0.51719958   0.04168787
8998.00   0.56273246   0.04382888
9000.00   0.57910651   0.04578020
9002.00   0.58175296   0.04662911
9004.00   0.56807864   0.04485143
9006.00   0.53195244   0.04053912
9008.00   0.55045122   0.03726446
9010.00   0.62860578   0.03282704
9012.00   0.66957390   0.03022648
9014.00   0.70027757   0.02994787
9016.00   0.69843811   0.03057693
9018.00   0.62501872   0.03172880
9020.00   0.50548738   0.03345625
9022.00   0.50483006   0.03316233
9024.00   0.63096154   0.03057614
9026.00   0.66409349   0.02951597
9028.00   0.64488757   0.02918348
9030.00   0.62189382   0.02919671
9032.00   0.60183138   0.02947766
9034.00   0.58336169   0.03006562
9036.00   0.59234846   0.03084344
9038.00   0.63670379   0.03148237
9040.00   0.64522421   0.03335905
9042.00   0.61864638   0.03713182
9044.00   0.61723500   0.03912269
9046.00   0.66625315   0.03902046
9048.00   0.71630406   0.03802071
9050.00   0.70057058   0.03715733
9052.00   0.63857251   0.03571300
9054.00   0.58215111   0.03527344
9056.00   0.47337586   0.03642044
9058.00   0.43896365   0.03591194
9060.00   0.49998736   0.03302612
9062.00   0.57390451   0.02985383
9064.00   0.59804100   0.02865377
9066.00   0.60167700   0.02868065
9068.00   0.59798408   0.02851053
9070.00   0.57375050   0.02904947
9072.00   0.55725408   0.02895242
9074.00   0.53582299   0.02792439
9076.00   0.52623516   0.02741781
9078.00   0.54519504   0.02852709
9080.00   0.57906365   0.03033857
9082.00   0.57576066   0.03050858
9084.00   0.52164805   0.02901184
9086.00   0.52641869   0.02890774
9088.00   0.58864379   0.02901511
9090.00   0.62385541   0.03014263
9092.00   0.60323656   0.03306830
9094.00   0.56280339   0.03617254
9096.00   0.55401707   0.03685987
9098.00   0.56318301   0.03582382
9100.00   0.56124920   0.03534685
9102.00   0.56560367   0.03481438
9104.00   0.55143028   0.03393191
9106.00   0.49529886   0.03246049
9108.00   0.44788256   0.03080830
9110.00   0.48250380   0.02940772
9112.00   0.59114826   0.02784122
9114.00   0.58736944   0.02806212
9116.00   0.48518574   0.03088208
9118.00   0.42998359   0.03167279
9120.00   0.40249985   0.03024714
9122.00   0.39511734   0.02894563
9124.00   0.41839743   0.02974870
9126.00   0.46810654   0.03164497
9128.00   0.46698233   0.03175079
9130.00   0.41314030   0.03074104
9132.00   0.40017116   0.02972695
9134.00   0.39750001   0.02757177
9136.00   0.42570370   0.02639129
9138.00   0.51268476   0.02743944
9140.00   0.62791508   0.02964395
9142.00   0.66824943   0.03137467
9144.00   0.65585142   0.03343632
9146.00   0.64925671   0.03499070
9148.00   0.63182694   0.03675383
9150.00   0.60109675   0.03755362
9152.00   0.55020887   0.03709339
9154.00   0.49134889   0.03592067
9156.00   0.44544789   0.03471657
9158.00   0.39866808   0.03294463
9160.00   0.37912521   0.03172044
9162.00   0.39587188   0.03093542
9164.00   0.39511093   0.02997896
9166.00   0.37336457   0.02870642
9168.00   0.34829697   0.02750032
9170.00   0.32955325   0.02674882
9172.00   0.30937341   0.02631904
9174.00   0.32433310   0.02620206
9176.00   0.38540870   0.02670020
9178.00   0.41924897   0.02688560
9180.00   0.43157059   0.02689456
9182.00   0.44201884   0.02682696
9184.00   0.45838222   0.02654077
9186.00   0.47660843   0.02614259
9188.00   0.50436664   0.02682109
9190.00   0.55706209   0.02876512
9192.00   0.57430297   0.02971956
9194.00   0.56269228   0.03056027
9196.00   0.54823172   0.03070487
9198.00   0.53536183   0.02960697
9200.00   0.52212977   0.02788055
9202.00   0.51769632   0.02736632
9204.00   0.51611781   0.02743621
9206.00   0.52736408   0.02802125
9208.00   0.55638236   0.02922160
9210.00   0.58011049   0.03065857
9212.00   0.60036755   0.03263187
9214.00   0.61399853   0.03445439
9216.00   0.60754943   0.03517744
9218.00   0.57526493   0.03516889
9220.00   0.58856302   0.03515578
9222.00   0.63107413   0.03458647
9224.00   0.68297887   0.03443916
9226.00   0.76598674   0.03492489
9228.00   0.83611828   0.03529097
9230.00   0.84883547   0.03493676
9232.00   0.82216215   0.03411262
9234.00   0.82032055   0.03333721
9236.00   0.82412797   0.03217510
9238.00   0.82539374   0.03141833
9240.00   0.81559813   0.03087310
9242.00   0.82095104   0.03065926
9244.00   0.86297262   0.03094682
9246.00   0.92430454   0.03158267
9248.00   0.94530141   0.03196619
9250.00   0.94406766   0.03250449
9252.00   0.93225479   0.03256134
9254.00   0.87515783   0.03212744
9256.00   0.85922170   0.03174962
9258.00   0.91865182   0.03149148
9260.00   1.00800586   0.03132681
9262.00   1.05641675   0.03141990
9264.00   1.09308040   0.03171616
9266.00   1.11149180   0.03216189
9268.00   1.10480249   0.03267694
9270.00   1.09917247   0.03351463
9272.00   1.09242356   0.03494496
9274.00   1.08635068   0.03629740
9276.00   1.09030282   0.03667668
9278.00   1.10639453   0.03615864
9280.00   1.08522582   0.03757545
9282.00   0.98970306   0.04148271
9284.00   0.98595446   0.04276153
9286.00   1.09936416   0.04119507
9288.00   1.20742846   0.03960458
9290.00   1.22756791   0.04003853
9292.00   1.20145810   0.04147227
9294.00   1.18366122   0.04256980
9296.00   1.10619402   0.04097416
9298.00   1.13047147   0.04584092
9300.00   1.28551507   0.05267602
9302.00   1.39142418   0.06322364
9304.00   1.36868525   0.07878295
9306.00   1.28283858   0.09438135
9308.00   1.23356748   0.10207218
9310.00   1.16966701   0.10581825
9312.00   1.14375591   0.10887420
9314.00   1.18037307   0.11071543
9316.00   1.16543138   0.11072096
9318.00   1.04849064   0.10826842
9320.00   0.91430855   0.10432090
9322.00   0.89519638   0.10075163
9324.00   0.96682256   0.09706331
9326.00   0.97424799   0.09149522
9328.00   0.96584415   0.08158658
9330.00   0.94269323   0.07497215
9332.00   0.87063932   0.07303710
9334.00   0.82409745   0.07336827
9336.00   0.90574425   0.07417826
9338.00   1.09623897   0.07643035
9340.00   1.08455932   0.07802226
9342.00   0.85808909   0.08257333
9344.00   0.78524518   0.08078159
9346.00   0.84073836   0.06978877
9348.00   0.91497517   0.05825690
9350.00   0.96439558   0.05475155
9352.00   1.01162624   0.05622311
9354.00   1.01252055   0.05632815
9356.00   0.92508459   0.05793406
9358.00   0.94161052   0.05891621
9360.00   1.04216802   0.05844715
9362.00   1.13980246   0.06033207
9364.00   1.22468388   0.06148997
9366.00   1.29633391   0.06675453
9368.00   1.30074906   0.08873274
9370.00   1.22411621   0.12095616
9372.00   1.20699179   0.13728291
9374.00   1.34273326   0.15250634
9376.00   1.23713017   0.15851311
9378.00   0.67139465   0.15500189
9380.00   0.08185828   0.14439559
9382.00   0.08505887   0.12646632
9384.00   0.53304738   0.09054412
9386.00   0.71692634   0.06651695
9388.00   0.87937307   0.05551941
9390.00   0.97209311   0.04702381
9392.00   0.97192848   0.04846988
9394.00   0.94580489   0.05318207
9396.00   0.95449752   0.05470596
9398.00   0.97283423   0.05623852
9400.00   0.91656047   0.05718719
9402.00   0.75847310   0.05796586
9404.00   0.67888880   0.05798637
9406.00   0.63380426   0.05670363
9408.00   0.63473314   0.05582312
9410.00   0.70640177   0.05592402
9412.00   0.82606858   0.05675402
9414.00   0.89400774   0.05933421
9416.00   0.97365516   0.06424084
9418.00   0.97197533   0.06741466
9420.00   0.84152943   0.07104918
9422.00   0.78971624   0.07268438
9424.00   0.89545041   0.07126311
9426.00   1.05284762   0.06838242
9428.00   1.09921134   0.06664163
9430.00   1.08834028   0.06253183
9432.00   1.06696033   0.06752508
9434.00   1.02238035   0.07865039
9436.00   0.94935435   0.08966160
9438.00   0.82355022   0.10520004
9440.00   0.69613928   0.11568293
9442.00   0.62442595   0.11046022
9444.00   0.57719678   0.08986318
9446.00   0.60411352   0.08034248
9448.00   0.72034895   0.07498926
9450.00   0.82777464   0.07341947
9452.00   0.96682334   0.07736290
9454.00   1.07842231   0.08326645
9456.00   1.12032509   0.09055036
9458.00   1.11433148   0.09909514
9460.00   1.05546284   0.09787238
9462.00   0.86331123   0.08461057
9464.00   0.80802441   0.07827532
9466.00   0.86286658   0.07486596
9468.00   0.92266017   0.07473602
9470.00   0.95580316   0.07909155
9472.00   0.98294222   0.08594467
9474.00   0.99902838   0.09040494
9476.00   1.05078936   0.09663262
9478.00   0.97151858   0.09647089
9480.00   0.74410301   0.09136764
9482.00   0.55887049   0.08389935
9484.00   0.41291544   0.07121165
9486.00   0.32145187   0.05510887
9488.00   0.38196021   0.04666754
9490.00   0.63084549   0.04512312
9492.00   0.66062993   0.04859827
9494.00   0.55172104   0.05917795
9496.00   0.44873160   0.06816885
9498.00   0.30929422   0.07948406
9500.00   0.19711457   0.08680441
9502.00   0.19979349   0.08406733
9504.00   0.28850326   0.07277634
9506.00   0.33024991   0.06607215
9508.00   0.35603914   0.05851147
9510.00   0.40793306   0.05396102
9512.00   0.50866854   0.05323436
9514.00   0.58201945   0.05451036
9516.00   0.58062792   0.05746709
9518.00   0.53268462   0.06180033
9520.00   0.49029830   0.06296517
9522.00   0.41395518   0.06290569
9524.00   0.37409958   0.06103361
9526.00   0.35594335   0.05558896
9528.00   0.34743375   0.05086930
9530.00   0.34366083   0.04859820
9532.00   0.35001212   0.04784706
9534.00   0.37568429   0.04816021
9536.00   0.41782784   0.05001445
9538.00   0.47370872   0.05207445
9540.00   0.55431378   0.05459636
9542.00   0.63019443   0.05770233
9544.00   0.70766902   0.06142190
9546.00   0.77520764   0.06542876
9548.00   0.81473553   0.06973778
9550.00   0.84435385   0.07507450
9552.00   0.79619342   0.07630229
9554.00   0.67695665   0.07410726
9556.00   0.53295434   0.07206967
9558.00   0.29880735   0.06731547
9560.00   0.11106422   0.06522658
9562.00   0.09974731   0.07205503
9564.00   0.20928328   0.08380833
9566.00   0.27784798   0.08935605
9568.00   0.42332503   0.09502396
9570.00   0.44170484   0.09488937
9572.00   0.28685504   0.08792393
9574.00   0.19229513   0.07947732
9576.00   0.29595536   0.07192245
9578.00   0.49385950   0.06377139
9580.00   0.54302329   0.05676990
9582.00   0.50699794   0.04983075
9584.00   0.46985605   0.04592978
9586.00   0.37933066   0.04635698
9588.00   0.31150374   0.04750510
9590.00   0.27450979   0.04940412
9592.00   0.26369044   0.05144896
9594.00   0.30233735   0.05098578
9596.00   0.41150975   0.04753669
9598.00   0.45013320   0.04811558
9600.00   0.43660107   0.05137735
9602.00   0.44596747   0.05454644
9604.00   0.49716622   0.05852925
9606.00   0.54181546   0.06168384
9608.00   0.52451497   0.06189606
9610.00   0.45808658   0.05985926
9612.00   0.43880793   0.05863300
9614.00   0.46209794   0.05613284
9616.00   0.44380438   0.05569637
9618.00   0.38163742   0.05792891
9620.00   0.31376895   0.06008617
9622.00   0.25090116   0.06084326
9624.00   0.18708538   0.06095893
9626.00   0.20649768   0.05928848
9628.00   0.33155841   0.05430158
9630.00   0.39233786   0.05166890
9632.00   0.42870748   0.05061494
9634.00   0.44713959   0.05002987
9636.00   0.44680107   0.04990092
9638.00   0.42941537   0.05004866
9640.00   0.40393192   0.04881034
9642.00   0.36387286   0.04576556
9644.00   0.32102358   0.04446230
9646.00   0.25508496   0.04398956
9648.00   0.21367681   0.04417266
9650.00   0.21108370   0.04502101
9652.00   0.22328655   0.04645845
9654.00   0.21797641   0.04834721
9656.00   0.20144941   0.05078075
9658.00   0.21100436   0.05311376
9660.00   0.22863576   0.05557378
9662.00   0.27320865   0.05802532
9664.00   0.37649414   0.06086814
9666.00   0.46458790   0.06323602
9668.00   0.45671242   0.06418244
9670.00   0.38051450   0.06404480
9672.00   0.35199025   0.06512849
9674.00   0.32670891   0.06674881
9676.00   0.32318562   0.06852944
9678.00   0.35155275   0.07172081
9680.00   0.37774837   0.07331438
9682.00   0.38929802   0.07122990
9684.00   0.39191648   0.06664102
9686.00   0.35348856   0.06397916
9688.00   0.24706246   0.06103307
9690.00   0.20097280   0.06022872
9692.00   0.18352947   0.06177484
9694.00   0.18491149   0.06349728
9696.00   0.20615843   0.06387077
9698.00   0.24420634   0.06489404
9700.00   0.28635275   0.07110306
9702.00   0.34494850   0.08323564
9704.00   0.38884825   0.08669451
9706.00   0.45813239   0.08592056
9708.00   0.46397513   0.08331597
9710.00   0.36267075   0.07660303
9712.00   0.24370168   0.06920353
9714.00   0.22495373   0.06910484
9716.00   0.26884067   0.07487123
9718.00   0.29440942   0.07585609
9720.00   0.39144474   0.07401437
9722.00   0.36344317   0.07412036
9724.00   0.14852442   0.07754518
9726.00   -0.05123558   0.07956816
9728.00   -0.07677845   0.07598769
9730.00   -0.00151073   0.06789336
9732.00   0.07846121   0.06514986
9734.00   0.25840434   0.06618860
9736.00   0.33525380   0.06659488
9738.00   0.33031252   0.06819234
9740.00   0.30534649   0.06881990
9742.00   0.27586830   0.06719624
9744.00   0.23587559   0.06419501
9746.00   0.22723949   0.06193657
9748.00   0.26305756   0.05918202
9750.00   0.24576089   0.05754288
9752.00   0.19400693   0.05672684
9754.00   0.13617998   0.05646713
9756.00   0.06199850   0.05756199
9758.00   -0.00793209   0.05861462
9760.00   -0.01769308   0.05621661
9762.00   0.01130327   0.04923242
9764.00   0.07591055   0.04755355
9766.00   0.20709413   0.04960917
9768.00   0.31587836   0.05194295
9770.00   0.41859734   0.05566217
9772.00   0.49209219   0.05863504
9774.00   0.49234897   0.05789267
9776.00   0.42959639   0.05387475
9778.00   0.38236851   0.05408769
9780.00   0.24269484   0.05502402
9782.00   0.26870686   0.05987583
9784.00   0.54432261   0.06870946
9786.00   0.76593524   0.07740100
9788.00   0.72471350   0.08526892
9790.00   0.52913719   0.09288084
9792.00   0.36123508   0.09459507
9794.00   0.04412650   0.09094923
9796.00   -0.04730527   0.08802196
9798.00   0.05608367   0.08309653
9800.00   0.18701611   0.07890247
9802.00   0.31130970   0.07638399
9804.00   0.44214651   0.07528064
9806.00   0.49710798   0.07691196
9808.00   0.48449710   0.08328776
9810.00   0.48896751   0.08433498
9812.00   0.47104093   0.08265091
9814.00   0.47064143   0.07981955
9816.00   0.51450223   0.07487343
9818.00   0.55485821   0.06913829
9820.00   0.50941086   0.06646168
9822.00   0.38000518   0.06632110
9824.00   0.34157339   0.06480399
9826.00   0.37574351   0.06299020
9828.00   0.37091282   0.06130541
9830.00   0.32105187   0.05964736
9832.00   0.26365304   0.05817241
9834.00   0.21987365   0.05679801
9836.00   0.17538610   0.05532915
9838.00   0.18672018   0.05686935
9840.00   0.27907017   0.06104479
9842.00   0.31180394   0.06503262
9844.00   0.29090768   0.07014810
9846.00   0.27019507   0.07421780
9848.00   0.28249854   0.07656749
9850.00   0.30701110   0.07777355
9852.00   0.28981605   0.07672451
9854.00   0.22765994   0.07223170
9856.00   0.19563819   0.06919612
9858.00   0.18135987   0.06357377
9860.00   0.16195697   0.06267794
9862.00   0.10757161   0.06929918
9864.00   0.06018586   0.07925609
9866.00   0.12926567   0.08867940
9868.00   0.32050624   0.10111354
9870.00   0.43371737   0.10649252
9872.00   0.59111643   0.10888358
9874.00   0.61508250   0.10816309
9876.00   0.41887844   0.10295598
9878.00   0.18221599   0.09539071
9880.00   0.13723841   0.08879812
9882.00   0.20582025   0.08068199
9884.00   0.25123611   0.07756875
9886.00   0.35084990   0.07660623
9888.00   0.40161642   0.08179388
9890.00   0.42182940   0.09315118
9892.00   0.40108529   0.10575555
9894.00   0.31164676   0.11964624
9896.00   0.16211112   0.13499042
9898.00   0.07636750   0.13367690
9900.00   -0.00545406   0.11198626
9902.00   -0.02586486   0.10063738
9904.00   0.02181027   0.09327758
9906.00   0.08704624   0.09295661
9908.00   0.15077280   0.10383686
9910.00   0.22449192   0.11965746
9912.00   0.30542350   0.12643868
9914.00   0.49201480   0.12982593
9916.00   0.44623390   0.13168994
9918.00   0.13384283   0.13195214
9920.00   -0.07090561   0.12969431
9922.00   -0.09218614   0.12305479
9924.00   -0.01887314   0.11436613
9926.00   0.09880621   0.11001404
9928.00   0.32890791   0.10884546
9930.00   0.44172791   0.10620175
9932.00   0.50965339   0.09750281
9934.00   0.52973127   0.10066198
9936.00   0.46348482   0.11705085
9938.00   0.39237085   0.13634461
9940.00   0.41995093   0.15395030
9942.00   0.51515251   0.17323396
9944.00   0.54849774   0.18230391
9946.00   0.51821536   0.18528457
9948.00   0.56310660   0.18628630
9950.00   0.71666712   0.18251820
9952.00   0.84230852   0.17915088
9954.00   0.86661083   0.18070735
9956.00   0.82791001   0.18478967
9958.00   0.66897625   0.18444192
9960.00   0.20692344   0.18375722
9962.00   0.11134944   0.17714393
9964.00   0.37767291   0.16051200
9966.00   0.56892836   0.14548631
9968.00   0.50961411   0.13874887
9970.00   0.35114723   0.13645077
9972.00   0.30604103   0.13247350
9974.00   0.32271436   0.13002296
9976.00   0.29528812   0.12589584
9978.00   0.23731440   0.12012858
9980.00   0.20103565   0.11500610
9982.00   0.18829915   0.11089569
9984.00   0.19743405   0.10747289
9986.00   0.24024010   0.10463373
9988.00   0.31879193   0.10226802
9990.00   0.39453501   0.10171238
9992.00   0.52869135   0.10304011
9994.00   0.57263929   0.10485392
9996.00   0.47234741   0.10615291
9998.00   0.38094935   0.10938071
10000.00   0.45668921   0.11565107
10002.00   0.64718938   0.12338568
10004.00   0.67665160   0.13906565
10006.00   0.57839119   0.16076639
10008.00   0.54041350   0.17997643
10010.00   0.57913560   0.20191419
10012.00   0.56037802   0.21833755
10014.00   0.35780662   0.22787520
10016.00   0.06172927   0.23246002
10018.00   0.07388918   0.22471768
10020.00   0.43365139   0.19447507
10022.00   0.52913052   0.17859109
10024.00   0.49652770   0.17039916
10026.00   0.42993051   0.16493350
10028.00   0.31332132   0.16347225
10030.00   0.18609741   0.16363499
10032.00   0.20995596   0.15481605
10034.00   0.40249124   0.13400322
10036.00   0.42578456   0.12537003
10038.00   0.32402670   0.12699848
10040.00   0.26984447   0.12742777
10042.00   0.26046094   0.12595978
10044.00   0.29280210   0.12457005
10046.00   0.39768773   0.12376495
10048.00   0.57594144   0.12257552
10050.00   0.73239666   0.12619026
10052.00   1.02688909   0.13583849
10054.00   1.06030715   0.14135671
10056.00   0.71408135   0.14330515
10058.00   0.38988814   0.14454848
10060.00   0.42434999   0.14692460
10062.00   0.66816467   0.14958921
10064.00   0.67771786   0.15034342
10066.00   0.40239605   0.14688466
10068.00   0.49861905   0.14923513
10070.00   1.04863858   0.15772948
10072.00   1.45485973   0.16481793
10074.00   1.44764066   0.16655217
10076.00   1.21619964   0.16657645
10078.00   0.98041749   0.17375313
10080.00   0.52440637   0.18891166
10082.00   0.32205528   0.19557488
10084.00   0.22719847   0.20127282
10086.00   0.25547239   0.20019296
10088.00   0.48448625   0.18697047
10090.00   0.78257108   0.16830458
10092.00   0.86853224   0.16183351
10094.00   0.81495523   0.16343611
10096.00   0.80992782   0.16509061
10098.00   0.81739056   0.17231408
10100.00   0.77044117   0.17576724
10102.00   0.66385067   0.17629427
10104.00   0.51798189   0.17384072
10106.00   0.32648143   0.16586341
10108.00   0.06207328   0.15077381
10110.00   -0.00532496   0.14507982
10112.00   -0.02455625   0.13959289
10114.00   0.19406223   0.14854559
10116.00   0.89917827   0.17453226
10118.00   1.41254258   0.19743560
10120.00   1.20595801   0.21097864
10122.00   0.56213850   0.22064218
10124.00   0.33251920   0.22241651
10126.00   0.20802957   0.21493284
10128.00   0.22974423   0.20838757
10130.00   0.48901179   0.19864501
10132.00   0.71555400   0.18897703
10134.00   0.83251411   0.17957298
10136.00   0.89125282   0.17108780
10138.00   0.86124933   0.16917299
10140.00   0.63251972   0.17072383
10142.00   0.67033517   0.18058078
10144.00   0.97477579   0.20490348
10146.00   1.14501500   0.21738587
10148.00   1.16052675   0.21410552
10150.00   1.04866588   0.20564272
10152.00   0.70456904   0.20525572
10154.00   -0.02209727   0.20921177
10156.00   -0.03690276   0.20826420
10158.00   0.63229758   0.19792190
10160.00   1.01789367   0.20056517
10162.00   1.20533061   0.22030368
10164.00   1.22786689   0.23989299
10166.00   0.98164731   0.24821961
10168.00   0.47001332   0.25125432
10170.00   0.30339742   0.25564942
10172.00   0.12036261   0.25729266
10174.00   0.42425698   0.26244816
10176.00   1.58447158   0.27659360
10178.00   2.42362761   0.28226918
10180.00   2.20119619   0.26653495
10182.00   1.39322412   0.23595475
10184.00   1.06279886   0.22605455
10186.00   0.82278103   0.23450352
10188.00   0.70038605   0.23275375
10190.00   0.72034502   0.22763754
10192.00   0.79436928   0.22220507
10194.00   0.96302736   0.21492644
10196.00   1.14905250   0.20857751
10198.00   1.08250618   0.21268392
10200.00   0.68565774   0.22270203
10202.00   0.73563558   0.24032979
10204.00   1.23188841   0.27586833
10206.00   1.48071694   0.29146147
10208.00   1.39088559   0.28451100
10210.00   1.18452358   0.26818660
10212.00   1.05023515   0.25454193
10214.00   0.90207118   0.23512124
10216.00   0.77754247   0.22922409
10218.00   0.64868557   0.23553328
10220.00   0.56459296   0.24157472
10222.00   0.59186405   0.25213492
10224.00   0.55951321   0.25966898
10226.00   0.29156074   0.25674564
10228.00   -0.13948438   0.24647805
10230.00   -0.30373171   0.24502429
10232.00   -0.37034601   0.25396833
10234.00   -0.26652026   0.25052261
10236.00   0.07867789   0.23297940
10238.00   0.43871748   0.21730211
10240.00   0.74597943   0.21374020
10242.00   1.03285491   0.21572094
10244.00   1.19212472   0.20982648
10246.00   1.28663397   0.19770305
10248.00   1.23319435   0.18930863
10250.00   0.92001599   0.17918389
10252.00   0.72868872   0.17477867
10254.00   0.77103078   0.18096022
10256.00   0.89068753   0.19030789
10258.00   0.89579022   0.19079223
10260.00   0.89363372   0.18362239
10262.00   0.73329806   0.18701068
10264.00   0.32762828   0.19830279
10266.00   0.07665275   0.20727628
10268.00   -0.01076373   0.21461965
10270.00   -0.01189969   0.22093625
10272.00   0.04088595   0.22293754
10274.00   0.17421591   0.21831881
10276.00   0.27598071   0.24229695
10278.00   0.44279504   0.29229227
10280.00   0.48633188   0.32106972
10282.00   0.29059032   0.33819607
10284.00   0.21514077   0.35081154
10286.00   0.57080227   0.36353979
10288.00   1.18665397   0.37412372
10290.00   1.34474921   0.36800262
10292.00   1.22791386   0.34180444
10294.00   1.06042552   0.32031757
10296.00   0.64794701   0.29322973
10298.00   0.35383034   0.26896632
10300.00   0.36943799   0.25145003
10302.00   0.50272274   0.24003239
10304.00   0.34970477   0.23746672
10306.00   -0.17052943   0.25134307
10308.00   -0.15977032   0.25039437
10310.00   0.24414699   0.23668484
10312.00   0.65993243   0.23086755
10314.00   1.13026190   0.24191807
10316.00   1.56684470   0.25379848
10318.00   1.72585607   0.24579093
10320.00   1.67734921   0.21980478
10322.00   1.59587610   0.20687087
10324.00   1.41215134   0.19727986
10326.00   1.16853392   0.19376883
10328.00   0.78453463   0.20101473
10330.00   0.42996734   0.20839471
10332.00   0.23987417   0.20539102
10334.00   0.13483512   0.19541624
10336.00   0.34125897   0.19854480
10338.00   1.11943340   0.21402079
10340.00   1.39175963   0.22139387
10342.00   1.26135957   0.22524960
10344.00   1.01934135   0.22580862
10346.00   0.72700441   0.22117516
10348.00   0.36902228   0.21272045
10350.00   0.31749576   0.21065408
10352.00   0.51953816   0.21424015
10354.00   0.70590854   0.21418083
10356.00   1.11286390   0.21213119
10358.00   1.30308568   0.21074910
10360.00   1.06184852   0.20952713
10362.00   0.65911484   0.20970359
10364.00   0.58128357   0.21587010
10366.00   0.58527678   0.22730725
10368.00   0.90894645   0.23741521
10370.00   1.92905784   0.25281012
10372.00   2.33021498   0.25964567
10374.00   1.85084379   0.25647065
10376.00   1.10120547   0.24828367
10378.00   0.66827619   0.23952009
10380.00   0.24424419   0.22734042
10382.00   0.22783278   0.21549258
10384.00   0.83773959   0.19876580
10386.00   0.99752718   0.18873063
10388.00   0.57481128   0.18582164
10390.00   0.23574023   0.18771632
10392.00   0.53038287   0.19452971
10394.00   1.21400917   0.20603722
10396.00   1.34714127   0.20956132
10398.00   1.12117374   0.20948477
10400.00   0.95984310   0.20669976
10402.00   0.64867359   0.19436471
10404.00   0.48810896   0.18897305
10406.00   0.72003722   0.20041096
10408.00   1.12440741   0.21962024
10410.00   1.02897620   0.23247533
10412.00   0.24291509   0.24810033
10414.00   0.31334889   0.25372043
10416.00   1.26498640   0.25122848
10418.00   1.74010158   0.24776718
10420.00   1.34934986   0.24589312
10422.00   0.64663196   0.24177867
10424.00   0.30441600   0.22840184
10426.00   -0.04077435   0.20055048
10428.00   0.08064397   0.18892862
10430.00   0.92600393   0.18954213
10432.00   1.28942776   0.19151889
10434.00   1.00946367   0.19864760
10436.00   0.61541629   0.20421444
10438.00   0.57492274   0.19827546
10440.00   0.70120019   0.18186349
10442.00   0.78028738   0.18138166
10444.00   0.88347763   0.19443703
10446.00   1.00795579   0.20150401
10448.00   1.21037292   0.20754836
10450.00   1.35433197   0.20963766
10452.00   1.33421171   0.20365635
10454.00   1.20839524   0.19145560
10456.00   1.14995325   0.18692598
10458.00   1.18874919   0.18584475
10460.00   1.02523148   0.18728721
10462.00   0.49314305   0.19269077
10464.00   0.24284673   0.19855538
10466.00   0.62471533   0.20533352
10468.00   1.27490377   0.21168967
10470.00   1.42554736   0.21125950
10472.00   1.28482890   0.20398735
10474.00   1.16684496   0.19948657
10476.00   0.83785176   0.19402388
10478.00   0.69580519   0.18991642
10480.00   0.83134097   0.18772393
10482.00   1.07896626   0.18665785
10484.00   1.27690804   0.18597957
10486.00   1.55690825   0.18634549
10488.00   1.54114473   0.18578736
10490.00   1.25150037   0.18502143
10492.00   0.98667866   0.18375644
10494.00   0.62595016   0.18074016
10496.00   0.36681035   0.17880499
10498.00   0.45761031   0.18117267
10500.00   0.81521136   0.18664767
10502.00   0.94101208   0.18911967
10504.00   0.96406418   0.18962994
10506.00   1.00722444   0.19161387
10508.00   1.07441950   0.19527569
10510.00   1.09220970   0.19822486
10512.00   1.02928507   0.19898978
10514.00   0.90325749   0.19864023
10516.00   0.70494103   0.20008084
10518.00   0.25084606   0.20283289
10520.00   0.17010082   0.20492309
10522.00   0.43547413   0.20804062
10524.00   0.63078207   0.20910971
10526.00   0.64251560   0.20705841
10528.00   0.58863837   0.20311223
10530.00   0.57137281   0.19886060
10532.00   0.49888104   0.19160359
10534.00   0.59874839   0.19005431
10536.00   0.96458173   0.19393328
10538.00   1.11731493   0.19652833
10540.00   0.94779575   0.19770944
10542.00   0.71060681   0.19832174
10544.00   0.68795133   0.19843769
10546.00   0.79597825   0.19797392
10548.00   0.76430589   0.19732693
10550.00   0.60930717   0.19546315
10552.00   0.55144978   0.19517606
10554.00   0.57251644   0.19660813
10556.00   0.64049006   0.19847590
10558.00   0.76407737   0.19954535
10560.00   0.94385660   0.20033669
10562.00   0.99992961   0.20458081
10564.00   0.89350206   0.20908269
10566.00   0.95245373   0.21940631
10568.00   1.27719009   0.24328545
10570.00   1.40750849   0.25464070
10572.00   1.05531907   0.24001698
10574.00   0.47136477   0.20967922
10576.00   0.29272926   0.20025912
10578.00   0.29086614   0.20476601
10580.00   0.44711944   0.20702073
10582.00   0.98040783   0.21518636
10584.00   1.29200840   0.21951450
10586.00   1.22087348   0.21754082
10588.00   0.99804080   0.21314888
10590.00   0.89892465   0.21134719
10592.00   0.81509447   0.21016142
10594.00   0.73792654   0.20959637
10596.00   0.64415306   0.20993121
10598.00   0.61141497   0.21035075
10600.00   0.68959188   0.21144098
10602.00   0.75934362   0.21207254
10604.00   0.66733170   0.21058783
10606.00   0.44251272   0.20725146
10608.00   0.47308475   0.20642738
10610.00   0.78993291   0.20789178
10612.00   0.89138734   0.20787600
10614.00   0.78007078   0.20622329
10616.00   0.66636896   0.20493290
10618.00   0.67150122   0.20538469
10620.00   0.72909033   0.20680793
10622.00   0.74907547   0.20712441
10624.00   0.78398919   0.20751294
10626.00   0.76417500   0.20648694
10628.00   0.67448705   0.20387417
10630.00   0.60404795   0.20109645
10632.00   0.56098634   0.19804014
10634.00   0.55071020   0.19513322
10636.00   0.65669942   0.19496939
10638.00   0.92957103   0.19804078
10640.00   1.04712677   0.19865017
10642.00   1.10818732   0.19860709
10644.00   1.10892689   0.19769442
10646.00   1.02994549   0.19554465
10648.00   0.90810525   0.19280168
10650.00   0.79051214   0.19044130
10652.00   0.62241226   0.18784824
10654.00   0.61198038   0.18627378
10656.00   0.78991175   0.18634115
10658.00   0.86072314   0.18501475
10660.00   0.78740996   0.18131854
10662.00   0.72798806   0.17810424
10664.00   0.83113521   0.17863074
10666.00   1.04591966   0.18189007
10668.00   1.07297528   0.17995751
10670.00   0.94808149   0.17276923
10672.00   0.87966442   0.16866092
10674.00   0.80490363   0.16587371
10676.00   0.77286738   0.16481820
10678.00   0.83591312   0.16685957
10680.00   0.95396256   0.17076823
10682.00   0.97001266   0.17047366
10684.00   0.90635842   0.16727582
10686.00   0.87766653   0.16410340
10688.00   0.87973189   0.15894079
10690.00   0.83386385   0.15477270
10692.00   0.68120223   0.15268511
10694.00   0.50456285   0.15162624
10696.00   0.48123109   0.15022202
10698.00   0.58169317   0.14909129
10700.00   0.63298970   0.14789128
10702.00   0.69052631   0.14679790
10704.00   0.74784750   0.14560893
10706.00   0.79261714   0.14422242
10708.00   0.85041696   0.14285342
10710.00   0.97206414   0.14196639
10712.00   1.17165351   0.14177150
10714.00   1.18410778   0.13929889
10716.00   1.04166937   0.13386312
10718.00   0.91087049   0.13020550
10720.00   0.72488081   0.12823170
10722.00   0.58316541   0.12682498
10724.00   0.57581747   0.12509128
10726.00   0.65982509   0.12342595
10728.00   0.74241847   0.12424288
10730.00   0.92135149   0.12937109
10732.00   0.98115361   0.12997793
10734.00   0.93524176   0.12784393
10736.00   0.88139665   0.12382742
10738.00   0.87125796   0.11532379
10740.00   0.86130798   0.10470369
10742.00   0.75622243   0.10823544
10744.00   0.54144883   0.12853229
10746.00   0.39505062   0.13205770
10748.00   0.22001767   0.12680700
10750.00   0.13985123   0.12072227
10752.00   0.22718970   0.11370061
10754.00   0.36363652   0.10630478
10756.00   0.34171399   0.10372394
10758.00   0.18987983   0.10647892
10760.00   0.18457001   0.10342596
10762.00   0.23169567   0.09381082
10764.00   0.35399944   0.08915886
10766.00   0.60820961   0.09164605
10768.00   0.86844873   0.09599057
10770.00   1.00086486   0.09840803
10772.00   1.06290746   0.10092582
10774.00   1.08397937   0.10077336
10776.00   1.02752924   0.09752419
10778.00   0.97848397   0.09538601
10780.00   0.92324454   0.09303170
10782.00   0.85771537   0.09192964
10784.00   0.77743638   0.09424674
10786.00   0.68542373   0.09852409
10788.00   0.61371589   0.09702645
10790.00   0.51794016   0.08863784
10792.00   0.50819087   0.08535188
10794.00   0.58013040   0.08479986
10796.00   0.66769403   0.08571460
10798.00   0.77295113   0.08911742
10800.00   0.88074058   0.09310505
10802.00   0.89799547   0.09148319
10804.00   0.83420640   0.08296327
10806.00   0.79097188   0.08110148
10808.00   0.70458603   0.08500931
10810.00   0.66976142   0.08612580
10812.00   0.70926058   0.08241733
10814.00   0.77973211   0.07767578
10816.00   0.83602303   0.07726396
10818.00   0.90738863   0.07998646
10820.00   0.93092757   0.08043551
10822.00   0.93599379   0.08044864
10824.00   0.89411247   0.07971802
10826.00   0.76937121   0.07770929
10828.00   0.65032178   0.07561104
10830.00   0.61852086   0.07459569
10832.00   0.63929337   0.07419121
10834.00   0.64658487   0.07373668
10836.00   0.64117008   0.07239795
10838.00   0.69212902   0.07359122
10840.00   0.81358850   0.07827398
10842.00   0.93310422   0.08177743
10844.00   1.06291759   0.08225104
10846.00   1.17857754   0.08102466
10848.00   1.01156616   0.07896861
10850.00   0.37075201   0.07521714
10852.00   0.22726075   0.07110897
10854.00   0.40595719   0.06374586
10856.00   0.61745262   0.05927314
10858.00   0.87372166   0.05997591
10860.00   1.11481941   0.06422005
