# File created by shivutils (I.Shivvers)
# wl(A)   flm    er(optional)
3430.00   0.58950974   0.27591100
3432.00   0.07256491   0.27992770
3434.00   0.86380226   0.29008512
3436.00   -0.12190509   0.30704171
3438.00   0.78506134   0.30714717
3440.00   1.05329951   0.31239980
3442.00   0.20614937   0.30755282
3444.00   0.76622106   0.31602930
3446.00   -0.18283258   0.32471603
3448.00   0.21613481   0.33247863
3450.00   0.16435603   0.34733182
3452.00   0.57358851   0.36215848
3454.00   0.30540326   0.36777795
3456.00   0.49117489   0.36714723
3458.00   0.20424084   0.36045303
3460.00   -0.44031540   0.36925392
3462.00   0.36346756   0.35165834
3464.00   1.05925497   0.36038518
3466.00   -0.15056542   0.35066272
3468.00   1.27076666   0.36175239
3470.00   -0.16544971   0.35531445
3472.00   0.46544926   0.36163383
3474.00   0.63346930   0.34607145
3476.00   0.65893517   0.35121250
3478.00   0.82604020   0.37353846
3480.00   0.73605194   0.39126356
3482.00   0.33554662   0.40140020
3484.00   0.53618413   0.39189857
3486.00   0.06341659   0.38455055
3488.00   0.15899340   0.38225082
3490.00   0.43442610   0.37212864
3492.00   -0.47827400   0.36141628
3494.00   -0.21130583   0.36007100
3496.00   0.07745879   0.34973481
3498.00   0.45226393   0.35123837
3500.00   0.10657331   0.35106723
3502.00   0.79755238   0.34817665
3504.00   0.52882275   0.34012406
3506.00   -0.28021247   0.34161809
3508.00   0.23299224   0.34666474
3510.00   0.53881510   0.35091136
3512.00   0.39750613   0.34476619
3514.00   0.74838052   0.34107586
3516.00   -0.03642869   0.33211423
3518.00   -0.26907822   0.33640595
3520.00   0.39024065   0.33656459
3522.00   0.79719214   0.33342653
3524.00   0.07429433   0.32378216
3526.00   0.97191322   0.32316926
3528.00   0.74222867   0.32159015
3530.00   0.44397235   0.32445683
3532.00   0.43382348   0.32368883
3534.00   0.58259257   0.32601830
3536.00   0.15479369   0.32410908
3538.00   0.56949158   0.32242001
3540.00   0.43081184   0.33922530
3542.00   0.80695653   0.35614024
3544.00   -0.00090227   0.37041447
3546.00   -0.49201786   0.35922092
3548.00   1.02608997   0.34899709
3550.00   0.14700477   0.34516848
3552.00   -0.07531144   0.34262677
3554.00   0.54154745   0.34667985
3556.00   0.88234580   0.34490367
3558.00   0.65918791   0.34752573
3560.00   0.86081049   0.33979837
3562.00   0.12136258   0.32191082
3564.00   0.61904213   0.31240890
3566.00   0.48548969   0.31527280
3568.00   0.92755844   0.31543077
3570.00   0.84766568   0.31061412
3572.00   0.25767946   0.31522606
3574.00   0.08112224   0.31485235
3576.00   0.08476004   0.30280022
3578.00   0.50065798   0.30196147
3580.00   0.45299694   0.29052783
3582.00   -0.15381592   0.29054737
3584.00   -0.08128379   0.26949132
3586.00   0.57507801   0.26660055
3588.00   0.41979377   0.27357885
3590.00   0.25510803   0.28995530
3592.00   0.39338908   0.28251485
3594.00   0.41337151   0.27402904
3596.00   0.17841215   0.26689633
3598.00   0.70020926   0.26385270
3600.00   -0.07219413   0.26559062
3602.00   0.39212986   0.26160480
3604.00   0.37132506   0.25619910
3606.00   1.10368352   0.25861117
3608.00   0.37161001   0.25354666
3610.00   -0.01564280   0.25399730
3612.00   -0.11011956   0.26802859
3614.00   0.21553010   0.28786614
3616.00   -0.02150586   0.28423580
3618.00   0.68469663   0.26791200
3620.00   0.07331650   0.25997527
3622.00   0.43006992   0.26276645
3624.00   0.66139540   0.25904297
3626.00   0.46796982   0.25695226
3628.00   0.43525062   0.26258759
3630.00   0.59020182   0.27905065
3632.00   0.91743559   0.28130521
3634.00   0.64258712   0.27107006
3636.00   0.81981729   0.27045694
3638.00   0.32952993   0.26671917
3640.00   0.74763636   0.26785250
3642.00   0.22030542   0.28500750
3644.00   0.60108529   0.29122384
3646.00   0.89709104   0.29759212
3648.00   0.51266288   0.38683451
3650.00   0.29322187   0.46565105
3652.00   -0.95271000   0.44686842
3654.00   1.11612356   0.39104796
3656.00   1.16490870   0.35540054
3658.00   0.86367146   0.28796917
3660.00   0.73808743   0.28241533
3662.00   0.16166650   0.32844206
3664.00   0.45925978   0.32949882
3666.00   -0.21452485   0.26507064
3668.00   0.12172319   0.23189448
3670.00   1.02145139   0.23178837
3672.00   1.23644060   0.22634858
3674.00   0.54359720   0.21927510
3676.00   0.10041651   0.21137968
3678.00   0.51399387   0.20992314
3680.00   0.35980842   0.20716221
3682.00   0.56028718   0.20370774
3684.00   0.83661558   0.20503865
3686.00   0.14893815   0.19708223
3688.00   0.49650588   0.19948567
3690.00   0.11225800   0.20523982
3692.00   0.14782713   0.20932797
3694.00   0.29547123   0.20128268
3696.00   -0.26859795   0.20590274
3698.00   0.00902136   0.21030943
3700.00   0.60311679   0.21306090
3702.00   0.46103655   0.21016931
3704.00   0.24853988   0.20612882
3706.00   0.27799225   0.20682830
3708.00   0.55219225   0.20350598
3710.00   0.39921729   0.19958369
3712.00   0.40574572   0.20084263
3714.00   0.77789219   0.19887459
3716.00   0.29600345   0.19293801
3718.00   0.45184445   0.19123099
3720.00   0.62038881   0.19465264
3722.00   0.33484391   0.19083927
3724.00   0.46591396   0.18765617
3726.00   0.78578792   0.19127735
3728.00   0.14893289   0.19181062
3730.00   0.38304841   0.19206673
3732.00   0.03083288   0.19265490
3734.00   0.48790241   0.19584687
3736.00   0.35299202   0.19136168
3738.00   0.72048158   0.19841968
3740.00   0.15746289   0.20339098
3742.00   0.56975394   0.19682616
3744.00   0.22049223   0.18981071
3746.00   0.06952983   0.18496681
3748.00   0.15656791   0.18084408
3750.00   0.47406296   0.17998705
3752.00   0.41827882   0.17997003
3754.00   -0.14419808   0.18225134
3756.00   0.61270657   0.18147999
3758.00   0.22258242   0.18309171
3760.00   0.15745400   0.18476340
3762.00   0.21880365   0.18396140
3764.00   0.30543138   0.17328677
3766.00   0.22573235   0.16691530
3768.00   0.36711779   0.16687704
3770.00   0.30485671   0.17016706
3772.00   0.18259718   0.17154700
3774.00   0.27071252   0.17314723
3776.00   0.14321261   0.17124238
3778.00   0.41610179   0.16869348
3780.00   0.04519719   0.16579271
3782.00   0.37411300   0.16439412
3784.00   0.04182565   0.16568494
3786.00   0.63906302   0.16454870
3788.00   0.42010391   0.16521059
3790.00   0.57471304   0.16970886
3792.00   0.17142947   0.17042771
3794.00   0.10169590   0.16398206
3796.00   0.08810069   0.15813625
3798.00   0.03058318   0.15546106
3800.00   -0.03714955   0.15970913
3802.00   0.11443343   0.16155494
3804.00   0.24291221   0.16431533
3806.00   0.00225101   0.15928623
3808.00   0.23838868   0.15684925
3810.00   0.85870147   0.16055634
3812.00   0.61542910   0.16358506
3814.00   -0.02518180   0.16124580
3816.00   0.44123781   0.16512783
3818.00   0.49337164   0.16167677
3820.00   0.26745189   0.16286882
3822.00   0.47659286   0.16118478
3824.00   0.05518418   0.15644161
3826.00   0.01901906   0.15931690
3828.00   0.21532494   0.16776641
3830.00   -0.22323251   0.17269156
3832.00   -0.00501926   0.16927278
3834.00   0.17069889   0.16647316
3836.00   0.46467052   0.16674590
3838.00   0.39796818   0.16655120
3840.00   0.72684358   0.16691114
3842.00   0.13703795   0.16311197
3844.00   0.21734961   0.16212244
3846.00   0.40507132   0.15652935
3848.00   0.19283020   0.15128851
3850.00   0.43200724   0.15313281
3852.00   0.02784017   0.15114475
3854.00   0.25344687   0.14891399
3856.00   0.39672777   0.14875742
3858.00   0.49757117   0.14415328
3860.00   0.33126779   0.14162370
3862.00   0.11041343   0.14738184
3864.00   0.21371887   0.14715737
3866.00   0.33360608   0.14183575
3868.00   0.27306660   0.13892025
3870.00   0.43637557   0.13789265
3872.00   0.24065932   0.14317321
3874.00   0.41022002   0.16282346
3876.00   0.52420934   0.15982135
3878.00   0.54101441   0.14729139
3880.00   0.20578680   0.14444980
3882.00   0.66604587   0.14356283
3884.00   0.24235804   0.14240740
3886.00   0.23902740   0.14638619
3888.00   0.39256786   0.14278318
3890.00   0.16501741   0.14074333
3892.00   0.25877945   0.14245651
3894.00   0.56114441   0.14805017
3896.00   0.35325195   0.14975949
3898.00   0.39220136   0.14585144
3900.00   0.42264707   0.14689367
3902.00   0.86969057   0.15201010
3904.00   0.35855269   0.15902500
3906.00   0.22312950   0.18113750
3908.00   0.33696595   0.19898876
3910.00   0.97065728   0.20373656
3912.00   0.83100466   0.20471080
3914.00   0.61100557   0.18739089
3916.00   0.87492859   0.16912887
3918.00   0.60239388   0.15688198
3920.00   0.54288987   0.14937510
3922.00   0.74487306   0.14469681
3924.00   0.86557996   0.14383661
3926.00   0.83894666   0.14143066
3928.00   0.87229044   0.13772256
3930.00   1.00024692   0.14082499
3932.00   0.58067659   0.14948691
3934.00   0.52820327   0.15007996
3936.00   0.83303240   0.14026559
3938.00   0.47716236   0.13640309
3940.00   0.84487013   0.13993873
3942.00   0.85006948   0.15099893
3944.00   0.97528923   0.15850662
3946.00   1.01207335   0.15563875
3948.00   0.88673984   0.14531526
3950.00   0.66336377   0.14240159
3952.00   0.72226201   0.13788795
3954.00   1.20007924   0.13885797
3956.00   1.01627725   0.13567593
3958.00   1.12094462   0.13920625
3960.00   1.04084347   0.15164977
3962.00   0.57445872   0.14798112
3964.00   0.97416537   0.13398781
3966.00   0.87092278   0.12574140
3968.00   0.58782062   0.11872984
3970.00   0.58796570   0.12030543
3972.00   0.68925922   0.12559574
3974.00   0.86156264   0.12904360
3976.00   0.80376833   0.12642900
3978.00   0.71751444   0.12797049
3980.00   0.91764031   0.13027519
3982.00   0.95327693   0.12954446
3984.00   0.59903978   0.12586317
3986.00   0.48676282   0.12528629
3988.00   0.94742167   0.13931424
3990.00   0.58205539   0.13633151
3992.00   0.84198069   0.12964696
3994.00   0.81337953   0.13522765
3996.00   0.71444946   0.14456525
3998.00   0.60173789   0.14425371
4000.00   0.52162660   0.12814284
4002.00   0.83857644   0.12420202
4004.00   0.69790513   0.12279396
4006.00   0.67776411   0.12478602
4008.00   0.86354825   0.13232839
4010.00   0.62896223   0.13335771
4012.00   0.89761508   0.13545643
4014.00   0.81585101   0.13308431
4016.00   0.86481167   0.13429070
4018.00   0.40901779   0.15152722
4020.00   1.06921065   0.17523182
4022.00   0.83095903   0.18452492
4024.00   0.78487458   0.17764569
4026.00   1.28219580   0.16463002
4028.00   0.83908662   0.15040316
4030.00   1.02529702   0.14745065
4032.00   0.98845914   0.14559566
4034.00   0.89654737   0.14082791
4036.00   0.77600920   0.13860949
4038.00   0.89500498   0.13617093
4040.00   0.67062732   0.13428504
4042.00   0.96522665   0.14529493
4044.00   0.89041994   0.24256505
4046.00   0.91921266   0.32528212
4048.00   1.37182590   0.29983559
4050.00   1.21081868   0.19135133
4052.00   1.08778762   0.15543213
4054.00   0.84899793   0.15535349
4056.00   1.19733509   0.15206621
4058.00   1.09309211   0.13960911
4060.00   1.06424945   0.13257989
4062.00   0.53649106   0.12963228
4064.00   0.81564944   0.13098493
4066.00   1.11094210   0.13249674
4068.00   0.79881895   0.13040403
4070.00   0.80025967   0.12777899
4072.00   0.87912635   0.12554952
4074.00   1.05485678   0.13193593
4076.00   1.04545524   0.15772725
4078.00   1.06174955   0.16697191
4080.00   0.71519611   0.15616498
4082.00   0.90843578   0.14878010
4084.00   1.18371040   0.14694289
4086.00   0.95407229   0.14277624
4088.00   0.88794483   0.13426207
4090.00   0.86174479   0.12229426
4092.00   0.67922058   0.11716259
4094.00   0.65966430   0.11761291
4096.00   0.94305566   0.11964872
4098.00   0.97727970   0.11861188
4100.00   0.77505940   0.11687879
4102.00   0.54491772   0.11254785
4104.00   0.97344210   0.11419182
4106.00   0.86306907   0.11384098
4108.00   0.87851691   0.11535979
4110.00   0.71444563   0.11339331
4112.00   0.96267531   0.11378631
4114.00   0.94705406   0.11515407
4116.00   0.83053876   0.11514935
4118.00   0.88503204   0.11290951
4120.00   0.90862036   0.10841239
4122.00   0.79487075   0.11012128
4124.00   1.03459067   0.11317019
4126.00   0.84705107   0.11193812
4128.00   0.75655412   0.11157954
4130.00   1.01463057   0.11716970
4132.00   0.78977312   0.12239802
4134.00   0.88662271   0.12244547
4136.00   0.65371248   0.11494753
4138.00   0.97586635   0.11992580
4140.00   0.85748342   0.12266895
4142.00   0.74858704   0.11668903
4144.00   0.57642351   0.10845330
4146.00   0.83620715   0.10986810
4148.00   0.75420664   0.11014042
4150.00   0.93436484   0.11836403
4152.00   0.81644120   0.12569240
4154.00   0.98732985   0.12231967
4156.00   0.80329173   0.11411593
4158.00   0.83828833   0.11196452
4160.00   0.95404627   0.11436857
4162.00   0.99874071   0.12134810
4164.00   0.45512186   0.13003554
4166.00   0.79977085   0.13045429
4168.00   0.96220354   0.12038865
4170.00   0.52223185   0.11177720
4172.00   0.72250457   0.10960959
4174.00   1.02447873   0.10920861
4176.00   1.04713721   0.10992603
4178.00   0.59580355   0.11044660
4180.00   0.63611082   0.10894515
4182.00   0.87396634   0.10736309
4184.00   0.94867284   0.10806985
4186.00   1.08073215   0.10966170
4188.00   0.97237437   0.10845736
4190.00   0.99151240   0.10956021
4192.00   1.01377428   0.11208919
4194.00   0.86445401   0.10952813
4196.00   0.60266437   0.10610945
4198.00   0.63400777   0.10511820
4200.00   0.67431882   0.10499800
4202.00   0.71527819   0.10618368
4204.00   1.08365864   0.10848334
4206.00   0.99442095   0.11020673
4208.00   1.09955400   0.11265553
4210.00   0.78370574   0.11414415
4212.00   0.64483193   0.11168815
4214.00   0.65385663   0.10965918
4216.00   0.75530846   0.10906395
4218.00   0.92193862   0.11002245
4220.00   0.92399970   0.10868056
4222.00   0.75732237   0.10672801
4224.00   0.90424545   0.10870778
4226.00   0.93005514   0.10704511
4228.00   0.75697922   0.10750781
4230.00   0.93551945   0.11026635
4232.00   0.74605414   0.11173773
4234.00   0.81439031   0.11276106
4236.00   0.70535701   0.11416987
4238.00   0.91458595   0.11570396
4240.00   1.05908851   0.11168614
4242.00   0.65534873   0.10577724
4244.00   0.59452391   0.12153087
4246.00   0.58894251   0.13813686
4248.00   0.70686449   0.13321123
4250.00   1.07402674   0.11593881
4252.00   0.89669362   0.10749765
4254.00   0.92699976   0.10776117
4256.00   0.56115918   0.10797210
4258.00   0.70348751   0.10719267
4260.00   0.88126150   0.10496177
4262.00   0.85465934   0.10341090
4264.00   0.56532238   0.10122754
4266.00   0.67468261   0.10245886
4268.00   0.78607835   0.10249223
4270.00   0.78625752   0.10293142
4272.00   0.90721866   0.10526652
4274.00   0.69520185   0.10381962
4276.00   0.86722944   0.10550778
4278.00   1.03048674   0.10707492
4280.00   0.70339561   0.10544328
4282.00   1.10086632   0.10879319
4284.00   0.85220068   0.10777724
4286.00   1.06345555   0.10555987
4288.00   0.66505098   0.10341932
4290.00   0.91988700   0.10393438
4292.00   0.87594266   0.10491136
4294.00   0.97431276   0.10706512
4296.00   0.60232418   0.10377466
4298.00   0.53710713   0.10257795
4300.00   0.88142629   0.10289452
4302.00   0.87417710   0.10339685
4304.00   0.74030772   0.10479977
4306.00   1.04911309   0.10700266
4308.00   1.24988748   0.10707960
4310.00   0.88976510   0.10741361
4312.00   1.11772013   0.12173516
4314.00   0.85221255   0.12628563
4316.00   1.09326338   0.12034746
4318.00   0.79218899   0.11821862
4320.00   0.65343117   0.12157193
4322.00   1.12425349   0.12323164
4324.00   0.86101545   0.11892907
4326.00   0.63646732   0.11438529
4328.00   0.77724565   0.10861378
4330.00   1.07980772   0.10753699
4332.00   0.79315717   0.10753910
4334.00   0.70774410   0.10641715
4336.00   0.60023027   0.10796626
4338.00   0.72528900   0.11440495
4340.00   0.71869204   0.11204436
4342.00   0.70218536   0.11123168
4344.00   0.80853933   0.11628532
4346.00   0.52962288   0.12357100
4348.00   0.76708971   0.12719441
4350.00   0.45555909   0.11930994
4352.00   0.58103972   0.11813637
4354.00   0.53175522   0.14574483
4356.00   1.01171066   0.27497853
4358.00   0.26174007   0.33103821
4360.00   0.05598170   0.28067937
4362.00   0.85234278   0.18511861
4364.00   0.75942629   0.13732181
4366.00   0.80090304   0.12615883
4368.00   0.76744408   0.12290695
4370.00   0.75921463   0.12088024
4372.00   0.50406021   0.12466302
4374.00   0.80531309   0.12785095
4376.00   0.59700983   0.12272078
4378.00   0.57682588   0.11651981
4380.00   0.62700460   0.11350061
4382.00   0.65126376   0.11054039
4384.00   0.81780540   0.11007008
4386.00   0.66333072   0.10859509
4388.00   0.71651022   0.10954410
4390.00   0.53069275   0.10976299
4392.00   0.74125277   0.11023689
4394.00   0.77780408   0.10879627
4396.00   0.82499864   0.10952027
4398.00   0.80960494   0.11417321
4400.00   0.62250518   0.11697101
4402.00   0.54249459   0.11399224
4404.00   0.71290260   0.11053544
4406.00   0.61584476   0.10951013
4408.00   0.70956722   0.11006588
4410.00   0.90546070   0.11171801
4412.00   0.52674739   0.11129001
4414.00   0.56737115   0.11532101
4416.00   0.56278163   0.11473403
4418.00   0.71205498   0.11221231
4420.00   0.70056093   0.11015588
4422.00   0.63742006   0.10933046
4424.00   0.70528824   0.10873929
4426.00   0.86967522   0.10867125
4428.00   0.99392364   0.10858214
4430.00   0.84652993   0.10941559
4432.00   1.08863940   0.10920115
4434.00   0.98376651   0.11420744
4436.00   0.80831215   0.10879684
4438.00   0.81929713   0.10774164
4440.00   0.86099441   0.10815646
4442.00   0.81338906   0.10665941
4444.00   0.88655682   0.10695027
4446.00   0.87421387   0.10685600
4448.00   0.86427747   0.10572910
4450.00   0.87063104   0.10564685
4452.00   0.97676636   0.10560103
4454.00   0.69285327   0.10378148
4456.00   0.70975032   0.10424268
4458.00   0.79399533   0.10541770
4460.00   0.73463756   0.10439277
4462.00   0.70121289   0.10387996
4464.00   0.66384380   0.10306615
4466.00   0.71851425   0.10311321
4468.00   0.65239317   0.10221120
4470.00   0.68890867   0.10223385
4472.00   0.80190562   0.10208890
4474.00   0.75405627   0.10202851
4476.00   0.76910975   0.10275633
4478.00   0.76619696   0.10276007
4480.00   0.70264028   0.10189490
4482.00   0.83180404   0.10240976
4484.00   0.81773945   0.10308858
4486.00   0.96034122   0.10379717
4488.00   0.88311060   0.10329180
4490.00   0.85308443   0.10394801
4492.00   0.85390592   0.10446763
4494.00   0.68483813   0.10438206
4496.00   0.82580236   0.10427807
4498.00   0.66183709   0.10390837
4500.00   0.76686206   0.10337465
4502.00   0.96124645   0.10304451
4504.00   0.95613879   0.10322135
4506.00   0.64971802   0.10137926
4508.00   0.73800237   0.10037694
4510.00   0.75753680   0.10015348
4512.00   0.67037888   0.09996789
4514.00   0.73786253   0.09985088
4516.00   0.75854757   0.09878582
4518.00   0.75859646   0.09779002
4520.00   0.80189493   0.09716268
4522.00   0.73339650   0.09725988
4524.00   0.93703648   0.09749171
4526.00   0.53797465   0.09579106
4528.00   0.92851387   0.09657209
4530.00   0.97045049   0.09730415
4532.00   0.81734513   0.09650429
4534.00   0.77704115   0.09654103
4536.00   1.05145989   0.09691000
4538.00   0.91549846   0.09588572
4540.00   1.11735803   0.09692973
4542.00   1.22238980   0.09955893
4544.00   1.37189405   0.10066676
4546.00   1.16511134   0.09867610
4548.00   1.14023308   0.09660379
4550.00   1.29879738   0.09601714
4552.00   1.09511507   0.09484120
4554.00   1.15391958   0.09460546
4556.00   1.19512355   0.09654858
4558.00   1.20422567   0.09599777
4560.00   1.25675359   0.09523656
4562.00   1.27421673   0.09437904
4564.00   1.06592289   0.09260678
4566.00   1.28070636   0.09250799
4568.00   1.30641747   0.09246926
4570.00   1.05585491   0.09123546
4572.00   1.02886906   0.09247511
4574.00   1.14623022   0.09361830
4576.00   1.12774415   0.09212402
4578.00   1.24939905   0.09121160
4580.00   1.39248394   0.09116876
4582.00   1.15991365   0.08877915
4584.00   0.97796891   0.08731391
4586.00   1.19659763   0.08859084
4588.00   1.33513851   0.08953338
4590.00   1.12948232   0.08894688
4592.00   1.32274878   0.08973123
4594.00   1.18931284   0.08909192
4596.00   1.47748200   0.09078261
4598.00   1.44349162   0.09015292
4600.00   1.32389103   0.08806570
4602.00   1.23039222   0.08748394
4604.00   1.19784342   0.08754502
4606.00   1.40774893   0.08852104
4608.00   1.36740574   0.08912606
4610.00   1.31606014   0.08843429
4612.00   1.28678247   0.08686673
4614.00   1.31443646   0.08705393
4616.00   1.35534954   0.08666082
4618.00   1.19966069   0.08528258
4620.00   1.23892680   0.08513638
4622.00   1.15585222   0.08505525
4624.00   1.35311640   0.08563528
4626.00   1.14077396   0.08533119
4628.00   1.19568203   0.08514739
4630.00   1.36973475   0.08611951
4632.00   1.15152072   0.08506897
4634.00   1.50148263   0.08619069
4636.00   1.38989874   0.08498213
4638.00   1.38255745   0.08508886
4640.00   1.25517237   0.08491944
4642.00   1.31847591   0.08444096
4644.00   1.39080704   0.08468052
4646.00   1.30630434   0.08452027
4648.00   1.25810953   0.08487449
4650.00   1.22632226   0.08529699
4652.00   1.14440296   0.08498849
4654.00   1.21461735   0.08591935
4656.00   1.16310164   0.08632681
4658.00   1.14972109   0.08788244
4660.00   1.04810702   0.08919291
4662.00   1.18237805   0.09110283
4664.00   1.25483196   0.09364852
4666.00   1.19124134   0.09539771
4668.00   1.14613844   0.09733500
4670.00   1.17556531   0.09805044
4672.00   1.06939202   0.09629753
4674.00   1.39569683   0.09562138
4676.00   1.24671446   0.09262212
4678.00   1.30366996   0.09122531
4680.00   1.27791274   0.08917374
4682.00   1.19375240   0.08777808
4684.00   1.29316745   0.08720841
4686.00   1.17575935   0.08638530
4688.00   1.16184781   0.08526904
4690.00   1.27582378   0.08543211
4692.00   1.29720772   0.08491781
4694.00   1.23234666   0.08442760
4696.00   1.33870463   0.08436919
4698.00   1.26745951   0.08339599
4700.00   1.24435606   0.08311281
4702.00   1.28950897   0.08385499
4704.00   1.47202540   0.08588974
4706.00   1.47001969   0.08725608
4708.00   1.46906284   0.08779560
4710.00   1.28959256   0.08717320
4712.00   1.34098529   0.08641551
4714.00   1.40875686   0.08627328
4716.00   1.44975187   0.08572928
4718.00   1.34161796   0.08428827
4720.00   1.20917834   0.08392667
4722.00   1.46770330   0.08511713
4724.00   1.46418953   0.08508385
4726.00   1.45279012   0.09022805
4728.00   1.18597580   0.09478493
4730.00   1.39730779   0.09632786
4732.00   1.44549592   0.09639548
4734.00   1.14644049   0.09738390
4736.00   1.17094428   0.09943765
4738.00   1.30329548   0.10344225
4740.00   1.24100592   0.10658926
4742.00   1.38657073   0.11002976
4744.00   1.36305498   0.10477684
4746.00   1.36927707   0.09524525
4748.00   1.22067878   0.08837141
4750.00   1.13664712   0.08784024
4752.00   1.30164037   0.08995089
4754.00   1.21277555   0.08806191
4756.00   1.23020198   0.08395304
4758.00   1.24796668   0.08134567
4760.00   1.19846443   0.07979880
4762.00   1.18714818   0.07927790
4764.00   1.10556514   0.07758697
4766.00   1.14412947   0.07737192
4768.00   1.17457430   0.07656607
4770.00   1.06970435   0.07584200
4772.00   1.12166332   0.07610183
4774.00   1.22723880   0.07701353
4776.00   1.34731339   0.08097290
4778.00   1.06929483   0.08241791
4780.00   1.18697446   0.08271499
4782.00   1.15636196   0.07920965
4784.00   1.25503127   0.07802007
4786.00   1.41011879   0.07755881
4788.00   1.36884970   0.07822797
4790.00   1.34406829   0.07919164
4792.00   1.29978975   0.07852078
4794.00   1.04415345   0.07603239
4796.00   1.05874996   0.07545356
4798.00   1.16009551   0.07542034
4800.00   1.25230096   0.07512248
4802.00   1.16937237   0.07524879
4804.00   0.95688955   0.07397032
4806.00   1.11229648   0.07533241
4808.00   1.10103024   0.07609786
4810.00   1.28766054   0.07664366
4812.00   1.04743249   0.07592735
4814.00   1.04925542   0.07568122
4816.00   1.20855937   0.07728642
4818.00   1.26960735   0.07794220
4820.00   1.04942699   0.07767683
4822.00   1.15420267   0.07820859
4824.00   1.12690946   0.07918733
4826.00   1.15757416   0.07990892
4828.00   1.11443014   0.08007681
4830.00   1.06634236   0.07980716
4832.00   1.09778830   0.08055503
4834.00   1.04678330   0.07968984
4836.00   1.14615667   0.08022381
4838.00   0.98991246   0.08228390
4840.00   0.94812135   0.08235839
4842.00   0.96121769   0.08003188
4844.00   1.05554867   0.07946268
4846.00   0.82394390   0.07848842
4848.00   1.09399899   0.07955685
4850.00   0.92269933   0.07932922
4852.00   0.84998613   0.07808397
4854.00   0.89619129   0.07696077
4856.00   0.94580355   0.07618717
4858.00   0.85953390   0.07550215
4860.00   0.87197386   0.07588207
4862.00   0.87691936   0.07623123
4864.00   0.89885545   0.07727183
4866.00   0.96558005   0.07721710
4868.00   0.85685556   0.07632654
4870.00   0.90180745   0.07642741
4872.00   0.98776297   0.07644680
4874.00   0.73421565   0.07573269
4876.00   0.79200385   0.07715785
4878.00   0.86801333   0.07809084
4880.00   0.81567791   0.07772131
4882.00   0.92570882   0.07737888
4884.00   0.91178597   0.07591374
4886.00   0.85392037   0.07454736
4888.00   0.90919181   0.07484462
4890.00   0.68225264   0.07385538
4892.00   0.88461856   0.07507537
4894.00   0.63554815   0.07416077
4896.00   0.58154504   0.07316483
4898.00   0.65022773   0.07227415
4900.00   0.80025356   0.07281408
4902.00   0.58173925   0.07261854
4904.00   0.81286109   0.07473875
4906.00   0.56915794   0.07435341
4908.00   0.57352291   0.07422267
4910.00   0.64572687   0.07430901
4912.00   0.65086266   0.07339713
4914.00   0.51007953   0.07312033
4916.00   0.78791968   0.07430930
4918.00   0.73236289   0.07333598
4920.00   0.46656663   0.07223533
4922.00   0.70803423   0.07384063
4924.00   0.67766200   0.07270160
4926.00   0.66363287   0.07181975
4928.00   0.80305168   0.07132798
4930.00   0.62565083   0.06989054
4932.00   0.73117916   0.07114146
4934.00   0.73999003   0.07198890
4936.00   0.74837229   0.07219098
4938.00   0.83905226   0.07373909
4940.00   0.75810917   0.07357031
4942.00   0.80495918   0.07333282
4944.00   0.79096517   0.07218714
4946.00   0.72950589   0.07135939
4948.00   0.86558561   0.07167978
4950.00   0.91433388   0.07265096
4952.00   0.75646814   0.07411551
4954.00   0.92682315   0.07586636
4956.00   0.86545350   0.07375102
4958.00   0.96508260   0.07347438
4960.00   1.03353986   0.07385465
4962.00   1.15637293   0.07518714
4964.00   1.12448096   0.07543962
4966.00   1.09764163   0.07644630
4968.00   1.19584351   0.07854011
4970.00   1.31211242   0.08150187
4972.00   1.37388157   0.08549511
4974.00   1.45968314   0.08916028
4976.00   1.50412466   0.09301063
4978.00   1.55134503   0.09904718
4980.00   1.63378343   0.10442679
4982.00   1.33483602   0.10616377
4984.00   1.53065492   0.10641602
4986.00   1.39438189   0.10203325
4988.00   1.46592185   0.09799745
4990.00   1.51531453   0.09441994
4992.00   1.66112119   0.09146041
4994.00   1.46423729   0.08696283
4996.00   1.53661537   0.08382704
4998.00   1.73742198   0.08128476
5000.00   1.87112137   0.08068595
5002.00   1.70496666   0.07902399
5004.00   1.64000781   0.07752238
5006.00   1.71296474   0.07688203
5008.00   1.74693694   0.07619674
5010.00   1.96843785   0.07680634
5012.00   1.72613127   0.07492399
5014.00   1.79202151   0.07547920
5016.00   1.90198377   0.07691886
5018.00   1.80408317   0.07827376
5020.00   1.94093471   0.07901354
5022.00   1.92833524   0.07775801
5024.00   1.78944533   0.07501554
5026.00   1.82318133   0.07461123
5028.00   1.69190449   0.07572098
5030.00   1.83346880   0.07777278
5032.00   1.78409703   0.07748955
5034.00   1.59402684   0.07481824
5036.00   1.78715117   0.07450151
5038.00   1.72298871   0.07380852
5040.00   1.68182061   0.07285879
5042.00   1.72651135   0.07370344
5044.00   1.68398337   0.07344434
5046.00   1.67643108   0.07346969
5048.00   1.69595144   0.07380420
5050.00   1.55236841   0.07372256
5052.00   1.67411274   0.07397575
5054.00   1.70802265   0.07397005
5056.00   1.72939538   0.07354309
5058.00   1.48969710   0.07213913
5060.00   1.61357489   0.07366083
5062.00   1.46981609   0.07591438
5064.00   1.44629879   0.07783481
5066.00   1.44143030   0.07936413
5068.00   1.43271918   0.08254195
5070.00   1.50654906   0.08307717
5072.00   1.25281670   0.07941987
5074.00   1.20877885   0.07799732
5076.00   1.44293319   0.07792039
5078.00   1.44654069   0.08089846
5080.00   1.31358431   0.09094379
5082.00   1.40124863   0.10108799
5084.00   1.15579329   0.10563500
5086.00   1.29779048   0.10517085
5088.00   1.15560905   0.09667319
5090.00   0.92403487   0.08711534
5092.00   0.90217967   0.07994569
5094.00   0.95580398   0.07760463
5096.00   1.17183167   0.08030786
5098.00   1.02173902   0.08352225
5100.00   1.11192965   0.08365174
5102.00   1.12104844   0.07966551
5104.00   1.07898580   0.07558340
5106.00   1.09252661   0.07371631
5108.00   0.94968732   0.07223855
5110.00   1.03958672   0.07286404
5112.00   1.22948544   0.07407103
5114.00   1.12605658   0.07503341
5116.00   1.14772566   0.07530320
5118.00   1.17345437   0.07392325
5120.00   1.17296768   0.07251126
5122.00   1.29579057   0.07212788
5124.00   1.27865108   0.07150287
5126.00   1.29094508   0.07125022
5128.00   1.33448377   0.07161311
5130.00   1.30345901   0.07198327
5132.00   1.30385845   0.07268718
5134.00   1.35959019   0.07282585
5136.00   1.22105112   0.07241801
5138.00   1.34603398   0.07279689
5140.00   1.41165249   0.07320376
5142.00   1.22288750   0.07198896
5144.00   1.07533487   0.07246976
5146.00   1.32741260   0.07564477
5148.00   1.33755102   0.07782272
5150.00   1.32884794   0.08092633
5152.00   1.27672072   0.08366030
5154.00   1.46361223   0.08504221
5156.00   1.29703118   0.08235030
5158.00   1.37730493   0.07989545
5160.00   1.62640768   0.07888277
5162.00   1.32615683   0.07578191
5164.00   1.32158761   0.07396975
5166.00   1.20947215   0.07193256
5168.00   1.47803000   0.07277572
5170.00   1.54672902   0.07291669
5172.00   1.41685691   0.07222119
5174.00   1.40374219   0.07244518
5176.00   1.21643482   0.07180833
5178.00   1.28494165   0.07315549
5180.00   1.37800890   0.07307497
5182.00   1.25729014   0.07186820
5184.00   1.36889186   0.07263911
5186.00   1.38656317   0.07333421
5188.00   1.33321210   0.07322636
5190.00   1.26754198   0.07312367
5192.00   1.19101567   0.07290536
5194.00   1.32272285   0.07408971
5196.00   1.35575790   0.07549204
5198.00   1.38844094   0.07804656
5200.00   1.24919565   0.07714706
5202.00   1.30666020   0.07627101
5204.00   1.32448997   0.07606346
5206.00   1.27355370   0.07535565
5208.00   1.48916464   0.07825513
5210.00   1.34478937   0.07892583
5212.00   1.26659478   0.07718508
5214.00   1.43013325   0.07633742
5216.00   1.53342012   0.07795868
5218.00   1.31153556   0.07783340
5220.00   1.33636446   0.07783159
5222.00   1.16675300   0.07615280
5224.00   1.36075853   0.07686480
5226.00   1.40010939   0.07595379
5228.00   1.37095192   0.07543795
5230.00   1.37821328   0.07634521
5232.00   1.52701671   0.07713633
5234.00   1.44373596   0.07692324
5236.00   1.35905028   0.07762670
5238.00   1.20017121   0.07762372
5240.00   1.40148849   0.07794239
5242.00   1.29387123   0.07680783
5244.00   1.28313826   0.07616844
5246.00   1.42010660   0.07723534
5248.00   1.32881348   0.07647314
5250.00   1.41697418   0.07634805
5252.00   1.34996892   0.07688395
5254.00   1.40034881   0.07846522
5256.00   1.40202825   0.08141320
5258.00   1.39643317   0.08187730
5260.00   1.38215953   0.08052924
5262.00   1.11736120   0.07688961
5264.00   1.23991206   0.07737229
5266.00   1.27993751   0.07673888
5268.00   1.51973752   0.07726270
5270.00   1.39057045   0.07717531
5272.00   1.39781572   0.07740587
5274.00   1.19698410   0.07717891
5276.00   1.23641725   0.07801359
5278.00   1.33719136   0.07840692
5280.00   1.38661815   0.07836040
5282.00   1.41015861   0.07975660
5284.00   1.44592898   0.08105065
5286.00   1.42801270   0.08117397
5288.00   1.55484184   0.08136431
5290.00   1.51416818   0.08077092
5292.00   1.49381351   0.08052641
5294.00   1.42965475   0.08065563
5296.00   1.47587782   0.08093189
5298.00   1.36638329   0.08157048
5300.00   1.25375551   0.08083401
5302.00   1.42246763   0.08164333
5304.00   1.40619442   0.08142605
5306.00   1.40265477   0.08072607
5308.00   1.46456518   0.08157628
5310.00   1.37572732   0.08260328
5312.00   1.46834069   0.08269155
5314.00   1.47303474   0.08233028
5316.00   1.46677126   0.08208447
5318.00   1.64051716   0.08359051
5320.00   1.68325853   0.08414974
5322.00   1.52809473   0.08494092
5324.00   1.65553430   0.08601818
5326.00   1.46895186   0.08508387
5328.00   1.44241770   0.08510649
5330.00   1.45861458   0.08588063
5332.00   1.58295220   0.08719007
5334.00   1.53870399   0.08662486
5336.00   1.66754624   0.08835758
5338.00   1.60509685   0.08983360
5340.00   1.51813207   0.09125478
5342.00   1.45298743   0.09166567
5344.00   1.61931459   0.09209127
5346.00   1.52159038   0.09381815
5348.00   1.67724277   0.09776405
5350.00   1.42166081   0.09641907
5352.00   1.60112920   0.09764653
5354.00   1.44077019   0.09931248
5356.00   1.55066840   0.10004296
5358.00   1.59430296   0.09650660
5360.00   1.45219938   0.09388684
5362.00   1.62299125   0.09328431
5364.00   1.57979268   0.09133911
5366.00   1.62150551   0.09073601
5368.00   1.70809834   0.09169304
5370.00   1.54961432   0.09152940
5372.00   1.70051637   0.09412372
5374.00   1.54077272   0.09510322
5376.00   1.64159410   0.09619946
5378.00   1.57771971   0.09547556
5380.00   1.64967154   0.09552633
5382.00   1.58119405   0.09425949
5384.00   1.53645764   0.09413906
5386.00   1.56720579   0.09464856
5388.00   1.69510241   0.09727168
5390.00   1.61848964   0.10060622
5392.00   1.71567350   0.10131217
5394.00   1.82112707   0.10164051
5396.00   1.79660974   0.10122580
5398.00   1.73125287   0.10010690
5400.00   1.60089222   0.09972605
5402.00   1.67283844   0.10017686
5404.00   1.98080161   0.10270321
5406.00   1.51760347   0.10069063
5408.00   1.54955242   0.10229981
5410.00   1.90530014   0.10631249
5412.00   1.80055536   0.10740048
5414.00   1.70339233   0.04737683
5416.00   1.74885732   0.04905498
5418.00   1.68229038   0.04975607
5420.00   1.53975952   0.05038450
5422.00   1.56829542   0.05126329
5424.00   1.77423471   0.05238868
5426.00   1.80639184   0.05311402
5428.00   1.69571030   0.05372926
5430.00   1.62093061   0.05344701
5432.00   1.55666500   0.05338302
5434.00   1.50408876   0.05388613
5436.00   1.55348653   0.05267387
5438.00   1.69215584   0.04939554
5440.00   1.71311545   0.04799796
5442.00   1.62917691   0.04794885
5444.00   1.62778091   0.04787662
5446.00   1.71445233   0.04723468
5448.00   1.78490949   0.04768324
5450.00   1.68933541   0.05149337
5452.00   1.44891113   0.05684632
5454.00   1.29316407   0.06444256
5456.00   1.05945593   0.07669821
5458.00   1.01395860   0.08326476
5460.00   1.23690164   0.08474396
5462.00   1.54156935   0.08274510
5464.00   1.76823962   0.07998616
5466.00   2.00833488   0.07612144
5468.00   1.95322293   0.07016273
5470.00   1.51204783   0.05793536
5472.00   1.31372225   0.05044900
5474.00   1.28383070   0.04980878
5476.00   1.33697993   0.05014507
5478.00   1.43183345   0.04859757
5480.00   1.55971372   0.04747255
5482.00   1.63696373   0.04778650
5484.00   1.69195282   0.04925823
5486.00   1.72322613   0.04966756
5488.00   1.73617518   0.05015792
5490.00   1.74638093   0.05075684
5492.00   1.70290029   0.05039398
5494.00   1.62847608   0.04991948
5496.00   1.62240702   0.04796827
5498.00   1.65885663   0.04196487
5500.00   1.68578029   0.03977305
5502.00   1.70870793   0.04112389
5504.00   1.76439488   0.04268908
5506.00   1.84397030   0.04356811
5508.00   1.92309123   0.04478744
5510.00   2.01777518   0.04559726
5512.00   2.13966537   0.04550134
5514.00   2.16139710   0.04668214
5516.00   2.06654620   0.04917689
5518.00   2.04595411   0.05061386
5520.00   2.05693960   0.05183804
5522.00   2.07381040   0.05227339
5524.00   2.13899922   0.05037045
5526.00   2.25294197   0.04662139
5528.00   2.30912614   0.04508143
5530.00   2.33467889   0.04496164
5532.00   2.36519587   0.04430868
5534.00   2.38983738   0.04410901
5536.00   2.38303077   0.04370997
5538.00   2.37130284   0.04221591
5540.00   2.35778618   0.04022602
5542.00   2.32279110   0.03966809
5544.00   2.24465299   0.04031488
5546.00   2.25075209   0.04130763
5548.00   2.35799360   0.04364168
5550.00   2.41025472   0.04406743
5552.00   2.39005816   0.04273270
5554.00   2.35564148   0.04108744
5556.00   2.32153308   0.04054535
5558.00   2.24437183   0.04123257
5560.00   2.19964999   0.04085684
5562.00   2.18342727   0.03885152
5564.00   2.16041124   0.03844162
5566.00   2.11180329   0.03952011
5568.00   2.05429691   0.04292376
5570.00   1.98201650   0.05008082
5572.00   1.87480599   0.06002003
5574.00   1.78458595   0.06509007
5576.00   1.64432508   0.06981510
5578.00   1.62416601   0.07035792
5580.00   1.74878979   0.06588154
5582.00   1.86759114   0.05991810
5584.00   1.88916522   0.05514327
5586.00   1.86847448   0.04996467
5588.00   1.86669600   0.04534402
5590.00   1.88308895   0.04088217
5592.00   1.84319037   0.03798859
5594.00   1.72596473   0.03714802
5596.00   1.62546724   0.03641245
5598.00   1.58771902   0.03554659
5600.00   1.57598025   0.03520141
5602.00   1.54959369   0.03542931
5604.00   1.53440052   0.03654079
5606.00   1.52783668   0.03618558
5608.00   1.53726596   0.03431323
5610.00   1.51343739   0.03320833
5612.00   1.46528244   0.03284061
5614.00   1.43332905   0.03269803
5616.00   1.46358550   0.03291767
5618.00   1.56190884   0.03390894
5620.00   1.57541382   0.03453352
5622.00   1.51717007   0.03520521
5624.00   1.49823964   0.03564897
5626.00   1.51133204   0.03603140
5628.00   1.51776516   0.03581991
5630.00   1.53020734   0.03531034
5632.00   1.56458020   0.03480165
5634.00   1.56318867   0.03442303
5636.00   1.52916825   0.03363300
5638.00   1.50627530   0.03390798
5640.00   1.48223197   0.03569571
5642.00   1.47191221   0.03662335
5644.00   1.49200559   0.03606759
5646.00   1.53233314   0.03494752
5648.00   1.55304557   0.03424762
5650.00   1.54784596   0.03297077
5652.00   1.58917987   0.03312693
5654.00   1.69161886   0.03526136
5656.00   1.77931935   0.03690917
5658.00   1.82108098   0.03671099
5660.00   1.82294166   0.03556075
5662.00   1.78934056   0.03627679
5664.00   1.68630880   0.03855253
5666.00   1.67519748   0.03989532
5668.00   1.76828241   0.04101598
5670.00   1.80157441   0.04163043
5672.00   1.72933346   0.04151263
5674.00   1.61576605   0.04150671
5676.00   1.56426102   0.04325580
5678.00   1.55655366   0.04648197
5680.00   1.51208991   0.04889133
5682.00   1.39900744   0.05146356
5684.00   1.39003295   0.05339663
5686.00   1.53939849   0.05504169
5688.00   1.66605335   0.05607601
5690.00   1.63910931   0.05622696
5692.00   1.53527993   0.05528799
5694.00   1.46439725   0.05292466
5696.00   1.37349695   0.04761933
5698.00   1.29851788   0.04423204
5700.00   1.24401003   0.04180962
5702.00   1.21088624   0.04014077
5704.00   1.19248825   0.03977246
5706.00   1.18591148   0.03998918
5708.00   1.13927573   0.03876733
5710.00   1.04520318   0.03637220
5712.00   0.99157718   0.03517387
5714.00   0.97598994   0.03478729
5716.00   0.95798272   0.03427571
5718.00   0.92345735   0.03357276
5720.00   0.87776923   0.03277622
5722.00   0.84052676   0.03232714
5724.00   0.81473944   0.03213556
5726.00   0.79633594   0.03216197
5728.00   0.79557908   0.03286367
5730.00   0.77500474   0.03302270
5732.00   0.73629344   0.03182970
5734.00   0.69435328   0.03013148
5736.00   0.64660820   0.03008101
5738.00   0.57063793   0.03116025
5740.00   0.53590754   0.03156454
5742.00   0.53592490   0.03229691
5744.00   0.52921799   0.03216456
5746.00   0.50002800   0.03025432
5748.00   0.49553853   0.02823076
5750.00   0.55059829   0.02835808
5752.00   0.64538577   0.02997199
5754.00   0.64920467   0.03065420
5756.00   0.57572828   0.03099816
5758.00   0.54150128   0.03175633
5760.00   0.50848320   0.03252064
5762.00   0.48891476   0.03375688
5764.00   0.52351642   0.03611073
5766.00   0.58520874   0.03878265
5768.00   0.60322267   0.04026153
5770.00   0.61082339   0.04174185
5772.00   0.60325435   0.04152248
5774.00   0.54771136   0.03879972
5776.00   0.52284810   0.03653037
5778.00   0.56248885   0.03562585
5780.00   0.61925644   0.03561721
5782.00   0.65113932   0.03619410
5784.00   0.68510318   0.03793708
5786.00   0.72567084   0.03909635
5788.00   0.78531784   0.04049662
5790.00   0.81210667   0.04097641
5792.00   0.79895988   0.04111741
5794.00   0.79160595   0.04081937
5796.00   0.81727639   0.03957352
5798.00   0.85344011   0.03734833
5800.00   0.89329740   0.03612135
5802.00   0.93634209   0.03514251
5804.00   0.99170622   0.03481673
5806.00   1.07859355   0.03588745
5808.00   1.17353880   0.03684675
5810.00   1.23300755   0.03619368
5812.00   1.26684910   0.03450200
5814.00   1.28863931   0.03377710
5816.00   1.27688509   0.03337470
5818.00   1.28659058   0.03322675
5820.00   1.30464959   0.03340763
5822.00   1.35467112   0.03383840
5824.00   1.43689847   0.03463290
5826.00   1.53022975   0.03574436
5828.00   1.57323831   0.03634153
5830.00   1.56245804   0.03658041
5832.00   1.61719823   0.03682332
5834.00   1.73764616   0.03606862
5836.00   1.82464123   0.03676134
5838.00   1.88373482   0.04090659
5840.00   1.94400144   0.04606329
5842.00   1.94641036   0.04614256
5844.00   1.86544609   0.04097507
5846.00   1.88151431   0.03977954
5848.00   1.97622436   0.04094805
5850.00   2.03444946   0.04136529
5852.00   2.06065893   0.04123040
5854.00   2.08226401   0.04165104
5856.00   2.15626192   0.04238650
5858.00   2.29465067   0.04301780
5860.00   2.28948867   0.04286748
5862.00   2.09576130   0.04101053
5864.00   2.07613832   0.04162687
5866.00   2.24446803   0.04465273
5868.00   2.34680557   0.04649146
5870.00   2.28066540   0.04640472
5872.00   2.17866611   0.04523109
5874.00   2.25996113   0.04389621
5876.00   2.53679001   0.04054421
5878.00   2.61624205   0.04116890
5880.00   2.52782178   0.04350424
5882.00   2.46647727   0.04869651
5884.00   2.46873844   0.05674612
5886.00   2.52680385   0.06646339
5888.00   2.70152390   0.07559410
5890.00   3.01965165   0.08587931
5892.00   3.21521890   0.09235502
5894.00   3.49625063   0.10036275
5896.00   3.47141898   0.09991428
5898.00   2.94400501   0.08831714
5900.00   2.40651274   0.07302502
5902.00   2.39496434   0.06287530
5904.00   2.74655533   0.05286475
5906.00   2.79763460   0.04662196
5908.00   2.69905543   0.04837046
5910.00   2.64211595   0.04796159
5912.00   2.63674271   0.04551553
5914.00   2.66835213   0.04323657
5916.00   2.68061209   0.04219419
5918.00   2.68197262   0.04157561
5920.00   2.72420013   0.04130687
5922.00   2.83562505   0.04172630
5924.00   2.87212598   0.04217562
5926.00   2.83428848   0.04258079
5928.00   2.77052903   0.04290715
5930.00   2.73523784   0.04360880
5932.00   2.71677208   0.04457336
5934.00   2.67533064   0.04439987
5936.00   2.62238359   0.04312593
5938.00   2.56704509   0.04241945
5940.00   2.49731207   0.04159047
5942.00   2.42997694   0.04151957
5944.00   2.36911345   0.04266364
5946.00   2.33764648   0.04409631
5948.00   2.36279798   0.04415751
5950.00   2.44053411   0.04281294
5952.00   2.51404095   0.04254911
5954.00   2.63911855   0.04319409
5956.00   2.70358920   0.04325410
5958.00   2.68896019   0.04275651
5960.00   2.62995303   0.04220237
5962.00   2.59021103   0.04091551
5964.00   2.55260861   0.03890823
5966.00   2.55729330   0.03792721
5968.00   2.61476445   0.03771678
5970.00   2.64690220   0.03727116
5972.00   2.67011857   0.03719134
5974.00   2.66725576   0.03725698
5976.00   2.60933757   0.03702150
5978.00   2.50098467   0.03659821
5980.00   2.47832274   0.03638844
5982.00   2.53205347   0.03634498
5984.00   2.54538727   0.03622380
5986.00   2.51891708   0.03602410
5988.00   2.49263525   0.03580120
5990.00   2.50710976   0.03549637
5992.00   2.53295171   0.03517675
5994.00   2.51943827   0.03568675
5996.00   2.49403644   0.03677939
5998.00   2.48171878   0.03784330
6000.00   2.47572482   0.03933933
6002.00   2.42678046   0.04078909
6004.00   2.35728502   0.04165817
6006.00   2.30878580   0.04145832
6008.00   2.32348788   0.04001077
6010.00   2.41545284   0.03641724
6012.00   2.43534875   0.03493610
6014.00   2.41412747   0.03505280
6016.00   2.38795960   0.03512776
6018.00   2.36449409   0.03474119
6020.00   2.34031832   0.03403742
6022.00   2.32619262   0.03341116
6024.00   2.32515109   0.03276500
6026.00   2.29345119   0.03274655
6028.00   2.21974671   0.03346243
6030.00   2.18475986   0.03374712
6032.00   2.18876445   0.03416002
6034.00   2.19066978   0.03469413
6036.00   2.17207694   0.03426160
6038.00   2.14809227   0.03274579
6040.00   2.13523960   0.03193469
6042.00   2.13268328   0.03127812
6044.00   2.11626339   0.03106784
6046.00   2.08113027   0.03146417
6048.00   2.06462634   0.03154975
6050.00   2.07129717   0.03106563
6052.00   2.08378053   0.03045834
6054.00   2.09081900   0.03020794
6056.00   2.10382211   0.03016239
6058.00   2.10075116   0.03001958
6060.00   2.08107340   0.02985366
6062.00   2.05896908   0.02972992
6064.00   2.04582649   0.02967592
6066.00   2.04008353   0.02964047
6068.00   2.01400930   0.02955217
6070.00   1.97094768   0.02946821
6072.00   1.93885112   0.02940996
6074.00   1.90506738   0.02935004
6076.00   1.87527025   0.02932494
6078.00   1.86594588   0.02941750
6080.00   1.87793094   0.02942666
6082.00   1.88083619   0.02931610
6084.00   1.88742679   0.02911719
6086.00   1.86422294   0.02952071
6088.00   1.81120110   0.03072219
6090.00   1.75276786   0.03135509
6092.00   1.69063014   0.03135838
6094.00   1.65806550   0.03115891
6096.00   1.66665435   0.03109680
6098.00   1.71915251   0.03078523
6100.00   1.70457751   0.03073078
6102.00   1.62788630   0.03078355
6104.00   1.57649434   0.03132202
6106.00   1.52291906   0.03209098
6108.00   1.52456152   0.03307155
6110.00   1.59705424   0.03470155
6112.00   1.69003940   0.03653508
6114.00   1.73755330   0.03732209
6116.00   1.79701871   0.03785934
6118.00   1.80552977   0.03730331
6120.00   1.73600167   0.03487240
6122.00   1.68906540   0.03302829
6124.00   1.70836025   0.03290675
6126.00   1.75473309   0.03347458
6128.00   1.79442823   0.03257790
6130.00   1.85722417   0.03002083
6132.00   1.88502079   0.02907928
6134.00   1.88911134   0.02923399
6136.00   1.88695526   0.02945624
6138.00   1.86940503   0.02961668
6140.00   1.85268128   0.02988603
6142.00   1.87708163   0.03029699
6144.00   1.93592864   0.03076199
6146.00   1.93591422   0.03098073
6148.00   1.89850414   0.03093912
6150.00   1.85842055   0.03113733
6152.00   1.78266770   0.03129375
6154.00   1.72259611   0.03167141
6156.00   1.72524166   0.03275171
6158.00   1.76296669   0.03416474
6160.00   1.76474756   0.03445921
6162.00   1.75711012   0.03437871
6164.00   1.75062245   0.03351439
6166.00   1.75138456   0.03089663
6168.00   1.71946710   0.02875771
6170.00   1.64809930   0.02849275
6172.00   1.55756885   0.02886046
6174.00   1.50319862   0.02858149
6176.00   1.47214806   0.02827919
6178.00   1.45523447   0.02759718
6180.00   1.46614575   0.02595410
6182.00   1.46424019   0.02538892
6184.00   1.44819838   0.02591443
6186.00   1.44455522   0.02667513
6188.00   1.45795763   0.02740212
6190.00   1.47099859   0.02817941
6192.00   1.47813016   0.02814498
6194.00   1.47708136   0.02722896
6196.00   1.48816991   0.02671871
6198.00   1.50830412   0.02596931
6200.00   1.53657234   0.02554803
6202.00   1.56814384   0.02610202
6204.00   1.60540897   0.02718576
6206.00   1.60668498   0.02835884
6208.00   1.56486064   0.03035684
6210.00   1.55574596   0.03135142
6212.00   1.56451648   0.03147850
6214.00   1.58197117   0.03102159
6216.00   1.62556529   0.02999108
6218.00   1.68551260   0.02818760
6220.00   1.69338334   0.02696021
6222.00   1.64326257   0.02555561
6224.00   1.65900636   0.02525130
6226.00   1.73713487   0.02623628
6228.00   1.80046105   0.02731381
6230.00   1.82726198   0.02792891
6232.00   1.82704574   0.02833728
6234.00   1.83746797   0.02902748
6236.00   1.84653747   0.03015637
6238.00   1.84176093   0.03141562
6240.00   1.79592764   0.03393523
6242.00   1.80894458   0.03419430
6244.00   1.88789219   0.03184070
6246.00   1.97804379   0.02874637
6248.00   2.02275121   0.02698783
6250.00   2.04126763   0.02574279
6252.00   2.06718338   0.02627616
6254.00   2.09484172   0.02954712
6256.00   2.11046779   0.03082162
6258.00   2.12424839   0.03081853
6260.00   2.10048908   0.03027637
6262.00   2.02618039   0.02917794
6264.00   1.93036610   0.02731819
6266.00   1.90252131   0.02638084
6268.00   1.91983318   0.02573375
6270.00   1.93678856   0.02577909
6272.00   1.98801184   0.02706396
6274.00   2.01812965   0.02804581
6276.00   1.99467564   0.02783195
6278.00   1.93761104   0.02691466
6280.00   1.92164028   0.02654821
6282.00   1.93843848   0.02630525
6284.00   1.92942303   0.02622044
6286.00   1.90176386   0.02581542
6288.00   1.87551588   0.02649578
6290.00   1.84476751   0.02859837
6292.00   1.81099331   0.03075344
6294.00   1.79825068   0.03217115
6296.00   1.80534452   0.03360117
6298.00   1.80683392   0.03472025
6300.00   1.80729824   0.03613655
6302.00   1.81427306   0.03634267
6304.00   1.84558308   0.03480781
6306.00   1.86724341   0.03270727
6308.00   1.83768713   0.03162488
6310.00   1.76920259   0.03083970
6312.00   1.74947578   0.02957514
6314.00   1.74233520   0.02769963
6316.00   1.77309841   0.02647282
6318.00   1.87523210   0.02573413
6320.00   1.93986309   0.02528344
6322.00   1.90247536   0.02493039
6324.00   1.81658256   0.02481355
6326.00   1.79222733   0.02479031
6328.00   1.78924549   0.02501211
6330.00   1.77839375   0.02498617
6332.00   1.77071208   0.02483769
6334.00   1.79148024   0.02463081
6336.00   1.82757246   0.02429792
6338.00   1.85939837   0.02391649
6340.00   1.85957932   0.02373753
6342.00   1.83652240   0.02367780
6344.00   1.81585926   0.02369988
6346.00   1.78665662   0.02392653
6348.00   1.75481439   0.02399852
6350.00   1.72613269   0.02386280
6352.00   1.70581722   0.02381945
6354.00   1.68525302   0.02408817
6356.00   1.65660232   0.02458406
6358.00   1.64422262   0.02503736
6360.00   1.64132869   0.02573609
6362.00   1.65207690   0.02605624
6364.00   1.67704678   0.02607396
6366.00   1.69140434   0.02579908
6368.00   1.68778211   0.02504154
6370.00   1.66607475   0.02378803
6372.00   1.63495624   0.02343403
6374.00   1.57640380   0.02364325
6376.00   1.55402166   0.02407583
6378.00   1.54116166   0.02532275
6380.00   1.54735684   0.02579611
6382.00   1.59690291   0.02503038
6384.00   1.66413671   0.02400804
6386.00   1.67169708   0.02347038
6388.00   1.62170887   0.02291662
6390.00   1.62158501   0.02252564
6392.00   1.67706931   0.02250668
6394.00   1.69716024   0.02251464
6396.00   1.64156473   0.02244440
6398.00   1.56924832   0.02247135
6400.00   1.56621623   0.02264526
6402.00   1.61412609   0.02294634
6404.00   1.64577794   0.02294294
6406.00   1.69426006   0.02258100
6408.00   1.71460819   0.02249085
6410.00   1.71280760   0.02270703
6412.00   1.70134753   0.02299977
6414.00   1.68485719   0.02302239
6416.00   1.65311831   0.02268646
6418.00   1.64974225   0.02249103
6420.00   1.66639793   0.02219613
6422.00   1.69086564   0.02218524
6424.00   1.71684623   0.02236969
6426.00   1.73572010   0.02262800
6428.00   1.76490879   0.02271819
6430.00   1.80158281   0.02251395
6432.00   1.80048257   0.02241421
6434.00   1.76637846   0.02223097
6436.00   1.73875785   0.02238710
6438.00   1.69012320   0.02276134
6440.00   1.66490251   0.02325353
6442.00   1.69118083   0.02380656
6444.00   1.74916333   0.02403920
6446.00   1.78216797   0.02407150
6448.00   1.81973827   0.02435365
6450.00   1.82580835   0.02413568
6452.00   1.78545868   0.02285214
6454.00   1.76237744   0.02190016
6456.00   1.78804642   0.02212236
6458.00   1.82736123   0.02303767
6460.00   1.83053315   0.02406257
6462.00   1.80599028   0.02545397
6464.00   1.79865998   0.02577805
6466.00   1.78612047   0.02536151
6468.00   1.80252868   0.02484220
6470.00   1.84516728   0.02373923
6472.00   1.87522179   0.02266173
6474.00   1.87170297   0.02218607
6476.00   1.83555245   0.02203151
6478.00   1.84538949   0.02181987
6480.00   1.89186788   0.02170129
6482.00   1.92799485   0.02163175
6484.00   1.96338481   0.02170481
6486.00   1.97839725   0.02175657
6488.00   1.95232564   0.02166487
6490.00   1.89220607   0.02157794
6492.00   1.88808608   0.02193402
6494.00   1.93294972   0.02266796
6496.00   1.95513272   0.02343314
6498.00   1.96870679   0.02453315
6500.00   1.95821071   0.02518817
6502.00   1.92017591   0.02529738
6504.00   1.86646485   0.02494582
6506.00   1.84581220   0.02443772
6508.00   1.85575610   0.02346430
6510.00   1.84428447   0.02318315
6512.00   1.80903107   0.02366194
6514.00   1.79208374   0.02371666
6516.00   1.81261474   0.02313459
6518.00   1.83332515   0.02246508
6520.00   1.81452167   0.02202248
6522.00   1.76779133   0.02139332
6524.00   1.75687939   0.02135882
6526.00   1.78125691   0.02200030
6528.00   1.77816910   0.02240637
6530.00   1.74509561   0.02262220
6532.00   1.70246917   0.02269963
6534.00   1.66879159   0.02258246
6536.00   1.63387126   0.02227908
6538.00   1.60956788   0.02197380
6540.00   1.60431159   0.02142317
6542.00   1.57890385   0.02121608
6544.00   1.53614432   0.02127314
6546.00   1.48717278   0.02152692
6548.00   1.42977673   0.02200871
6550.00   1.36152923   0.02245474
6552.00   1.30644655   0.02266709
6554.00   1.25679958   0.02295174
6556.00   1.21693224   0.02286479
6558.00   1.18219870   0.02216426
6560.00   1.15968966   0.02150783
6562.00   1.15290743   0.02103323
6564.00   1.14337605   0.02048553
6566.00   1.12661409   0.02019805
6568.00   1.11214000   0.02024289
6570.00   1.09253591   0.02054791
6572.00   1.04940426   0.02118487
6574.00   1.04280013   0.02177338
6576.00   1.08010858   0.02268581
6578.00   1.11452746   0.02324327
6580.00   1.13047731   0.02286589
6582.00   1.14462090   0.02171278
6584.00   1.14204079   0.02097948
6586.00   1.10295749   0.02008707
6588.00   1.10488892   0.01967340
6590.00   1.13942498   0.01969245
6592.00   1.18239307   0.01982859
6594.00   1.23653263   0.01992649
6596.00   1.30261689   0.02011970
6598.00   1.33134800   0.02055327
6600.00   1.32221740   0.02135796
6602.00   1.33587408   0.02178871
6604.00   1.35102057   0.02207627
6606.00   1.39428884   0.02211339
6608.00   1.46934313   0.02194575
6610.00   1.54901195   0.02183511
6612.00   1.60817242   0.02187815
6614.00   1.66345829   0.02196926
6616.00   1.69623870   0.02216945
6618.00   1.69547480   0.02265040
6620.00   1.70832950   0.02291412
6622.00   1.73568237   0.02292825
6624.00   1.76310480   0.02273440
6626.00   1.79001498   0.02230715
6628.00   1.83271456   0.02149277
6630.00   1.84084904   0.02108026
6632.00   1.81239104   0.02090637
6634.00   1.79435152   0.02080806
6636.00   1.78887206   0.02069959
6638.00   1.78678447   0.02063397
6640.00   1.78898948   0.02097100
6642.00   1.78489488   0.02187749
6644.00   1.78506565   0.02200452
6646.00   1.78067189   0.02160830
6648.00   1.79678398   0.02118444
6650.00   1.83225256   0.02059592
6652.00   1.86585188   0.02005766
6654.00   1.87884271   0.01996016
6656.00   1.88236994   0.02021268
6658.00   1.87356788   0.02025628
6660.00   1.83697754   0.02024887
6662.00   1.83325219   0.02027466
6664.00   1.85482270   0.02032521
6666.00   1.87376738   0.02036957
6668.00   1.90867573   0.02032570
6670.00   1.96556586   0.02021559
6672.00   1.98270482   0.02087077
6674.00   1.96280104   0.02270415
6676.00   1.95457458   0.02318839
6678.00   1.94224954   0.02253480
6680.00   1.94485742   0.02180457
6682.00   1.96908885   0.02131539
6684.00   2.00372738   0.02093315
6686.00   2.02730852   0.02119979
6688.00   2.06382096   0.02250186
6690.00   2.07024026   0.02273962
6692.00   2.04857457   0.02234126
6694.00   2.02489102   0.02189452
6696.00   2.00038087   0.02130434
6698.00   1.98814183   0.02079075
6700.00   2.01340467   0.02115698
6702.00   2.07363623   0.02241004
6704.00   2.07395017   0.02276299
6706.00   2.01645952   0.02271580
6708.00   1.99207687   0.02251271
6710.00   1.98298359   0.02202376
6712.00   2.00468218   0.02150099
6714.00   2.06855333   0.02127007
6716.00   2.15736794   0.02120669
6718.00   2.17903674   0.02104301
6720.00   2.15943217   0.02077849
6722.00   2.12320054   0.02085257
6724.00   2.03874952   0.02125323
6726.00   1.97918016   0.02158137
6728.00   1.97255760   0.02182941
6730.00   1.99570608   0.02199836
6732.00   1.98777246   0.02218247
6734.00   1.96481806   0.02246564
6736.00   1.93570828   0.02249397
6738.00   1.89550120   0.02224320
6740.00   1.85536879   0.02203260
6742.00   1.81320864   0.02197045
6744.00   1.77853948   0.02175872
6746.00   1.76376671   0.02120435
6748.00   1.76987410   0.02028721
6750.00   1.77813041   0.02002405
6752.00   1.81022036   0.02034052
6754.00   1.81087142   0.02057471
6756.00   1.78469408   0.02051517
6758.00   1.76592875   0.02037328
6760.00   1.76125729   0.02073909
6762.00   1.75795877   0.02147422
6764.00   1.74968165   0.02176427
6766.00   1.73745382   0.02181681
6768.00   1.73046231   0.02189049
6770.00   1.72861725   0.02202648
6772.00   1.72160709   0.02182667
6774.00   1.69784814   0.02119864
6776.00   1.66144258   0.02036692
6778.00   1.65386081   0.01984258
6780.00   1.67465830   0.01922038
6782.00   1.67854339   0.01923523
6784.00   1.66627580   0.02020534
6786.00   1.65528744   0.02091398
6788.00   1.66590077   0.02084290
6790.00   1.69204950   0.02033623
6792.00   1.69449478   0.01991540
6794.00   1.67681050   0.01918046
6796.00   1.66270947   0.01917626
6798.00   1.63885933   0.02001043
6800.00   1.63257122   0.02036874
6802.00   1.63757312   0.02042297
6804.00   1.64378500   0.02050062
6806.00   1.66102982   0.02023750
6808.00   1.69064128   0.01947392
6810.00   1.69813663   0.01936493
6812.00   1.69059646   0.01982241
6814.00   1.68455535   0.02006272
6816.00   1.66413260   0.01996827
6818.00   1.64102095   0.01988576
6820.00   1.64210153   0.02019634
6822.00   1.66589832   0.02069357
6824.00   1.65484244   0.02165124
6826.00   1.60794890   0.02330241
6828.00   1.59064209   0.02448480
6830.00   1.59754103   0.02559551
6832.00   1.60505837   0.02586172
6834.00   1.62537748   0.02516626
6836.00   1.65747684   0.02384104
6838.00   1.65443522   0.02280198
6840.00   1.62458855   0.02157335
6842.00   1.60621130   0.02074575
6844.00   1.58498728   0.02030446
6846.00   1.56920099   0.01992565
6848.00   1.56452209   0.01951381
6850.00   1.56120950   0.01916574
6852.00   1.55296910   0.01919775
6854.00   1.54229462   0.01937834
6856.00   1.52821803   0.02042518
6858.00   1.49874258   0.02226637
6860.00   1.48930281   0.02402747
6862.00   1.51005262   0.02598515
6864.00   1.55089623   0.02782318
6866.00   1.57649755   0.02891779
6868.00   1.59922737   0.02939055
6870.00   1.57815045   0.02853526
6872.00   1.50312555   0.02541970
6874.00   1.44588393   0.02336728
6876.00   1.40262085   0.02189070
6878.00   1.37802398   0.02097982
6880.00   1.37185663   0.02075733
6882.00   1.38226908   0.02115268
6884.00   1.37971795   0.02120299
6886.00   1.37363231   0.02118194
6888.00   1.36461294   0.02140518
6890.00   1.35700858   0.02202813
6892.00   1.34714597   0.02223151
6894.00   1.31373060   0.02182255
6896.00   1.26002592   0.02134293
6898.00   1.24219698   0.02137634
6900.00   1.25160843   0.02173433
6902.00   1.25173104   0.02157064
6904.00   1.25128877   0.02096800
6906.00   1.25228703   0.02060545
6908.00   1.25226825   0.02029614
6910.00   1.24423176   0.02017304
6912.00   1.23354024   0.02070596
6914.00   1.23409933   0.02216014
6916.00   1.21382815   0.02257667
6918.00   1.16922837   0.02227984
6920.00   1.13406289   0.02215465
6922.00   1.11897165   0.02244416
6924.00   1.10713124   0.02256987
6926.00   1.08411938   0.02231558
6928.00   1.04524317   0.02173301
6930.00   1.02648938   0.02101004
6932.00   1.02172482   0.01951898
6934.00   1.02337971   0.01910980
6936.00   1.02589652   0.01938294
6938.00   1.01205942   0.01994820
6940.00   0.97640264   0.02112383
6942.00   0.92301607   0.02268580
6944.00   0.93181801   0.02335410
6946.00   1.01106399   0.02384607
6948.00   1.04894528   0.02361357
6950.00   1.05265480   0.02212635
6952.00   1.04484910   0.02072157
6954.00   1.04209340   0.02015422
6956.00   1.04053468   0.01977206
6958.00   1.05359763   0.01922834
6960.00   1.07335502   0.01870776
6962.00   1.11408085   0.01852992
6964.00   1.18318731   0.01852689
6966.00   1.24709362   0.01885674
6968.00   1.30319345   0.01961462
6970.00   1.35715091   0.02040791
6972.00   1.41019636   0.02096519
6974.00   1.45548379   0.02132525
6976.00   1.52320564   0.02167952
6978.00   1.62105036   0.02210224
6980.00   1.70014203   0.02235590
6982.00   1.75327641   0.02213374
6984.00   1.78923553   0.02153770
6986.00   1.83026564   0.02093809
6988.00   1.87171543   0.02015875
6990.00   1.89980245   0.01977384
6992.00   1.90028423   0.01965955
6994.00   1.93963808   0.01972300
6996.00   2.02209508   0.01986023
6998.00   2.08364862   0.02019330
7000.00   2.10966128   0.02080128
7002.00   2.11133689   0.02138599
7004.00   2.10481685   0.02211444
7006.00   2.06945312   0.02341112
7008.00   2.07763875   0.02391049
7010.00   2.12997818   0.02370006
7012.00   2.16714180   0.02312683
7014.00   2.16383755   0.02232263
7016.00   2.14739025   0.02155226
7018.00   2.16645944   0.02138026
7020.00   2.21017730   0.02164167
7022.00   2.22825682   0.02150752
7024.00   2.24081731   0.02101053
7026.00   2.23151004   0.02091657
7028.00   2.18757486   0.02134460
7030.00   2.16026533   0.02169119
7032.00   2.18087971   0.02147805
7034.00   2.23234344   0.02094266
7036.00   2.24733222   0.02075142
7038.00   2.24293578   0.02057379
7040.00   2.23741257   0.02072588
7042.00   2.22040892   0.02103786
7044.00   2.21843982   0.02184470
7046.00   2.23750234   0.02348192
7048.00   2.25943160   0.02565603
7050.00   2.29271257   0.02639960
7052.00   2.36266589   0.02643603
7054.00   2.38370252   0.02573966
7056.00   2.35553360   0.02391467
7058.00   2.31289816   0.02234280
7060.00   2.26069546   0.02125821
7062.00   2.20957768   0.02053657
7064.00   2.21505213   0.02075045
7066.00   2.28356218   0.02217579
7068.00   2.30825114   0.02279596
7070.00   2.30176902   0.02322932
7072.00   2.29667330   0.02331688
7074.00   2.31202281   0.02264983
7076.00   2.34026611   0.02156544
7078.00   2.37876594   0.02144504
7080.00   2.44746733   0.02185853
7082.00   2.46838021   0.02220498
7084.00   2.44581461   0.02298817
7086.00   2.43395436   0.02338643
7088.00   2.43676209   0.02295336
7090.00   2.44039178   0.02211476
7092.00   2.44642270   0.02160354
7094.00   2.46637034   0.02111151
7096.00   2.49199426   0.02084487
7098.00   2.53142381   0.02062801
7100.00   2.55903661   0.02090311
7102.00   2.59387743   0.02188043
7104.00   2.61286879   0.02240396
7106.00   2.60556865   0.02206949
7108.00   2.59136546   0.02131396
7110.00   2.57106817   0.02106000
7112.00   2.53848493   0.02111042
7114.00   2.49481058   0.02109848
7116.00   2.44235194   0.02106016
7118.00   2.39427662   0.02087675
7120.00   2.34514236   0.02065884
7122.00   2.30838156   0.02047170
7124.00   2.29401791   0.02045339
7126.00   2.31207812   0.02043394
7128.00   2.28140700   0.02074330
7130.00   2.19741392   0.02170740
7132.00   2.14174759   0.02220089
7134.00   2.13393164   0.02172839
7136.00   2.13999951   0.02092154
7138.00   2.12239850   0.02081755
7140.00   2.08360589   0.02112698
7142.00   2.05499303   0.02155848
7144.00   2.02712274   0.02255645
7146.00   2.00702119   0.02290195
7148.00   1.97822613   0.02267813
7150.00   1.95871371   0.02233890
7152.00   1.95303327   0.02215692
7154.00   1.94663131   0.02185758
7156.00   1.93497515   0.02161362
7158.00   1.91641963   0.02130205
7160.00   1.90553844   0.02129436
7162.00   1.90122885   0.02145157
7164.00   1.90931362   0.02161675
7166.00   1.92387402   0.02151220
7168.00   1.94436759   0.02104839
7170.00   1.93109053   0.02073290
7172.00   1.87887025   0.02001430
7174.00   1.84949732   0.02021282
7176.00   1.82788539   0.02169316
7178.00   1.82587141   0.02290791
7180.00   1.85428548   0.02289376
7182.00   1.90324152   0.02216571
7184.00   1.92585140   0.02175417
7186.00   1.93495530   0.02106176
7188.00   1.94928193   0.02073899
7190.00   1.95758295   0.02079548
7192.00   1.97499311   0.02091426
7194.00   2.01613545   0.02083669
7196.00   2.06226552   0.02069841
7198.00   2.08148921   0.02060831
7200.00   2.07987261   0.02049398
7202.00   2.08783543   0.02053938
7204.00   2.09491754   0.02085285
7206.00   2.10657358   0.02090109
7208.00   2.12300014   0.02067531
7210.00   2.12906253   0.02042654
7212.00   2.11834192   0.02025614
7214.00   2.09347808   0.02019902
7216.00   2.10786390   0.02081212
7218.00   2.16343606   0.02246355
7220.00   2.19857883   0.02295934
7222.00   2.22572589   0.02254722
7224.00   2.22424865   0.02210628
7226.00   2.19118059   0.02183843
7228.00   2.14332116   0.02180798
7230.00   2.12728226   0.02258544
7232.00   2.13086164   0.02372952
7234.00   2.12529570   0.02562205
7236.00   2.11717439   0.02842579
7238.00   2.11259341   0.03099721
7240.00   2.11189151   0.03366640
7242.00   2.12522471   0.03568475
7244.00   2.12879765   0.03536770
7246.00   2.11275113   0.03251541
7248.00   2.10135585   0.03098613
7250.00   2.07365161   0.02990158
7252.00   2.08345193   0.02895744
7254.00   2.14481348   0.02735536
7256.00   2.21174312   0.02530797
7258.00   2.22871792   0.02416307
7260.00   2.20184189   0.02358225
7262.00   2.21464705   0.02351998
7264.00   2.25313449   0.02410537
7266.00   2.28120029   0.02508648
7268.00   2.29922640   0.02625461
7270.00   2.32569647   0.02758207
7272.00   2.33148527   0.02940480
7274.00   2.31072009   0.03155734
7276.00   2.31726074   0.03238810
7278.00   2.34041238   0.03250114
7280.00   2.35657012   0.03213568
7282.00   2.37711477   0.03096402
7284.00   2.39302886   0.02947940
7286.00   2.39966857   0.02795974
7288.00   2.40123832   0.02632055
7290.00   2.39822626   0.02490805
7292.00   2.38975143   0.02335221
7294.00   2.39027488   0.02317382
7296.00   2.39234388   0.02474785
7298.00   2.39823830   0.02560866
7300.00   2.41256392   0.02567003
7302.00   2.43615925   0.02574179
7304.00   2.46782601   0.02635557
7306.00   2.50794971   0.02737984
7308.00   2.53210783   0.02824478
7310.00   2.55048704   0.02940747
7312.00   2.55578661   0.02995565
7314.00   2.54862249   0.02999299
7316.00   2.54403126   0.02974184
7318.00   2.53212714   0.02909719
7320.00   2.50584638   0.02782480
7322.00   2.49541271   0.02685880
7324.00   2.49534309   0.02556781
7326.00   2.49701357   0.02508715
7328.00   2.50143683   0.02536691
7330.00   2.49388492   0.02596224
7332.00   2.47817373   0.02677666
7334.00   2.45737696   0.02790099
7336.00   2.43515933   0.02877909
7338.00   2.40143657   0.02993735
7340.00   2.39320564   0.03023663
7342.00   2.41027582   0.02988597
7344.00   2.42057264   0.02891794
7346.00   2.41733456   0.02707010
7348.00   2.41340399   0.02463236
7350.00   2.41604805   0.02350711
7352.00   2.41789472   0.02328163
7354.00   2.42211008   0.02326141
7356.00   2.44230103   0.02360254
7358.00   2.44127429   0.02450377
7360.00   2.41018569   0.02602989
7362.00   2.37519062   0.02746227
7364.00   2.34054255   0.02831219
7366.00   2.28699350   0.02906535
7368.00   2.23550475   0.02935291
7370.00   2.17488122   0.02946006
7372.00   2.12633991   0.02883520
7374.00   2.08023965   0.02725722
7376.00   2.05301368   0.02519568
7378.00   2.04247320   0.02314518
7380.00   2.03304219   0.02089611
7382.00   2.02816147   0.02010854
7384.00   2.03892827   0.02104128
7386.00   2.03630024   0.02145452
7388.00   2.00726354   0.02173963
7390.00   1.98870182   0.02225447
7392.00   1.98733932   0.02311402
7394.00   1.98158818   0.02407384
7396.00   2.00141603   0.02481006
7398.00   2.05309564   0.02563088
7400.00   2.08557916   0.02590743
7402.00   2.11703753   0.02581484
7404.00   2.13265240   0.02540336
7406.00   2.11362028   0.02424976
7408.00   2.07019949   0.02251975
7410.00   1.99561763   0.02162730
7412.00   1.85749805   0.02138847
7414.00   1.79162997   0.02117243
7416.00   1.76478636   0.02134565
7418.00   1.76356298   0.02128411
7420.00   1.81110257   0.02073366
7422.00   1.88432461   0.01994726
7424.00   1.91901022   0.01987791
7426.00   1.93389261   0.02044214
7428.00   1.95911181   0.02121721
7430.00   1.99628007   0.02253521
7432.00   2.01042914   0.02350777
7434.00   2.00372332   0.02463216
7436.00   1.98574477   0.02515972
7438.00   1.95690149   0.02450012
7440.00   1.91518605   0.02298532
7442.00   1.89781302   0.02204719
7444.00   1.90309495   0.02114033
7446.00   1.89259893   0.02044135
7448.00   1.86593580   0.02000337
7450.00   1.85001528   0.01969852
7452.00   1.85128921   0.01949901
7454.00   1.86269158   0.01941148
7456.00   1.88174838   0.01975535
7458.00   1.92245030   0.02052753
7460.00   1.93209493   0.02129640
7462.00   1.91978228   0.02235861
7464.00   1.89784986   0.02315586
7466.00   1.86105949   0.02334199
7468.00   1.81768131   0.02318427
7470.00   1.79894984   0.02337553
7472.00   1.80103910   0.02366479
7474.00   1.80027676   0.02392204
7476.00   1.80222118   0.02421326
7478.00   1.80756068   0.02443320
7480.00   1.82835835   0.02475717
7482.00   1.84476227   0.02516151
7484.00   1.82825440   0.02509232
7486.00   1.77560031   0.02484185
7488.00   1.75573027   0.02399028
7490.00   1.74564826   0.02191798
7492.00   1.75625277   0.02052392
7494.00   1.78651881   0.02027455
7496.00   1.80617565   0.02040409
7498.00   1.80521739   0.02028489
7500.00   1.79088336   0.02020655
7502.00   1.77920735   0.02002383
7504.00   1.76015842   0.01964082
7506.00   1.75548375   0.01955571
7508.00   1.75974995   0.01971727
7510.00   1.76398176   0.01995428
7512.00   1.76657003   0.01941567
7514.00   1.76251960   0.01995342
7516.00   1.78537440   0.02374165
7518.00   1.86928117   0.02911006
7520.00   1.77853882   0.03319445
7522.00   1.48459101   0.03970993
7524.00   1.28657824   0.04092201
7526.00   1.11717102   0.03500046
7528.00   1.06295428   0.02700949
7530.00   1.26173893   0.02465033
7532.00   1.65924668   0.02565395
7534.00   1.77842820   0.02442064
7536.00   1.69132829   0.02229240
7538.00   1.69553983   0.02101870
7540.00   1.74369943   0.02048145
7542.00   1.79493397   0.02026803
7544.00   1.80687463   0.02004375
7546.00   1.78899074   0.01991645
7548.00   1.77550668   0.01985845
7550.00   1.75148129   0.01965148
7552.00   1.73333347   0.02011135
7554.00   1.71377784   0.02118761
7556.00   1.69464284   0.02224511
7558.00   1.68244255   0.02328500
7560.00   1.66276187   0.02391232
7562.00   1.62423956   0.02338954
7564.00   1.57229048   0.02095780
7566.00   1.51909661   0.02091235
7568.00   1.43760765   0.02289487
7570.00   1.37750489   0.02440312
7572.00   1.36031985   0.02523962
7574.00   1.37234002   0.02578286
7576.00   1.38397193   0.02495332
7578.00   1.40861142   0.02186965
7580.00   1.41634238   0.02062787
7582.00   1.40552568   0.02062179
7584.00   1.41000986   0.02123364
7586.00   1.45055169   0.02249826
7588.00   1.48747915   0.02379652
7590.00   1.45845431   0.02459639
7592.00   1.37131989   0.02449094
7594.00   1.35809278   0.02839079
7596.00   1.40005809   0.03418115
7598.00   1.42495579   0.04016795
7600.00   1.43492329   0.04802784
7602.00   1.44517225   0.05355503
7604.00   1.45240784   0.05355526
7606.00   1.43638068   0.04896391
7608.00   1.40364337   0.04504632
7610.00   1.32700211   0.03813118
7612.00   1.30116814   0.03330681
7614.00   1.31686777   0.03009521
7616.00   1.34132057   0.02812655
7618.00   1.36549306   0.02749344
7620.00   1.39948028   0.02843608
7622.00   1.36586338   0.02942836
7624.00   1.23610264   0.03117302
7626.00   1.20620596   0.03272670
7628.00   1.27277809   0.03505584
7630.00   1.32847846   0.03597953
7632.00   1.34422165   0.03502613
7634.00   1.35840362   0.03310374
7636.00   1.37551910   0.03113196
7638.00   1.38125712   0.02784293
7640.00   1.38940597   0.02639931
7642.00   1.40484363   0.02725098
7644.00   1.41028953   0.02707373
7646.00   1.40487456   0.02551400
7648.00   1.39020807   0.02397021
7650.00   1.35635573   0.02331942
7652.00   1.29007345   0.02317283
7654.00   1.29240108   0.02329363
7656.00   1.37617886   0.02430378
7658.00   1.40597200   0.02445647
7660.00   1.36316460   0.02384758
7662.00   1.31789851   0.02313618
7664.00   1.32086468   0.02256649
7666.00   1.33779937   0.02193823
7668.00   1.34395713   0.02129670
7670.00   1.34695709   0.02044225
7672.00   1.35952765   0.02002768
7674.00   1.37935555   0.02009094
7676.00   1.39411730   0.02017528
7678.00   1.39320326   0.02026771
7680.00   1.39545238   0.02050671
7682.00   1.42129844   0.02047051
7684.00   1.46476287   0.02001931
7686.00   1.49501657   0.02028907
7688.00   1.53433532   0.02145673
7690.00   1.55125618   0.02198237
7692.00   1.53511024   0.02183228
7694.00   1.52464807   0.02182555
7696.00   1.53706563   0.02184229
7698.00   1.55655503   0.02146795
7700.00   1.58054310   0.02191587
7702.00   1.62657142   0.02291668
7704.00   1.64541221   0.02401966
7706.00   1.64181179   0.02487163
7708.00   1.63727289   0.02701590
7710.00   1.62100649   0.03155252
7712.00   1.58831561   0.03749163
7714.00   1.58530200   0.03875383
7716.00   1.58533984   0.03661168
7718.00   1.62459797   0.03516297
7720.00   1.72327161   0.03301235
7722.00   1.82302958   0.03101168
7724.00   1.89171976   0.03079045
7726.00   1.93863136   0.03134935
7728.00   1.94395816   0.02967857
7730.00   1.90096104   0.02520301
7732.00   1.86373341   0.02319145
7734.00   1.79547930   0.02340595
7736.00   1.76308268   0.02336630
7738.00   1.78872097   0.02233889
7740.00   1.84090698   0.02139353
7742.00   1.86830652   0.02364752
7744.00   1.88781357   0.02849204
7746.00   1.92054790   0.03233454
7748.00   2.00749516   0.03685832
7750.00   2.00458229   0.03931950
7752.00   1.86203307   0.04063870
7754.00   1.70588940   0.04068150
7756.00   1.69327837   0.03821751
7758.00   1.79572642   0.03220667
7760.00   1.82439446   0.02874900
7762.00   1.83152020   0.02668609
7764.00   1.83145380   0.02483461
7766.00   1.82792914   0.02371469
7768.00   1.82760960   0.02315595
7770.00   1.84727919   0.02289184
7772.00   1.88897943   0.02317414
7774.00   1.90185732   0.02347360
7776.00   1.88063329   0.02419281
7778.00   1.88951576   0.02454106
7780.00   1.94024593   0.02448479
7782.00   1.99618107   0.02451116
7784.00   2.02054232   0.02474581
7786.00   2.01821679   0.02519914
7788.00   2.03550762   0.02668560
7790.00   2.04965234   0.02948350
7792.00   2.10735023   0.03076503
7794.00   2.24250412   0.03146467
7796.00   2.31566966   0.03139854
7798.00   2.26693273   0.02980156
7800.00   2.15408242   0.02746086
7802.00   2.11860085   0.02704901
7804.00   2.13458145   0.02792018
7806.00   2.11385429   0.02783032
7808.00   2.05743563   0.02719027
7810.00   2.02580369   0.02707342
7812.00   2.02431697   0.02696052
7814.00   2.02840585   0.02719471
7816.00   2.05117291   0.02856650
7818.00   2.10994959   0.03099469
7820.00   2.11551166   0.03203890
7822.00   2.07183242   0.03295445
7824.00   2.05273461   0.03259322
7826.00   2.05754715   0.03030488
7828.00   2.05880618   0.02739304
7830.00   2.04065377   0.02512194
7832.00   2.00616914   0.02294036
7834.00   1.98066443   0.02285055
7836.00   1.95603579   0.02552447
7838.00   1.93410420   0.02643860
7840.00   1.90890276   0.02642144
7842.00   1.89190239   0.02661093
7844.00   1.88717639   0.02698017
7846.00   1.88238019   0.02758808
7848.00   1.88578039   0.02939692
7850.00   1.92724633   0.03260347
7852.00   1.90843272   0.03440647
7854.00   1.80331415   0.03589053
7856.00   1.72680920   0.03624925
7858.00   1.72588992   0.03506201
7860.00   1.74680954   0.03286394
7862.00   1.73850775   0.03151706
7864.00   1.72499871   0.03045113
7866.00   1.72500581   0.02981654
7868.00   1.73661649   0.02989173
7870.00   1.73734736   0.02973498
7872.00   1.74753827   0.02917836
7874.00   1.75432658   0.02845810
7876.00   1.71000534   0.02813106
7878.00   1.61509681   0.02810407
7880.00   1.61712396   0.02836263
7882.00   1.72767216   0.02916231
7884.00   1.75840992   0.02964603
7886.00   1.72066319   0.03001638
7888.00   1.66532105   0.03008804
7890.00   1.61792010   0.02960875
7892.00   1.56447262   0.02860671
7894.00   1.54274279   0.02740898
7896.00   1.55456573   0.02550612
7898.00   1.55371261   0.02397110
7900.00   1.52435690   0.02215407
7902.00   1.52106285   0.02148109
7904.00   1.58494371   0.02223147
7906.00   1.69131327   0.02465550
7908.00   1.74669868   0.02939035
7910.00   1.79749310   0.03625241
7912.00   1.78310132   0.03971787
7914.00   1.68760157   0.04246663
7916.00   1.59573036   0.04347854
7918.00   1.53157187   0.04179209
7920.00   1.48953950   0.03910921
7922.00   1.48412675   0.03691289
7924.00   1.52979338   0.03348684
7926.00   1.54768902   0.03092530
7928.00   1.55770791   0.02898474
7930.00   1.56903553   0.02730417
7932.00   1.57873964   0.02608396
7934.00   1.57930207   0.02533036
7936.00   1.58391678   0.02430116
7938.00   1.59577763   0.02311205
7940.00   1.59872121   0.02263001
7942.00   1.58905214   0.02279339
7944.00   1.59118539   0.02308146
7946.00   1.61434388   0.02373575
7948.00   1.63078719   0.02429603
7950.00   1.63215286   0.02440476
7952.00   1.63713545   0.02428919
7954.00   1.58794773   0.02465226
7956.00   1.45773071   0.02491424
7958.00   1.39092976   0.02617139
7960.00   1.36844617   0.02873902
7962.00   1.37988234   0.03077458
7964.00   1.43973994   0.03199427
7966.00   1.54850489   0.03272104
7968.00   1.58992141   0.03195302
7970.00   1.58533067   0.02884053
7972.00   1.57553387   0.02742284
7974.00   1.54821849   0.02717953
7976.00   1.51913673   0.02729280
7978.00   1.49108940   0.02759887
7980.00   1.48463488   0.02804945
7982.00   1.49858725   0.02788813
7984.00   1.52729630   0.02656129
7986.00   1.54755831   0.02736859
7988.00   1.58989990   0.03008672
7990.00   1.58791453   0.03202291
7992.00   1.52316380   0.03357638
7994.00   1.44973582   0.03427455
7996.00   1.40931427   0.03328593
7998.00   1.38688445   0.03063395
8000.00   1.36105311   0.02866983
8002.00   1.32009327   0.02599670
8004.00   1.31199908   0.02452128
8006.00   1.35895187   0.02413624
8008.00   1.44699651   0.02482583
8010.00   1.53381377   0.02640337
8012.00   1.61770564   0.02860771
8014.00   1.62639570   0.02974297
8016.00   1.55715799   0.03033175
8018.00   1.49657679   0.03010039
8020.00   1.41937721   0.02879668
8022.00   1.38249588   0.02870619
8024.00   1.36398816   0.02963920
8026.00   1.34170991   0.03065747
8028.00   1.33095551   0.03022844
8030.00   1.33428532   0.02852476
8032.00   1.33505571   0.02710447
8034.00   1.34185153   0.02546956
8036.00   1.34602845   0.02368102
8038.00   1.33409536   0.02160530
8040.00   1.31025070   0.02005222
8042.00   1.29496109   0.01967911
8044.00   1.28157663   0.02031496
8046.00   1.27341372   0.02094454
8048.00   1.26512408   0.02228154
8050.00   1.27144635   0.02300406
8052.00   1.29574043   0.02312202
8054.00   1.31478399   0.02332834
8056.00   1.31625301   0.02398899
8058.00   1.31466508   0.02488756
8060.00   1.31165683   0.02515099
8062.00   1.31133914   0.02514700
8064.00   1.29015028   0.02472146
8066.00   1.24093240   0.02362711
8068.00   1.20481664   0.02238722
8070.00   1.21083313   0.02128857
8072.00   1.25165427   0.02023543
8074.00   1.27089924   0.01975681
8076.00   1.28428513   0.01990695
8078.00   1.28426224   0.01990985
8080.00   1.27159476   0.01995741
8082.00   1.26429492   0.02005439
8084.00   1.26289779   0.02019557
8086.00   1.27055883   0.02036735
8088.00   1.27403361   0.02050317
8090.00   1.27223527   0.02059116
8092.00   1.25845051   0.02075130
8094.00   1.22813743   0.02092223
8096.00   1.20862085   0.02119047
8098.00   1.18768167   0.02163631
8100.00   1.18081832   0.02209569
8102.00   1.21147633   0.02230123
8104.00   1.27814478   0.02238805
8106.00   1.28204131   0.02205519
8108.00   1.22972912   0.02103301
8110.00   1.20138204   0.02038630
8112.00   1.19864708   0.02013465
8114.00   1.19756007   0.01997053
8116.00   1.16460979   0.01970537
8118.00   1.11061966   0.01941017
8120.00   1.10910517   0.01950847
8122.00   1.15999609   0.02008282
8124.00   1.17447716   0.02044649
8126.00   1.16289061   0.02053512
8128.00   1.15773320   0.02060661
8130.00   1.16323417   0.02111082
8132.00   1.16000837   0.02182184
8134.00   1.16120195   0.02190657
8136.00   1.17500508   0.02144004
8138.00   1.18639112   0.02139387
8140.00   1.20663583   0.02149119
8142.00   1.19644451   0.02180320
8144.00   1.13749439   0.02258618
8146.00   1.06624323   0.02313187
8148.00   1.05376613   0.02275224
8150.00   1.08730060   0.02167885
8152.00   1.10416496   0.02120102
8154.00   1.13444740   0.02097227
8156.00   1.14141476   0.02075533
8158.00   1.12085855   0.02064056
8160.00   1.09346831   0.02056746
8162.00   1.08493483   0.02053409
8164.00   1.08893090   0.02045532
8166.00   1.08584046   0.02080168
8168.00   1.07498890   0.02157016
8170.00   1.07780099   0.02231107
8172.00   1.09415954   0.02265865
8174.00   1.11207658   0.02331159
8176.00   1.12943441   0.02474679
8178.00   1.15176845   0.02680407
8180.00   1.18869030   0.02928336
8182.00   1.26093441   0.03293332
8184.00   1.27963293   0.03428980
8186.00   1.24020833   0.03391262
8188.00   1.20902669   0.03372008
8190.00   1.20859879   0.03387476
8192.00   1.21594977   0.03404214
8194.00   1.20862234   0.03423570
8196.00   1.19431937   0.03490682
8198.00   1.18453497   0.03412028
8200.00   1.17078078   0.03152985
8202.00   1.16187924   0.02921017
8204.00   1.17506683   0.02764036
8206.00   1.20166129   0.02631708
8208.00   1.20222491   0.02504531
8210.00   1.18708992   0.02397594
8212.00   1.18186504   0.02329444
8214.00   1.17840075   0.02297409
8216.00   1.17282516   0.02300675
8218.00   1.16775227   0.02363702
8220.00   1.17328590   0.02449148
8222.00   1.20986772   0.02503103
8224.00   1.28371036   0.02569947
8226.00   1.31779605   0.02538737
8228.00   1.34022439   0.02384260
8230.00   1.33622241   0.02269044
8232.00   1.28851926   0.02170392
8234.00   1.25578260   0.02156695
8236.00   1.27840835   0.02298140
8238.00   1.33400762   0.02517227
8240.00   1.34935880   0.02522952
8242.00   1.34452230   0.02367270
8244.00   1.32933992   0.02258079
8246.00   1.29868168   0.02120077
8248.00   1.27299833   0.02026772
8250.00   1.25170392   0.01997620
8252.00   1.23336905   0.02018511
8254.00   1.21042657   0.02072920
8256.00   1.17261553   0.02186639
8258.00   1.16747010   0.02207682
8260.00   1.19318682   0.02158498
8262.00   1.21983457   0.02121324
8264.00   1.25169373   0.02063297
8266.00   1.27661127   0.02023136
8268.00   1.27441454   0.02091052
8270.00   1.26169944   0.02217763
8272.00   1.22692722   0.02422214
8274.00   1.14109886   0.02698121
8276.00   1.09837270   0.02976976
8278.00   1.11086273   0.03282123
8280.00   1.13955557   0.03561701
8282.00   1.16403878   0.03763564
8284.00   1.20563793   0.03903167
8286.00   1.19825965   0.03958367
8288.00   1.12309015   0.03899966
8290.00   1.11259848   0.03878137
8292.00   1.17601675   0.03855773
8294.00   1.22071254   0.03870861
8296.00   1.21149027   0.03938154
8298.00   1.16701025   0.03999194
8300.00   1.13426369   0.03904194
8302.00   1.09328264   0.03672493
8304.00   1.07915580   0.03446327
8306.00   1.08992249   0.03109779
8308.00   1.09448051   0.02820742
8310.00   1.08203769   0.02668164
8312.00   1.05543667   0.02571231
8314.00   1.04379696   0.02451968
8316.00   1.04663283   0.02355404
8318.00   1.03578800   0.02267845
8320.00   1.01218867   0.02191445
8322.00   0.99552739   0.02138021
8324.00   0.99320051   0.02114625
8326.00   0.98222429   0.02094948
8328.00   0.93922642   0.01997713
8330.00   0.87070787   0.01766580
8332.00   0.83480522   0.01943961
8334.00   0.82347852   0.02247079
8336.00   0.80101404   0.02783262
8338.00   0.76789865   0.03570722
8340.00   0.73393345   0.04235893
8342.00   0.71903947   0.04682898
8344.00   0.72681391   0.05073373
8346.00   0.71553239   0.05129829
8348.00   0.68729058   0.04892333
8350.00   0.68073061   0.04534955
8352.00   0.71551451   0.03843317
8354.00   0.70802292   0.03244714
8356.00   0.62444770   0.03000471
8358.00   0.51441970   0.02967768
8360.00   0.49050900   0.02850028
8362.00   0.52955207   0.02777984
8364.00   0.55631885   0.02645800
8366.00   0.61150321   0.02436833
8368.00   0.62669909   0.02303636
8370.00   0.58954063   0.02224383
8372.00   0.54610726   0.02187026
8374.00   0.53887498   0.02239528
8376.00   0.55350256   0.02400324
8378.00   0.55848575   0.02522071
8380.00   0.56867674   0.02712287
8382.00   0.56757414   0.02769647
8384.00   0.55827266   0.02659715
8386.00   0.54417320   0.02510167
8388.00   0.52623641   0.02442534
8390.00   0.48986776   0.02360131
8392.00   0.49779634   0.02709256
8394.00   0.54202613   0.03472795
8396.00   0.59240511   0.03874866
8398.00   0.66703498   0.04153892
8400.00   0.71342167   0.04212502
8402.00   0.66226554   0.03936873
8404.00   0.52538614   0.03368368
8406.00   0.50591496   0.03014411
8408.00   0.57341194   0.02642659
8410.00   0.60329244   0.02501755
8412.00   0.60150436   0.02730192
8414.00   0.62222680   0.02941952
8416.00   0.67014894   0.03023207
8418.00   0.72509697   0.03100832
8420.00   0.75448069   0.03158633
8422.00   0.74920699   0.03041170
8424.00   0.80181649   0.03414981
8426.00   0.94771016   0.04334957
8428.00   1.00134486   0.04756041
8430.00   0.93163612   0.04744479
8432.00   0.87726998   0.04542204
8434.00   0.92175418   0.04189905
8436.00   1.02941537   0.03498127
8438.00   1.08079696   0.03045041
8440.00   1.10284787   0.02680419
8442.00   1.13330460   0.02429498
8444.00   1.17108232   0.02444677
8446.00   1.21632755   0.02587601
8448.00   1.28268456   0.02727922
8450.00   1.36907303   0.02906256
8452.00   1.42549056   0.03041755
8454.00   1.45366365   0.03155466
8456.00   1.50288349   0.03300948
8458.00   1.57925916   0.03410360
8460.00   1.63981205   0.03549187
8462.00   1.65515429   0.03831643
8464.00   1.63444000   0.04134597
8466.00   1.61403579   0.04092705
8468.00   1.56186450   0.03756077
8470.00   1.56536168   0.03460203
8472.00   1.62468559   0.02983363
8474.00   1.67055678   0.02588968
8476.00   1.68191397   0.02498510
8478.00   1.69034123   0.02542222
8480.00   1.75084394   0.02496413
8482.00   1.87200439   0.02488914
8484.00   1.92734104   0.02518007
8486.00   1.93159020   0.02568163
8488.00   1.93915850   0.02632211
8490.00   1.97318864   0.02749635
8492.00   2.01032031   0.02865197
8494.00   1.99633747   0.02921850
8496.00   1.92342639   0.02899258
8498.00   1.96392649   0.03130114
8500.00   2.15907443   0.03690392
8502.00   2.21224630   0.03893823
8504.00   2.11372340   0.03781074
8506.00   1.97266346   0.03526389
8508.00   1.85662866   0.03220410
8510.00   1.74241966   0.02757383
8512.00   1.71163094   0.02499702
8514.00   1.78010017   0.02438439
8516.00   1.78720367   0.02360469
8518.00   1.75642896   0.02293144
8520.00   1.73579037   0.02259206
8522.00   1.74072492   0.02304919
8524.00   1.75459558   0.02412133
8526.00   1.74483782   0.02410305
8528.00   1.71145868   0.02306916
8530.00   1.70692736   0.02282913
8532.00   1.72962064   0.02313330
8534.00   1.74447560   0.02360266
8536.00   1.74186254   0.02417487
8538.00   1.72646081   0.02492411
8540.00   1.73537117   0.02601946
8542.00   1.78583580   0.02786634
8544.00   1.80343860   0.02860172
8546.00   1.79300249   0.02862879
8548.00   1.78780848   0.02843920
8550.00   1.80066890   0.02810463
8552.00   1.82019609   0.02743828
8554.00   1.86118412   0.02674491
8556.00   1.94171602   0.02608798
8558.00   1.98096049   0.02526388
8560.00   1.99476606   0.02375829
8562.00   2.00355828   0.02328649
8564.00   2.00509399   0.02407316
8566.00   2.02680063   0.02474694
8568.00   2.07754457   0.02505031
8570.00   2.14761567   0.02551442
8572.00   2.21234024   0.02537620
8574.00   2.28504002   0.02414736
8576.00   2.35278320   0.02435001
8578.00   2.41151345   0.02604019
8580.00   2.47074592   0.02726266
8582.00   2.55320871   0.02784835
8584.00   2.64299321   0.02809960
8586.00   2.69563317   0.02788183
8588.00   2.71341693   0.02687172
8590.00   2.76420081   0.02696134
8592.00   2.84876847   0.02812854
8594.00   2.90873134   0.02874391
8596.00   2.92841363   0.02880299
8598.00   2.94001603   0.02853001
8600.00   2.97643518   0.02782216
8602.00   3.02438056   0.02646026
8604.00   3.07574475   0.02685474
8606.00   3.14081347   0.02890869
8608.00   3.19418561   0.03018264
8610.00   3.23810375   0.03118588
8612.00   3.28877819   0.03196353
8614.00   3.34084678   0.03280699
8616.00   3.38599336   0.03421524
8618.00   3.43345106   0.03580069
8620.00   3.47252595   0.03808236
8622.00   3.52879274   0.03936295
8624.00   3.60697198   0.03988808
8626.00   3.70291281   0.04001147
8628.00   3.79611325   0.04045182
8630.00   3.87908375   0.04105728
8632.00   3.94755507   0.04087646
8634.00   4.01531351   0.04008788
8636.00   4.04692256   0.03904726
8638.00   4.03672624   0.03706677
8640.00   4.02236724   0.03581528
8642.00   3.99382603   0.03584046
8644.00   3.96121705   0.03651008
8646.00   3.97370303   0.03764833
8648.00   4.01158059   0.03953580
8650.00   4.07736337   0.04068031
8652.00   4.21991086   0.04147153
8654.00   4.29585648   0.04241096
8656.00   4.26905298   0.04312064
8658.00   4.21654987   0.04341628
8660.00   4.22544312   0.04328115
8662.00   4.25844121   0.04243853
8664.00   4.31395483   0.04191558
8666.00   4.45339680   0.04120142
8668.00   4.49435878   0.04117435
8670.00   4.39831257   0.04135391
8672.00   4.27076125   0.04125823
8674.00   4.23344660   0.04199327
8676.00   4.27018857   0.04303797
8678.00   4.27847004   0.04132481
8680.00   4.29383183   0.03535956
8682.00   4.28382254   0.03286094
8684.00   4.28478146   0.03295458
8686.00   4.27086973   0.03300213
8688.00   4.21475291   0.03237434
8690.00   4.15004754   0.03156721
8692.00   4.10618019   0.03166621
8694.00   4.07085991   0.03246085
8696.00   4.03083718   0.03341725
8698.00   3.97771657   0.03550975
8700.00   3.93878877   0.03633171
8702.00   3.97451699   0.03435148
8704.00   4.06371355   0.03083550
8706.00   4.07328117   0.03008974
8708.00   4.03219366   0.03133757
8710.00   4.00758207   0.03171924
8712.00   3.98576057   0.03241237
8714.00   3.95579910   0.03223036
8716.00   3.90323186   0.03085545
8718.00   3.83638561   0.02962227
8720.00   3.80396879   0.02949936
8722.00   3.78734374   0.03010126
8724.00   3.76908636   0.03012745
8726.00   3.76164448   0.02976928
8728.00   3.75473654   0.02971287
8730.00   3.72788334   0.03028046
8732.00   3.68376911   0.03098482
8734.00   3.64535069   0.03090533
8736.00   3.60927057   0.03008698
8738.00   3.57205796   0.02974841
8740.00   3.53092086   0.02957671
8742.00   3.49170625   0.02935820
8744.00   3.46262693   0.02871976
8746.00   3.44033372   0.02884492
8748.00   3.39592767   0.02999256
8750.00   3.33332539   0.03208493
8752.00   3.31435263   0.03531653
8754.00   3.33904219   0.03946833
8756.00   3.36194193   0.04341356
8758.00   3.40989375   0.04747280
8760.00   3.40324187   0.05144310
8762.00   3.35030735   0.05652271
8764.00   3.27549899   0.06138079
8766.00   3.22913134   0.06125631
8768.00   3.19833541   0.05522916
8770.00   3.22189867   0.05374608
8772.00   3.35309207   0.05499529
8774.00   3.39583135   0.05633709
8776.00   3.28208017   0.05835868
8778.00   3.10973895   0.05946575
8780.00   3.09287822   0.05600412
8782.00   3.21175241   0.04681861
8784.00   3.22878242   0.04186076
8786.00   3.21519625   0.03894417
8788.00   3.16486442   0.03741297
8790.00   3.07252681   0.03863547
8792.00   2.98782670   0.03994500
8794.00   2.94466841   0.03840516
8796.00   2.93814123   0.03462013
8798.00   2.97486496   0.03233867
8800.00   3.09077764   0.03029141
8802.00   3.14709318   0.02928125
8804.00   3.16551185   0.02961910
8806.00   3.15387917   0.02993958
8808.00   3.13612628   0.02969202
8810.00   3.12288165   0.02934706
8812.00   3.09963000   0.03009793
8814.00   3.04334176   0.03088023
8816.00   3.05067873   0.03459855
8818.00   3.15025961   0.03950229
8820.00   3.18910444   0.04574816
8822.00   3.12886202   0.05354689
8824.00   3.06103218   0.06160842
8826.00   3.06564069   0.06858778
8828.00   3.10791731   0.07678020
8830.00   3.05974495   0.07650432
8832.00   2.92006338   0.06712695
8834.00   2.82902610   0.05936614
8836.00   2.77865732   0.05300566
8838.00   2.75177431   0.04746809
8840.00   2.70273793   0.04321978
8842.00   2.63462234   0.04049313
8844.00   2.59310532   0.03796899
8846.00   2.56218994   0.03665610
8848.00   2.54172695   0.03557339
8850.00   2.56343722   0.03528595
8852.00   2.59965432   0.03498755
8854.00   2.59175217   0.03366449
8856.00   2.54402769   0.03163102
8858.00   2.47104836   0.03178314
8860.00   2.33840811   0.03349347
8862.00   2.27569234   0.03552712
8864.00   2.25501513   0.03899383
8866.00   2.25450504   0.04116895
8868.00   2.30283046   0.04129263
8870.00   2.36491871   0.04009766
8872.00   2.32767296   0.03815025
8874.00   2.19944620   0.03227835
8876.00   2.16642356   0.03380201
8878.00   2.21351171   0.04139514
8880.00   2.21881270   0.04793172
8882.00   2.18299818   0.05422324
8884.00   2.13874817   0.05933715
8886.00   2.08348638   0.06002866
8888.00   1.98888546   0.05652357
8890.00   1.95234621   0.05294162
8892.00   1.95843410   0.04529201
8894.00   1.96860206   0.04075357
8896.00   1.97241253   0.03959409
8898.00   1.98663634   0.04027073
8900.00   2.04101896   0.04273106
8902.00   2.12761551   0.04766625
8904.00   2.11552250   0.04801545
8906.00   1.99492627   0.04388905
8908.00   1.95011073   0.04264752
8910.00   1.92503959   0.04306989
8912.00   1.94472712   0.04508774
8914.00   2.06875670   0.05020096
8916.00   2.24743330   0.05739574
8918.00   2.28265357   0.06083943
8920.00   2.23480594   0.06372287
8922.00   2.16218579   0.06249532
8924.00   2.00095272   0.05613155
8926.00   1.87410313   0.04902651
8928.00   1.82153755   0.04165033
8930.00   1.79484463   0.03404612
8932.00   1.76579839   0.03066903
8934.00   1.76733369   0.03207808
8936.00   1.75725681   0.03338117
8938.00   1.74475163   0.03705676
8940.00   1.72119766   0.03961339
8942.00   1.70437312   0.04082337
8944.00   1.68078434   0.04125578
8946.00   1.63366401   0.04131243
8948.00   1.56107026   0.04036183
8950.00   1.55415976   0.04295754
8952.00   1.56987375   0.04802926
8954.00   1.64486587   0.05273203
8956.00   1.83262128   0.05935640
8958.00   2.02480650   0.06353594
8960.00   2.12085128   0.06179392
8962.00   2.15588987   0.05586747
8964.00   2.06341982   0.04993847
8966.00   1.75604254   0.03854602
8968.00   1.62323731   0.03031430
8970.00   1.62501425   0.02866874
8972.00   1.63113052   0.02904908
8974.00   1.61365318   0.02828152
8976.00   1.60899943   0.02812348
8978.00   1.61641639   0.02916285
8980.00   1.64258999   0.03085602
8982.00   1.64750761   0.03389035
8984.00   1.63218838   0.03884834
8986.00   1.62766314   0.04262820
8988.00   1.63644409   0.04477081
8990.00   1.65411729   0.04592951
8992.00   1.66592199   0.04657018
8994.00   1.66649151   0.04511335
8996.00   1.63929826   0.04698606
8998.00   1.57730108   0.05242811
9000.00   1.52991098   0.05565368
9002.00   1.49287879   0.05644163
9004.00   1.45211834   0.05496056
9006.00   1.39656353   0.04987480
9008.00   1.35303575   0.03805616
9010.00   1.31843209   0.03160232
9012.00   1.26062155   0.02958206
9014.00   1.26556224   0.02892764
9016.00   1.39306605   0.03091380
9018.00   1.49905109   0.03284436
9020.00   1.49070489   0.03203713
9022.00   1.41758770   0.02902911
9024.00   1.36087090   0.02781179
9026.00   1.26880646   0.02716461
9028.00   1.22588241   0.02760807
9030.00   1.21765488   0.02936601
9032.00   1.23524481   0.03075695
9034.00   1.27178401   0.03138578
9036.00   1.32662523   0.03208321
9038.00   1.37431693   0.03317678
9040.00   1.40932631   0.03422124
9042.00   1.45572597   0.03560886
9044.00   1.56070900   0.03796869
9046.00   1.59944594   0.03941798
9048.00   1.49282956   0.03957157
9050.00   1.32221818   0.03885225
9052.00   1.24679369   0.03742547
9054.00   1.22214770   0.03472488
9056.00   1.22390693   0.03317125
9058.00   1.28582293   0.03250128
9060.00   1.32219559   0.03128697
9062.00   1.33726776   0.02962288
9064.00   1.33759338   0.02847659
9066.00   1.33345282   0.02814104
9068.00   1.33134210   0.02848544
9070.00   1.34587109   0.02843578
9072.00   1.39215773   0.02831619
9074.00   1.39233464   0.02819099
9076.00   1.35191768   0.02774489
9078.00   1.34227568   0.02807333
9080.00   1.38926649   0.02992939
9082.00   1.46434683   0.03235791
9084.00   1.45410234   0.03303863
9086.00   1.36755019   0.03242083
9088.00   1.32279223   0.03282941
9090.00   1.28660232   0.03369054
9092.00   1.27471501   0.03423105
9094.00   1.31093168   0.03537542
9096.00   1.34719771   0.03720417
9098.00   1.32789779   0.03726046
9100.00   1.27303708   0.03570694
9102.00   1.24700022   0.03459102
9104.00   1.21671462   0.03325985
9106.00   1.21687758   0.03218156
9108.00   1.25540996   0.03172100
9110.00   1.28615212   0.03117979
9112.00   1.28542882   0.02973480
9114.00   1.26681572   0.02747410
9116.00   1.27209389   0.02641818
9118.00   1.28694785   0.02591695
9120.00   1.31077546   0.02625968
9122.00   1.35996693   0.02801963
9124.00   1.39748806   0.02948216
9126.00   1.39660275   0.02963056
9128.00   1.37540334   0.02905161
9130.00   1.32387525   0.02886691
9132.00   1.20946747   0.02876881
9134.00   1.15086412   0.02861149
9136.00   1.13025868   0.02790129
9138.00   1.12283117   0.02746815
9140.00   1.13707578   0.02830219
9142.00   1.16495740   0.02991604
9144.00   1.18203431   0.03087429
9146.00   1.19202989   0.03164543
9148.00   1.23038614   0.03233593
9150.00   1.32189196   0.03307510
9152.00   1.36009389   0.03352014
9154.00   1.31192487   0.03358459
9156.00   1.24300361   0.03342606
9158.00   1.20021778   0.03308548
9160.00   1.13688356   0.03249705
9162.00   1.09687096   0.03174092
9164.00   1.08137757   0.03036686
9166.00   1.06745273   0.02952024
9168.00   1.03417242   0.02968875
9170.00   1.02162200   0.03030624
9172.00   1.05686611   0.03013147
9174.00   1.12658769   0.02924534
9176.00   1.14804637   0.02861303
9178.00   1.12983525   0.02763058
9180.00   1.13183892   0.02730650
9182.00   1.15882105   0.02779470
9184.00   1.19350123   0.02874172
9186.00   1.19984853   0.02920222
9188.00   1.19823849   0.02878628
9190.00   1.21591568   0.02935092
9192.00   1.24908853   0.03122917
9194.00   1.26314938   0.03181547
9196.00   1.27137542   0.03076359
9198.00   1.28459632   0.02943917
9200.00   1.29923594   0.02811133
9202.00   1.32889390   0.02653315
9204.00   1.39301562   0.02714232
9206.00   1.51254088   0.02979518
9208.00   1.55559957   0.03122351
9210.00   1.53354597   0.03231598
9212.00   1.51203448   0.03317703
9214.00   1.50451863   0.03371348
9216.00   1.51432204   0.03411862
9218.00   1.54343832   0.03438682
9220.00   1.61215532   0.03439770
9222.00   1.63518804   0.03439134
9224.00   1.62326050   0.03421821
9226.00   1.61105829   0.03421171
9228.00   1.61709559   0.03444685
9230.00   1.61963171   0.03429451
9232.00   1.61896610   0.03350744
9234.00   1.63420701   0.03226871
9236.00   1.63013065   0.03188409
9238.00   1.60792744   0.03222651
9240.00   1.59117800   0.03236180
9242.00   1.58256584   0.03254247
9244.00   1.57379079   0.03227827
9246.00   1.56313181   0.03131442
9248.00   1.55502415   0.03007998
9250.00   1.55650681   0.03022970
9252.00   1.55424064   0.03156322
9254.00   1.57883465   0.03227250
9256.00   1.63967866   0.03322595
9258.00   1.71076459   0.03369958
9260.00   1.77332115   0.03300165
9262.00   1.82409632   0.03196204
9264.00   1.83153975   0.03181103
9266.00   1.77674687   0.03200220
9268.00   1.75695759   0.03199615
9270.00   1.74983567   0.03184767
9272.00   1.76480573   0.03224313
9274.00   1.80713898   0.03307064
9276.00   1.86140895   0.03404030
9278.00   1.83585411   0.03508659
9280.00   1.70786756   0.03666043
9282.00   1.67631668   0.03708987
9284.00   1.69642836   0.03574961
9286.00   1.72983831   0.03615596
9288.00   1.75217855   0.03914579
9290.00   1.80188519   0.04163904
9292.00   1.92462993   0.04167715
9294.00   2.10850322   0.04016586
9296.00   2.20360792   0.04422779
9298.00   2.29152656   0.04988121
9300.00   2.27894306   0.05875592
9302.00   2.13055456   0.07054041
9304.00   1.93122607   0.08130403
9306.00   1.74838060   0.09048720
9308.00   1.57468641   0.09941679
9310.00   1.58139271   0.10630192
9312.00   1.83031696   0.11246118
9314.00   1.92921293   0.11662541
9316.00   1.90540147   0.12052596
9318.00   1.80020678   0.12061904
9320.00   1.76692581   0.11569701
9322.00   1.82987314   0.10870282
9324.00   1.86679703   0.10477314
9326.00   1.94093955   0.10392037
9328.00   1.89435363   0.09801485
9330.00   1.72059178   0.08406546
9332.00   1.55706966   0.07318624
9334.00   1.44808954   0.07216139
9336.00   1.39114374   0.07549364
9338.00   1.29999518   0.07523516
9340.00   1.09573942   0.07459510
9342.00   1.02452046   0.07197214
9344.00   1.02863920   0.06617008
9346.00   1.10522723   0.06173164
9348.00   1.22224385   0.05827024
9350.00   1.32202828   0.05514521
9352.00   1.37505692   0.05293423
9354.00   1.38457555   0.05174398
9356.00   1.41038996   0.05046427
9358.00   1.44046319   0.04819256
9360.00   1.47191441   0.04922138
9362.00   1.42871988   0.04821542
9364.00   1.44314730   0.05628679
9366.00   1.69552439   0.07410077
9368.00   2.03140724   0.09386049
9370.00   2.01953536   0.11569983
9372.00   1.81879944   0.14539373
9374.00   1.58819962   0.15723291
9376.00   1.03156209   0.16096953
9378.00   0.70423517   0.15638702
9380.00   0.94158611   0.13783572
9382.00   1.41392338   0.10698397
9384.00   1.54868460   0.08559473
9386.00   1.50411016   0.06880234
9388.00   1.51495552   0.05411962
9390.00   1.49964905   0.05001345
9392.00   1.50975227   0.04843721
9394.00   1.54734546   0.04986339
9396.00   1.57980961   0.05306002
9398.00   1.60943818   0.05626518
9400.00   1.70018005   0.06218247
9402.00   1.69254780   0.06453158
9404.00   1.55972588   0.06571408
9406.00   1.50735199   0.06444571
9408.00   1.60395002   0.05973885
9410.00   1.70154893   0.05542990
9412.00   1.69918066   0.05597131
9414.00   1.68591726   0.05958600
9416.00   1.54923576   0.06553587
9418.00   1.22735375   0.07618422
9420.00   0.99405912   0.08262844
9422.00   0.78570533   0.08679619
9424.00   0.74585265   0.08652407
9426.00   0.91752154   0.08300115
9428.00   1.21572763   0.07712658
9430.00   1.39509708   0.07552082
9432.00   1.55098301   0.07246428
9434.00   1.64586192   0.08467759
9436.00   1.62550247   0.11302891
9438.00   1.68514872   0.12737157
9440.00   1.92104918   0.12839001
9442.00   2.18841749   0.12222126
9444.00   2.12713546   0.11121282
9446.00   1.71428454   0.08605722
9448.00   1.58496326   0.07460029
9450.00   1.62584054   0.07522626
9452.00   1.61261958   0.07808711
9454.00   1.54930305   0.08752003
9456.00   1.51698083   0.09752408
9458.00   1.49380833   0.09942234
9460.00   1.50007051   0.09650142
9462.00   1.44294137   0.09092024
9464.00   1.25350142   0.07483211
9466.00   1.22271317   0.06680724
9468.00   1.42686564   0.06754703
9470.00   1.66287601   0.07461975
9472.00   1.74452341   0.08659221
9474.00   1.73373252   0.10240564
9476.00   1.64090532   0.11035585
9478.00   1.35633159   0.11836911
9480.00   1.23289514   0.11526173
9482.00   1.26834834   0.09728902
9484.00   1.33382607   0.07837147
9486.00   1.35531735   0.06483923
9488.00   1.37338406   0.05478286
9490.00   1.32622242   0.04979183
9492.00   1.19263446   0.05180081
9494.00   1.17119259   0.05904577
9496.00   1.27491611   0.07570292
9498.00   1.28997272   0.08392711
9500.00   1.20766342   0.08502194
9502.00   1.12380424   0.08270620
9504.00   1.10620186   0.07758557
9506.00   1.11893359   0.06645032
9508.00   1.09639573   0.06087834
9510.00   1.04118484   0.05798035
9512.00   1.02407226   0.05795600
9514.00   0.98132315   0.06177296
9516.00   1.00463870   0.06717263
9518.00   1.20626783   0.07381971
9520.00   1.54179531   0.08349435
9522.00   1.67902607   0.08490622
9524.00   1.72672260   0.07979219
9526.00   1.70357531   0.07473372
9528.00   1.52892423   0.06886652
9530.00   1.37406468   0.06359541
9532.00   1.35290295   0.06015696
9534.00   1.41112477   0.05895883
9536.00   1.43274629   0.05721846
9538.00   1.46506900   0.05490761
9540.00   1.45663989   0.05412266
9542.00   1.40070325   0.05490759
9544.00   1.36959666   0.05745340
9546.00   1.39967716   0.06161117
9548.00   1.46434700   0.06707087
9550.00   1.43305624   0.07132537
9552.00   1.33331889   0.07613158
9554.00   1.24336022   0.07751613
9556.00   1.10304183   0.07366479
9558.00   1.02518246   0.07317322
9560.00   1.01323020   0.07911236
9562.00   1.03866348   0.08763796
9564.00   1.16605496   0.09367598
9566.00   1.40279123   0.10114074
9568.00   1.54228306   0.09944401
9570.00   1.69409221   0.08741187
9572.00   1.73430479   0.07621249
9574.00   1.59164745   0.06604698
9576.00   1.43051946   0.05763116
9578.00   1.35622090   0.05160410
9580.00   1.31987083   0.04848309
9582.00   1.28635788   0.04657910
9584.00   1.27154416   0.04806396
9586.00   1.24443191   0.04891382
9588.00   1.23001051   0.05052519
9590.00   1.22442132   0.05139707
9592.00   1.23470092   0.04984630
9594.00   1.26900196   0.04634676
9596.00   1.23360461   0.04533190
9598.00   1.12841761   0.04537955
9600.00   1.07586470   0.04694370
9602.00   1.06363016   0.05077461
9604.00   1.03639829   0.05372296
9606.00   0.99510390   0.05535458
9608.00   0.95491242   0.05606521
9610.00   0.90786627   0.05600828
9612.00   0.82158211   0.05446608
9614.00   0.83656868   0.05502900
9616.00   0.93108517   0.05688317
9618.00   1.04760280   0.05919721
9620.00   1.24980909   0.06264849
9622.00   1.42980778   0.06530151
9624.00   1.41782457   0.06501618
9626.00   1.28739542   0.06309035
9628.00   1.20812541   0.06048353
9630.00   1.07790899   0.05532540
9632.00   1.02901611   0.05132281
9634.00   1.09806710   0.04902018
9636.00   1.14699239   0.04674131
9638.00   1.14382637   0.04461605
9640.00   1.15339744   0.04372678
9642.00   1.16409671   0.04330105
9644.00   1.16032827   0.04361323
9646.00   1.18661922   0.04409729
9648.00   1.26187932   0.04536767
9650.00   1.30823016   0.04629252
9652.00   1.34189403   0.04639301
9654.00   1.35048765   0.04696629
9656.00   1.26660627   0.04942801
9658.00   1.08154386   0.05288669
9660.00   1.01219568   0.05704012
9662.00   1.02288881   0.06410970
9664.00   1.00906101   0.06720235
9666.00   0.96725309   0.06542360
9668.00   0.91327146   0.06268095
9670.00   0.91217133   0.06237532
9672.00   0.97822538   0.06261160
9674.00   1.02919850   0.06377149
9676.00   1.10900933   0.06646859
9678.00   1.13563514   0.06859280
9680.00   1.12340498   0.07037358
9682.00   1.12666804   0.07108171
9684.00   1.15858340   0.07049968
9686.00   1.18050295   0.06805599
9688.00   1.16457027   0.06604718
9690.00   1.09337592   0.06058816
9692.00   1.07812124   0.06206199
9694.00   1.09313652   0.07133521
9696.00   1.09802306   0.07917421
9698.00   1.06013587   0.08021099
9700.00   0.98937392   0.07655299
9702.00   0.98706031   0.07431361
9704.00   1.04587066   0.07072804
9706.00   1.07493299   0.06850132
9708.00   1.08748144   0.06613765
9710.00   1.09324872   0.06658310
9712.00   1.09872472   0.07042919
9714.00   1.11125320   0.07641075
9716.00   1.12065041   0.08175614
9718.00   1.11482108   0.08843672
9720.00   1.07086501   0.09159867
9722.00   0.94979474   0.09445451
9724.00   0.92598775   0.09218536
9726.00   1.01931781   0.08141976
9728.00   1.14489570   0.06866552
9730.00   1.14607203   0.06643248
9732.00   1.03728735   0.07144447
9734.00   1.00437248   0.07322139
9736.00   0.98218191   0.07547866
9738.00   1.00028485   0.07787026
9740.00   1.07385507   0.08071069
9742.00   1.15680468   0.08114318
9744.00   1.20113903   0.07634153
9746.00   1.22326934   0.06599763
9748.00   1.18254536   0.06048351
9750.00   1.03142041   0.05794784
9752.00   0.96944287   0.05539103
9754.00   0.97720131   0.05363168
9756.00   1.02230048   0.05271909
9758.00   1.10870939   0.05207376
9760.00   1.21000725   0.05198626
9762.00   1.13350481   0.05344057
9764.00   0.83466533   0.05688831
9766.00   0.78843069   0.05896773
9768.00   0.95601729   0.06090411
9770.00   1.08147973   0.06147954
9772.00   1.15074292   0.06035039
9774.00   1.21586370   0.05821743
9776.00   1.28033966   0.05718108
9778.00   1.37869412   0.05497570
9780.00   1.38246006   0.05946320
9782.00   1.32300800   0.06788037
9784.00   1.19259530   0.07798107
9786.00   0.95330819   0.09108420
9788.00   0.72801468   0.10223633
9790.00   0.70528561   0.10766504
9792.00   0.87381101   0.11100506
9794.00   0.90376046   0.10967689
9796.00   0.85339588   0.10118970
9798.00   0.85099298   0.09459474
9800.00   0.93379506   0.08944298
9802.00   1.01119128   0.08527681
9804.00   1.01938006   0.08298048
9806.00   0.97590032   0.08243507
9808.00   0.98695856   0.07987301
9810.00   1.05309904   0.07560894
9812.00   1.07008034   0.07265806
9814.00   1.03869426   0.07026966
9816.00   0.96885049   0.06862327
9818.00   0.85960186   0.06882957
9820.00   0.73773792   0.07077998
9822.00   0.71656123   0.06979035
9824.00   0.78010449   0.06576550
9826.00   0.85272589   0.06421035
9828.00   0.99561971   0.06526462
9830.00   1.04075867   0.06552822
9832.00   1.01755512   0.06425842
9834.00   1.01763281   0.06229517
9836.00   0.98495662   0.06081259
9838.00   0.83949271   0.05822948
9840.00   0.84838143   0.06098648
9842.00   1.04242903   0.06898346
9844.00   1.12811840   0.07495579
9846.00   1.03262058   0.07981707
9848.00   0.93595144   0.08270577
9850.00   0.95226499   0.08244123
9852.00   0.97252318   0.07940572
9854.00   1.00009575   0.07740934
9856.00   1.05046713   0.07422103
9858.00   1.11875007   0.07290361
9860.00   1.17369249   0.07012081
9862.00   1.19585410   0.07229535
9864.00   1.14665484   0.08492625
9866.00   1.02328789   0.10156272
9868.00   1.09767407   0.11201584
9870.00   1.40596396   0.12332876
9872.00   1.53590167   0.12842276
9874.00   1.50241679   0.12816071
9876.00   1.41476887   0.12318391
9878.00   1.37823713   0.11466614
9880.00   1.40465862   0.10373553
9882.00   1.41946727   0.09566575
9884.00   1.41533917   0.08775046
9886.00   1.42343485   0.08453850
9888.00   1.52157170   0.08672243
9890.00   1.50156260   0.09008962
9892.00   1.26207116   0.09595399
9894.00   0.99472314   0.10173045
9896.00   0.89122128   0.10256947
9898.00   0.82465914   0.09912899
9900.00   0.86163464   0.09566827
9902.00   1.08604389   0.08478597
9904.00   1.20811957   0.08455464
9906.00   1.17988437   0.09716793
9908.00   1.10794860   0.11272330
9910.00   1.14314479   0.12412110
9912.00   1.25913900   0.13536889
9914.00   1.24239373   0.13752282
9916.00   1.09131321   0.13201735
9918.00   1.04725891   0.12530903
9920.00   1.11473647   0.11168469
9922.00   1.09281343   0.09998823
9924.00   0.79368906   0.10529293
9926.00   0.18201590   0.12505571
9928.00   -0.01364517   0.12847712
9930.00   -0.03227013   0.12231356
9932.00   0.16723043   0.11811113
9934.00   0.75188699   0.11046653
9936.00   1.29634130   0.10953181
9938.00   1.43482900   0.12399417
9940.00   1.35626513   0.14731742
9942.00   1.36343759   0.16364876
9944.00   1.34146762   0.18039673
9946.00   1.18969294   0.18694482
9948.00   0.81902394   0.18579518
9950.00   0.61963940   0.18271884
9952.00   0.62231910   0.17744772
9954.00   0.78131044   0.17280105
9956.00   0.94955918   0.17069947
9958.00   1.14467746   0.17091227
9960.00   1.22807974   0.16742906
9962.00   1.23563498   0.16137880
9964.00   1.22421813   0.15441894
9966.00   1.15648481   0.14596974
9968.00   1.07821283   0.13720536
9970.00   1.03590858   0.13056674
9972.00   1.01525289   0.12580321
9974.00   1.11424464   0.12116937
9976.00   1.38804448   0.11811309
9978.00   1.56948620   0.11403091
9980.00   1.66040778   0.10862686
9982.00   1.66838759   0.10362299
9984.00   1.67609608   0.10021250
9986.00   1.64784878   0.09808703
9988.00   1.61249530   0.09724134
9990.00   1.59070808   0.09810802
9992.00   1.49572766   0.09899318
9994.00   1.30177796   0.09833204
9996.00   1.10847950   0.10175081
9998.00   0.89021987   0.10950596
10000.00   0.74643657   0.11994765
10002.00   0.86696684   0.13436409
10004.00   1.28593135   0.15258727
10006.00   1.46587700   0.16735889
10008.00   1.60848457   0.18395751
10010.00   1.54716325   0.19460638
10012.00   1.24984300   0.19974493
10014.00   0.94912997   0.19999593
10016.00   0.83502159   0.19421525
10018.00   0.78688198   0.18029601
10020.00   0.83396754   0.17143689
10022.00   1.06021771   0.16176936
10024.00   1.19985282   0.15715681
10026.00   1.27152473   0.16113442
10028.00   1.26394361   0.16434070
10030.00   1.13989943   0.15977007
10032.00   0.85821444   0.15076781
10034.00   0.68419141   0.14158369
10036.00   0.50568493   0.12494389
10038.00   0.48289683   0.11789093
10040.00   0.55139504   0.12468473
10042.00   0.64121157   0.12999147
10044.00   0.80647236   0.12714102
10046.00   0.96362975   0.12140469
10048.00   0.97353351   0.11788076
10050.00   0.84076819   0.11173666
10052.00   0.86162797   0.11426567
10054.00   0.97601122   0.12602893
10056.00   1.08683151   0.13597555
10058.00   1.20794976   0.14447113
10060.00   1.34222597   0.14979111
10062.00   1.37921602   0.14843488
10064.00   1.29963642   0.14129245
10066.00   1.30091006   0.13823356
10068.00   1.37435228   0.13495439
10070.00   1.38982737   0.13434086
10072.00   1.32880759   0.13585386
10074.00   1.21925753   0.14172808
10076.00   1.07722583   0.15720172
10078.00   0.85188258   0.18063403
10080.00   0.70760381   0.19092812
10082.00   0.57544604   0.19694317
10084.00   0.53939828   0.19825497
10086.00   0.47941798   0.18812538
10088.00   0.54734179   0.17673547
10090.00   0.87479232   0.17755436
10092.00   1.36722383   0.18412097
10094.00   1.86720422   0.19076017
10096.00   2.64147082   0.20122376
10098.00   2.89281678   0.20857772
10100.00   2.71376967   0.22132512
10102.00   2.43719774   0.22014208
10104.00   2.03154582   0.19246858
10106.00   1.61735255   0.15249031
10108.00   1.37684774   0.13816324
10110.00   1.15970090   0.14103349
10112.00   1.14702058   0.14462787
10114.00   1.49563912   0.15650600
10116.00   1.65513664   0.17042086
10118.00   1.52012277   0.18932635
10120.00   1.32571188   0.20822240
10122.00   1.34082222   0.21661188
10124.00   1.57035780   0.22086889
10126.00   1.62016225   0.21809915
10128.00   1.61968219   0.20452092
10130.00   1.46369863   0.19188424
10132.00   1.22530836   0.18095452
10134.00   1.13034463   0.17140665
10136.00   1.08739911   0.16548624
10138.00   1.11484666   0.16507195
10140.00   1.22153905   0.16747825
10142.00   1.45628130   0.17362498
10144.00   1.56889972   0.18118937
10146.00   1.90142322   0.19263573
10148.00   2.10035419   0.20431598
10150.00   1.78556865   0.21518590
10152.00   1.21355498   0.22591369
10154.00   0.89563611   0.22848048
10156.00   0.56723656   0.22416968
10158.00   0.50539643   0.21971434
10160.00   0.77919114   0.20634639
10162.00   1.02876481   0.20164098
10164.00   1.21874627   0.21672199
10166.00   1.31055707   0.24355799
10168.00   1.26337114   0.26762510
10170.00   1.12449134   0.30268241
10172.00   1.13668956   0.30934803
10174.00   1.21745615   0.29177154
10176.00   1.29312581   0.27055437
10178.00   1.53036845   0.24892403
10180.00   1.59951085   0.23382984
10182.00   1.17969018   0.23557626
10184.00   0.28512605   0.25349763
10186.00   -0.04236582   0.25923074
10188.00   -0.08515099   0.25894282
10190.00   0.00472453   0.26216311
10192.00   0.21649200   0.27242800
10194.00   0.49317867   0.28243174
10196.00   1.07672234   0.27933931
10198.00   2.04642904   0.25890426
10200.00   2.21260500   0.25888946
10202.00   1.67095169   0.27413381
10204.00   1.43446210   0.28786972
10206.00   1.23950917   0.29826005
10208.00   0.94811141   0.30317951
10210.00   0.83866122   0.30535116
10212.00   0.88879806   0.30341853
10214.00   0.88847587   0.30214350
10216.00   1.01149967   0.30019097
10218.00   1.09270235   0.29561618
10220.00   1.06709728   0.28638598
10222.00   0.88942271   0.28251686
10224.00   0.91174646   0.27991197
10226.00   1.00431511   0.27506031
10228.00   0.89904514   0.27543757
10230.00   0.67390653   0.28404934
10232.00   0.69755839   0.28222085
10234.00   1.03192052   0.27221755
10236.00   1.10964730   0.26229174
10238.00   0.77398854   0.24946173
10240.00   0.40307316   0.23169258
10242.00   0.53770678   0.22092149
10244.00   1.01148087   0.21794243
10246.00   1.29422820   0.21374098
10248.00   1.68195635   0.21104215
10250.00   1.80585217   0.20964601
10252.00   1.60722762   0.21002727
10254.00   1.30744597   0.21031416
10256.00   0.88882849   0.20814109
10258.00   0.28828835   0.20490582
10260.00   0.34715662   0.21095559
10262.00   1.14089857   0.22720284
10264.00   1.34080821   0.23386060
10266.00   1.10529715   0.23419884
10268.00   1.06374481   0.23792878
10270.00   1.22435407   0.24235519
10272.00   1.45760016   0.24901768
10274.00   1.53020665   0.26587145
10276.00   1.43226080   0.27822438
10278.00   1.68124858   0.31916064
10280.00   2.69934237   0.38051299
10282.00   2.80074000   0.43987007
10284.00   1.32698101   0.50961232
10286.00   -0.51773477   0.56310005
10288.00   -0.47287636   0.54793462
10290.00   0.95726576   0.45732291
10292.00   1.69725388   0.41756015
10294.00   2.58481663   0.40967644
10296.00   3.17265993   0.39581195
10298.00   2.89156473   0.36998259
10300.00   2.02988410   0.33810672
10302.00   1.71191633   0.31708521
10304.00   1.75365746   0.30712864
10306.00   2.00078398   0.30357609
10308.00   2.91570699   0.31747437
10310.00   3.11405909   0.31821660
10312.00   2.47083557   0.30639910
10314.00   1.71760651   0.29230482
10316.00   1.56463131   0.28291256
10318.00   1.75388670   0.27527933
10320.00   1.74851775   0.26962752
10322.00   1.73543084   0.26440425
10324.00   1.77272087   0.26415463
10326.00   1.81532836   0.27348772
10328.00   1.67703831   0.28033686
10330.00   1.66043937   0.27616555
10332.00   1.89863008   0.26470625
10334.00   1.64580473   0.26437708
10336.00   0.77933122   0.26746252
10338.00   0.57124957   0.28601482
10340.00   0.95461549   0.32629027
10342.00   1.18015815   0.35041485
10344.00   1.30934408   0.35412368
10346.00   1.62110984   0.34853518
10348.00   1.87511939   0.34756944
10350.00   2.04161733   0.34455363
10352.00   1.57734242   0.33309509
10354.00   0.09589992   0.30436572
10356.00   -0.57677442   0.29113401
10358.00   -0.48775310   0.28738788
10360.00   -0.07839462   0.28986432
10362.00   0.27450488   0.31156955
10364.00   0.72796011   0.35644468
10366.00   0.77566768   0.38574005
10368.00   0.35859674   0.42118353
10370.00   0.17219377   0.43317661
10372.00   0.12275892   0.42514905
10374.00   0.41461475   0.40946647
10376.00   1.12899405   0.39446655
10378.00   2.10551441   0.37228403
10380.00   2.32789248   0.36355625
10382.00   1.95065415   0.36241461
10384.00   1.78004444   0.36700468
10386.00   1.61898702   0.38889681
10388.00   1.41740254   0.40582483
10390.00   1.26585549   0.38590828
10392.00   1.31823042   0.33545758
10394.00   1.39091498   0.32104995
10396.00   1.48013264   0.33447074
10398.00   1.28593904   0.33446651
10400.00   0.72074506   0.32726341
10402.00   0.43564111   0.32545512
10404.00   0.43681157   0.33189962
10406.00   0.81429648   0.33948070
10408.00   1.17132573   0.34338690
10410.00   1.31466794   0.34997206
10412.00   1.79885900   0.36748618
10414.00   3.00928199   0.39830028
10416.00   3.30741179   0.41833562
10418.00   2.52908111   0.43755916
10420.00   1.72701016   0.44694134
10422.00   1.27529424   0.44232023
10424.00   0.83126643   0.43199923
10426.00   0.38828409   0.42000326
10428.00   -0.20631487   0.40210896
10430.00   -0.38692547   0.37881581
10432.00   -0.05837247   0.34762181
10434.00   0.23839864   0.32722031
10436.00   0.32213699   0.32403489
10438.00   0.32850533   0.32957835
10440.00   0.34888579   0.32893268
10442.00   0.34996027   0.32775669
10444.00   0.53939462   0.32830633
10446.00   0.93975978   0.33254589
10448.00   1.18741000   0.33197838
10450.00   1.17388681   0.32268960
10452.00   0.87142524   0.31091070
10454.00   0.76369259   0.30835138
10456.00   0.77266020   0.31230722
10458.00   1.00727245   0.32365529
10460.00   1.77291214   0.34948798
10462.00   1.97225177   0.36038326
10464.00   1.36616257   0.36024643
10466.00   0.48145753   0.36346039
10468.00   0.20758645   0.37070065
10470.00   0.54330850   0.37962688
10472.00   0.71440428   0.36979308
10474.00   0.99412014   0.33515541
10476.00   1.11756343   0.31022906
10478.00   1.39828283   0.29403151
10480.00   1.50142741   0.28810209
10482.00   1.08146039   0.29043039
10484.00   0.24811936   0.29692438
10486.00   -0.12115571   0.29759161
10488.00   -0.22798347   0.29148985
10490.00   -0.32174212   0.29725101
10492.00   -0.35846947   0.31813554
10494.00   -0.53467551   0.33397102
10496.00   -0.81892987   0.32689153
10498.00   -1.03225282   0.30182746
10500.00   -0.78798175   0.29404303
10502.00   -0.04727404   0.29425704
10504.00   0.51600035   0.29305946
10506.00   1.28144222   0.29196772
10508.00   1.57381898   0.29738739
10510.00   1.25131300   0.30471440
10512.00   0.50641744   0.31132343
10514.00   -0.09208876   0.31619649
10516.00   -0.84357017   0.31723783
10518.00   -0.66812325   0.31380522
10520.00   0.79724470   0.29465708
10522.00   1.41171530   0.29969442
10524.00   0.87868019   0.32413668
10526.00   0.07296255   0.34820120
10528.00   -0.14456366   0.37237881
10530.00   -0.09396124   0.39442367
10532.00   0.25250580   0.38290570
10534.00   1.33247101   0.31916349
10536.00   1.67264557   0.29349682
10538.00   1.33460119   0.29281806
10540.00   0.95237516   0.28998771
10542.00   0.88262644   0.28190321
10544.00   0.95578355   0.27575621
10546.00   0.82281613   0.27390326
10548.00   0.47898854   0.27697692
10550.00   0.35396012   0.27647303
10552.00   0.42134953   0.27246989
10554.00   0.52149126   0.27352036
10556.00   0.57943140   0.28301551
10558.00   0.58008093   0.29538213
10560.00   0.66317213   0.29868573
10562.00   0.87012565   0.29630396
10564.00   0.95268673   0.29350253
10566.00   0.96201763   0.28718471
10568.00   0.92910013   0.28235222
10570.00   0.74174818   0.27696501
10572.00   0.42491762   0.27519613
10574.00   0.34545477   0.28388301
10576.00   0.58150752   0.30298381
10578.00   0.28732899   0.31526090
10580.00   -0.82790941   0.33303715
10582.00   -1.09678298   0.33413056
10584.00   -0.29645598   0.31674845
10586.00   0.69836372   0.29868861
10588.00   1.26515538   0.29276525
10590.00   1.71535712   0.29364418
10592.00   1.65697992   0.28980701
10594.00   0.86222544   0.28203796
10596.00   0.49358413   0.28016770
10598.00   0.43694138   0.28488055
10600.00   0.37082357   0.28923125
10602.00   0.18598296   0.29139889
10604.00   0.09300235   0.29280270
10606.00   0.28181153   0.29287928
10608.00   0.88831830   0.29223540
10610.00   1.01711529   0.28943531
10612.00   0.72537631   0.28262205
10614.00   0.48706163   0.27743671
10616.00   0.47253005   0.27507481
10618.00   0.48202769   0.27487038
10620.00   0.42194197   0.27638862
10622.00   0.45094496   0.28086883
10624.00   0.33602402   0.28224834
10626.00   -0.04739796   0.28285385
10628.00   -0.24658325   0.28050576
10630.00   -0.11822172   0.27501631
10632.00   0.11488301   0.27072351
10634.00   0.30704897   0.26905471
10636.00   0.61192673   0.26916301
10638.00   0.83929226   0.27070862
10640.00   1.13768791   0.27618293
10642.00   1.15515477   0.27733448
10644.00   0.94616664   0.27618943
10646.00   0.77927855   0.27398943
10648.00   0.70199904   0.27091138
10650.00   0.56243433   0.26810490
10652.00   0.39983875   0.26606277
10654.00   0.09416826   0.26400130
10656.00   0.15072320   0.26288894
10658.00   0.51722839   0.26292040
10660.00   0.77069017   0.26456996
10662.00   0.80496891   0.26905337
10664.00   0.59793486   0.27469532
10666.00   0.48125592   0.27239273
10668.00   0.37676655   0.26183110
10670.00   0.44521482   0.25392719
10672.00   0.72143283   0.24575469
10674.00   0.78877291   0.24093589
10676.00   0.57898103   0.23714409
10678.00   0.29158331   0.23586100
10680.00   0.13007042   0.23967440
10682.00   -0.01905826   0.24840940
10684.00   0.09989452   0.25217170
10686.00   0.56108312   0.25601767
10688.00   0.86146092   0.25444337
10690.00   1.17920172   0.24552068
10692.00   1.37274766   0.23654554
10694.00   1.10949743   0.23008325
10696.00   0.44306469   0.22495909
10698.00   0.11361428   0.22608642
10700.00   -0.18188108   0.23652094
10702.00   -0.26020813   0.23889468
10704.00   -0.02328464   0.24119664
10706.00   0.28239837   0.24158347
10708.00   0.45648193   0.23346543
10710.00   0.57934338   0.22081218
10712.00   0.69130860   0.21268322
10714.00   0.75945087   0.20568699
10716.00   0.88505146   0.19863057
10718.00   1.16105717   0.19130055
10720.00   1.20723474   0.18986139
10722.00   0.83140659   0.19583390
10724.00   0.30553655   0.20449842
10726.00   0.25661746   0.21119654
10728.00   0.54131036   0.22081208
10730.00   0.74713038   0.22097354
10732.00   1.16922824   0.21077492
10734.00   1.24987438   0.20200473
10736.00   0.80250093   0.19695789
10738.00   0.30220915   0.19372085
10740.00   0.39203105   0.18860807
10742.00   1.03708071   0.17905027
10744.00   1.20289212   0.17807265
10746.00   1.13786829   0.18777073
10748.00   1.00699714   0.19280838
10750.00   0.77005781   0.18804279
10752.00   0.52782917   0.17703293
10754.00   0.60736703   0.16743621
10756.00   1.08337995   0.15424369
10758.00   1.14571348   0.15222121
10760.00   0.92685059   0.16380551
10762.00   0.73543078   0.16794105
10764.00   0.57812712   0.16689515
10766.00   0.56231332   0.16224717
10768.00   0.76352406   0.15392975
10770.00   1.15737230   0.14225808
10772.00   1.22019076   0.13692386
10774.00   1.05699015   0.13746095
10776.00   0.88061732   0.13511804
10778.00   0.59382610   0.13043763
10780.00   0.36098725   0.12723367
10782.00   0.36672786   0.12609466
10784.00   0.60136358   0.12453538
10786.00   0.56105959   0.12603834
10788.00   0.21339932   0.13453030
10790.00   0.27693848   0.13556517
10792.00   0.75626099   0.12910601
10794.00   1.14507738   0.12286352
10796.00   1.39663470   0.12077391
10798.00   1.47196537   0.12123093
10800.00   1.37000105   0.12247056
10802.00   1.01308037   0.12499971
10804.00   0.86860406   0.12237200
10806.00   0.89927959   0.11216526
10808.00   0.80143461   0.10741998
10810.00   0.37207144   0.10886169
10812.00   0.03156984   0.11427456
10814.00   0.13192109   0.11889041
10816.00   0.44259975   0.12553893
10818.00   0.64939419   0.12975273
10820.00   0.78264144   0.13077437
10822.00   1.19922805   0.13503329
10824.00   2.04643220   0.14867868
10826.00   2.41990095   0.15416458
10828.00   1.93363711   0.14435251
10830.00   0.95154576   0.12785406
10832.00   0.71134760   0.12067572
10834.00   0.92121783   0.11784410
10836.00   1.26491535   0.11634323
10838.00   2.01643860   0.11982166
10840.00   2.30218822   0.12105604
10842.00   1.98649037   0.12140142
10844.00   1.36916788   0.12434780
10846.00   1.23531823   0.12221425
10848.00   1.57559171   0.11139457
10850.00   1.57814533   0.10506534
10852.00   1.34902018   0.10302798
10854.00   1.06410664   0.10008909
10856.00   0.90136622   0.09169706
10858.00   0.78677496   0.08258895
10860.00   0.57736226   0.08071183
10862.00   0.57736226   0.08071183
