# File created by shivutils (I.Shivvers)
# 
# wl(A)   flm    er(optional)
3430.00   0.19927074   0.07906998
3432.00   0.35746512   0.08319902
3434.00   0.36253724   0.08738552
3436.00   0.48180091   0.09511201
3438.00   0.43847725   0.09370017
3440.00   0.56584877   0.09979092
3442.00   0.50671375   0.09758352
3444.00   0.36540315   0.09443341
3446.00   0.31067175   0.09726156
3448.00   0.40560409   0.10143784
3450.00   0.58089113   0.10864995
3452.00   0.28361633   0.10984576
3454.00   0.38000405   0.11072685
3456.00   0.52713931   0.11137217
3458.00   0.55652207   0.11129087
3460.00   0.43759316   0.10892984
3462.00   0.48021218   0.10934521
3464.00   0.65481699   0.11013675
3466.00   0.30748174   0.10448625
3468.00   0.60592884   0.10851110
3470.00   0.41172808   0.10322867
3472.00   0.61360353   0.10742406
3474.00   0.44930288   0.10315625
3476.00   0.66988736   0.10602900
3478.00   0.49544469   0.10576794
3480.00   0.38763997   0.11205187
3482.00   0.41138572   0.11299270
3484.00   0.14263310   0.10602094
3486.00   0.43880621   0.10978958
3488.00   0.54265416   0.10888330
3490.00   0.59823728   0.10681412
3492.00   0.51828885   0.10484837
3494.00   0.50052035   0.10288914
3496.00   0.38392660   0.10101258
3498.00   0.67911464   0.09968350
3500.00   0.43568242   0.09783719
3502.00   0.50410622   0.09529471
3504.00   0.54209471   0.09653449
3506.00   0.38667601   0.09178452
3508.00   0.56152511   0.09337858
3510.00   0.39222807   0.09342825
3512.00   0.49676469   0.09333319
3514.00   0.46692300   0.09191620
3516.00   0.63118362   0.09361758
3518.00   0.40987587   0.08988346
3520.00   0.52892655   0.08803296
3522.00   0.49376658   0.08795004
3524.00   0.53943497   0.08841964
3526.00   0.44670913   0.08839165
3528.00   0.38770539   0.08520062
3530.00   0.45138940   0.08429368
3532.00   0.56591678   0.08612829
3534.00   0.45749304   0.08410892
3536.00   0.49138254   0.08349061
3538.00   0.35156131   0.08026522
3540.00   0.28202951   0.08160529
3542.00   0.39694104   0.09149858
3544.00   0.45948613   0.09474185
3546.00   0.40068629   0.09134598
3548.00   0.18805845   0.08580682
3550.00   0.32761905   0.08592647
3552.00   0.57889581   0.09008121
3554.00   0.60050923   0.09146094
3556.00   0.51935136   0.08995446
3558.00   0.54519564   0.08950658
3560.00   0.57487005   0.08790319
3562.00   0.40712178   0.08146016
3564.00   0.33625519   0.08060400
3566.00   0.49377629   0.07984670
3568.00   0.50618249   0.07987371
3570.00   0.48946837   0.07672243
3572.00   0.47551644   0.07669894
3574.00   0.52647918   0.07734885
3576.00   0.54604375   0.07572993
3578.00   0.46041617   0.07507162
3580.00   0.45216212   0.07316047
3582.00   0.40465650   0.07180355
3584.00   0.46770316   0.06956807
3586.00   0.47542551   0.06767340
3588.00   0.57980198   0.07195450
3590.00   0.47488245   0.07159716
3592.00   0.48034209   0.06911136
3594.00   0.33245885   0.06501405
3596.00   0.46154106   0.06663915
3598.00   0.39123353   0.06396223
3600.00   0.59762430   0.06753630
3602.00   0.49927014   0.06465856
3604.00   0.38020670   0.06274717
3606.00   0.55972219   0.06363159
3608.00   0.54190087   0.06493729
3610.00   0.57852048   0.06374636
3612.00   0.42918590   0.06124377
3614.00   0.32417437   0.06183118
3616.00   0.39298689   0.06489428
3618.00   0.58886921   0.06695420
3620.00   0.55122423   0.06520442
3622.00   0.42664155   0.06338403
3624.00   0.48407894   0.06239844
3626.00   0.64437681   0.06510477
3628.00   0.62641549   0.06340363
3630.00   0.54579031   0.06341881
3632.00   0.50392669   0.06559151
3634.00   0.57529724   0.06556077
3636.00   0.44822481   0.06274987
3638.00   0.47639707   0.06201255
3640.00   0.49831367   0.06166980
3642.00   0.45290878   0.06287944
3644.00   0.46396396   0.06199929
3646.00   0.51007116   0.06193271
3648.00   0.45157179   0.06378534
3650.00   0.39449620   0.07982221
3652.00   0.56318235   0.07480551
3654.00   0.59224033   0.06909042
3656.00   0.49529448   0.06609724
3658.00   0.47085407   0.05686455
3660.00   0.50478345   0.05732726
3662.00   0.47553554   0.06123489
3664.00   0.59635878   0.06537017
3666.00   0.48251709   0.05514440
3668.00   0.59085631   0.05472094
3670.00   0.50202638   0.05240167
3672.00   0.47821650   0.05174530
3674.00   0.49288249   0.05180418
3676.00   0.53125530   0.05130141
3678.00   0.48777896   0.05048255
3680.00   0.48204312   0.04895019
3682.00   0.55679190   0.04982686
3684.00   0.56637126   0.04979363
3686.00   0.49736637   0.04861312
3688.00   0.61753011   0.05004553
3690.00   0.49020875   0.04808972
3692.00   0.51077944   0.04914981
3694.00   0.56285375   0.04960073
3696.00   0.57274902   0.04888612
3698.00   0.56920666   0.05009385
3700.00   0.46760824   0.04970361
3702.00   0.50685108   0.04956444
3704.00   0.51530361   0.04994769
3706.00   0.47910738   0.04823593
3708.00   0.60106361   0.04952369
3710.00   0.47390264   0.04765735
3712.00   0.55202204   0.04861135
3714.00   0.50018001   0.04765147
3716.00   0.46136096   0.04530757
3718.00   0.51350349   0.04634655
3720.00   0.42479932   0.04483837
3722.00   0.39411870   0.04421316
3724.00   0.45028898   0.04410809
3726.00   0.42197320   0.04332495
3728.00   0.35317224   0.04314611
3730.00   0.46449628   0.04575694
3732.00   0.43342087   0.04612006
3734.00   0.30642501   0.04472657
3736.00   0.36541313   0.04429971
3738.00   0.36489999   0.04629819
3740.00   0.28262818   0.04628574
3742.00   0.29201731   0.04488407
3744.00   0.30008221   0.04420377
3746.00   0.26633853   0.04273779
3748.00   0.36018997   0.04355287
3750.00   0.21361123   0.04134756
3752.00   0.24389321   0.04026157
3754.00   0.20518263   0.03924962
3756.00   0.22375594   0.04007621
3758.00   0.20910287   0.03916856
3760.00   0.17348000   0.03912489
3762.00   0.19486399   0.03867033
3764.00   0.19391042   0.03727984
3766.00   0.17338227   0.03662355
3768.00   0.18189886   0.03597836
3770.00   0.26914957   0.03816397
3772.00   0.21760091   0.03882099
3774.00   0.19258058   0.03726430
3776.00   0.18769039   0.03710693
3778.00   0.19423053   0.03678080
3780.00   0.23942940   0.03735497
3782.00   0.17752951   0.03528008
3784.00   0.22546628   0.03612835
3786.00   0.23335315   0.03775889
3788.00   0.24849154   0.03584343
3790.00   0.25853455   0.03767369
3792.00   0.23709799   0.03667296
3794.00   0.21553679   0.03741033
3796.00   0.27716005   0.03689837
3798.00   0.20558795   0.03448638
3800.00   0.19169590   0.03517014
3802.00   0.23931466   0.03643115
3804.00   0.24484178   0.03617990
3806.00   0.25819269   0.03564549
3808.00   0.22522937   0.03504946
3810.00   0.21957038   0.03507226
3812.00   0.25565055   0.03523198
3814.00   0.18638065   0.03611347
3816.00   0.24143377   0.03618823
3818.00   0.26676816   0.03614391
3820.00   0.23352994   0.03488084
3822.00   0.23416711   0.03580932
3824.00   0.19778474   0.03426389
3826.00   0.19008958   0.03299470
3828.00   0.29240516   0.03722591
3830.00   0.33557752   0.03959962
3832.00   0.21607026   0.03741944
3834.00   0.34832877   0.03747367
3836.00   0.25394779   0.03576048
3838.00   0.24242200   0.03585657
3840.00   0.30081752   0.03620674
3842.00   0.32353696   0.03651455
3844.00   0.38001990   0.03629963
3846.00   0.25080639   0.03514419
3848.00   0.33708706   0.03491123
3850.00   0.35674196   0.03549608
3852.00   0.38108513   0.03546577
3854.00   0.43281221   0.03536689
3856.00   0.34336805   0.03447574
3858.00   0.41848189   0.03454674
3860.00   0.34088665   0.03232780
3862.00   0.39680615   0.03421064
3864.00   0.38979572   0.03389524
3866.00   0.37934452   0.03302770
3868.00   0.40019155   0.03377039
3870.00   0.39657533   0.03271668
3872.00   0.43696025   0.03327257
3874.00   0.45494580   0.03460209
3876.00   0.44327268   0.03498572
3878.00   0.46813670   0.03382667
3880.00   0.49024746   0.03413051
3882.00   0.42007554   0.03250704
3884.00   0.51954395   0.03459971
3886.00   0.53147477   0.03436955
3888.00   0.62240469   0.03548092
3890.00   0.57234615   0.03387602
3892.00   0.53396761   0.03367522
3894.00   0.58897066   0.03474576
3896.00   0.60658783   0.03538584
3898.00   0.61230266   0.03533904
3900.00   0.60068244   0.03518169
3902.00   0.64163566   0.03601613
3904.00   0.61400622   0.03616809
3906.00   0.66388351   0.03923001
3908.00   0.75056326   0.04197109
3910.00   0.74332237   0.04100639
3912.00   0.63267648   0.04036487
3914.00   0.69681454   0.03936274
3916.00   0.72536838   0.03805462
3918.00   0.74170363   0.03791204
3920.00   0.70250320   0.03657082
3922.00   0.77134472   0.03700895
3924.00   0.73424464   0.03655631
3926.00   0.71487331   0.03564370
3928.00   0.77581751   0.03653140
3930.00   0.77677065   0.03631837
3932.00   0.79057765   0.03702020
3934.00   0.72253466   0.03655344
3936.00   0.77581650   0.03622686
3938.00   0.77856117   0.03614835
3940.00   0.83997452   0.03780714
3942.00   0.77510470   0.03775270
3944.00   0.76652676   0.03817359
3946.00   0.77015489   0.03746297
3948.00   0.81951421   0.03716041
3950.00   0.74101824   0.03574728
3952.00   0.79561090   0.03635282
3954.00   0.82414788   0.03608901
3956.00   0.76809359   0.03534336
3958.00   0.76022393   0.03495665
3960.00   0.81598926   0.03608296
3962.00   0.83343983   0.03710215
3964.00   0.78922248   0.03535509
3966.00   0.71668655   0.03337887
3968.00   0.68631798   0.03265127
3970.00   0.87199819   0.03511029
3972.00   0.81156552   0.03468560
3974.00   0.76288635   0.03435379
3976.00   0.86597729   0.03568449
3978.00   0.80265886   0.03467412
3980.00   0.80116183   0.03453846
3982.00   0.85716242   0.03545063
3984.00   0.79092997   0.03462152
3986.00   0.78897953   0.03403603
3988.00   0.84762532   0.03510411
3990.00   0.82095426   0.03483128
3992.00   0.84660071   0.03452038
3994.00   0.79324275   0.03420544
3996.00   0.85023808   0.03537404
3998.00   0.83474594   0.03519344
4000.00   0.83427650   0.03420994
4002.00   0.80222028   0.03346825
4004.00   0.74314606   0.03228061
4006.00   0.80838925   0.03382190
4008.00   0.85409695   0.03480186
4010.00   0.77270019   0.03400983
4012.00   0.81417525   0.03443737
4014.00   0.78094870   0.03401488
4016.00   0.84109968   0.03422681
4018.00   0.75432247   0.03365534
4020.00   0.72384703   0.03587668
4022.00   0.80399942   0.03679937
4024.00   0.71375817   0.03611113
4026.00   0.76502585   0.03488601
4028.00   0.79439539   0.03373734
4030.00   0.67347592   0.03236123
4032.00   0.72175902   0.03255967
4034.00   0.72918171   0.03216324
4036.00   0.69034082   0.03216247
4038.00   0.61582184   0.03093724
4040.00   0.73469061   0.03197505
4042.00   0.69652307   0.03253185
4044.00   0.63505965   0.03473880
4046.00   0.64371943   0.05294020
4048.00   0.74015409   0.04877485
4050.00   0.62754965   0.03474336
4052.00   0.57202506   0.03106271
4054.00   0.58168715   0.03167958
4056.00   0.58711058   0.03108300
4058.00   0.60730660   0.03064867
4060.00   0.62773901   0.03056113
4062.00   0.68457168   0.03120322
4064.00   0.59097242   0.03048465
4066.00   0.61904788   0.03056882
4068.00   0.63790590   0.03055681
4070.00   0.61735386   0.02987912
4072.00   0.56353623   0.02891736
4074.00   0.59109420   0.02919187
4076.00   0.58732456   0.03104561
4078.00   0.53060508   0.03285825
4080.00   0.58045161   0.03096969
4082.00   0.56717926   0.03094390
4084.00   0.55038208   0.02955498
4086.00   0.59904289   0.02985918
4088.00   0.61829609   0.02957031
4090.00   0.55323392   0.02816553
4092.00   0.56565022   0.02774232
4094.00   0.53681576   0.02744134
4096.00   0.54789984   0.02763425
4098.00   0.55623901   0.02731210
4100.00   0.55808294   0.02761973
4102.00   0.55352378   0.02695598
4104.00   0.54417008   0.02690528
4106.00   0.54174304   0.02665097
4108.00   0.51991582   0.02659164
4110.00   0.59091473   0.02728566
4112.00   0.58509779   0.02709372
4114.00   0.55451876   0.02661550
4116.00   0.53660220   0.02679796
4118.00   0.58709228   0.02701632
4120.00   0.57493788   0.02654597
4122.00   0.59192973   0.02709353
4124.00   0.55566746   0.02709194
4126.00   0.57959336   0.02702711
4128.00   0.55290949   0.02682106
4130.00   0.58288509   0.02716680
4132.00   0.58754206   0.02782712
4134.00   0.52741885   0.02699359
4136.00   0.56087583   0.02695090
4138.00   0.53162402   0.02650890
4140.00   0.57046378   0.02759003
4142.00   0.55326015   0.02660104
4144.00   0.60842246   0.02663024
4146.00   0.53714925   0.02568310
4148.00   0.60701847   0.02638885
4150.00   0.61656725   0.02670152
4152.00   0.58099890   0.02738633
4154.00   0.61178094   0.02757533
4156.00   0.60259134   0.02706200
4158.00   0.61164451   0.02693678
4160.00   0.57455111   0.02648140
4162.00   0.65672046   0.02747857
4164.00   0.63235790   0.02833844
4166.00   0.63533366   0.02864206
4168.00   0.60153055   0.02743500
4170.00   0.63848847   0.02723322
4172.00   0.55790162   0.02639185
4174.00   0.59974182   0.02627455
4176.00   0.55848271   0.02588428
4178.00   0.56098604   0.02589349
4180.00   0.60983092   0.02644868
4182.00   0.60579878   0.02557820
4184.00   0.62409246   0.02577372
4186.00   0.61645538   0.02579892
4188.00   0.60615742   0.02530499
4190.00   0.58092237   0.02512634
4192.00   0.64099073   0.02605999
4194.00   0.62745100   0.02543990
4196.00   0.64923865   0.02545847
4198.00   0.67833346   0.02551473
4200.00   0.66265088   0.02544793
4202.00   0.58129221   0.02433721
4204.00   0.63348478   0.02528665
4206.00   0.57551235   0.02474363
4208.00   0.59689409   0.02488454
4210.00   0.59962696   0.02516142
4212.00   0.61670858   0.02530220
4214.00   0.56807148   0.02415612
4216.00   0.60852909   0.02475743
4218.00   0.58969772   0.02448609
4220.00   0.60151589   0.02439025
4222.00   0.62649411   0.02459904
4224.00   0.60087323   0.02458103
4226.00   0.61944073   0.02483243
4228.00   0.58380973   0.02415216
4230.00   0.57255912   0.02389469
4232.00   0.56501496   0.02446122
4234.00   0.61730105   0.02479599
4236.00   0.64694357   0.02496441
4238.00   0.58606434   0.02492040
4240.00   0.64888996   0.02489564
4242.00   0.64154524   0.02441970
4244.00   0.62644792   0.02479620
4246.00   0.67114973   0.02790448
4248.00   0.61342561   0.02662334
4250.00   0.66114885   0.02555001
4252.00   0.62964720   0.02467726
4254.00   0.62267309   0.02476031
4256.00   0.63886255   0.02492672
4258.00   0.63101172   0.02460266
4260.00   0.62016612   0.02446544
4262.00   0.60243946   0.02371254
4264.00   0.61889666   0.02404665
4266.00   0.62231785   0.02404242
4268.00   0.58470440   0.02384854
4270.00   0.62446594   0.02428752
4272.00   0.60757887   0.02419910
4274.00   0.60229182   0.02376818
4276.00   0.63047320   0.02406267
4278.00   0.60217261   0.02407416
4280.00   0.62954402   0.02405277
4282.00   0.65932316   0.02450336
4284.00   0.62696892   0.02413930
4286.00   0.66699314   0.02437827
4288.00   0.64140522   0.02394897
4290.00   0.66115779   0.02412895
4292.00   0.66372049   0.02424327
4294.00   0.60160464   0.02380431
4296.00   0.61727053   0.02393972
4298.00   0.66182142   0.02405017
4300.00   0.60984653   0.02358162
4302.00   0.64041835   0.02393803
4304.00   0.64902467   0.02401058
4306.00   0.65942085   0.02446559
4308.00   0.61167836   0.02376764
4310.00   0.65623480   0.02419485
4312.00   0.64976406   0.02495292
4314.00   0.61848360   0.02595912
4316.00   0.57336783   0.02443942
4318.00   0.68402970   0.02517306
4320.00   0.62222719   0.02513164
4322.00   0.58711195   0.02441659
4324.00   0.61598682   0.02479662
4326.00   0.68434399   0.02509946
4328.00   0.61472380   0.02382903
4330.00   0.59596956   0.02339576
4332.00   0.57883215   0.02314378
4334.00   0.60094619   0.02322493
4336.00   0.60743070   0.02370843
4338.00   0.62511879   0.02401027
4340.00   0.58678752   0.02383529
4342.00   0.59176904   0.02362503
4344.00   0.56716359   0.02357725
4346.00   0.51308948   0.02389780
4348.00   0.57099986   0.02484395
4350.00   0.53345889   0.02368189
4352.00   0.54781640   0.02363425
4354.00   0.57525337   0.02401935
4356.00   0.54897046   0.03424799
4358.00   0.58722389   0.05200548
4360.00   0.55050021   0.04134836
4362.00   0.51366502   0.03021607
4364.00   0.49386749   0.02464008
4366.00   0.45866996   0.02342429
4368.00   0.50278544   0.02326907
4370.00   0.50697690   0.02321056
4372.00   0.51835728   0.02347918
4374.00   0.54150677   0.02460427
4376.00   0.54445219   0.02409545
4378.00   0.49294496   0.02284189
4380.00   0.48460314   0.02258276
4382.00   0.50996268   0.02276419
4384.00   0.45466316   0.02179052
4386.00   0.49877629   0.02220511
4388.00   0.46446651   0.02161961
4390.00   0.42786977   0.02156031
4392.00   0.41760066   0.02136023
4394.00   0.44659477   0.02166666
4396.00   0.46811339   0.02187354
4398.00   0.45680714   0.02174274
4400.00   0.42210808   0.02237574
4402.00   0.38651347   0.02172046
4404.00   0.39955267   0.02158038
4406.00   0.39176893   0.02141263
4408.00   0.42626342   0.02186934
4410.00   0.41442257   0.02173506
4412.00   0.47774100   0.02244776
4414.00   0.41740820   0.02210779
4416.00   0.46575633   0.02274977
4418.00   0.43649206   0.02185691
4420.00   0.51406401   0.02279707
4422.00   0.47944495   0.02193593
4424.00   0.46189660   0.02177913
4426.00   0.46939620   0.02199805
4428.00   0.46046513   0.02175696
4430.00   0.49130687   0.02202909
4432.00   0.50099790   0.02198678
4434.00   0.46321759   0.02159954
4436.00   0.49757239   0.02174024
4438.00   0.48517233   0.02211961
4440.00   0.52016616   0.02227006
4442.00   0.51576948   0.02201263
4444.00   0.51015061   0.02197245
4446.00   0.50272477   0.02191610
4448.00   0.50796044   0.02173395
4450.00   0.49010262   0.02161882
4452.00   0.56881064   0.02229691
4454.00   0.54236120   0.02204681
4456.00   0.53350985   0.02205119
4458.00   0.54187721   0.02201620
4460.00   0.56601387   0.02227316
4462.00   0.53740257   0.02200667
4464.00   0.56823575   0.02220046
4466.00   0.57149988   0.02218463
4468.00   0.59772384   0.02252164
4470.00   0.58784336   0.02235148
4472.00   0.61170167   0.02240854
4474.00   0.60304785   0.02240883
4476.00   0.65550238   0.02279538
4478.00   0.63021880   0.02266315
4480.00   0.62814754   0.02259448
4482.00   0.65600652   0.02299061
4484.00   0.62164724   0.02245106
4486.00   0.63861620   0.02281804
4488.00   0.62576205   0.02261000
4490.00   0.63290215   0.02292346
4492.00   0.68426472   0.02340147
4494.00   0.67909795   0.02330983
4496.00   0.67008132   0.02318690
4498.00   0.68402505   0.02328698
4500.00   0.70532465   0.02340571
4502.00   0.72424084   0.02328362
4504.00   0.70874417   0.02342774
4506.00   0.72186226   0.02340301
4508.00   0.70688713   0.02320794
4510.00   0.72786117   0.02338130
4512.00   0.74067903   0.02357281
4514.00   0.78533322   0.02394513
4516.00   0.75781208   0.02351726
4518.00   0.74784476   0.02342817
4520.00   0.80067265   0.02401903
4522.00   0.76623356   0.02366728
4524.00   0.74766523   0.02340993
4526.00   0.79433078   0.02384606
4528.00   0.76080310   0.02358760
4530.00   0.82237881   0.02411265
4532.00   0.78950429   0.02390827
4534.00   0.86149096   0.02429482
4536.00   0.82439971   0.02394063
4538.00   0.83842367   0.02413346
4540.00   0.85286021   0.02424264
4542.00   0.86927831   0.02452713
4544.00   0.84748799   0.02445382
4546.00   0.87278694   0.02456740
4548.00   0.86708331   0.02435333
4550.00   0.81544203   0.02371491
4552.00   0.79989338   0.02352841
4554.00   0.84205335   0.02395831
4556.00   0.86542678   0.02416705
4558.00   0.85310644   0.02397927
4560.00   0.91772437   0.02446870
4562.00   0.87671304   0.02411578
4564.00   0.85368878   0.02362283
4566.00   0.91520363   0.02409472
4568.00   0.88246268   0.02378520
4570.00   0.87953627   0.02379525
4572.00   0.90200931   0.02402478
4574.00   0.87865603   0.02403859
4576.00   0.88691163   0.02393968
4578.00   0.91146904   0.02412919
4580.00   0.88140476   0.02381871
4582.00   0.93007612   0.02408200
4584.00   0.87202030   0.02356601
4586.00   0.84605372   0.02325161
4588.00   0.90644234   0.02388163
4590.00   0.83869886   0.02312252
4592.00   0.86236471   0.02332131
4594.00   0.88199276   0.02348243
4596.00   0.90152615   0.02363320
4598.00   0.88960922   0.02347757
4600.00   0.85456324   0.02289505
4602.00   0.82692790   0.02278366
4604.00   0.87259871   0.02321211
4606.00   0.90177476   0.02332487
4608.00   0.88287371   0.02327462
4610.00   0.90937734   0.02338189
4612.00   0.87135297   0.02310273
4614.00   0.91735095   0.02321642
4616.00   0.83536375   0.02246253
4618.00   0.83933514   0.02253728
4620.00   0.89450389   0.02294932
4622.00   0.89541733   0.02288729
4624.00   0.86409569   0.02272760
4626.00   0.84913635   0.02256840
4628.00   0.86000621   0.02263229
4630.00   0.82365602   0.02222086
4632.00   0.84580904   0.02241447
4634.00   0.88156420   0.02271894
4636.00   0.82848376   0.02223735
4638.00   0.83826232   0.02235061
4640.00   0.81503028   0.02209083
4642.00   0.84717888   0.02239165
4644.00   0.77251828   0.02163907
4646.00   0.83966517   0.02234120
4648.00   0.80912966   0.02210033
4650.00   0.82656145   0.02230936
4652.00   0.82389194   0.02234388
4654.00   0.81775951   0.02227432
4656.00   0.88442135   0.02290430
4658.00   0.85983407   0.02289084
4660.00   0.83311003   0.02288798
4662.00   0.82484972   0.02286511
4664.00   0.82596505   0.02293852
4666.00   0.79588234   0.02280259
4668.00   0.84042770   0.02342213
4670.00   0.83222717   0.02353575
4672.00   0.80579698   0.02308161
4674.00   0.83075672   0.02310047
4676.00   0.81425518   0.02284026
4678.00   0.77360332   0.02230188
4680.00   0.78388298   0.02230908
4682.00   0.75251776   0.02186076
4684.00   0.77522814   0.02195958
4686.00   0.82668447   0.02222596
4688.00   0.77930754   0.02172994
4690.00   0.79929453   0.02181970
4692.00   0.78714538   0.02166735
4694.00   0.78729272   0.02173234
4696.00   0.82306403   0.02185561
4698.00   0.78796911   0.02140690
4700.00   0.72587621   0.02102127
4702.00   0.78584123   0.02144400
4704.00   0.74670351   0.02111947
4706.00   0.76181531   0.02130996
4708.00   0.74284530   0.02121759
4710.00   0.71258497   0.02102128
4712.00   0.69390267   0.02076699
4714.00   0.68270475   0.02057797
4716.00   0.72201687   0.02075610
4718.00   0.68120867   0.02042609
4720.00   0.64241731   0.01988937
4722.00   0.69145405   0.02037156
4724.00   0.68821734   0.02043973
4726.00   0.64209586   0.01989542
4728.00   0.63309973   0.02081978
4730.00   0.63003635   0.02055585
4732.00   0.62040198   0.02045862
4734.00   0.59225118   0.02051102
4736.00   0.56273425   0.02030544
4738.00   0.62981224   0.02103705
4740.00   0.59846711   0.02102818
4742.00   0.58251256   0.02123417
4744.00   0.54259175   0.02075067
4746.00   0.58514130   0.02014431
4748.00   0.55751932   0.01937197
4750.00   0.52758485   0.01885610
4752.00   0.53194785   0.01931945
4754.00   0.48870897   0.01874072
4756.00   0.52224052   0.01863074
4758.00   0.55610710   0.01866807
4760.00   0.50415164   0.01813032
4762.00   0.50866759   0.01822454
4764.00   0.50141484   0.01789729
4766.00   0.47457874   0.01747925
4768.00   0.51054680   0.01792026
4770.00   0.46761212   0.01745501
4772.00   0.45487311   0.01719957
4774.00   0.52222097   0.01796967
4776.00   0.48247617   0.01778599
4778.00   0.47729144   0.01810662
4780.00   0.45436740   0.01778315
4782.00   0.46544141   0.01764477
4784.00   0.48101220   0.01762894
4786.00   0.50095290   0.01790360
4788.00   0.48994321   0.01764271
4790.00   0.49176967   0.01795599
4792.00   0.49167404   0.01771194
4794.00   0.45511383   0.01734133
4796.00   0.46637431   0.01733162
4798.00   0.46410525   0.01734194
4800.00   0.46784627   0.01733197
4802.00   0.47466761   0.01740178
4804.00   0.47700387   0.01745624
4806.00   0.50319952   0.01773792
4808.00   0.49699554   0.01755363
4810.00   0.53428799   0.01808246
4812.00   0.53794628   0.01803812
4814.00   0.51198721   0.01759678
4816.00   0.47644955   0.01760094
4818.00   0.42073750   0.01711390
4820.00   0.46653137   0.01754009
4822.00   0.46875760   0.01768135
4824.00   0.46192825   0.01767917
4826.00   0.44921020   0.01761452
4828.00   0.47165310   0.01794127
4830.00   0.50005406   0.01796638
4832.00   0.42824975   0.01755005
4834.00   0.39862770   0.01711722
4836.00   0.45859811   0.01770181
4838.00   0.47313443   0.01813393
4840.00   0.47617072   0.01823897
4842.00   0.44894281   0.01760668
4844.00   0.45805624   0.01749410
4846.00   0.43612757   0.01729898
4848.00   0.43515059   0.01728194
4850.00   0.42737380   0.01724427
4852.00   0.40595025   0.01700301
4854.00   0.40103215   0.01684004
4856.00   0.44458625   0.01708221
4858.00   0.42900518   0.01687505
4860.00   0.45705324   0.01723279
4862.00   0.43282577   0.01722441
4864.00   0.45253369   0.01724746
4866.00   0.44986770   0.01719218
4868.00   0.45284277   0.01721734
4870.00   0.46906847   0.01726096
4872.00   0.48062223   0.01746235
4874.00   0.47603431   0.01734298
4876.00   0.48125371   0.01735581
4878.00   0.49133685   0.01770299
4880.00   0.51756126   0.01779537
4882.00   0.53137392   0.01800153
4884.00   0.51009440   0.01781949
4886.00   0.51602542   0.01774154
4888.00   0.50190872   0.01753266
4890.00   0.50515854   0.01744663
4892.00   0.53031379   0.01793049
4894.00   0.50798476   0.01796165
4896.00   0.55545491   0.01791580
4898.00   0.55889499   0.01798302
4900.00   0.56821996   0.01779973
4902.00   0.55814987   0.01786371
4904.00   0.58187634   0.01823762
4906.00   0.55693048   0.01789514
4908.00   0.55841357   0.01788921
4910.00   0.59645915   0.01821183
4912.00   0.59383768   0.01817184
4914.00   0.57566309   0.01797389
4916.00   0.58474451   0.01804910
4918.00   0.59524238   0.01815390
4920.00   0.62374324   0.01833355
4922.00   0.59155774   0.01804628
4924.00   0.59615409   0.01799922
4926.00   0.60877252   0.01793098
4928.00   0.65977520   0.01840453
4930.00   0.62738693   0.01818721
4932.00   0.60988766   0.01792098
4934.00   0.66850495   0.01845037
4936.00   0.65627950   0.01846298
4938.00   0.64283025   0.01828370
4940.00   0.62653041   0.01815851
4942.00   0.65015042   0.01837579
4944.00   0.66650867   0.01840550
4946.00   0.64748824   0.01806156
4948.00   0.70787847   0.01857696
4950.00   0.69502670   0.01861949
4952.00   0.66562569   0.01858995
4954.00   0.66575664   0.01851036
4956.00   0.66860628   0.01831310
4958.00   0.66193557   0.01832109
4960.00   0.64856505   0.01823880
4962.00   0.62937784   0.01792772
4964.00   0.66716802   0.01849737
4966.00   0.63244581   0.01818024
4968.00   0.62487149   0.01816774
4970.00   0.58360547   0.01804292
4972.00   0.58556968   0.01834174
4974.00   0.57572371   0.01851535
4976.00   0.56703889   0.01888556
4978.00   0.57277554   0.01953114
4980.00   0.56679529   0.02003107
4982.00   0.54111153   0.02024382
4984.00   0.56384534   0.02031254
4986.00   0.54779309   0.01991249
4988.00   0.56549746   0.01946857
4990.00   0.58024782   0.01931173
4992.00   0.56796438   0.01883991
4994.00   0.55629224   0.01826437
4996.00   0.53827769   0.01772348
4998.00   0.52724427   0.01723555
5000.00   0.51201802   0.01693793
5002.00   0.55257332   0.01735010
5004.00   0.50709236   0.01689662
5006.00   0.48847574   0.01659685
5008.00   0.50533921   0.01660779
5010.00   0.50688851   0.01666034
5012.00   0.51942241   0.01668531
5014.00   0.50266337   0.01654281
5016.00   0.50234008   0.01659194
5018.00   0.48535821   0.01644392
5020.00   0.51251662   0.01683899
5022.00   0.52232647   0.01669897
5024.00   0.50027722   0.01648314
5026.00   0.50335044   0.01643742
5028.00   0.55304402   0.01711428
5030.00   0.52640074   0.01706376
5032.00   0.53683984   0.01696875
5034.00   0.50565791   0.01652194
5036.00   0.47605121   0.01619338
5038.00   0.47957528   0.01622508
5040.00   0.47938564   0.01619988
5042.00   0.54477036   0.01681338
5044.00   0.51216495   0.01658135
5046.00   0.51606554   0.01668101
5048.00   0.53299659   0.01685388
5050.00   0.51542306   0.01671703
5052.00   0.53423512   0.01690579
5054.00   0.53590840   0.01695507
5056.00   0.52757692   0.01686669
5058.00   0.52140403   0.01663850
5060.00   0.54594874   0.01698463
5062.00   0.54652929   0.01719006
5064.00   0.52599525   0.01719270
5066.00   0.57134193   0.01758512
5068.00   0.54590774   0.01798202
5070.00   0.51762968   0.01777379
5072.00   0.54533005   0.01755006
5074.00   0.57299685   0.01778237
5076.00   0.55558044   0.01737918
5078.00   0.56929618   0.01764822
5080.00   0.57615012   0.01881133
5082.00   0.56931078   0.01970288
5084.00   0.60099894   0.02046856
5086.00   0.60857415   0.02060673
5088.00   0.61461329   0.01999339
5090.00   0.57567257   0.01881659
5092.00   0.59611422   0.01827685
5094.00   0.61610931   0.01817738
5096.00   0.62686330   0.01839037
5098.00   0.62950319   0.01891360
5100.00   0.61442620   0.01864462
5102.00   0.60104334   0.01819001
5104.00   0.63389677   0.01825745
5106.00   0.64156383   0.01821993
5108.00   0.61757320   0.01788063
5110.00   0.64030606   0.01806291
5112.00   0.66460931   0.01829588
5114.00   0.69332695   0.01861371
5116.00   0.67363459   0.01866238
5118.00   0.68849313   0.01858838
5120.00   0.66480458   0.01829131
5122.00   0.67849356   0.01829886
5124.00   0.70219380   0.01848510
5126.00   0.69370615   0.01831585
5128.00   0.65623456   0.01807673
5130.00   0.66944426   0.01825126
5132.00   0.67363876   0.01836836
5134.00   0.66805351   0.01845232
5136.00   0.69858360   0.01869559
5138.00   0.66886562   0.01856519
5140.00   0.66614401   0.01843243
5142.00   0.64703220   0.01831766
5144.00   0.68836820   0.01867534
5146.00   0.73209798   0.01918552
5148.00   0.70523059   0.01932068
5150.00   0.69324499   0.01931972
5152.00   0.71093416   0.01986789
5154.00   0.72393245   0.01997535
5156.00   0.71990490   0.01973574
5158.00   0.68063241   0.01936218
5160.00   0.67800277   0.01922608
5162.00   0.69157404   0.01920723
5164.00   0.69672722   0.01899143
5166.00   0.70133716   0.01891469
5168.00   0.71358764   0.01900505
5170.00   0.69689393   0.01880586
5172.00   0.72601610   0.01912994
5174.00   0.73232454   0.01923634
5176.00   0.70167291   0.01904883
5178.00   0.70791268   0.01912107
5180.00   0.71425122   0.01917566
5182.00   0.69820905   0.01899888
5184.00   0.70562410   0.01906801
5186.00   0.73204523   0.01936132
5188.00   0.74098289   0.01948843
5190.00   0.75133097   0.01969891
5192.00   0.76927990   0.01985482
5194.00   0.75855929   0.01989099
5196.00   0.74205011   0.01964354
5198.00   0.75004578   0.01986877
5200.00   0.76151061   0.02011416
5202.00   0.73693478   0.01980316
5204.00   0.78952950   0.02029543
5206.00   0.76920772   0.02009123
5208.00   0.78121006   0.02036576
5210.00   0.79300547   0.02064994
5212.00   0.76364398   0.02022525
5214.00   0.75843030   0.02010331
5216.00   0.80995440   0.02062773
5218.00   0.80035180   0.02088232
5220.00   0.83855706   0.02102216
5222.00   0.81766456   0.02093500
5224.00   0.82602274   0.02104322
5226.00   0.81554252   0.02078984
5228.00   0.84192520   0.02105980
5230.00   0.81573361   0.02093281
5232.00   0.81371975   0.02086232
5234.00   0.86157006   0.02130385
5236.00   0.83458400   0.02124948
5238.00   0.87263495   0.02166557
5240.00   0.85678339   0.02166254
5242.00   0.82085907   0.02115724
5244.00   0.85051179   0.02150799
5246.00   0.88588953   0.02173922
5248.00   0.89166009   0.02186797
5250.00   0.86180544   0.02148369
5252.00   0.86698490   0.02173846
5254.00   0.83018345   0.02159113
5256.00   0.89104229   0.02225470
5258.00   0.92471403   0.02258585
5260.00   0.87807220   0.02217567
5262.00   0.88832718   0.02221290
5264.00   0.88821238   0.02211358
5266.00   0.87941784   0.02203657
5268.00   0.89427614   0.02227100
5270.00   0.88614398   0.02209079
5272.00   0.88021320   0.02215322
5274.00   0.90051532   0.02265592
5276.00   0.91008973   0.02275016
5278.00   0.89968234   0.02253838
5280.00   0.87940121   0.02231538
5282.00   0.89573824   0.02253305
5284.00   0.90966868   0.02293235
5286.00   0.94736892   0.02332004
5288.00   0.93949163   0.02323187
5290.00   0.90219313   0.02290427
5292.00   0.91725045   0.02312320
5294.00   0.92599261   0.02318237
5296.00   0.95159453   0.02339290
5298.00   0.93107349   0.02340244
5300.00   0.91260982   0.02325698
5302.00   0.91186404   0.02327308
5304.00   0.93729693   0.02358097
5306.00   0.93072402   0.02349977
5308.00   0.93570483   0.02354342
5310.00   0.88203132   0.02330782
5312.00   0.93383515   0.02371235
5314.00   0.93761867   0.02394941
5316.00   0.93174046   0.02384460
5318.00   0.88011116   0.02335188
5320.00   0.89424253   0.02360614
5322.00   0.93236625   0.02405626
5324.00   0.89646751   0.02387427
5326.00   0.90348566   0.02392223
5328.00   0.92671704   0.02414832
5330.00   0.90867209   0.02438164
5332.00   0.93987042   0.02459170
5334.00   0.90864128   0.02438578
5336.00   0.89775664   0.02431404
5338.00   0.93312389   0.02484820
5340.00   0.88155901   0.02451641
5342.00   0.88167846   0.02450598
5344.00   0.90649813   0.02474348
5346.00   0.86419290   0.02453003
5348.00   0.92495537   0.02561186
5350.00   0.90659750   0.02534819
5352.00   0.84217304   0.02483794
5354.00   0.85674679   0.02529698
5356.00   0.86177999   0.02546165
5358.00   0.86156636   0.02512655
5360.00   0.87451851   0.02518476
5362.00   0.86854196   0.02496862
5364.00   0.85689181   0.02456705
5366.00   0.82363164   0.02452580
5368.00   0.88048679   0.02507760
5370.00   0.87199253   0.02524685
5372.00   0.89264822   0.02536946
5374.00   0.85376656   0.02545499
5376.00   0.83820754   0.02520426
5378.00   0.86479515   0.02551888
5380.00   0.88563454   0.02550971
5382.00   0.84945095   0.02521313
5384.00   0.88928050   0.02585874
5386.00   0.84122384   0.02554291
5388.00   0.85356486   0.02564955
5390.00   0.83419186   0.02577672
5392.00   0.83862466   0.02598920
5394.00   0.85298210   0.02587594
5396.00   0.83375090   0.02577765
5398.00   0.78973901   0.02544953
5400.00   0.76676661   0.02528521
5402.00   0.83360511   0.02595864
5404.00   0.87249935   0.02661276
5406.00   0.86389822   0.02652373
5408.00   0.81269169   0.02627707
5410.00   0.79722869   0.02641673
5412.00   0.83468848   0.02691322
5414.00   0.81192917   0.02706258
5416.00   0.84061754   0.01126548
5418.00   0.85051280   0.01147097
5420.00   0.85374838   0.01149437
5422.00   0.85264987   0.01137395
5424.00   0.85029155   0.01135990
5426.00   0.84164512   0.01121802
5428.00   0.83936429   0.01142727
5430.00   0.84371525   0.01226865
5432.00   0.84879804   0.01279077
5434.00   0.85271215   0.01232579
5436.00   0.85639280   0.01118962
5438.00   0.85034019   0.01088632
5440.00   0.83188415   0.01119649
5442.00   0.82081985   0.01125731
5444.00   0.80829257   0.01121063
5446.00   0.80433887   0.01127059
5448.00   0.81751174   0.01140396
5450.00   0.83813053   0.01168862
5452.00   0.83991534   0.01254100
5454.00   0.82602471   0.01413546
5456.00   0.82218713   0.01480095
5458.00   0.82446331   0.01506193
5460.00   0.82193589   0.01511126
5462.00   0.81099772   0.01498526
5464.00   0.79812431   0.01461842
5466.00   0.79203379   0.01387701
5468.00   0.79038930   0.01255897
5470.00   0.78610659   0.01167109
5472.00   0.77908528   0.01067339
5474.00   0.77644485   0.01037669
5476.00   0.77928507   0.01116368
5478.00   0.78350222   0.01203912
5480.00   0.78532881   0.01233330
5482.00   0.78612041   0.01241812
5484.00   0.79136765   0.01209909
5486.00   0.80202568   0.01099997
5488.00   0.80915564   0.01037864
5490.00   0.81553739   0.01004470
5492.00   0.81871372   0.00998636
5494.00   0.81640160   0.01031977
5496.00   0.81018299   0.01091986
5498.00   0.80567229   0.01116719
5500.00   0.79735518   0.01124515
5502.00   0.79703158   0.01133046
5504.00   0.80730581   0.01147711
5506.00   0.81205028   0.01140732
5508.00   0.80670357   0.01090283
5510.00   0.79580039   0.01021197
5512.00   0.78283310   0.01002328
5514.00   0.76106644   0.01025468
5516.00   0.75347251   0.01023867
5518.00   0.75593734   0.01013819
5520.00   0.75993246   0.01007359
5522.00   0.76839882   0.00995205
5524.00   0.77591908   0.00995425
5526.00   0.77184087   0.01044264
5528.00   0.75674784   0.01141663
5530.00   0.75792569   0.01146162
5532.00   0.77750325   0.01072863
5534.00   0.78172058   0.01019017
5536.00   0.76643580   0.00969680
5538.00   0.75209343   0.00931509
5540.00   0.75508744   0.00920994
5542.00   0.76815128   0.00933065
5544.00   0.76836294   0.00932302
5546.00   0.75497508   0.00931079
5548.00   0.75585866   0.00928434
5550.00   0.77052879   0.00915493
5552.00   0.78380060   0.00915651
5554.00   0.79276586   0.00942161
5556.00   0.79783237   0.00983008
5558.00   0.78345388   0.01015880
5560.00   0.73354590   0.01078122
5562.00   0.72417730   0.01067772
5564.00   0.74842173   0.00931149
5566.00   0.76262397   0.00892931
5568.00   0.75549793   0.00971252
5570.00   0.74198765   0.01153304
5572.00   0.73790753   0.01495793
5574.00   0.73258775   0.01983787
5576.00   0.74720520   0.02141493
5578.00   0.79714406   0.02188306
5580.00   0.81700492   0.02112302
5582.00   0.79711372   0.01806197
5584.00   0.76700050   0.01388218
5586.00   0.75238514   0.01145079
5588.00   0.74151808   0.01036956
5590.00   0.73724180   0.00924877
5592.00   0.74164325   0.00920217
5594.00   0.74522752   0.00900518
5596.00   0.75170463   0.00888634
5598.00   0.75600457   0.00882890
5600.00   0.75449294   0.00878703
5602.00   0.74908614   0.00878544
5604.00   0.74099219   0.00873960
5606.00   0.72497213   0.00866691
5608.00   0.71694773   0.00860590
5610.00   0.71365362   0.00853986
5612.00   0.71299928   0.00848721
5614.00   0.71628731   0.00846020
5616.00   0.72139150   0.00844665
5618.00   0.71928352   0.00841728
5620.00   0.71154702   0.00838309
5622.00   0.70503068   0.00834358
5624.00   0.69393659   0.00828528
5626.00   0.68892175   0.00824666
5628.00   0.69449478   0.00823690
5630.00   0.70259225   0.00824077
5632.00   0.70237088   0.00824786
5634.00   0.69965315   0.00828519
5636.00   0.68673307   0.00822493
5638.00   0.65324193   0.00803026
5640.00   0.63801455   0.00792895
5642.00   0.64659768   0.00794536
5644.00   0.65791094   0.00798093
5646.00   0.65368259   0.00795616
5648.00   0.64110875   0.00790316
5650.00   0.63733137   0.00788346
5652.00   0.64388084   0.00789817
5654.00   0.63755131   0.00787852
5656.00   0.61625510   0.00781089
5658.00   0.59672451   0.00776261
5660.00   0.58846641   0.00776639
5662.00   0.58562034   0.00780414
5664.00   0.57813078   0.00787933
5666.00   0.56833702   0.00800883
5668.00   0.56039798   0.00812647
5670.00   0.55415666   0.00828071
5672.00   0.54688329   0.00838852
5674.00   0.53730410   0.00837374
5676.00   0.52694356   0.00834419
5678.00   0.51868612   0.00855234
5680.00   0.51257288   0.00892496
5682.00   0.50374228   0.00930255
5684.00   0.49021712   0.00985921
5686.00   0.48209172   0.01020039
5688.00   0.48347798   0.01034936
5690.00   0.48570544   0.01032833
5692.00   0.47690672   0.01006074
5694.00   0.45880440   0.00948290
5696.00   0.45393696   0.00909535
5698.00   0.45703879   0.00869576
5700.00   0.46197352   0.00843136
5702.00   0.47232330   0.00841062
5704.00   0.48171455   0.00837161
5706.00   0.48431739   0.00804369
5708.00   0.48279375   0.00750910
5710.00   0.48235971   0.00740515
5712.00   0.47944075   0.00773567
5714.00   0.47987795   0.00783250
5716.00   0.48626164   0.00787300
5718.00   0.48851961   0.00780101
5720.00   0.47987249   0.00751206
5722.00   0.46594065   0.00708450
5724.00   0.46234223   0.00692947
5726.00   0.46442321   0.00700904
5728.00   0.46858621   0.00698580
5730.00   0.48008129   0.00696437
5732.00   0.48725188   0.00693213
5734.00   0.48597699   0.00683906
5736.00   0.48204589   0.00676810
5738.00   0.48398352   0.00691916
5740.00   0.48942351   0.00732121
5742.00   0.49354619   0.00740719
5744.00   0.50398880   0.00721453
5746.00   0.50250751   0.00717850
5748.00   0.48252079   0.00738759
5750.00   0.46030736   0.00759443
5752.00   0.45260680   0.00757262
5754.00   0.45225930   0.00740530
5756.00   0.45702931   0.00725785
5758.00   0.47304702   0.00682435
5760.00   0.48335844   0.00688443
5762.00   0.48814976   0.00753195
5764.00   0.49379203   0.00814830
5766.00   0.50448209   0.00848408
5768.00   0.51801747   0.00870567
5770.00   0.52858549   0.00866310
5772.00   0.53561682   0.00819005
5774.00   0.54766142   0.00799464
5776.00   0.56520921   0.00779032
5778.00   0.58124602   0.00788926
5780.00   0.59200150   0.00846078
5782.00   0.60115737   0.00925695
5784.00   0.61676651   0.00988908
5786.00   0.63881958   0.01069668
5788.00   0.65595484   0.01097325
5790.00   0.67251289   0.01098612
5792.00   0.68586707   0.01068817
5794.00   0.69580203   0.00982458
5796.00   0.70262039   0.00871066
5798.00   0.70547187   0.00817688
5800.00   0.70206511   0.00804891
5802.00   0.70700866   0.00791521
5804.00   0.71694225   0.00799213
5806.00   0.72806221   0.00805024
5808.00   0.74091518   0.00806229
5810.00   0.75512534   0.00813906
5812.00   0.77179861   0.00838053
5814.00   0.79189968   0.00874237
5816.00   0.79679346   0.00903873
5818.00   0.77990651   0.00952317
5820.00   0.78208697   0.00958630
5822.00   0.80405205   0.00900658
5824.00   0.82400036   0.00862833
5826.00   0.83179110   0.00911810
5828.00   0.83310741   0.00999663
5830.00   0.82713920   0.01018063
5832.00   0.80322069   0.01000624
5834.00   0.79806364   0.00974667
5836.00   0.80688977   0.00905052
5838.00   0.81503677   0.00859529
5840.00   0.81987649   0.00872435
5842.00   0.82303274   0.00910028
5844.00   0.82104450   0.00919174
5846.00   0.81188929   0.00904084
5848.00   0.80961299   0.00934346
5850.00   0.81130844   0.01033978
5852.00   0.81294566   0.01060974
5854.00   0.81583863   0.00979137
5856.00   0.81755352   0.00863919
5858.00   0.81360406   0.00837997
5860.00   0.80510420   0.00870754
5862.00   0.79731619   0.00874325
5864.00   0.78533709   0.00878013
5866.00   0.77906901   0.00878633
5868.00   0.78055292   0.00876569
5870.00   0.78203142   0.00871913
5872.00   0.77656382   0.00864345
5874.00   0.76701593   0.00853855
5876.00   0.76608312   0.00842046
5878.00   0.77751708   0.00798926
5880.00   0.77512687   0.00819610
5882.00   0.76064038   0.00869803
5884.00   0.74472910   0.00969096
5886.00   0.72847480   0.01132558
5888.00   0.71264589   0.01314389
5890.00   0.71398473   0.01427351
5892.00   0.74115175   0.01555491
5894.00   0.74320114   0.01566498
5896.00   0.72691506   0.01461284
5898.00   0.71537507   0.01350575
5900.00   0.71098822   0.01252453
5902.00   0.71224552   0.01151878
5904.00   0.72604924   0.01067336
5906.00   0.76019520   0.01000775
5908.00   0.76494902   0.00926322
5910.00   0.74511713   0.00828265
5912.00   0.73226053   0.00777373
5914.00   0.72808862   0.00804498
5916.00   0.72504163   0.00853131
5918.00   0.71710938   0.00872551
5920.00   0.70541155   0.00887941
5922.00   0.70305502   0.00884026
5924.00   0.71093899   0.00853356
5926.00   0.71279371   0.00834001
5928.00   0.71024120   0.00821168
5930.00   0.70582563   0.00812462
5932.00   0.70096636   0.00809960
5934.00   0.69493014   0.00812745
5936.00   0.68482518   0.00804260
5938.00   0.67282945   0.00786409
5940.00   0.65507251   0.00770909
5942.00   0.62164181   0.00750271
5944.00   0.60127896   0.00736284
5946.00   0.60546803   0.00734352
5948.00   0.62476552   0.00740480
5950.00   0.64839876   0.00749830
5952.00   0.69574374   0.00772218
5954.00   0.70899153   0.00776505
5956.00   0.69413990   0.00759571
5958.00   0.68354636   0.00757491
5960.00   0.67944360   0.00776951
5962.00   0.67908484   0.00806327
5964.00   0.68704098   0.00839867
5966.00   0.70593637   0.00893432
5968.00   0.71122158   0.00887826
5970.00   0.71201205   0.00818634
5972.00   0.70417255   0.00770688
5974.00   0.67853940   0.00742742
5976.00   0.65619904   0.00727298
5978.00   0.66155446   0.00723195
5980.00   0.68722636   0.00730530
5982.00   0.68564403   0.00760686
5984.00   0.66028911   0.00842658
5986.00   0.65060967   0.00861862
5988.00   0.65282547   0.00822720
5990.00   0.65725279   0.00775708
5992.00   0.65997547   0.00747391
5994.00   0.66312921   0.00724339
5996.00   0.66523355   0.00712176
5998.00   0.66910607   0.00717645
6000.00   0.66707236   0.00714091
6002.00   0.65887958   0.00704219
6004.00   0.65094256   0.00700498
6006.00   0.64192379   0.00700514
6008.00   0.63493091   0.00710132
6010.00   0.64336640   0.00755464
6012.00   0.67383260   0.00860395
6014.00   0.67753607   0.00861043
6016.00   0.65985006   0.00762105
6018.00   0.64842886   0.00692625
6020.00   0.64596725   0.00680252
6022.00   0.64615673   0.00688064
6024.00   0.64507556   0.00686021
6026.00   0.64495772   0.00687974
6028.00   0.64202422   0.00686391
6030.00   0.63439232   0.00682931
6032.00   0.63159418   0.00679890
6034.00   0.63505954   0.00677545
6036.00   0.63862950   0.00674571
6038.00   0.63792366   0.00668921
6040.00   0.63505900   0.00661083
6042.00   0.63041848   0.00661146
6044.00   0.61938548   0.00665715
6046.00   0.61650354   0.00674693
6048.00   0.62061226   0.00697964
6050.00   0.62638879   0.00709440
6052.00   0.63330328   0.00692434
6054.00   0.64097357   0.00659464
6056.00   0.64086890   0.00650225
6058.00   0.63031733   0.00658431
6060.00   0.62912709   0.00658689
6062.00   0.63408417   0.00658945
6064.00   0.63785005   0.00658002
6066.00   0.63858193   0.00654721
6068.00   0.63852996   0.00650849
6070.00   0.64011800   0.00650067
6072.00   0.64333695   0.00651944
6074.00   0.64375705   0.00651769
6076.00   0.64377862   0.00652088
6078.00   0.64035964   0.00649685
6080.00   0.62941968   0.00641652
6082.00   0.61985070   0.00634295
6084.00   0.62320870   0.00635914
6086.00   0.63660294   0.00644370
6088.00   0.64167076   0.00647045
6090.00   0.64563280   0.00643417
6092.00   0.64466035   0.00648137
6094.00   0.63692510   0.00662953
6096.00   0.62829250   0.00677342
6098.00   0.62110060   0.00686142
6100.00   0.61408764   0.00692270
6102.00   0.61747825   0.00690828
6104.00   0.63747907   0.00672088
6106.00   0.64198148   0.00673527
6108.00   0.63584018   0.00695068
6110.00   0.62732619   0.00711683
6112.00   0.61537790   0.00710780
6114.00   0.60293323   0.00704948
6116.00   0.60799497   0.00722598
6118.00   0.63400561   0.00768507
6120.00   0.64306289   0.00780676
6122.00   0.64389271   0.00779636
6124.00   0.64402723   0.00763012
6126.00   0.64378929   0.00714614
6128.00   0.64294684   0.00658123
6130.00   0.64338052   0.00651780
6132.00   0.64560550   0.00688126
6134.00   0.64270228   0.00692656
6136.00   0.63301259   0.00686827
6138.00   0.62813091   0.00677539
6140.00   0.62951809   0.00658939
6142.00   0.63157475   0.00641692
6144.00   0.62889332   0.00639199
6146.00   0.62310052   0.00646873
6148.00   0.62439537   0.00650283
6150.00   0.63471562   0.00651266
6152.00   0.63707829   0.00659213
6154.00   0.63517505   0.00678899
6156.00   0.62795973   0.00693173
6158.00   0.61017048   0.00692012
6160.00   0.58578914   0.00681754
6162.00   0.58335072   0.00675558
6164.00   0.60704285   0.00671800
6166.00   0.60907096   0.00660228
6168.00   0.59870052   0.00638949
6170.00   0.58625138   0.00619360
6172.00   0.57261175   0.00604422
6174.00   0.55815810   0.00592416
6176.00   0.54953027   0.00584907
6178.00   0.54424137   0.00583473
6180.00   0.54208469   0.00580200
6182.00   0.54674757   0.00574253
6184.00   0.54771852   0.00575106
6186.00   0.54293042   0.00588896
6188.00   0.53675491   0.00602840
6190.00   0.53352475   0.00597580
6192.00   0.53107291   0.00571777
6194.00   0.53159684   0.00585650
6196.00   0.53971255   0.00637372
6198.00   0.53905958   0.00666805
6200.00   0.52868223   0.00687816
6202.00   0.51558632   0.00691742
6204.00   0.50352168   0.00660585
6206.00   0.49026984   0.00595293
6208.00   0.48423547   0.00566548
6210.00   0.48437193   0.00561516
6212.00   0.48483902   0.00554805
6214.00   0.48996738   0.00553234
6216.00   0.49198073   0.00554433
6218.00   0.48569649   0.00558983
6220.00   0.47510132   0.00565549
6222.00   0.47061005   0.00562866
6224.00   0.47154325   0.00536938
6226.00   0.46733791   0.00549101
6228.00   0.45854577   0.00603887
6230.00   0.45228472   0.00632429
6232.00   0.45075071   0.00618119
6234.00   0.45113200   0.00586424
6236.00   0.44976839   0.00574705
6238.00   0.44794109   0.00570089
6240.00   0.44638452   0.00567079
6242.00   0.44464538   0.00573642
6244.00   0.44339180   0.00571501
6246.00   0.44120663   0.00555279
6248.00   0.44096440   0.00537444
6250.00   0.44702443   0.00531668
6252.00   0.45879906   0.00531845
6254.00   0.46543512   0.00542342
6256.00   0.47247332   0.00558410
6258.00   0.47365591   0.00587991
6260.00   0.46625310   0.00652910
6262.00   0.45917398   0.00690746
6264.00   0.45881388   0.00656361
6266.00   0.46192354   0.00566575
6268.00   0.46260700   0.00532084
6270.00   0.46103868   0.00531209
6272.00   0.46335611   0.00528248
6274.00   0.47044665   0.00537702
6276.00   0.47598866   0.00545257
6278.00   0.47619173   0.00542998
6280.00   0.47470093   0.00538353
6282.00   0.48029613   0.00547330
6284.00   0.49181437   0.00563416
6286.00   0.50146914   0.00586696
6288.00   0.51476884   0.00635436
6290.00   0.52271652   0.00654034
6292.00   0.52199125   0.00622805
6294.00   0.51816046   0.00576184
6296.00   0.51937419   0.00575310
6298.00   0.52399635   0.00603739
6300.00   0.52309400   0.00622533
6302.00   0.51728857   0.00619119
6304.00   0.51318717   0.00667244
6306.00   0.50746065   0.00801479
6308.00   0.50608087   0.00897108
6310.00   0.51756769   0.00864779
6312.00   0.53994262   0.00729819
6314.00   0.55110103   0.00655230
6316.00   0.55569416   0.00582859
6318.00   0.56229001   0.00539143
6320.00   0.57037973   0.00542287
6322.00   0.57719034   0.00554886
6324.00   0.57986629   0.00555183
6326.00   0.58034384   0.00555664
6328.00   0.58917379   0.00568299
6330.00   0.60786343   0.00591078
6332.00   0.61891854   0.00613975
6334.00   0.62725568   0.00651908
6336.00   0.63244206   0.00670495
6338.00   0.63292801   0.00656748
6340.00   0.63091475   0.00625592
6342.00   0.63244259   0.00604549
6344.00   0.63440102   0.00575367
6346.00   0.64009464   0.00569903
6348.00   0.65114045   0.00584676
6350.00   0.65994138   0.00603252
6352.00   0.66536802   0.00635848
6354.00   0.66980791   0.00661398
6356.00   0.67577070   0.00643662
6358.00   0.68322986   0.00579223
6360.00   0.68563020   0.00573068
6362.00   0.68630618   0.00612190
6364.00   0.68146312   0.00636727
6366.00   0.66469866   0.00662772
6368.00   0.65175849   0.00672968
6370.00   0.65838945   0.00641429
6372.00   0.67843509   0.00571298
6374.00   0.68307304   0.00551471
6376.00   0.67737794   0.00572648
6378.00   0.67650408   0.00579113
6380.00   0.67625546   0.00583808
6382.00   0.67888552   0.00585190
6384.00   0.68738228   0.00577395
6386.00   0.69913775   0.00565742
6388.00   0.70369333   0.00576474
6390.00   0.70090246   0.00607184
6392.00   0.70410192   0.00630505
6394.00   0.71115386   0.00667419
6396.00   0.71708661   0.00681740
6398.00   0.72118074   0.00657683
6400.00   0.72400784   0.00617181
6402.00   0.72481614   0.00605539
6404.00   0.72322911   0.00614550
6406.00   0.72233021   0.00606135
6408.00   0.72110164   0.00583688
6410.00   0.71973187   0.00570768
6412.00   0.71793783   0.00567757
6414.00   0.71628612   0.00572735
6416.00   0.71552700   0.00588278
6418.00   0.71539050   0.00615751
6420.00   0.71540886   0.00628037
6422.00   0.71729845   0.00640656
6424.00   0.71617216   0.00634594
6426.00   0.71110600   0.00598842
6428.00   0.70613647   0.00563383
6430.00   0.70357233   0.00555206
6432.00   0.70221204   0.00562618
6434.00   0.70362478   0.00558478
6436.00   0.71449333   0.00522947
6438.00   0.71108109   0.00551582
6440.00   0.69243193   0.00646741
6442.00   0.67632693   0.00715813
6444.00   0.66816723   0.00748306
6446.00   0.66457647   0.00757894
6448.00   0.66805738   0.00717749
6450.00   0.68569511   0.00572042
6452.00   0.68793958   0.00518562
6454.00   0.67995226   0.00543301
6456.00   0.67217571   0.00560773
6458.00   0.66635972   0.00561729
6460.00   0.65994895   0.00559796
6462.00   0.65079993   0.00557042
6464.00   0.63858914   0.00551932
6466.00   0.62960595   0.00547973
6468.00   0.62229586   0.00542492
6470.00   0.61538458   0.00540226
6472.00   0.60908717   0.00543290
6474.00   0.60318023   0.00546221
6476.00   0.59715796   0.00544383
6478.00   0.59108692   0.00540227
6480.00   0.58679599   0.00529759
6482.00   0.57849920   0.00483727
6484.00   0.58265555   0.00497692
6486.00   0.60281861   0.00583445
6488.00   0.62259263   0.00649392
6490.00   0.63447821   0.00665449
6492.00   0.64239287   0.00656502
6494.00   0.63939047   0.00631694
6496.00   0.61707759   0.00552512
6498.00   0.61163783   0.00523130
6500.00   0.61763567   0.00529069
6502.00   0.62338305   0.00547080
6504.00   0.62699026   0.00576070
6506.00   0.62921989   0.00611012
6508.00   0.62522680   0.00630919
6510.00   0.61220229   0.00653830
6512.00   0.60903811   0.00643537
6514.00   0.61317474   0.00583375
6516.00   0.61539787   0.00546736
6518.00   0.61306494   0.00553796
6520.00   0.61147797   0.00573914
6522.00   0.61758775   0.00576350
6524.00   0.63047928   0.00571540
6526.00   0.63759613   0.00576073
6528.00   0.64113861   0.00583861
6530.00   0.64667261   0.00596840
6532.00   0.65546572   0.00618422
6534.00   0.66306216   0.00639030
6536.00   0.66630411   0.00654116
6538.00   0.66680259   0.00667392
6540.00   0.66283792   0.00657746
6542.00   0.65295458   0.00612338
6544.00   0.64373219   0.00591956
6546.00   0.63122475   0.00593368
6548.00   0.62184823   0.00595454
6550.00   0.61889029   0.00590116
6552.00   0.62021500   0.00581994
6554.00   0.62359780   0.00569135
6556.00   0.63273114   0.00541453
6558.00   0.63782865   0.00533988
6560.00   0.64100701   0.00541842
6562.00   0.64435613   0.00551727
6564.00   0.64854252   0.00564552
6566.00   0.65273827   0.00576912
6568.00   0.65585321   0.00575767
6570.00   0.65834671   0.00561719
6572.00   0.66007072   0.00555429
6574.00   0.65975678   0.00542235
6576.00   0.66128218   0.00546776
6578.00   0.66471326   0.00577949
6580.00   0.66952372   0.00611911
6582.00   0.67610377   0.00627136
6584.00   0.68517673   0.00634435
6586.00   0.68971270   0.00633089
6588.00   0.68858916   0.00619643
6590.00   0.69244832   0.00605337
6592.00   0.70119679   0.00578572
6594.00   0.71112615   0.00561747
6596.00   0.72123557   0.00579901
6598.00   0.73215646   0.00619596
6600.00   0.73529458   0.00624009
6602.00   0.72865850   0.00605014
6604.00   0.72851288   0.00590235
6606.00   0.72990376   0.00560010
6608.00   0.73544675   0.00547207
6610.00   0.75023550   0.00576699
6612.00   0.76844811   0.00622233
6614.00   0.76902902   0.00627597
6616.00   0.75170684   0.00603969
6618.00   0.74601179   0.00591244
6620.00   0.74122447   0.00560798
6622.00   0.74266982   0.00559397
6624.00   0.75531691   0.00611123
6626.00   0.77056539   0.00669377
6628.00   0.77342677   0.00677931
6630.00   0.76858485   0.00656839
6632.00   0.76319855   0.00635712
6634.00   0.75210792   0.00589792
6636.00   0.74406928   0.00560349
6638.00   0.73855895   0.00553044
6640.00   0.73508233   0.00553761
6642.00   0.73438424   0.00551909
6644.00   0.73656964   0.00552836
6646.00   0.73684514   0.00551169
6648.00   0.73516619   0.00546947
6650.00   0.73671490   0.00545662
6652.00   0.74371052   0.00546627
6654.00   0.74832547   0.00549054
6656.00   0.74499017   0.00553831
6658.00   0.73700929   0.00560187
6660.00   0.73374677   0.00560083
6662.00   0.73055416   0.00542637
6664.00   0.73192596   0.00553550
6666.00   0.74103492   0.00599721
6668.00   0.74610323   0.00625106
6670.00   0.74324894   0.00611629
6672.00   0.73601168   0.00579349
6674.00   0.72767961   0.00562138
6676.00   0.71307427   0.00545615
6678.00   0.70803064   0.00537573
6680.00   0.71102929   0.00540634
6682.00   0.71256804   0.00541640
6684.00   0.71238410   0.00538820
6686.00   0.71109927   0.00535758
6688.00   0.70732081   0.00535610
6690.00   0.70034999   0.00537698
6692.00   0.69811469   0.00538111
6694.00   0.69965917   0.00537531
6696.00   0.70015639   0.00537699
6698.00   0.69893831   0.00532046
6700.00   0.69884849   0.00535051
6702.00   0.70296699   0.00565696
6704.00   0.71034789   0.00615131
6706.00   0.71153241   0.00620058
6708.00   0.70969391   0.00587283
6710.00   0.70489877   0.00567524
6712.00   0.69414294   0.00548658
6714.00   0.68501753   0.00534609
6716.00   0.68115890   0.00530011
6718.00   0.68029529   0.00531940
6720.00   0.68092626   0.00530947
6722.00   0.68877780   0.00529578
6724.00   0.68630642   0.00530750
6726.00   0.67317224   0.00536381
6728.00   0.66443056   0.00538779
6730.00   0.66530108   0.00535184
6732.00   0.66926038   0.00529101
6734.00   0.66657144   0.00525809
6736.00   0.65788144   0.00522640
6738.00   0.65742105   0.00522444
6740.00   0.66615611   0.00519490
6742.00   0.66830224   0.00528082
6744.00   0.65940046   0.00559096
6746.00   0.65010470   0.00586201
6748.00   0.65266526   0.00577925
6750.00   0.66368628   0.00538479
6752.00   0.66827351   0.00539083
6754.00   0.67450398   0.00571620
6756.00   0.67228746   0.00589021
6758.00   0.65813857   0.00595808
6760.00   0.64396733   0.00600469
6762.00   0.63769227   0.00608110
6764.00   0.63530815   0.00616283
6766.00   0.63577598   0.00614369
6768.00   0.64284128   0.00606927
6770.00   0.64540058   0.00590696
6772.00   0.64714700   0.00556685
6774.00   0.64542907   0.00526981
6776.00   0.63699496   0.00512788
6778.00   0.62530178   0.00507761
6780.00   0.62201959   0.00505198
6782.00   0.62784904   0.00504073
6784.00   0.62455648   0.00517546
6786.00   0.61379325   0.00558477
6788.00   0.60627276   0.00575762
6790.00   0.60401851   0.00556186
6792.00   0.60415316   0.00522132
6794.00   0.60454726   0.00507614
6796.00   0.60719079   0.00500942
6798.00   0.60624397   0.00496783
6800.00   0.60297817   0.00500177
6802.00   0.59907615   0.00501530
6804.00   0.59415179   0.00494128
6806.00   0.58873850   0.00494264
6808.00   0.58319920   0.00524786
6810.00   0.57698798   0.00578865
6812.00   0.57410145   0.00580212
6814.00   0.57373017   0.00531485
6816.00   0.57424814   0.00505898
6818.00   0.57669777   0.00490695
6820.00   0.57925487   0.00489147
6822.00   0.58214098   0.00507318
6824.00   0.58501953   0.00539844
6826.00   0.57895190   0.00569579
6828.00   0.55797094   0.00622795
6830.00   0.55240828   0.00629885
6832.00   0.55899841   0.00594497
6834.00   0.56481069   0.00558908
6836.00   0.56640732   0.00536323
6838.00   0.56644517   0.00518440
6840.00   0.56528467   0.00507347
6842.00   0.56314605   0.00507038
6844.00   0.55860227   0.00501076
6846.00   0.54851055   0.00492449
6848.00   0.54317778   0.00486823
6850.00   0.54562306   0.00484395
6852.00   0.54997313   0.00485001
6854.00   0.54834861   0.00488569
6856.00   0.54156870   0.00492500
6858.00   0.54468584   0.00512068
6860.00   0.56073409   0.00530263
6862.00   0.56574839   0.00578669
6864.00   0.55877191   0.00682524
6866.00   0.54839081   0.00753707
6868.00   0.53959370   0.00732200
6870.00   0.52957994   0.00640699
6872.00   0.52547956   0.00598092
6874.00   0.52702719   0.00560141
6876.00   0.52733105   0.00551360
6878.00   0.52521759   0.00592050
6880.00   0.52736801   0.00619456
6882.00   0.53930604   0.00601940
6884.00   0.55671692   0.00561098
6886.00   0.56397933   0.00549533
6888.00   0.56681091   0.00562218
6890.00   0.56488359   0.00556153
6892.00   0.55565327   0.00536807
6894.00   0.54638356   0.00522400
6896.00   0.53543508   0.00511903
6898.00   0.52647316   0.00510663
6900.00   0.53280783   0.00542799
6902.00   0.55857825   0.00620225
6904.00   0.56211627   0.00626356
6906.00   0.55042410   0.00572717
6908.00   0.54068935   0.00535433
6910.00   0.53231341   0.00521575
6912.00   0.52501196   0.00517888
6914.00   0.52092320   0.00519645
6916.00   0.51921147   0.00531492
6918.00   0.51918691   0.00533693
6920.00   0.52289701   0.00531481
6922.00   0.52466512   0.00528711
6924.00   0.52599305   0.00523738
6926.00   0.52535731   0.00518994
6928.00   0.51987243   0.00513032
6930.00   0.51074207   0.00505994
6932.00   0.51072574   0.00525547
6934.00   0.51869434   0.00579398
6936.00   0.52397674   0.00602779
6938.00   0.52974200   0.00614505
6940.00   0.53438491   0.00612141
6942.00   0.53748256   0.00586547
6944.00   0.53917265   0.00545429
6946.00   0.53802848   0.00529419
6948.00   0.52903557   0.00532501
6950.00   0.53222889   0.00528291
6952.00   0.54759735   0.00524455
6954.00   0.55832887   0.00521693
6956.00   0.56085938   0.00515906
6958.00   0.56027228   0.00514464
6960.00   0.56135213   0.00534851
6962.00   0.56185853   0.00581449
6964.00   0.56340736   0.00586113
6966.00   0.56473207   0.00549071
6968.00   0.56811297   0.00535939
6970.00   0.57347381   0.00557495
6972.00   0.58058351   0.00580947
6974.00   0.59048617   0.00580152
6976.00   0.60390842   0.00565559
6978.00   0.60861266   0.00555600
6980.00   0.60494787   0.00538901
6982.00   0.60461098   0.00531781
6984.00   0.60659629   0.00536294
6986.00   0.60816824   0.00540929
6988.00   0.60793024   0.00538843
6990.00   0.60666221   0.00533857
6992.00   0.60549974   0.00531892
6994.00   0.60276061   0.00522497
6996.00   0.60271192   0.00533538
6998.00   0.60601801   0.00570794
7000.00   0.60787284   0.00595302
7002.00   0.60531431   0.00591071
7004.00   0.60170007   0.00577151
7006.00   0.60492957   0.00592482
7008.00   0.61654162   0.00638498
7010.00   0.61857182   0.00645674
7012.00   0.61184907   0.00630202
7014.00   0.60965890   0.00608637
7016.00   0.61552435   0.00574092
7018.00   0.62269622   0.00536942
7020.00   0.62275940   0.00521614
7022.00   0.61757219   0.00517750
7024.00   0.61701572   0.00538299
7026.00   0.62196988   0.00609217
7028.00   0.62013203   0.00628748
7030.00   0.60709774   0.00585676
7032.00   0.59603500   0.00536971
7034.00   0.59982479   0.00540330
7036.00   0.61373574   0.00572485
7038.00   0.61518568   0.00593089
7040.00   0.60638374   0.00622548
7042.00   0.60469031   0.00637920
7044.00   0.60986787   0.00649591
7046.00   0.61328781   0.00645838
7048.00   0.61075926   0.00612323
7050.00   0.60494119   0.00556307
7052.00   0.59891105   0.00529090
7054.00   0.59099126   0.00513269
7056.00   0.58311367   0.00515181
7058.00   0.57254136   0.00545692
7060.00   0.56526220   0.00568728
7062.00   0.56329685   0.00578187
7064.00   0.56424308   0.00581498
7066.00   0.56485218   0.00581318
7068.00   0.56668854   0.00576873
7070.00   0.56842041   0.00567039
7072.00   0.57225353   0.00540216
7074.00   0.57291347   0.00530101
7076.00   0.56828099   0.00549684
7078.00   0.56310672   0.00570545
7080.00   0.56328177   0.00560231
7082.00   0.56727254   0.00524415
7084.00   0.56755316   0.00519934
7086.00   0.56566507   0.00535861
7088.00   0.56439877   0.00550489
7090.00   0.56401891   0.00577201
7092.00   0.56292731   0.00591338
7094.00   0.55924296   0.00569058
7096.00   0.55374765   0.00518241
7098.00   0.55361652   0.00499461
7100.00   0.55994499   0.00502918
7102.00   0.56109339   0.00499719
7104.00   0.55912864   0.00496474
7106.00   0.55586237   0.00493963
7108.00   0.55173707   0.00489723
7110.00   0.54652792   0.00486759
7112.00   0.54070342   0.00498607
7114.00   0.52944064   0.00534397
7116.00   0.52944988   0.00540118
7118.00   0.54327899   0.00524639
7120.00   0.54975563   0.00510041
7122.00   0.54186845   0.00497955
7124.00   0.53031832   0.00487729
7126.00   0.53034437   0.00486101
7128.00   0.53872460   0.00493630
7130.00   0.54086882   0.00494675
7132.00   0.54229861   0.00493376
7134.00   0.54015034   0.00492036
7136.00   0.53170675   0.00485291
7138.00   0.52328986   0.00484273
7140.00   0.52171963   0.00505661
7142.00   0.52437586   0.00545118
7144.00   0.52673024   0.00550718
7146.00   0.53260738   0.00523968
7148.00   0.53463793   0.00517250
7150.00   0.53154737   0.00531058
7152.00   0.52967161   0.00542100
7154.00   0.53394085   0.00534697
7156.00   0.54151547   0.00517668
7158.00   0.54202467   0.00523890
7160.00   0.53529078   0.00548649
7162.00   0.53398240   0.00567457
7164.00   0.53850108   0.00588692
7166.00   0.53886938   0.00606866
7168.00   0.52998859   0.00621030
7170.00   0.51723737   0.00632142
7172.00   0.51126117   0.00639318
7174.00   0.50524855   0.00647245
7176.00   0.51020312   0.00639562
7178.00   0.53091049   0.00609757
7180.00   0.54404652   0.00588643
7182.00   0.54487312   0.00581079
7184.00   0.54228503   0.00580404
7186.00   0.54624426   0.00583433
7188.00   0.55486077   0.00594648
7190.00   0.55482221   0.00594841
7192.00   0.54777902   0.00582506
7194.00   0.54161608   0.00580894
7196.00   0.53564250   0.00586832
7198.00   0.52940738   0.00601486
7200.00   0.52225012   0.00629524
7202.00   0.51396698   0.00668452
7204.00   0.51257145   0.00693987
7206.00   0.51377267   0.00735519
7208.00   0.52270335   0.00727769
7210.00   0.54504323   0.00656334
7212.00   0.56377500   0.00580366
7214.00   0.56973326   0.00539728
7216.00   0.56874293   0.00517816
7218.00   0.56865227   0.00505844
7220.00   0.56230962   0.00490207
7222.00   0.56434155   0.00532198
7224.00   0.57278717   0.00649727
7226.00   0.58152336   0.00711101
7228.00   0.59167713   0.00691851
7230.00   0.60055763   0.00638070
7232.00   0.59805822   0.00622590
7234.00   0.58359319   0.00613240
7236.00   0.57694691   0.00633534
7238.00   0.57341492   0.00697214
7240.00   0.56894982   0.00733475
7242.00   0.56295013   0.00744754
7244.00   0.55694181   0.00740157
7246.00   0.55198675   0.00717447
7248.00   0.54697531   0.00669457
7250.00   0.54667079   0.00639792
7252.00   0.55121273   0.00614672
7254.00   0.55538082   0.00596215
7256.00   0.56241608   0.00584323
7258.00   0.56650162   0.00580581
7260.00   0.56104583   0.00590133
7262.00   0.54888630   0.00610803
7264.00   0.54792756   0.00609646
7266.00   0.55539703   0.00580039
7268.00   0.56029755   0.00580359
7270.00   0.56946254   0.00602841
7272.00   0.57186627   0.00630977
7274.00   0.55809641   0.00667207
7276.00   0.53710502   0.00704369
7278.00   0.53681302   0.00704167
7280.00   0.55434388   0.00662968
7282.00   0.56336266   0.00645454
7284.00   0.57601100   0.00624169
7286.00   0.58022344   0.00623684
7288.00   0.56956971   0.00664931
7290.00   0.55431718   0.00709666
7292.00   0.55193645   0.00698232
7294.00   0.55874586   0.00637540
7296.00   0.55821979   0.00607543
7298.00   0.55212939   0.00580798
7300.00   0.55062270   0.00568885
7302.00   0.55636895   0.00581985
7304.00   0.56201941   0.00598036
7306.00   0.56013691   0.00591516
7308.00   0.55336589   0.00568381
7310.00   0.54847342   0.00580026
7312.00   0.54121721   0.00628359
7314.00   0.53795320   0.00649105
7316.00   0.53906399   0.00655656
7318.00   0.54087824   0.00647836
7320.00   0.54130131   0.00615104
7322.00   0.54146761   0.00559932
7324.00   0.54224992   0.00542154
7326.00   0.54249448   0.00557458
7328.00   0.54501522   0.00559845
7330.00   0.54949975   0.00557873
7332.00   0.55482209   0.00560875
7334.00   0.56256604   0.00571897
7336.00   0.57029700   0.00587819
7338.00   0.56894338   0.00606099
7340.00   0.55775476   0.00640222
7342.00   0.55302840   0.00639654
7344.00   0.55029029   0.00607604
7346.00   0.54823661   0.00577888
7348.00   0.54690683   0.00549836
7350.00   0.54621112   0.00526280
7352.00   0.54564685   0.00522285
7354.00   0.54520142   0.00534942
7356.00   0.54616636   0.00549638
7358.00   0.54989946   0.00581773
7360.00   0.55101436   0.00596118
7362.00   0.54919791   0.00590472
7364.00   0.54648906   0.00580979
7366.00   0.54405957   0.00581595
7368.00   0.54118669   0.00586958
7370.00   0.54039967   0.00579457
7372.00   0.54228699   0.00548659
7374.00   0.54223305   0.00545623
7376.00   0.54055345   0.00577631
7378.00   0.53884804   0.00599459
7380.00   0.53692245   0.00585240
7382.00   0.53519833   0.00552530
7384.00   0.53906471   0.00554901
7386.00   0.55173016   0.00591000
7388.00   0.55588984   0.00600415
7390.00   0.55523759   0.00598605
7392.00   0.55316162   0.00592141
7394.00   0.54914391   0.00577650
7396.00   0.54450452   0.00560823
7398.00   0.54432678   0.00562399
7400.00   0.54788369   0.00585265
7402.00   0.54977363   0.00582112
7404.00   0.55375832   0.00560177
7406.00   0.55368048   0.00539694
7408.00   0.54753536   0.00518858
7410.00   0.53979999   0.00500131
7412.00   0.53520745   0.00491038
7414.00   0.53117162   0.00489169
7416.00   0.53166068   0.00493449
7418.00   0.53759784   0.00507738
7420.00   0.54214305   0.00520338
7422.00   0.54753780   0.00534998
7424.00   0.55083680   0.00546813
7426.00   0.54837179   0.00551079
7428.00   0.54168463   0.00550198
7430.00   0.54072434   0.00552161
7432.00   0.54432625   0.00553701
7434.00   0.54517698   0.00556541
7436.00   0.54490763   0.00559966
7438.00   0.54371554   0.00564731
7440.00   0.54063827   0.00574645
7442.00   0.53681272   0.00585184
7444.00   0.53747821   0.00577596
7446.00   0.54371011   0.00550664
7448.00   0.54487932   0.00530744
7450.00   0.54311842   0.00504666
7452.00   0.54131240   0.00486788
7454.00   0.54015839   0.00476991
7456.00   0.53869939   0.00478977
7458.00   0.53575337   0.00506618
7460.00   0.53096420   0.00564635
7462.00   0.52842379   0.00583935
7464.00   0.52684957   0.00587360
7466.00   0.52625740   0.00579199
7468.00   0.52700406   0.00548066
7470.00   0.52832568   0.00514490
7472.00   0.52973831   0.00506407
7474.00   0.53190565   0.00513090
7476.00   0.53060466   0.00532323
7478.00   0.52358329   0.00569459
7480.00   0.52232850   0.00603437
7482.00   0.52693141   0.00653903
7484.00   0.53229409   0.00681211
7486.00   0.53645486   0.00656971
7488.00   0.54039681   0.00594571
7490.00   0.53883255   0.00555651
7492.00   0.52925348   0.00511930
7494.00   0.52609628   0.00488631
7496.00   0.52660787   0.00486908
7498.00   0.52815831   0.00494169
7500.00   0.53029269   0.00509411
7502.00   0.53317642   0.00530500
7504.00   0.53577375   0.00544362
7506.00   0.54042447   0.00561721
7508.00   0.53955704   0.00561233
7510.00   0.53283095   0.00539492
7512.00   0.52777267   0.00524364
7514.00   0.52559507   0.00519386
7516.00   0.52414101   0.00519835
7518.00   0.52154571   0.00524665
7520.00   0.51855105   0.00535680
7522.00   0.51531714   0.00544025
7524.00   0.51147169   0.00558950
7526.00   0.50799268   0.00560831
7528.00   0.50483233   0.00546498
7530.00   0.50186169   0.00527431
7532.00   0.49911597   0.00511511
7534.00   0.49663427   0.00493636
7536.00   0.49362195   0.00493504
7538.00   0.48912841   0.00513722
7540.00   0.48705617   0.00524916
7542.00   0.48854578   0.00539431
7544.00   0.48873588   0.00541943
7546.00   0.48459339   0.00516049
7548.00   0.47812030   0.00470944
7550.00   0.47402540   0.00463862
7552.00   0.46967623   0.00492051
7554.00   0.46826833   0.00501052
7556.00   0.47066385   0.00503294
7558.00   0.47203401   0.00507789
7560.00   0.47158849   0.00514326
7562.00   0.46982840   0.00524347
7564.00   0.46529675   0.00547285
7566.00   0.45475176   0.00593375
7568.00   0.45460385   0.00596360
7570.00   0.46405250   0.00561146
7572.00   0.47071540   0.00533981
7574.00   0.47419089   0.00518462
7576.00   0.47606629   0.00507514
7578.00   0.47644162   0.00498535
7580.00   0.47510800   0.00491913
7582.00   0.47323644   0.00494691
7584.00   0.47059351   0.00508692
7586.00   0.46673146   0.00520653
7588.00   0.45841104   0.00522210
7590.00   0.45333865   0.00537426
7592.00   0.45996666   0.00572663
7594.00   0.47484457   0.00619060
7596.00   0.47453788   0.00732360
7598.00   0.45850134   0.00892441
7600.00   0.45461768   0.01021142
7602.00   0.46306196   0.01177194
7604.00   0.46668872   0.01269601
7606.00   0.45516872   0.01271924
7608.00   0.43718588   0.01216321
7610.00   0.43466333   0.01141284
7612.00   0.44278416   0.00984476
7614.00   0.45025131   0.00871051
7616.00   0.46453246   0.00756648
7618.00   0.47412810   0.00673991
7620.00   0.47784683   0.00647308
7622.00   0.47666276   0.00666958
7624.00   0.46802199   0.00710429
7626.00   0.44903123   0.00793390
7628.00   0.43881449   0.00849101
7630.00   0.43023694   0.00935621
7632.00   0.42679518   0.00947200
7634.00   0.42984161   0.00847875
7636.00   0.43598413   0.00716152
7638.00   0.44242758   0.00679269
7640.00   0.45119479   0.00706821
7642.00   0.45513710   0.00689406
7644.00   0.45654720   0.00646704
7646.00   0.45560282   0.00626247
7648.00   0.44938233   0.00633267
7650.00   0.44488668   0.00639325
7652.00   0.44799834   0.00626853
7654.00   0.45549989   0.00604697
7656.00   0.45554942   0.00587699
7658.00   0.44730285   0.00565057
7660.00   0.44723284   0.00555432
7662.00   0.45556480   0.00564933
7664.00   0.46043351   0.00566132
7666.00   0.45550570   0.00544933
7668.00   0.44722334   0.00513840
7670.00   0.44952941   0.00503203
7672.00   0.46208864   0.00507515
7674.00   0.46602929   0.00508222
7676.00   0.46481913   0.00513567
7678.00   0.46482456   0.00515961
7680.00   0.46695057   0.00511852
7682.00   0.46964616   0.00507765
7684.00   0.47166207   0.00514154
7686.00   0.47307599   0.00530122
7688.00   0.47637814   0.00534795
7690.00   0.48286957   0.00520213
7692.00   0.48619965   0.00531251
7694.00   0.48622364   0.00584887
7696.00   0.48475599   0.00625817
7698.00   0.48257262   0.00609995
7700.00   0.47901258   0.00551786
7702.00   0.47816861   0.00527263
7704.00   0.47823855   0.00501798
7706.00   0.48060611   0.00511071
7708.00   0.48884934   0.00558419
7710.00   0.49330935   0.00609672
7712.00   0.48754236   0.00661460
7714.00   0.47578850   0.00712322
7716.00   0.46889094   0.00711950
7718.00   0.45928943   0.00652808
7720.00   0.45939177   0.00622404
7722.00   0.47044048   0.00599218
7724.00   0.47952101   0.00577343
7726.00   0.48424143   0.00554688
7728.00   0.48630515   0.00533748
7730.00   0.48344323   0.00518465
7732.00   0.47268164   0.00508478
7734.00   0.47048110   0.00501544
7736.00   0.47416040   0.00499289
7738.00   0.47681922   0.00499718
7740.00   0.47699103   0.00496069
7742.00   0.47800499   0.00502020
7744.00   0.48400372   0.00538194
7746.00   0.49476609   0.00598159
7748.00   0.49955609   0.00631751
7750.00   0.50067019   0.00667713
7752.00   0.50171101   0.00674864
7754.00   0.50198644   0.00644487
7756.00   0.50194269   0.00607084
7758.00   0.50159138   0.00588616
7760.00   0.50077367   0.00577876
7762.00   0.50389266   0.00565707
7764.00   0.51238811   0.00556513
7766.00   0.51668221   0.00546729
7768.00   0.51955450   0.00534794
7770.00   0.51950353   0.00526900
7772.00   0.51447481   0.00526015
7774.00   0.50646442   0.00530265
7776.00   0.50291151   0.00537776
7778.00   0.49954009   0.00556119
7780.00   0.50181502   0.00560328
7782.00   0.51097113   0.00551770
7784.00   0.51902997   0.00547927
7786.00   0.52667028   0.00549887
7788.00   0.53192663   0.00557658
7790.00   0.52722514   0.00579264
7792.00   0.51174855   0.00621891
7794.00   0.50402004   0.00628186
7796.00   0.49740452   0.00608144
7798.00   0.49448413   0.00587770
7800.00   0.49587926   0.00559082
7802.00   0.49991095   0.00534251
7804.00   0.50536495   0.00536052
7806.00   0.51330924   0.00559220
7808.00   0.51898831   0.00564556
7810.00   0.52752841   0.00560814
7812.00   0.52771056   0.00561659
7814.00   0.51517940   0.00559368
7816.00   0.50507021   0.00566957
7818.00   0.50850606   0.00599807
7820.00   0.51953822   0.00646276
7822.00   0.52224052   0.00654037
7824.00   0.52006507   0.00635313
7826.00   0.51994592   0.00614801
7828.00   0.52082157   0.00575062
7830.00   0.52081025   0.00541333
7832.00   0.51806539   0.00524371
7834.00   0.51475215   0.00518868
7836.00   0.51747072   0.00523646
7838.00   0.52958393   0.00534248
7840.00   0.52876341   0.00567767
7842.00   0.51490998   0.00640846
7844.00   0.50752032   0.00678491
7846.00   0.51059330   0.00668492
7848.00   0.51722771   0.00642932
7850.00   0.52044970   0.00642949
7852.00   0.52352858   0.00656581
7854.00   0.52417761   0.00657139
7856.00   0.52510512   0.00656175
7858.00   0.52029037   0.00644317
7860.00   0.50481397   0.00611962
7862.00   0.49098772   0.00579665
7864.00   0.49170333   0.00571759
7866.00   0.50244671   0.00580183
7868.00   0.50337064   0.00580542
7870.00   0.49894947   0.00581538
7872.00   0.49609488   0.00581423
7874.00   0.49264044   0.00580106
7876.00   0.49054793   0.00578682
7878.00   0.49144357   0.00574476
7880.00   0.49424961   0.00569948
7882.00   0.49576196   0.00585474
7884.00   0.49714056   0.00629126
7886.00   0.49832213   0.00644759
7888.00   0.50084060   0.00644641
7890.00   0.50056821   0.00641693
7892.00   0.49506262   0.00640850
7894.00   0.48743665   0.00636454
7896.00   0.48411655   0.00618528
7898.00   0.48364544   0.00582863
7900.00   0.48171446   0.00558026
7902.00   0.47804543   0.00522431
7904.00   0.47729447   0.00514840
7906.00   0.48244950   0.00547946
7908.00   0.48731697   0.00592919
7910.00   0.48380658   0.00619695
7912.00   0.47477433   0.00634615
7914.00   0.46423885   0.00688895
7916.00   0.44202045   0.00804355
7918.00   0.43556541   0.00840780
7920.00   0.44784188   0.00805535
7922.00   0.46327743   0.00743653
7924.00   0.47140381   0.00676852
7926.00   0.47737154   0.00584314
7928.00   0.48123765   0.00548286
7930.00   0.48317811   0.00582326
7932.00   0.48255762   0.00581021
7934.00   0.47882217   0.00561438
7936.00   0.47377080   0.00540886
7938.00   0.46685439   0.00523425
7940.00   0.45905113   0.00507920
7942.00   0.45738354   0.00508267
7944.00   0.46264112   0.00529467
7946.00   0.46315628   0.00536699
7948.00   0.46309745   0.00543012
7950.00   0.46048760   0.00541426
7952.00   0.45365146   0.00523206
7954.00   0.44524840   0.00501508
7956.00   0.44008178   0.00505791
7958.00   0.43514410   0.00525970
7960.00   0.43572354   0.00553424
7962.00   0.44178745   0.00607069
7964.00   0.44854254   0.00632242
7966.00   0.45956528   0.00627986
7968.00   0.46795532   0.00610445
7970.00   0.46388769   0.00589191
7972.00   0.44975826   0.00554902
7974.00   0.44285452   0.00541764
7976.00   0.43583938   0.00538617
7978.00   0.43396538   0.00549013
7980.00   0.44058907   0.00583551
7982.00   0.44549838   0.00611882
7984.00   0.43747333   0.00608520
7986.00   0.42248535   0.00587874
7988.00   0.43791804   0.00625256
7990.00   0.49067789   0.00716898
7992.00   0.51501119   0.00765085
7994.00   0.53261137   0.00823332
7996.00   0.53016675   0.00828097
7998.00   0.49185368   0.00725391
8000.00   0.43608862   0.00537692
8002.00   0.41817328   0.00463570
8004.00   0.42716336   0.00504708
8006.00   0.42610160   0.00502678
8008.00   0.42725012   0.00508062
8010.00   0.42736796   0.00513944
8012.00   0.42649812   0.00520495
8014.00   0.42444944   0.00527121
8016.00   0.41970679   0.00530237
8018.00   0.41148734   0.00527705
8020.00   0.40759686   0.00539855
8022.00   0.40772051   0.00569770
8024.00   0.40533498   0.00586078
8026.00   0.39910758   0.00593272
8028.00   0.39343777   0.00590712
8030.00   0.39180160   0.00571648
8032.00   0.39246544   0.00534767
8034.00   0.39694390   0.00515352
8036.00   0.40945357   0.00503985
8038.00   0.41490656   0.00496657
8040.00   0.41406634   0.00496264
8042.00   0.41246277   0.00498369
8044.00   0.41273028   0.00501350
8046.00   0.41333756   0.00505868
8048.00   0.41333699   0.00507023
8050.00   0.41306600   0.00504180
8052.00   0.41252282   0.00505378
8054.00   0.41149232   0.00507286
8056.00   0.41056046   0.00512823
8058.00   0.41038546   0.00525175
8060.00   0.41005400   0.00539448
8062.00   0.40723449   0.00544810
8064.00   0.40164420   0.00544410
8066.00   0.39823800   0.00543609
8068.00   0.39535925   0.00543539
8070.00   0.39342067   0.00536092
8072.00   0.39284682   0.00515275
8074.00   0.39277664   0.00491771
8076.00   0.39219555   0.00481988
8078.00   0.39183608   0.00480772
8080.00   0.38967258   0.00481442
8082.00   0.38563094   0.00486593
8084.00   0.38194910   0.00494768
8086.00   0.37646082   0.00511342
8088.00   0.37348258   0.00523653
8090.00   0.37763777   0.00520347
8092.00   0.38707295   0.00506219
8094.00   0.39162880   0.00502052
8096.00   0.39606792   0.00499775
8098.00   0.39615339   0.00503022
8100.00   0.39212632   0.00514001
8102.00   0.38582203   0.00524479
8104.00   0.37599134   0.00533960
8106.00   0.36436316   0.00541583
8108.00   0.36185306   0.00533188
8110.00   0.36807141   0.00499897
8112.00   0.37061420   0.00487573
8114.00   0.37436634   0.00487998
8116.00   0.37595633   0.00488609
8118.00   0.37383577   0.00487159
8120.00   0.37026709   0.00486074
8122.00   0.36887351   0.00485707
8124.00   0.36771607   0.00483842
8126.00   0.36919591   0.00490316
8128.00   0.37576622   0.00498689
8130.00   0.37792826   0.00518030
8132.00   0.37445822   0.00556218
8134.00   0.36914814   0.00591259
8136.00   0.36467808   0.00603272
8138.00   0.35900879   0.00602353
8140.00   0.35950115   0.00593337
8142.00   0.36856112   0.00560571
8144.00   0.37107673   0.00545833
8146.00   0.36878225   0.00545634
8148.00   0.36352944   0.00554319
8150.00   0.35336721   0.00575225
8152.00   0.33929992   0.00605274
8154.00   0.34089884   0.00603311
8156.00   0.36502233   0.00565553
8158.00   0.36662644   0.00551193
8160.00   0.34535286   0.00543522
8162.00   0.33210042   0.00549802
8164.00   0.34226671   0.00583822
8166.00   0.36139134   0.00625321
8168.00   0.36028764   0.00620391
8170.00   0.34158507   0.00564036
8172.00   0.33644921   0.00550085
8174.00   0.33523735   0.00551145
8176.00   0.33872280   0.00569320
8178.00   0.35164252   0.00614535
8180.00   0.36528614   0.00662322
8182.00   0.36326998   0.00678956
8184.00   0.34749472   0.00675944
8186.00   0.34428921   0.00680033
8188.00   0.35162413   0.00676833
8190.00   0.35048458   0.00684467
8192.00   0.34015864   0.00714620
8194.00   0.32631084   0.00735994
8196.00   0.31091473   0.00718967
8198.00   0.29145789   0.00672504
8200.00   0.28769580   0.00637489
8202.00   0.30055580   0.00592830
8204.00   0.30606243   0.00560289
8206.00   0.30806348   0.00540862
8208.00   0.30864757   0.00526877
8210.00   0.30832031   0.00515088
8212.00   0.30680805   0.00507604
8214.00   0.30436274   0.00500753
8216.00   0.29935420   0.00481486
8218.00   0.29694292   0.00498245
8220.00   0.29785460   0.00553489
8222.00   0.29625526   0.00594529
8224.00   0.29050234   0.00613397
8226.00   0.28211844   0.00621448
8228.00   0.27173167   0.00622543
8230.00   0.25388524   0.00617567
8232.00   0.25033975   0.00597070
8234.00   0.26222697   0.00541980
8236.00   0.26694277   0.00508596
8238.00   0.25969309   0.00517027
8240.00   0.25081742   0.00534294
8242.00   0.25197753   0.00523474
8244.00   0.26027539   0.00495471
8246.00   0.26223314   0.00476038
8248.00   0.26241851   0.00451255
8250.00   0.26009434   0.00438713
8252.00   0.25234252   0.00438537
8254.00   0.24611524   0.00447447
8256.00   0.24835305   0.00468608
8258.00   0.25625414   0.00500687
8260.00   0.25636023   0.00499840
8262.00   0.25057828   0.00466916
8264.00   0.24755709   0.00447436
8266.00   0.24591060   0.00422084
8268.00   0.24423729   0.00415799
8270.00   0.24151134   0.00444899
8272.00   0.23863038   0.00492872
8274.00   0.23877114   0.00532612
8276.00   0.24389453   0.00578338
8278.00   0.24327917   0.00613502
8280.00   0.23766132   0.00647563
8282.00   0.23380736   0.00671791
8284.00   0.23177749   0.00686669
8286.00   0.23224291   0.00692743
8288.00   0.23992907   0.00685154
8290.00   0.25734809   0.00654715
8292.00   0.26393569   0.00651544
8294.00   0.26574996   0.00669405
8296.00   0.26374647   0.00681343
8298.00   0.25461411   0.00695574
8300.00   0.24516788   0.00698775
8302.00   0.24407612   0.00667096
8304.00   0.24833244   0.00598839
8306.00   0.25107133   0.00558114
8308.00   0.25580046   0.00525173
8310.00   0.25855887   0.00504413
8312.00   0.25962743   0.00502071
8314.00   0.25988460   0.00506293
8316.00   0.25978336   0.00510976
8318.00   0.25908953   0.00519220
8320.00   0.25755835   0.00517711
8322.00   0.25229868   0.00508048
8324.00   0.25311500   0.00499972
8326.00   0.25851488   0.00477420
8328.00   0.26597747   0.00476088
8330.00   0.27586251   0.00515230
8332.00   0.28722548   0.00570950
8334.00   0.29461828   0.00606715
8336.00   0.30081433   0.00631312
8338.00   0.30302131   0.00669389
8340.00   0.29988140   0.00720487
8342.00   0.29763582   0.00760597
8344.00   0.29798067   0.00799687
8346.00   0.29808751   0.00822407
8348.00   0.29437742   0.00791737
8350.00   0.28773680   0.00697456
8352.00   0.28127003   0.00646080
8354.00   0.27160838   0.00616470
8356.00   0.26597223   0.00582860
8358.00   0.26436955   0.00535394
8360.00   0.26527593   0.00499674
8362.00   0.26801127   0.00510495
8364.00   0.27305299   0.00557506
8366.00   0.27844360   0.00572775
8368.00   0.29020956   0.00589342
8370.00   0.29121983   0.00577780
8372.00   0.27887309   0.00515523
8374.00   0.26783571   0.00462505
8376.00   0.26584741   0.00472302
8378.00   0.26847655   0.00515852
8380.00   0.27284718   0.00536081
8382.00   0.28519952   0.00565550
8384.00   0.28806645   0.00565021
8386.00   0.28165793   0.00525819
8388.00   0.27838099   0.00499070
8390.00   0.28226721   0.00492591
8392.00   0.28934214   0.00508453
8394.00   0.29509726   0.00578968
8396.00   0.30181989   0.00699684
8398.00   0.30717918   0.00768656
8400.00   0.31462598   0.00857683
8402.00   0.31620887   0.00871404
8404.00   0.30865911   0.00768158
8406.00   0.29866159   0.00612018
8408.00   0.29419038   0.00546438
8410.00   0.29112902   0.00537931
8412.00   0.29435581   0.00556929
8414.00   0.30790424   0.00664423
8416.00   0.31455070   0.00686963
8418.00   0.31183240   0.00609164
8420.00   0.31052145   0.00521242
8422.00   0.32055789   0.00519688
8424.00   0.33808836   0.00566081
8426.00   0.34203619   0.00632957
8428.00   0.33570412   0.00770452
8430.00   0.33156186   0.00809307
8432.00   0.32358357   0.00781279
8434.00   0.32012162   0.00729893
8436.00   0.32778126   0.00656984
8438.00   0.34116948   0.00556270
8440.00   0.34350401   0.00517519
8442.00   0.33143499   0.00539441
8444.00   0.33724725   0.00553976
8446.00   0.36013639   0.00587351
8448.00   0.37587407   0.00618524
8450.00   0.37875366   0.00655161
8452.00   0.37546137   0.00682809
8454.00   0.37116066   0.00660245
8456.00   0.35967779   0.00564852
8458.00   0.36028290   0.00557529
8460.00   0.37102261   0.00606052
8462.00   0.38000014   0.00662955
8464.00   0.38924369   0.00759064
8466.00   0.39590043   0.00825473
8468.00   0.39416030   0.00783513
8470.00   0.38515097   0.00634787
8472.00   0.38063911   0.00564920
8474.00   0.37428227   0.00537939
8476.00   0.37391201   0.00515688
8478.00   0.38135332   0.00510789
8480.00   0.38922948   0.00513573
8482.00   0.39265385   0.00511488
8484.00   0.39413190   0.00510806
8486.00   0.39635044   0.00541861
8488.00   0.39706305   0.00618929
8490.00   0.40060037   0.00644951
8492.00   0.40599811   0.00638376
8494.00   0.41296983   0.00625747
8496.00   0.42352751   0.00607911
8498.00   0.43501380   0.00588201
8500.00   0.43686181   0.00605392
8502.00   0.42797923   0.00669500
8504.00   0.42705026   0.00681380
8506.00   0.43199554   0.00665931
8508.00   0.43281278   0.00641887
8510.00   0.42512834   0.00601039
8512.00   0.41641259   0.00555295
8514.00   0.41790915   0.00541637
8516.00   0.42651394   0.00554673
8518.00   0.43436399   0.00557024
8520.00   0.44707531   0.00563623
8522.00   0.45517546   0.00564897
8524.00   0.46013868   0.00550686
8526.00   0.46064693   0.00545103
8528.00   0.45171666   0.00573532
8530.00   0.43295833   0.00622958
8532.00   0.43541953   0.00668653
8534.00   0.45922104   0.00749831
8536.00   0.47112259   0.00763888
8538.00   0.47448152   0.00698878
8540.00   0.47671583   0.00635285
8542.00   0.48056537   0.00635374
8544.00   0.48460647   0.00666931
8546.00   0.49162549   0.00674670
8548.00   0.50578654   0.00686335
8550.00   0.50988013   0.00675419
8552.00   0.50434494   0.00633212
8554.00   0.50067234   0.00598384
8556.00   0.50259095   0.00581664
8558.00   0.50651002   0.00578579
8560.00   0.50859064   0.00599586
8562.00   0.51194835   0.00661322
8564.00   0.50980675   0.00668981
8566.00   0.49908808   0.00637306
8568.00   0.49469310   0.00610902
8570.00   0.49901241   0.00588300
8572.00   0.50697553   0.00572968
8574.00   0.51453358   0.00583363
8576.00   0.52508968   0.00620138
8578.00   0.52775866   0.00624673
8580.00   0.52373344   0.00591390
8582.00   0.52006251   0.00596612
8584.00   0.51367629   0.00653518
8586.00   0.50956440   0.00703135
8588.00   0.51328450   0.00710116
8590.00   0.52263832   0.00693619
8592.00   0.52764624   0.00675231
8594.00   0.53066897   0.00630912
8596.00   0.53500956   0.00610563
8598.00   0.54231101   0.00603335
8600.00   0.54652905   0.00613448
8602.00   0.54405791   0.00650871
8604.00   0.53756404   0.00701805
8606.00   0.53321004   0.00720478
8608.00   0.52532256   0.00720474
8610.00   0.52561402   0.00719411
8612.00   0.53491032   0.00694388
8614.00   0.54135323   0.00694241
8616.00   0.54152739   0.00736572
8618.00   0.53965402   0.00793592
8620.00   0.54108304   0.00831302
8622.00   0.54577780   0.00858424
8624.00   0.54422116   0.00902263
8626.00   0.53767020   0.00972723
8628.00   0.53111732   0.01010313
8630.00   0.52218974   0.01018382
8632.00   0.51526892   0.01004416
8634.00   0.51701927   0.00963103
8636.00   0.52568668   0.00883262
8638.00   0.53184867   0.00838085
8640.00   0.53931785   0.00808611
8642.00   0.54577714   0.00789009
8644.00   0.55172479   0.00777110
8646.00   0.55685067   0.00783136
8648.00   0.56123292   0.00815672
8650.00   0.56486022   0.00867660
8652.00   0.56478858   0.00915470
8654.00   0.56207740   0.00981961
8656.00   0.55658990   0.01016035
8658.00   0.54636592   0.01038676
8660.00   0.53664303   0.01035280
8662.00   0.52937180   0.00981865
8664.00   0.52311432   0.00899566
8666.00   0.51661873   0.00887669
8668.00   0.50348246   0.00925454
8670.00   0.50909764   0.00963813
8672.00   0.53660578   0.01051241
8674.00   0.55555946   0.01084122
8676.00   0.56084728   0.01041325
8678.00   0.56002426   0.00959456
8680.00   0.55843282   0.00885185
8682.00   0.55284721   0.00780763
8684.00   0.54888660   0.00722863
8686.00   0.54410428   0.00714096
8688.00   0.54054612   0.00701333
8690.00   0.53702396   0.00687498
8692.00   0.53573394   0.00677122
8694.00   0.54041111   0.00670377
8696.00   0.55067688   0.00668131
8698.00   0.55156463   0.00661834
8700.00   0.54474807   0.00644911
8702.00   0.54070246   0.00647118
8704.00   0.53593552   0.00664632
8706.00   0.53417861   0.00691903
8708.00   0.54089653   0.00739458
8710.00   0.55239320   0.00795224
8712.00   0.54723573   0.00777687
8714.00   0.51802456   0.00652881
8716.00   0.51472652   0.00613970
8718.00   0.53307325   0.00640665
8720.00   0.54808247   0.00668871
8722.00   0.55310047   0.00683918
8724.00   0.55362576   0.00698258
8726.00   0.55123341   0.00715111
8728.00   0.54120415   0.00747503
8730.00   0.54031819   0.00736884
8732.00   0.54804444   0.00673410
8734.00   0.55114561   0.00630274
8736.00   0.54660398   0.00623675
8738.00   0.54056573   0.00630787
8740.00   0.54007322   0.00631398
8742.00   0.54314578   0.00634554
8744.00   0.54361939   0.00636600
8746.00   0.54366553   0.00636464
8748.00   0.54267216   0.00641021
8750.00   0.54006398   0.00639687
8752.00   0.53732866   0.00654500
8754.00   0.53451401   0.00691686
8756.00   0.53104639   0.00740155
8758.00   0.53749841   0.00875057
8760.00   0.55913901   0.01122193
8762.00   0.56738114   0.01215044
8764.00   0.56873214   0.01228224
8766.00   0.56244391   0.01194965
8768.00   0.54287124   0.01094791
8770.00   0.51555151   0.00931630
8772.00   0.50911158   0.00884317
8774.00   0.52434993   0.00960431
8776.00   0.52351087   0.00963260
8778.00   0.51472920   0.00955903
8780.00   0.50623053   0.00924644
8782.00   0.49677172   0.00842096
8784.00   0.48945740   0.00736928
8786.00   0.49610925   0.00713206
8788.00   0.52062386   0.00767010
8790.00   0.52405208   0.00768534
8792.00   0.51384276   0.00744317
8794.00   0.50355291   0.00734764
8796.00   0.48908281   0.00752778
8798.00   0.47751483   0.00768099
8800.00   0.48096693   0.00746191
8802.00   0.49687785   0.00692115
8804.00   0.50360131   0.00667778
8806.00   0.50901866   0.00659758
8808.00   0.51052415   0.00652494
8810.00   0.50586706   0.00646166
8812.00   0.50136524   0.00646597
8814.00   0.50106180   0.00646127
8816.00   0.50287658   0.00647580
8818.00   0.50776583   0.00731721
8820.00   0.51952010   0.00864689
8822.00   0.52461123   0.00994262
8824.00   0.52651042   0.01188455
8826.00   0.52476943   0.01287543
8828.00   0.52038360   0.01229954
8830.00   0.51193666   0.01082570
8832.00   0.49263692   0.01041624
8834.00   0.45306981   0.01088047
8836.00   0.43705314   0.01052066
8838.00   0.43261379   0.00946217
8840.00   0.43652198   0.00859352
8842.00   0.45292321   0.00817350
8844.00   0.47414136   0.00799061
8846.00   0.48449367   0.00786875
8848.00   0.48848787   0.00793167
8850.00   0.49574113   0.00795914
8852.00   0.50872368   0.00815369
8854.00   0.51090991   0.00811251
8856.00   0.49737576   0.00768111
8858.00   0.48196810   0.00723639
8860.00   0.47830701   0.00721522
8862.00   0.48133180   0.00745868
8864.00   0.47844425   0.00769387
8866.00   0.47487089   0.00826984
8868.00   0.46727705   0.00833060
8870.00   0.44974214   0.00778608
8872.00   0.43837428   0.00723555
8874.00   0.44416136   0.00700375
8876.00   0.46064535   0.00695963
8878.00   0.47280622   0.00750099
8880.00   0.49526599   0.00866163
8882.00   0.49693188   0.00946851
8884.00   0.47911218   0.01055678
8886.00   0.46079966   0.01099565
8888.00   0.44515228   0.01041560
8890.00   0.43091109   0.00919962
8892.00   0.42561087   0.00828456
8894.00   0.42691886   0.00692990
8896.00   0.43268958   0.00659972
8898.00   0.45018277   0.00745835
8900.00   0.46031082   0.00805430
8902.00   0.46136841   0.00847603
8904.00   0.45693415   0.00870327
8906.00   0.44706419   0.00837568
8908.00   0.42722973   0.00733712
8910.00   0.42546731   0.00715349
8912.00   0.44093540   0.00723080
8914.00   0.44876111   0.00797418
8916.00   0.45217991   0.00972718
8918.00   0.45071161   0.01103989
8920.00   0.44082555   0.01115795
8922.00   0.42341551   0.01056618
8924.00   0.41306725   0.00994303
8926.00   0.40301195   0.00852661
8928.00   0.39919126   0.00772227
8930.00   0.40254292   0.00761439
8932.00   0.40743279   0.00758383
8934.00   0.41233122   0.00724265
8936.00   0.41778350   0.00685285
8938.00   0.41863796   0.00713098
8940.00   0.41437903   0.00817886
8942.00   0.41304135   0.00858637
8944.00   0.41560981   0.00885925
8946.00   0.41288146   0.00887261
8948.00   0.39885595   0.00829735
8950.00   0.38216072   0.00759597
8952.00   0.38000825   0.00813169
8954.00   0.38954505   0.00960066
8956.00   0.39322951   0.01038231
8958.00   0.40070146   0.01140494
8960.00   0.39951190   0.01158328
8962.00   0.38410640   0.01056128
8964.00   0.36712757   0.00906581
8966.00   0.36369076   0.00822316
8968.00   0.36908627   0.00764210
8970.00   0.36877435   0.00742332
8972.00   0.36418208   0.00782513
8974.00   0.36560076   0.00807997
8976.00   0.37747347   0.00836003
8978.00   0.38551134   0.00854545
8980.00   0.37879187   0.00835268
8982.00   0.36267781   0.00788899
8984.00   0.34960052   0.00865230
8986.00   0.33140892   0.01093351
8988.00   0.32078117   0.01138640
8990.00   0.31346846   0.01039901
8992.00   0.31255871   0.00945897
8994.00   0.32127070   0.00923845
8996.00   0.33626381   0.00937367
8998.00   0.34720239   0.00980728
9000.00   0.36269110   0.01097286
9002.00   0.36526656   0.01117097
9004.00   0.35347706   0.01083040
9006.00   0.34615940   0.01027782
9008.00   0.34686154   0.00931482
9010.00   0.35048717   0.00816394
9012.00   0.35351631   0.00769173
9014.00   0.36060405   0.00776222
9016.00   0.35498384   0.00786795
9018.00   0.33199903   0.00827055
9020.00   0.32145241   0.00862757
9022.00   0.32557222   0.00902214
9024.00   0.33408183   0.00934003
9026.00   0.33956924   0.00945084
9028.00   0.34572956   0.00942520
9030.00   0.34912151   0.00926579
9032.00   0.34958267   0.00887404
9034.00   0.35124132   0.00852142
9036.00   0.35842219   0.00812063
9038.00   0.35863408   0.00775440
9040.00   0.33899543   0.00744984
9042.00   0.30758503   0.00720951
9044.00   0.30576116   0.00732210
9046.00   0.33520237   0.00791765
9048.00   0.34182936   0.00817678
9050.00   0.33522335   0.00842680
9052.00   0.32846183   0.00841880
9054.00   0.32500589   0.00792486
9056.00   0.32210863   0.00716172
9058.00   0.31899673   0.00689732
9060.00   0.31529862   0.00698092
9062.00   0.31368104   0.00702736
9064.00   0.31330064   0.00721343
9066.00   0.31425467   0.00735958
9068.00   0.31680280   0.00746540
9070.00   0.32044342   0.00753924
9072.00   0.32495680   0.00755202
9074.00   0.33195034   0.00749754
9076.00   0.33212620   0.00749295
9078.00   0.32393980   0.00742050
9080.00   0.32119820   0.00752621
9082.00   0.32471913   0.00794051
9084.00   0.32891312   0.00826884
9086.00   0.32933572   0.00817622
9088.00   0.32777655   0.00779056
9090.00   0.33004016   0.00770074
9092.00   0.33885846   0.00775050
9094.00   0.33911094   0.00782151
9096.00   0.32885137   0.00788204
9098.00   0.32118979   0.00807193
9100.00   0.32523596   0.00858768
9102.00   0.33417967   0.00920951
9104.00   0.32744172   0.00913256
9106.00   0.29503158   0.00825091
9108.00   0.29578140   0.00786743
9110.00   0.32948077   0.00768100
9112.00   0.34958091   0.00755354
9114.00   0.34014234   0.00748031
9116.00   0.32077819   0.00745464
9118.00   0.31929314   0.00737280
9120.00   0.32657725   0.00713584
9122.00   0.33483598   0.00736315
9124.00   0.35260260   0.00807217
9126.00   0.36183646   0.00853981
9128.00   0.36085966   0.00880365
9130.00   0.35474354   0.00893873
9132.00   0.34585038   0.00892594
9134.00   0.33039531   0.00875468
9136.00   0.32943615   0.00858049
9138.00   0.34406400   0.00832836
9140.00   0.34958586   0.00805694
9142.00   0.34280407   0.00756452
9144.00   0.34013322   0.00728962
9146.00   0.35461000   0.00763945
9148.00   0.38003862   0.00837483
9150.00   0.39471114   0.00901990
9152.00   0.41055638   0.01007583
9154.00   0.41297284   0.01036972
9156.00   0.39927807   0.01005872
9158.00   0.38562754   0.00960519
9160.00   0.37702286   0.00910006
9162.00   0.37052462   0.00849795
9164.00   0.36945161   0.00818281
9166.00   0.37757331   0.00804893
9168.00   0.37678543   0.00807462
9170.00   0.36797816   0.00837777
9172.00   0.36387968   0.00863532
9174.00   0.36732572   0.00884049
9176.00   0.37418455   0.00899487
9178.00   0.38073555   0.00901117
9180.00   0.39069572   0.00891936
9182.00   0.39268836   0.00875570
9184.00   0.38660896   0.00842058
9186.00   0.38347110   0.00815391
9188.00   0.38399664   0.00795243
9190.00   0.38468546   0.00779617
9192.00   0.38269034   0.00769002
9194.00   0.37899089   0.00763716
9196.00   0.37679178   0.00761755
9198.00   0.37510109   0.00768699
9200.00   0.37370485   0.00769135
9202.00   0.37307262   0.00755153
9204.00   0.37214997   0.00752963
9206.00   0.36909837   0.00780816
9208.00   0.36510649   0.00826014
9210.00   0.36876267   0.00862214
9212.00   0.37805802   0.00914604
9214.00   0.38963380   0.00930231
9216.00   0.40987486   0.00911569
9218.00   0.42404878   0.00893888
9220.00   0.42644787   0.00890520
9222.00   0.42253491   0.00889471
9224.00   0.42003518   0.00874957
9226.00   0.41638985   0.00846594
9228.00   0.41014475   0.00827411
9230.00   0.40074769   0.00802685
9232.00   0.39105877   0.00795396
9234.00   0.37974209   0.00816950
9236.00   0.36935425   0.00845231
9238.00   0.36441246   0.00851621
9240.00   0.36280414   0.00844182
9242.00   0.36592868   0.00849530
9244.00   0.37709710   0.00837634
9246.00   0.38482696   0.00873918
9248.00   0.39413786   0.00989232
9250.00   0.39669892   0.01075685
9252.00   0.37964574   0.01059949
9254.00   0.34622785   0.00974361
9256.00   0.34394965   0.00913488
9258.00   0.37580016   0.00810901
9260.00   0.38062420   0.00769567
9262.00   0.36105883   0.00797091
9264.00   0.34310237   0.00837923
9266.00   0.33794081   0.00878066
9268.00   0.33886436   0.00921430
9270.00   0.34404474   0.00921588
9272.00   0.36071500   0.00858738
9274.00   0.36666602   0.00857411
9276.00   0.36930978   0.00889856
9278.00   0.36592358   0.00932970
9280.00   0.35486358   0.00988832
9282.00   0.33839530   0.01047699
9284.00   0.31946194   0.01085009
9286.00   0.28648597   0.01122140
9288.00   0.28581607   0.01115904
9290.00   0.31735095   0.01033135
9292.00   0.33942553   0.01007196
9294.00   0.34879923   0.01039460
9296.00   0.35559335   0.01119561
9298.00   0.36956900   0.01255461
9300.00   0.39180201   0.01435786
9302.00   0.38260406   0.01573232
9304.00   0.33230576   0.01615821
9306.00   0.31101465   0.01829236
9308.00   0.31757277   0.02137764
9310.00   0.33002180   0.02496931
9312.00   0.33677617   0.02955016
9314.00   0.34381878   0.03454533
9316.00   0.34469977   0.03559644
9318.00   0.33278081   0.03280672
9320.00   0.33703071   0.03219278
9322.00   0.35739350   0.03359587
9324.00   0.37604198   0.03382558
9326.00   0.38754427   0.03083919
9328.00   0.39501497   0.02587199
9330.00   0.39439109   0.02479187
9332.00   0.38396832   0.02694100
9334.00   0.37527433   0.02836226
9336.00   0.36991334   0.03019850
9338.00   0.35369691   0.03227896
9340.00   0.31210354   0.03588895
9342.00   0.26975298   0.03852039
9344.00   0.27236134   0.03555297
9346.00   0.30972177   0.02454478
9348.00   0.34053019   0.01937206
9350.00   0.40555710   0.01938356
9352.00   0.42138320   0.02003776
9354.00   0.35960394   0.02247044
9356.00   0.29554689   0.02465095
9358.00   0.30986071   0.02434790
9360.00   0.37701005   0.02229938
9362.00   0.38764483   0.02192993
9364.00   0.34768021   0.01958647
9366.00   0.35261562   0.02334695
9368.00   0.35394695   0.03066651
9370.00   0.42812610   0.03848128
#9372.00   0.69771868   0.04734718
#9374.00   1.08640385   0.05627387
#9376.00   1.06128442   0.05858127
#9378.00   0.59004653   0.05752877
#9380.00   0.40139773   0.05342874
9382.00   0.33211720   0.04136428
9384.00   0.30511087   0.02816065
9386.00   0.32097530   0.02043371
9388.00   0.36616436   0.01748516
9390.00   0.35033429   0.01306802
9392.00   0.27576399   0.01231952
9394.00   0.26828796   0.01127852
9396.00   0.31811243   0.01219543
9398.00   0.34380507   0.01317808
9400.00   0.32911971   0.01423954
9402.00   0.30480051   0.01531151
9404.00   0.30432037   0.01609195
9406.00   0.31940129   0.01690941
9408.00   0.31648269   0.01679330
9410.00   0.28764752   0.01492837
9412.00   0.28966433   0.01466955
9414.00   0.33155537   0.01617683
9416.00   0.37836686   0.01813533
9418.00   0.40819982   0.02007637
9420.00   0.43431947   0.02226412
9422.00   0.41127697   0.02298346
9424.00   0.31362709   0.02272391
9426.00   0.27237433   0.02224137
9428.00   0.26649222   0.02106904
9430.00   0.27991593   0.01985882
9432.00   0.31645751   0.01778408
9434.00   0.37048900   0.01561487
9436.00   0.38707668   0.02117160
9438.00   0.37812376   0.03347520
9440.00   0.36996964   0.03588836
9442.00   0.34819874   0.03372590
9444.00   0.33159608   0.03038172
9446.00   0.32326978   0.02518737
9448.00   0.32096863   0.01801487
9450.00   0.32896724   0.01551519
9452.00   0.35652399   0.01737707
9454.00   0.35555428   0.02102230
9456.00   0.33385319   0.02845917
9458.00   0.31196326   0.03205815
9460.00   0.28602636   0.03287506
9462.00   0.26228869   0.03206433
9464.00   0.25131178   0.02944070
9466.00   0.24730113   0.02348669
9468.00   0.25936911   0.02058279
9470.00   0.30184442   0.01972047
9472.00   0.32104743   0.01990516
9474.00   0.32182837   0.02222897
9476.00   0.31133848   0.02421350
9478.00   0.28527194   0.02447788
9480.00   0.24436206   0.02385869
9482.00   0.24622245   0.02266497
9484.00   0.28716147   0.01953445
9486.00   0.31464648   0.01789342
9488.00   0.34617099   0.01738789
9490.00   0.36851287   0.01755349
9492.00   0.37901717   0.01794290
9494.00   0.37789339   0.01895382
9496.00   0.35005343   0.02176797
9498.00   0.27057159   0.02767073
9500.00   0.24851522   0.02839424
9502.00   0.26574987   0.02558581
9504.00   0.28193083   0.02243853
9506.00   0.29524678   0.01898404
9508.00   0.30554584   0.01509713
9510.00   0.29791409   0.01313873
9512.00   0.26849172   0.01321976
9514.00   0.26659524   0.01412994
9516.00   0.28712645   0.01680758
9518.00   0.29920048   0.01871983
9520.00   0.30383953   0.02044445
9522.00   0.30388924   0.02158422
9524.00   0.29698482   0.02138481
9526.00   0.28151801   0.01996104
9528.00   0.28364611   0.01977652
9530.00   0.29882091   0.02064007
9532.00   0.31416443   0.02065070
9534.00   0.33680615   0.01992916
9536.00   0.35495821   0.01897046
9538.00   0.36222899   0.01786425
9540.00   0.36194554   0.01652734
9542.00   0.34770030   0.01624043
9544.00   0.29993924   0.01678451
9546.00   0.29101065   0.01757845
9548.00   0.31240264   0.01881967
9550.00   0.33628044   0.02017298
9552.00   0.35914224   0.02190773
9554.00   0.38080519   0.02352273
9556.00   0.38186738   0.02349789
9558.00   0.36236569   0.02159747
9560.00   0.35084206   0.02112274
9562.00   0.33252865   0.02114154
9564.00   0.32502961   0.02158459
9566.00   0.33843285   0.02306820
9568.00   0.35373786   0.02429500
9570.00   0.34210259   0.02324393
9572.00   0.30924514   0.01983118
9574.00   0.29183525   0.01810963
9576.00   0.27388936   0.01727357
9578.00   0.26859352   0.01647456
9580.00   0.28214028   0.01564793
9582.00   0.29730085   0.01523073
9584.00   0.30003771   0.01563863
9586.00   0.29715830   0.01669260
9588.00   0.28601015   0.01761270
9590.00   0.24922508   0.01909031
9592.00   0.24545515   0.01965580
9594.00   0.28182405   0.01956325
9596.00   0.30982265   0.01910855
9598.00   0.29856929   0.01822592
9600.00   0.26925978   0.01693564
9602.00   0.27721608   0.01629068
9604.00   0.32154256   0.01614710
9606.00   0.33848143   0.01590951
9608.00   0.34456968   0.01591131
9610.00   0.34440178   0.01572311
9612.00   0.33548623   0.01493906
9614.00   0.32243341   0.01407889
9616.00   0.32059464   0.01454372
9618.00   0.33701876   0.01621909
9620.00   0.31495860   0.01693104
9622.00   0.24771450   0.01750069
9624.00   0.20602223   0.01764399
9626.00   0.19189934   0.01731918
9628.00   0.19619626   0.01663244
9630.00   0.22199333   0.01554861
9632.00   0.27679831   0.01368823
9634.00   0.29678816   0.01302598
9636.00   0.29121408   0.01353698
9638.00   0.29541337   0.01373124
9640.00   0.31578249   0.01376737
9642.00   0.32535744   0.01379579
9644.00   0.29634902   0.01370569
9646.00   0.24035095   0.01351547
9648.00   0.23997816   0.01447536
9650.00   0.29520738   0.01733851
9652.00   0.31373572   0.01766546
9654.00   0.31073493   0.01546773
9656.00   0.30293232   0.01347482
9658.00   0.29376677   0.01346332
9660.00   0.28208244   0.01441356
9662.00   0.27809447   0.01507589
9664.00   0.27335006   0.01627277
9666.00   0.28458893   0.01660177
9668.00   0.31590623   0.01642953
9670.00   0.34184819   0.01601353
9672.00   0.36436585   0.01512226
9674.00   0.37780923   0.01409682
9676.00   0.36053628   0.01390124
9678.00   0.31097296   0.01411609
9680.00   0.27984220   0.01510988
9682.00   0.24269876   0.01794883
9684.00   0.22525293   0.01858000
9686.00   0.23313034   0.01636155
9688.00   0.25027603   0.01321040
9690.00   0.26372793   0.01204579
9692.00   0.28152680   0.01206934
9694.00   0.28242379   0.01259399
9696.00   0.26939908   0.01405831
9698.00   0.25512591   0.01541954
9700.00   0.22985509   0.01757311
9702.00   0.21186893   0.01868071
9704.00   0.21494068   0.01743172
9706.00   0.23148762   0.01428541
9708.00   0.24350411   0.01305714
9710.00   0.25964719   0.01304774
9712.00   0.27209678   0.01311921
9714.00   0.28539151   0.01368526
9716.00   0.29284787   0.01440709
9718.00   0.28779510   0.01537576
9720.00   0.27823573   0.01634978
9722.00   0.28718957   0.01647606
9724.00   0.32223147   0.01567960
9726.00   0.32014894   0.01563217
9728.00   0.28325465   0.01597810
9730.00   0.25967327   0.01629520
9732.00   0.25403601   0.01665328
9734.00   0.25831270   0.01691792
9736.00   0.27349579   0.01676885
9738.00   0.31008789   0.01626414
9740.00   0.30469757   0.01579495
9742.00   0.25118169   0.01507282
9744.00   0.22950464   0.01455483
9746.00   0.24509566   0.01432166
9748.00   0.26627088   0.01413448
9750.00   0.26812562   0.01374837
9752.00   0.26077873   0.01323093
9754.00   0.26748422   0.01311815
9756.00   0.29041231   0.01345549
9758.00   0.29757443   0.01355168
9760.00   0.29391143   0.01361163
9762.00   0.28347656   0.01348322
9764.00   0.26167676   0.01296785
9766.00   0.23321244   0.01217487
9768.00   0.23505327   0.01178332
9770.00   0.26361543   0.01142088
9772.00   0.28646412   0.01161756
9774.00   0.32705623   0.01241561
9776.00   0.34643394   0.01319145
9778.00   0.32461667   0.01394726
9780.00   0.28717092   0.01461597
9782.00   0.28302443   0.01473604
9784.00   0.30442277   0.01385551
9786.00   0.30302367   0.01478544
9788.00   0.28629029   0.01768100
9790.00   0.27580434   0.01887193
9792.00   0.27260178   0.01794199
9794.00   0.27318320   0.01651145
9796.00   0.27694070   0.01670799
9798.00   0.28559873   0.01794515
9800.00   0.28876200   0.01799254
9802.00   0.29559958   0.01743309
9804.00   0.28810459   0.01671132
9806.00   0.25473279   0.01539230
9808.00   0.22843818   0.01419178
9810.00   0.23656029   0.01391750
9812.00   0.26651022   0.01427893
9814.00   0.28534734   0.01465378
9816.00   0.31907636   0.01576872
9818.00   0.31965581   0.01586789
9820.00   0.27926788   0.01497330
9822.00   0.24703498   0.01407560
9824.00   0.24414787   0.01362798
9826.00   0.25555855   0.01338057
9828.00   0.26570508   0.01326649
9830.00   0.29310971   0.01353998
9832.00   0.29243717   0.01341398
9834.00   0.25932759   0.01288777
9836.00   0.24371491   0.01259268
9838.00   0.26030982   0.01259761
9840.00   0.28818303   0.01287353
9842.00   0.30184552   0.01357837
9844.00   0.31750530   0.01471270
9846.00   0.30546406   0.01561364
9848.00   0.25191170   0.01672961
9850.00   0.22569259   0.01735794
9852.00   0.23330577   0.01760559
9854.00   0.25056693   0.01747278
9856.00   0.25887510   0.01675262
9858.00   0.26728696   0.01531181
9860.00   0.26890609   0.01445812
9862.00   0.25780234   0.01310406
9864.00   0.25981405   0.01347796
9866.00   0.27628249   0.01564215
9868.00   0.29308841   0.01793822
9870.00   0.30234009   0.02001370
9872.00   0.30824006   0.02206612
9874.00   0.31213060   0.02265980
9876.00   0.30754265   0.02219803
9878.00   0.31434479   0.02147516
9880.00   0.33786166   0.01986737
9882.00   0.35028633   0.01822989
9884.00   0.34083113   0.01666597
9886.00   0.31903493   0.01528325
9888.00   0.29685169   0.01544291
9890.00   0.25902963   0.01721042
9892.00   0.24717075   0.01833493
9894.00   0.25598374   0.02013082
9896.00   0.26467422   0.02074386
9898.00   0.27399120   0.01970692
9900.00   0.28209555   0.01791911
9902.00   0.27972582   0.01660909
9904.00   0.26597533   0.01468933
9906.00   0.26792496   0.01550663
9908.00   0.27968201   0.01876864
9910.00   0.29305461   0.02116575
9912.00   0.31572324   0.02376947
9914.00   0.33247733   0.02538381
9916.00   0.32717904   0.02471736
9918.00   0.30618387   0.02213850
9920.00   0.28638676   0.02049748
9922.00   0.24810737   0.01853895
9924.00   0.23627536   0.01720701
9926.00   0.24981213   0.01661042
9928.00   0.26858622   0.01639313
9930.00   0.28697756   0.01632043
9932.00   0.30711353   0.01655559
9934.00   0.30795267   0.01742185
9936.00   0.28847596   0.01829812
9938.00   0.27736419   0.02051252
9940.00   0.26301676   0.02407970
9942.00   0.25500646   0.02685014
9944.00   0.25781745   0.02892185
9946.00   0.26595160   0.03039938
9948.00   0.26953638   0.03046969
9950.00   0.27116495   0.02878214
9952.00   0.27606043   0.02838508
9954.00   0.28322843   0.02858778
9956.00   0.29089552   0.02874338
9958.00   0.30412945   0.02910727
9960.00   0.31286576   0.02920587
9962.00   0.29925430   0.02815188
9964.00   0.26258358   0.02590729
9966.00   0.26110703   0.02457200
9968.00   0.29347214   0.02357573
9970.00   0.30571693   0.02279093
9972.00   0.29886886   0.02243660
9974.00   0.28811234   0.02213230
9976.00   0.28201118   0.02152046
9978.00   0.27630177   0.02074821
9980.00   0.27165452   0.02018155
9982.00   0.27028337   0.01980690
9984.00   0.26423356   0.01929930
9986.00   0.24443561   0.01836565
9988.00   0.23904920   0.01793273
9990.00   0.26623645   0.01856378
9992.00   0.31072271   0.01977683
9994.00   0.33264139   0.02071505
9996.00   0.34648770   0.02214206
9998.00   0.35252190   0.02245788
10000.00   0.34784284   0.02137269
10002.00   0.34034207   0.02113307
10004.00   0.32764247   0.02189879
10006.00   0.31462145   0.02356682
10008.00   0.31549501   0.02681544
10010.00   0.33175898   0.03188397
10012.00   0.32866409   0.03372583
10014.00   0.30148736   0.03419807
10016.00   0.29655561   0.03375102
10018.00   0.32170025   0.03154608
10020.00   0.35364449   0.02902246
10022.00   0.37437868   0.02853609
10024.00   0.39579520   0.02949201
10026.00   0.38271716   0.02903706
10028.00   0.32801157   0.02791310
10030.00   0.29049256   0.02661042
10032.00   0.25684804   0.02455356
10034.00   0.23491411   0.02272904
10036.00   0.23630175   0.02208872
10038.00   0.25464016   0.02227456
10040.00   0.25417379   0.02246806
10042.00   0.23566945   0.02332589
10044.00   0.23782544   0.02358400
10046.00   0.25305825   0.02344401
10048.00   0.27518782   0.02326217
10050.00   0.31103104   0.02301922
10052.00   0.35017419   0.02280702
10054.00   0.35133216   0.02320810
10056.00   0.31534082   0.02395719
10058.00   0.29837334   0.02512358
10060.00   0.26962382   0.02693039
10062.00   0.26871702   0.02844685
10064.00   0.32347044   0.03011861
10066.00   0.38292095   0.03119051
10068.00   0.36446175   0.03000809
10070.00   0.28216955   0.02599478
10072.00   0.24855332   0.02501956
10074.00   0.21124557   0.02538593
10076.00   0.22104660   0.02721272
10078.00   0.30906019   0.03145663
10080.00   0.39430937   0.03495194
10082.00   0.39848977   0.03567495
10084.00   0.35250121   0.03483169
10086.00   0.33260882   0.03355521
10088.00   0.30656204   0.03036867
10090.00   0.29593465   0.02823286
10092.00   0.31639320   0.02660784
10094.00   0.31794190   0.02575539
10096.00   0.26186192   0.02593133
10098.00   0.17468344   0.02701193
10100.00   0.14734526   0.02877579
10102.00   0.15193525   0.03281825
10104.00   0.17335214   0.03342909
10106.00   0.24829197   0.03085885
10108.00   0.28831747   0.02912041
10110.00   0.25613502   0.02974692
10112.00   0.19547430   0.03131700
10114.00   0.17845771   0.03237239
10116.00   0.17093658   0.03344159
10118.00   0.20002252   0.03464320
10120.00   0.31279701   0.03631539
10122.00   0.34769648   0.03732027
10124.00   0.25376347   0.03783140
10126.00   0.14136541   0.03768598
10128.00   0.14552321   0.03625382
10130.00   0.22934234   0.03322680
10132.00   0.25090539   0.03143029
10134.00   0.23889042   0.02999789
10136.00   0.24596101   0.02909106
10138.00   0.27409214   0.02883712
10140.00   0.30188954   0.02904097
10142.00   0.31457373   0.02946047
10144.00   0.31903139   0.03017456
10146.00   0.32622987   0.03180959
10148.00   0.34275395   0.03522288
10150.00   0.33502200   0.03644622
10152.00   0.29799992   0.03612532
10154.00   0.26442304   0.03537054
10156.00   0.25105655   0.03429703
10158.00   0.24526532   0.03292593
10160.00   0.22389498   0.03283599
10162.00   0.19210218   0.03279650
10164.00   0.16137485   0.03512722
10166.00   0.09070556   0.04028491
10168.00   0.08499212   0.04378934
10170.00   0.20324968   0.04560535
10172.00   0.35501555   0.04627789
10174.00   0.38019219   0.04519989
10176.00   0.31999969   0.04156144
10178.00   0.28173560   0.03976790
10180.00   0.19318037   0.03819087
10182.00   0.16986807   0.03791278
10184.00   0.26107514   0.03981503
10186.00   0.34679106   0.04182319
10188.00   0.28471595   0.04191175
10190.00   0.11100613   0.04090304
10192.00   0.06610184   0.03996471
10194.00   0.08900148   0.03771567
10196.00   0.12361715   0.03717609
10198.00   0.19133028   0.03805688
10200.00   0.26343307   0.03991103
10202.00   0.32934782   0.04281165
10204.00   0.39438367   0.04645937
10206.00   0.38986811   0.04868682
10208.00   0.28509471   0.05094481
10210.00   0.26048648   0.05141988
10212.00   0.31803071   0.04990239
10214.00   0.33089089   0.04827783
10216.00   0.22134700   0.04662185
10218.00   0.06992117   0.04523620
10220.00   0.06967168   0.04699181
10222.00   0.18393099   0.05277519
10224.00   0.27724251   0.05411055
10226.00   0.46081284   0.05319369
10228.00   0.53379315   0.05166009
10230.00   0.42141721   0.04914228
10232.00   0.25627470   0.04616016
10234.00   0.22316208   0.04429861
10236.00   0.26687080   0.04282152
10238.00   0.27253571   0.04283748
10240.00   0.29669461   0.04581945
10242.00   0.27809906   0.04622902
10244.00   0.19258653   0.04327624
10246.00   0.10751098   0.03979369
10248.00   0.07996544   0.03865636
10250.00   0.08245909   0.03878233
10252.00   0.12696840   0.03956736
10254.00   0.26112103   0.04224944
10256.00   0.31988114   0.04328267
10258.00   0.30609751   0.04253984
10260.00   0.29439181   0.04230138
10262.00   0.33334374   0.04419896
10264.00   0.39120054   0.04699043
10266.00   0.37562260   0.04736947
10268.00   0.29931864   0.04547093
10270.00   0.22986393   0.04500745
10272.00   0.09354922   0.04440559
10274.00   0.03961099   0.04518066
10276.00   0.13984230   0.04597672
10278.00   0.30820805   0.04895998
10280.00   0.39206961   0.05987730
10282.00   0.49780703   0.07704820
10284.00   0.42405975   0.08506448
10286.00   0.08648024   0.09232787
10288.00   -0.08984786   0.09350972
10290.00   -0.02096126   0.08532960
10292.00   0.10622795   0.07352358
10294.00   0.09007291   0.06915796
10296.00   -0.01086046   0.06965366
10298.00   -0.01312503   0.06796518
10300.00   0.04147206   0.06691949
10302.00   0.09980065   0.06483079
10304.00   0.17717971   0.06037730
10306.00   0.25474292   0.05673811
10308.00   0.30974248   0.05765239
10310.00   0.35150254   0.06160397
10312.00   0.42676666   0.06182995
10314.00   0.61181182   0.05980756
10316.00   0.60713947   0.05833225
10318.00   0.41173950   0.05525504
10320.00   0.20251016   0.05442756
10322.00   0.02248826   0.05954673
10324.00   -0.14282154   0.06654198
10326.00   -0.15505187   0.06544870
10328.00   0.00174981   0.05469339
10330.00   0.09733357   0.05145574
10332.00   0.20430112   0.05225342
10334.00   0.31045079   0.05444006
10336.00   0.45576712   0.05810440
10338.00   0.57079977   0.06236450
10340.00   0.48089588   0.06518649
10342.00   0.14089844   0.06807413
10344.00   0.09525160   0.06836899
10346.00   0.30317730   0.06545241
10348.00   0.38312387   0.06371550
10350.00   0.30343652   0.06346367
10352.00   0.18072559   0.06367322
10354.00   0.09607608   0.06392439
10356.00   0.00183131   0.06473891
10358.00   0.00020296   0.06315274
10360.00   0.13723874   0.05705636
10362.00   0.16324823   0.05551453
10364.00   0.03504085   0.05597254
10366.00   -0.04341068   0.06145573
10368.00   0.09573945   0.07534455
10370.00   0.36456931   0.09211205
10372.00   0.40452296   0.09618049
10374.00   0.28540096   0.09163698
10376.00   0.18811996   0.08896013
10378.00   -0.00912532   0.08497736
10380.00   -0.10490387   0.08076759
10382.00   0.03161724   0.07635452
10384.00   0.26648995   0.07194988
10386.00   0.27151543   0.06996989
10388.00   0.08445890   0.07109956
10390.00   0.02607478   0.07019895
10392.00   -0.03952205   0.06808317
10394.00   -0.00013764   0.06674425
10396.00   0.23581727   0.06571895
10398.00   0.50318706   0.06605205
10400.00   0.52638513   0.07079916
10402.00   0.36144525   0.08086123
10404.00   0.32117546   0.08052863
10406.00   0.34557328   0.06955062
10408.00   0.31711382   0.06314921
10410.00   0.20650940   0.06243956
10412.00   0.10412194   0.06428349
10414.00   0.10106868   0.06753295
10416.00   0.16759542   0.07293899
10418.00   0.14729184   0.07379854
10420.00   0.03459097   0.07035191
10422.00   0.01383199   0.06945233
10424.00   0.10299813   0.07073905
10426.00   0.16725525   0.07187706
10428.00   0.11605383   0.07104181
10430.00   0.00740203   0.06947813
10432.00   0.00610442   0.07266163
10434.00   0.07246576   0.08414896
10436.00   0.14335246   0.08393174
10438.00   0.26888692   0.07236657
10440.00   0.36046812   0.06222575
10442.00   0.40759525   0.05984747
10444.00   0.41139671   0.06137947
10446.00   0.31821659   0.06272944
10448.00   0.05710883   0.06580503
10450.00   0.01113617   0.06868260
10452.00   0.11113434   0.07420679
10454.00   0.21788363   0.07558943
10456.00   0.35211486   0.06988592
10458.00   0.47847569   0.06290868
10460.00   0.51250857   0.06467064
10462.00   0.46654660   0.07228355
10464.00   0.49663678   0.07605874
10466.00   0.63556647   0.08151577
10468.00   0.62772268   0.08173569
10470.00   0.43079868   0.07492241
10472.00   0.22066997   0.06656820
10474.00   0.11986288   0.06210628
10476.00   0.06809457   0.05951270
10478.00   0.07450091   0.05822122
10480.00   0.18918338   0.05992198
10482.00   0.23949946   0.06028701
10484.00   0.25235742   0.06022934
10486.00   0.25806338   0.05992273
10488.00   0.26901993   0.05924699
10490.00   0.27654123   0.05832864
10492.00   0.26873600   0.05793633
10494.00   0.27206177   0.05747794
10496.00   0.21014653   0.05806211
10498.00   0.04408304   0.05985507
10500.00   -0.05511426   0.06137998
10502.00   -0.03794013   0.06265800
10504.00   0.03102570   0.06355089
10506.00   0.07256281   0.06305366
10508.00   0.11887531   0.06036708
10510.00   0.16563703   0.06102798
10512.00   0.21420456   0.06519915
10514.00   0.26453736   0.06704360
10516.00   0.32844377   0.06495707
10518.00   0.38116938   0.06333916
10520.00   0.38916960   0.06789177
10522.00   0.36032677   0.07679065
10524.00   0.35350573   0.07800756
10526.00   0.35676989   0.07387023
10528.00   0.34718335   0.07043471
10530.00   0.32940248   0.06588490
10532.00   0.30130205   0.06195498
10534.00   0.25055945   0.06066080
10536.00   0.18338878   0.06122068
10538.00   0.17682867   0.06141882
10540.00   0.23361853   0.06229645
10542.00   0.25660941   0.06293591
10544.00   0.26935878   0.06385378
10546.00   0.27390900   0.06429229
10548.00   0.28088063   0.06355727
10550.00   0.27626446   0.06240569
10552.00   0.20499317   0.06318809
10554.00   0.02060830   0.06619065
10556.00   -0.02517222   0.06686855
10558.00   -0.00106286   0.06601867
10560.00   0.07325719   0.06538101
10562.00   0.24620727   0.06522308
10564.00   0.42788649   0.06514662
10566.00   0.44145891   0.06480750
10568.00   0.31158671   0.06401671
10570.00   0.29716712   0.06455487
10572.00   0.37092933   0.06647868
10574.00   0.36835238   0.06782562
10576.00   0.25519955   0.06824360
10578.00   0.14167702   0.06899396
10580.00   0.11907918   0.07162929
10582.00   0.14424300   0.07573736
10584.00   0.22918864   0.07572532
10586.00   0.48449555   0.06994464
10588.00   0.54477769   0.06962306
10590.00   0.41632289   0.07550821
10592.00   0.25969964   0.08007722
10594.00   0.11327356   0.07984146
10596.00   -0.03485585   0.07715435
10598.00   0.05861360   0.07613388
10600.00   0.51773822   0.07416090
10602.00   0.63853812   0.07516374
10604.00   0.55030596   0.08136025
10606.00   0.42745197   0.08342392
10608.00   0.26973858   0.07724349
10610.00   0.10625732   0.06677099
10612.00   0.11766990   0.06301294
10614.00   0.29326111   0.06319421
10616.00   0.39046419   0.06483585
10618.00   0.51195854   0.07129783
10620.00   0.57452822   0.07428866
10622.00   0.58343714   0.07262826
10624.00   0.53120565   0.06966654
10626.00   0.37191454   0.06919810
10628.00   0.07523698   0.06982023
10630.00   -0.03321090   0.07054517
10632.00   -0.03118772   0.07356828
10634.00   -0.00098925   0.07304531
10636.00   0.09367206   0.06679998
10638.00   0.19391227   0.06082745
10640.00   0.24292809   0.06224254
10642.00   0.26621956   0.06815422
10644.00   0.31134784   0.06812319
10646.00   0.39230105   0.06406108
10648.00   0.41140980   0.06130423
10650.00   0.36463937   0.05820768
10652.00   0.31790489   0.05598332
10654.00   0.30075106   0.05575388
10656.00   0.29353002   0.05676026
10658.00   0.27726960   0.05676943
10660.00   0.23886871   0.05690669
10662.00   0.24687397   0.05609129
10664.00   0.31839988   0.05367976
10666.00   0.34970388   0.05219695
10668.00   0.30032060   0.05271026
10670.00   0.22613038   0.05387502
10672.00   0.21328937   0.05373798
10674.00   0.22925338   0.05305045
10676.00   0.26746202   0.05188997
10678.00   0.35719541   0.04832213
10680.00   0.41774073   0.04782678
10682.00   0.44647926   0.05217385
10684.00   0.45842075   0.05669714
10686.00   0.45836225   0.05761218
10688.00   0.43964693   0.05671191
10690.00   0.44013205   0.05510353
10692.00   0.45684779   0.05116481
10694.00   0.46037182   0.04830875
10696.00   0.46933767   0.04587410
10698.00   0.45057884   0.04444992
10700.00   0.35770485   0.04504308
10702.00   0.21370675   0.04715220
10704.00   0.20071647   0.04768450
10706.00   0.31723404   0.04797933
10708.00   0.36043346   0.04725252
10710.00   0.38227060   0.04474263
10712.00   0.37868041   0.04275303
10714.00   0.33167323   0.04254078
10716.00   0.26310930   0.04315119
10718.00   0.24992543   0.04292884
10720.00   0.28200772   0.04217225
10722.00   0.29030684   0.04204745
10724.00   0.29148543   0.04301765
10726.00   0.29707277   0.04278387
10728.00   0.30413020   0.04027287
10730.00   0.31859425   0.03704612
10732.00   0.35919869   0.03614391
10734.00   0.43792823   0.03704587
10736.00   0.44910601   0.03681710
10738.00   0.40158138   0.03656163
10740.00   0.36918119   0.03572031
10742.00   0.34469965   0.03336070
10744.00   0.32884389   0.03143265
10746.00   0.33136240   0.03271639
10748.00   0.35020643   0.03625992
10750.00   0.35677645   0.03657980
10752.00   0.36739308   0.03478769
10754.00   0.36037317   0.03338145
10756.00   0.32624680   0.03149271
10758.00   0.29877767   0.03001351
10760.00   0.30483222   0.03000805
10762.00   0.32718489   0.03085749
10764.00   0.30290949   0.02995539
10766.00   0.22070591   0.02675834
10768.00   0.19282831   0.02573815
10770.00   0.19799717   0.02670488
10772.00   0.21078977   0.02727222
10774.00   0.22407497   0.02673299
10776.00   0.24431394   0.02577010
10778.00   0.27746335   0.02518152
10780.00   0.33245945   0.02469383
10782.00   0.36312839   0.02421629
10784.00   0.40139169   0.02357076
10786.00   0.39550197   0.02336491
10788.00   0.30142546   0.02399598
10790.00   0.20699114   0.02466606
10792.00   0.24675924   0.02425318
10794.00   0.40290862   0.02283290
10796.00   0.42465216   0.02278551
10798.00   0.35432273   0.02438673
10800.00   0.30887464   0.02445980
10802.00   0.26899144   0.02263202
10804.00   0.24475594   0.02051521
10806.00   0.26062995   0.01960707
10808.00   0.30888811   0.01934296
10810.00   0.30358925   0.01952974
10812.00   0.24613963   0.02119546
10814.00   0.22630624   0.02116173
10816.00   0.22928347   0.01916687
10818.00   0.24239272   0.01748942
10820.00   0.26823485   0.01750474
