# File created by shivutils (I.Shivvers)
# 
# wl(A)   flm    er(optional)
3440.00   0.09336519   0.02378909
3442.00   0.12931775   0.02441116
3444.00   0.13236704   0.02385873
3446.00   0.16842832   0.02493910
3448.00   0.18268612   0.02616644
3450.00   0.16895415   0.02647447
3452.00   0.17357631   0.02773022
3454.00   0.19143823   0.02756070
3456.00   0.14081849   0.02648727
3458.00   0.10313740   0.02536700
3460.00   0.17746347   0.02591549
3462.00   0.19626859   0.02627965
3464.00   0.14374490   0.02599729
3466.00   0.17589338   0.02599437
3468.00   0.14568205   0.02533265
3470.00   0.20645307   0.02601666
3472.00   0.13886429   0.02502558
3474.00   0.16859448   0.02543358
3476.00   0.13283256   0.02478969
3478.00   0.15702179   0.02677975
3480.00   0.16643873   0.02796677
3482.00   0.13929085   0.02803926
3484.00   0.13168533   0.02730589
3486.00   0.15121566   0.02700052
3488.00   0.15685728   0.02644894
3490.00   0.17829853   0.02720739
3492.00   0.19034454   0.02654368
3494.00   0.16805552   0.02586151
3496.00   0.17793110   0.02590060
3498.00   0.17637631   0.02552789
3500.00   0.16741727   0.02495135
3502.00   0.17643470   0.02537123
3504.00   0.11143964   0.02408502
3506.00   0.16633944   0.02513771
3508.00   0.15150337   0.02438552
3510.00   0.18024409   0.02527855
3512.00   0.12952843   0.02427330
3514.00   0.17687343   0.02460906
3516.00   0.18805704   0.02495676
3518.00   0.14457844   0.02387111
3520.00   0.17413071   0.02504415
3522.00   0.11696320   0.02313801
3524.00   0.16812442   0.02387522
3526.00   0.16309650   0.02373400
3528.00   0.16302957   0.02355704
3530.00   0.13157587   0.02343213
3532.00   0.17523021   0.02448391
3534.00   0.17174305   0.02376654
3536.00   0.12249286   0.02287415
3538.00   0.17804779   0.02466338
3540.00   0.13829610   0.02504557
3542.00   0.16326785   0.02645383
3544.00   0.18715344   0.02726439
3546.00   0.18363670   0.02668351
3548.00   0.18455283   0.02655651
3550.00   0.16381672   0.02547914
3552.00   0.16751109   0.02617759
3554.00   0.16670810   0.02569915
3556.00   0.14250103   0.02515106
3558.00   0.15684693   0.02550471
3560.00   0.16980080   0.02479348
3562.00   0.16905831   0.02450106
3564.00   0.20355196   0.02445993
3566.00   0.18184440   0.02387819
3568.00   0.18897958   0.02405064
3570.00   0.16366832   0.02356256
3572.00   0.16054529   0.02329036
3574.00   0.16387847   0.02339693
3576.00   0.18727981   0.02357236
3578.00   0.16678979   0.02235585
3580.00   0.20088704   0.02300172
3582.00   0.14710669   0.02135332
3584.00   0.17845534   0.02131584
3586.00   0.17843522   0.02113113
3588.00   0.17193422   0.02167076
3590.00   0.15892473   0.02179364
3592.00   0.19376153   0.02185022
3594.00   0.18428679   0.02117795
3596.00   0.23023245   0.02175830
3598.00   0.17054619   0.02083278
3600.00   0.18741928   0.02067417
3602.00   0.17808668   0.02027645
3604.00   0.17290422   0.02015973
3606.00   0.16082306   0.01982033
3608.00   0.14524834   0.01973136
3610.00   0.16987060   0.02012449
3612.00   0.17927504   0.02103762
3614.00   0.17580383   0.02176653
3616.00   0.19381775   0.02187113
3618.00   0.14941251   0.02061315
3620.00   0.17963381   0.02046006
3622.00   0.15925236   0.02028760
3624.00   0.17422880   0.02033865
3626.00   0.17628472   0.02022403
3628.00   0.15759774   0.02083711
3630.00   0.21036500   0.02226275
3632.00   0.16319455   0.02149665
3634.00   0.13113715   0.02052598
3636.00   0.16325121   0.02099830
3638.00   0.17384411   0.02086962
3640.00   0.12348541   0.02074386
3642.00   0.15782437   0.02177175
3644.00   0.15116818   0.02067338
3646.00   0.18520197   0.02161424
3648.00   0.20101529   0.02736500
3650.00   0.10583000   0.02987343
3652.00   0.20134361   0.02882207
3654.00   0.21229883   0.02605638
3656.00   0.19552879   0.02395462
3658.00   0.20523424   0.02118870
3660.00   0.13104492   0.01999235
3662.00   0.14864217   0.02279514
3664.00   0.12744008   0.02178916
3666.00   0.16056913   0.02024229
3668.00   0.20091940   0.01812657
3670.00   0.19661258   0.01772670
3672.00   0.17994949   0.01755682
3674.00   0.18030886   0.01729360
3676.00   0.19447681   0.01709898
3678.00   0.19947918   0.01683106
3680.00   0.19012788   0.01677741
3682.00   0.18489693   0.01648466
3684.00   0.18714917   0.01640810
3686.00   0.20069580   0.01654047
3688.00   0.17972107   0.01622828
3690.00   0.17178656   0.01640471
3692.00   0.15604429   0.01606854
3694.00   0.21428247   0.01689473
3696.00   0.17078629   0.01625921
3698.00   0.18238062   0.01681772
3700.00   0.18638317   0.01691847
3702.00   0.16856998   0.01663788
3704.00   0.15589312   0.01613921
3706.00   0.18504125   0.01648038
3708.00   0.16699696   0.01620545
3710.00   0.22467466   0.01641375
3712.00   0.16181870   0.01561631
3714.00   0.20393699   0.01610695
3716.00   0.16366880   0.01549941
3718.00   0.19631772   0.01612599
3720.00   0.18618754   0.01568339
3722.00   0.19170527   0.01561381
3724.00   0.17095810   0.01535372
3726.00   0.17211956   0.01575199
3728.00   0.17182636   0.01577246
3730.00   0.18384311   0.01615964
3732.00   0.21364446   0.01635845
3734.00   0.17998737   0.01574576
3736.00   0.18402395   0.01582088
3738.00   0.20104288   0.01620754
3740.00   0.18667941   0.01661002
3742.00   0.17440742   0.01595778
3744.00   0.21646951   0.01601613
3746.00   0.21914925   0.01571719
3748.00   0.17146839   0.01528110
3750.00   0.17604285   0.01521290
3752.00   0.19335335   0.01545831
3754.00   0.16784549   0.01527494
3756.00   0.14222276   0.01461326
3758.00   0.17430136   0.01498349
3760.00   0.17642306   0.01483045
3762.00   0.16041522   0.01461824
3764.00   0.21018025   0.01519508
3766.00   0.19855013   0.01491277
3768.00   0.20229357   0.01484286
3770.00   0.17318937   0.01468271
3772.00   0.18496177   0.01488993
3774.00   0.21292406   0.01518586
3776.00   0.36425832   0.01729868
3778.00   0.43809325   0.01842002
3780.00   0.40280873   0.01776263
3782.00   0.28696656   0.01583145
3784.00   0.17104614   0.01441766
3786.00   0.17662746   0.01411178
3788.00   0.19012405   0.01447813
3790.00   0.19264904   0.01502900
3792.00   0.20138302   0.01502231
3794.00   0.22986898   0.01521872
3796.00   0.23343380   0.01505028
3798.00   0.19502562   0.01414578
3800.00   0.17459171   0.01417597
3802.00   0.20278378   0.01490379
3804.00   0.21408974   0.01487758
3806.00   0.23268773   0.01512684
3808.00   0.19764213   0.01441292
3810.00   0.23814982   0.01501697
3812.00   0.17926817   0.01444203
3814.00   0.22169575   0.01500101
3816.00   0.21849439   0.01477574
3818.00   0.21086262   0.01455263
3820.00   0.18732312   0.01441332
3822.00   0.22128035   0.01487077
3824.00   0.19625334   0.01431275
3826.00   0.18680976   0.01453783
3828.00   0.22924992   0.01577186
3830.00   0.24448770   0.01611781
3832.00   0.25529763   0.01592111
3834.00   0.25178212   0.01574781
3836.00   0.26030198   0.01573686
3838.00   0.21981120   0.01497505
3840.00   0.26595911   0.01548802
3842.00   0.21815677   0.01482487
3844.00   0.21898109   0.01472122
3846.00   0.18241671   0.01402550
3848.00   0.20816612   0.01422504
3850.00   0.18763265   0.01383677
3852.00   0.18252258   0.01358528
3854.00   0.22597705   0.01446496
3856.00   0.23543057   0.01419242
3858.00   0.26586100   0.01434692
3860.00   0.24463847   0.01448095
3862.00   0.26810363   0.01488823
3864.00   0.26770905   0.01479966
3866.00   0.25752619   0.01441825
3868.00   0.26352382   0.01440627
3870.00   0.24239767   0.01430775
3872.00   0.23439065   0.01456193
3874.00   0.25686401   0.01518356
3876.00   0.24481876   0.01477193
3878.00   0.24584183   0.01416694
3880.00   0.21810949   0.01384724
3882.00   0.21700382   0.01347314
3884.00   0.17328823   0.01301396
3886.00   0.18021172   0.01312438
3888.00   0.22404875   0.01367926
3890.00   0.17097703   0.01275867
3892.00   0.22720306   0.01380305
3894.00   0.21452354   0.01371424
3896.00   0.20791978   0.01382381
3898.00   0.23819213   0.01416422
3900.00   0.25821254   0.01461560
3902.00   0.26869625   0.01485026
3904.00   0.27259147   0.01566373
3906.00   0.25647137   0.01679912
3908.00   0.26955864   0.01757205
3910.00   0.27081177   0.01795491
3912.00   0.26304448   0.01769301
3914.00   0.28674647   0.01691778
3916.00   0.26045945   0.01581799
3918.00   0.28241771   0.01541092
3920.00   0.27239373   0.01486755
3922.00   0.29131997   0.01510228
3924.00   0.25304362   0.01440501
3926.00   0.26522675   0.01450454
3928.00   0.26166260   0.01422151
3930.00   0.24249215   0.01417802
3932.00   0.24148408   0.01451404
3934.00   0.22854450   0.01427038
3936.00   0.21671911   0.01363107
3938.00   0.21803460   0.01344772
3940.00   0.23167819   0.01399697
3942.00   0.23862498   0.01467735
3944.00   0.23745361   0.01481036
3946.00   0.21533947   0.01351989
3948.00   0.20150764   0.01283647
3950.00   0.22257839   0.01289169
3952.00   0.26581571   0.01339368
3954.00   0.25220498   0.01293622
3956.00   0.25087500   0.01295116
3958.00   0.29117322   0.01357025
3960.00   0.28725028   0.01404154
3962.00   0.29843643   0.01421480
3964.00   0.31236199   0.01361377
3966.00   0.29148838   0.01301076
3968.00   0.27058086   0.01290286
3970.00   0.27200708   0.01270956
3972.00   0.29186711   0.01304878
3974.00   0.28050449   0.01300897
3976.00   0.29477325   0.01313132
3978.00   0.27965373   0.01296264
3980.00   0.26937753   0.01295675
3982.00   0.25747722   0.01284376
3984.00   0.20710848   0.01205959
3986.00   0.17266999   0.01154501
3988.00   0.14341849   0.01123732
3990.00   0.18604378   0.01187639
3992.00   0.24463645   0.01256100
3994.00   0.27322483   0.01329400
3996.00   0.25052360   0.01350733
3998.00   0.27776772   0.01368800
4000.00   0.29144359   0.01342223
4002.00   0.27423465   0.01299014
4004.00   0.27222997   0.01292361
4006.00   0.25970912   0.01300685
4008.00   0.29251376   0.01365712
4010.00   0.29159811   0.01367724
4012.00   0.26042777   0.01322894
4014.00   0.27150586   0.01313989
4016.00   0.27668113   0.01379571
4018.00   0.20510194   0.01386320
4020.00   0.16791382   0.01473110
4022.00   0.13869506   0.01491131
4024.00   0.17852087   0.01473757
4026.00   0.20735054   0.01404197
4028.00   0.22452390   0.01342767
4030.00   0.24240679   0.01372949
4032.00   0.28838131   0.01399162
4034.00   0.26003960   0.01349119
4036.00   0.25946280   0.01341261
4038.00   0.28545368   0.01359802
4040.00   0.29732925   0.01382359
4042.00   0.29486430   0.01464712
4044.00   0.28945816   0.02156437
4046.00   0.30662063   0.02663089
4048.00   0.29290852   0.02351996
4050.00   0.29754919   0.01615823
4052.00   0.31660104   0.01476385
4054.00   0.30775881   0.01493432
4056.00   0.31031954   0.01462357
4058.00   0.29698098   0.01379828
4060.00   0.30238551   0.01353127
4062.00   0.29841954   0.01344126
4064.00   0.30478996   0.01354097
4066.00   0.29010528   0.01340533
4068.00   0.31957158   0.01369313
4070.00   0.33411187   0.01344755
4072.00   0.31419221   0.01320534
4074.00   0.30708000   0.01357899
4076.00   0.34148529   0.01537865
4078.00   0.32099274   0.01567493
4080.00   0.30625811   0.01477120
4082.00   0.30474120   0.01438456
4084.00   0.32601330   0.01442203
4086.00   0.32869044   0.01426580
4088.00   0.30308715   0.01355641
4090.00   0.34049922   0.01311715
4092.00   0.32140437   0.01294952
4094.00   0.32713157   0.01299541
4096.00   0.32720578   0.01292345
4098.00   0.32770410   0.01282455
4100.00   0.29650941   0.01253667
4102.00   0.33179870   0.01254178
4104.00   0.32340008   0.01246953
4106.00   0.33233678   0.01264184
4108.00   0.30731198   0.01251983
4110.00   0.31877032   0.01265647
4112.00   0.28991729   0.01222354
4114.00   0.31718743   0.01262768
4116.00   0.32653633   0.01264446
4118.00   0.32014906   0.01228433
4120.00   0.31592253   0.01220831
4122.00   0.34907183   0.01266060
4124.00   0.30692676   0.01231493
4126.00   0.30588114   0.01239669
4128.00   0.30118957   0.01226028
4130.00   0.32231486   0.01275984
4132.00   0.30595762   0.01299964
4134.00   0.29533714   0.01278557
4136.00   0.34831628   0.01297840
4138.00   0.31935680   0.01289355
4140.00   0.31297854   0.01305908
4142.00   0.29966435   0.01252308
4144.00   0.30142516   0.01199542
4146.00   0.29577217   0.01197588
4148.00   0.29440382   0.01220485
4150.00   0.27702135   0.01236981
4152.00   0.23754892   0.01241006
4154.00   0.27803797   0.01249725
4156.00   0.31041700   0.01247042
4158.00   0.30082831   0.01217202
4160.00   0.28191775   0.01217559
4162.00   0.26374474   0.01249603
4164.00   0.28279987   0.01336620
4166.00   0.29782623   0.01330455
4168.00   0.28161329   0.01238789
4170.00   0.29142383   0.01226938
4172.00   0.32086140   0.01239294
4174.00   0.31824714   0.01209462
4176.00   0.31603181   0.01213807
4178.00   0.31107110   0.01230053
4180.00   0.31466421   0.01212882
4182.00   0.31962970   0.01190805
4184.00   0.31272590   0.01184297
4186.00   0.30359599   0.01184303
4188.00   0.29674232   0.01177016
4190.00   0.32148665   0.01193269
4192.00   0.31737387   0.01195104
4194.00   0.32679224   0.01190303
4196.00   0.31791523   0.01172649
4198.00   0.32131046   0.01168479
4200.00   0.32377687   0.01170250
4202.00   0.29973331   0.01149526
4204.00   0.32069570   0.01192930
4206.00   0.31586775   0.01206084
4208.00   0.32251695   0.01219660
4210.00   0.32362372   0.01238501
4212.00   0.33729798   0.01242840
4214.00   0.33247459   0.01224632
4216.00   0.30458701   0.01188844
4218.00   0.32559326   0.01217105
4220.00   0.33706117   0.01216889
4222.00   0.32630628   0.01205270
4224.00   0.34096888   0.01214506
4226.00   0.30841121   0.01194759
4228.00   0.31882939   0.01180199
4230.00   0.31044009   0.01200260
4232.00   0.32013279   0.01225561
4234.00   0.31166068   0.01228334
4236.00   0.32606032   0.01244279
4238.00   0.33250165   0.01268546
4240.00   0.32572040   0.01221255
4242.00   0.34104457   0.01216763
4244.00   0.33985907   0.01316987
4246.00   0.33003011   0.01412062
4248.00   0.33207044   0.01373298
4250.00   0.33329993   0.01249279
4252.00   0.34670374   0.01225351
4254.00   0.30542547   0.01188750
4256.00   0.29486299   0.01201829
4258.00   0.34121510   0.01230560
4260.00   0.36716092   0.01239297
4262.00   0.33929512   0.01194256
4264.00   0.33540508   0.01190325
4266.00   0.33662495   0.01233360
4268.00   0.32492858   0.01217767
4270.00   0.35275179   0.01215107
4272.00   0.33926815   0.01204007
4274.00   0.34540999   0.01208638
4276.00   0.33833191   0.01209968
4278.00   0.34493789   0.01215938
4280.00   0.33007559   0.01207756
4282.00   0.33608106   0.01203663
4284.00   0.29641649   0.01172644
4286.00   0.32807419   0.01188677
4288.00   0.34341806   0.01200190
4290.00   0.34883091   0.01148949
4292.00   0.33336291   0.01124640
4294.00   0.31824532   0.01114298
4296.00   0.34025988   0.01124406
4298.00   0.32809845   0.01113817
4300.00   0.32645401   0.01102156
4302.00   0.35163906   0.01112635
4304.00   0.34175768   0.01124175
4306.00   0.34277621   0.01127149
4308.00   0.33456996   0.01124228
4310.00   0.31815135   0.01137090
4312.00   0.34552634   0.01221328
4314.00   0.33602881   0.01249027
4316.00   0.33218014   0.01196429
4318.00   0.34065154   0.01189905
4320.00   0.35749874   0.01252906
4322.00   0.37257501   0.01253536
4324.00   0.36423868   0.01209922
4326.00   0.36247453   0.01189281
4328.00   0.33274940   0.01126732
4330.00   0.32814941   0.01112748
4332.00   0.33989701   0.01116327
4334.00   0.33955699   0.01126788
4336.00   0.34844524   0.01148293
4338.00   0.35312048   0.01168016
4340.00   0.32063282   0.01150456
4342.00   0.35736644   0.01174103
4344.00   0.31689778   0.01165705
4346.00   0.33833897   0.01238675
4348.00   0.31491771   0.01227551
4350.00   0.31287271   0.01185450
4352.00   0.34099206   0.01186839
4354.00   0.34870008   0.01410179
4356.00   0.28444245   0.02358430
4358.00   0.29790083   0.02766866
4360.00   0.35043183   0.02271664
4362.00   0.28637195   0.01460465
4364.00   0.31650633   0.01260274
4366.00   0.29729301   0.01209831
4368.00   0.31319097   0.01196925
4370.00   0.31255960   0.01196040
4372.00   0.31837234   0.01225854
4374.00   0.33481106   0.01254356
4376.00   0.35665193   0.01246328
4378.00   0.34715104   0.01179987
4380.00   0.35845929   0.01175532
4382.00   0.32496017   0.01151588
4384.00   0.30748853   0.01124842
4386.00   0.33147472   0.01124466
4388.00   0.30103576   0.01112935
4390.00   0.34315279   0.01145247
4392.00   0.32615632   0.01141031
4394.00   0.31797123   0.01104152
4396.00   0.33850864   0.01125119
4398.00   0.43146390   0.01236011
4400.00   0.48114839   0.01345567
4402.00   0.33500651   0.01174969
4404.00   0.32442904   0.01134538
4406.00   0.30295765   0.01124694
4408.00   0.32194877   0.01137518
4410.00   0.30246589   0.01123263
4412.00   0.29644340   0.01133160
4414.00   0.32331836   0.01186461
4416.00   0.34988937   0.01202523
4418.00   0.34246993   0.01165387
4420.00   0.35490039   0.01166489
4422.00   0.35410580   0.01164397
4424.00   0.36849567   0.01164080
4426.00   0.34244871   0.01146408
4428.00   0.36049539   0.01159244
4430.00   0.35322315   0.01159161
4432.00   0.34928069   0.01153407
4434.00   0.34132248   0.01128596
4436.00   0.34719822   0.01134847
4438.00   0.37100872   0.01159096
4440.00   0.35665503   0.01149190
4442.00   0.33350542   0.01122341
4444.00   0.30670747   0.01116122
4446.00   0.31272382   0.01121349
4448.00   0.33321851   0.01115535
4450.00   0.33862597   0.01124873
4452.00   0.35703245   0.01127250
4454.00   0.35773882   0.01137323
4456.00   0.36474943   0.01140225
4458.00   0.36539125   0.01153082
4460.00   0.35469624   0.01130456
4462.00   0.34210619   0.01124036
4464.00   0.35860068   0.01127734
4466.00   0.32224014   0.01111266
4468.00   0.37163806   0.01133583
4470.00   0.36849585   0.01137787
4472.00   0.35396820   0.01123151
4474.00   0.36351737   0.01136501
4476.00   0.33922935   0.01117332
4478.00   0.35155272   0.01125484
4480.00   0.34571555   0.01118261
4482.00   0.33784226   0.01119165
4484.00   0.36617208   0.01139499
4486.00   0.35930112   0.01141208
4488.00   0.35623613   0.01134989
4490.00   0.36582485   0.01142486
4492.00   0.35759538   0.01145579
4494.00   0.36263743   0.01148006
4496.00   0.35061026   0.01139207
4498.00   0.36463505   0.01160439
4500.00   0.40242475   0.01172965
4502.00   0.36612567   0.01137834
4504.00   0.34333089   0.01120926
4506.00   0.34349418   0.01125904
4508.00   0.37605488   0.01143690
4510.00   0.38495860   0.01147947
4512.00   0.38775691   0.01150512
4514.00   0.35576212   0.01125483
4516.00   0.38091350   0.01135797
4518.00   0.36486423   0.01114447
4520.00   0.37313291   0.01124284
4522.00   0.36874887   0.01122669
4524.00   0.39564940   0.01134647
4526.00   0.39129356   0.01127756
4528.00   0.36218414   0.01110722
4530.00   0.35700521   0.01158560
4532.00   0.36414945   0.01133171
4534.00   0.36036319   0.01117246
4536.00   0.40324718   0.01140836
4538.00   0.38539511   0.01131470
4540.00   0.35539827   0.01101993
4542.00   0.34974542   0.01120965
4544.00   0.36919901   0.01141625
4546.00   0.36301246   0.01131034
4548.00   0.41609302   0.01151966
4550.00   0.37524548   0.01117777
4552.00   0.37356383   0.01115531
4554.00   0.37747329   0.01118538
4556.00   0.39297161   0.01131982
4558.00   0.37734240   0.01122621
4560.00   0.38509250   0.01117534
4562.00   0.36602849   0.01095733
4564.00   0.39968282   0.01119600
4566.00   0.39102224   0.01111788
4568.00   0.38671196   0.01112070
4570.00   0.40542847   0.01117280
4572.00   0.39978021   0.01121318
4574.00   0.39184976   0.01118261
4576.00   0.38349128   0.01109048
4578.00   0.39927432   0.01114847
4580.00   0.38752231   0.01105916
4582.00   0.36855102   0.01094023
4584.00   0.38705739   0.01115887
4586.00   0.38450241   0.01115975
4588.00   0.37344843   0.01102364
4590.00   0.36140829   0.01102443
4592.00   0.36200738   0.01095161
4594.00   0.35534167   0.01096519
4596.00   0.38445067   0.01110651
4598.00   0.40222287   0.01121681
4600.00   0.40088558   0.01116963
4602.00   0.38733503   0.01103618
4604.00   0.38665348   0.01107873
4606.00   0.39844784   0.01120156
4608.00   0.38626760   0.01111422
4610.00   0.38393706   0.01116062
4612.00   0.38865533   0.01111770
4614.00   0.35946503   0.01078951
4616.00   0.37472883   0.01083216
4618.00   0.37939638   0.01089073
4620.00   0.38129485   0.01096541
4622.00   0.40595677   0.01109991
4624.00   0.39488265   0.01101545
4626.00   0.38510084   0.01094606
4628.00   0.39937237   0.01104477
4630.00   0.38911849   0.01096892
4632.00   0.39058942   0.01096634
4634.00   0.40513411   0.01108827
4636.00   0.40058678   0.01101114
4638.00   0.41552970   0.01131047
4640.00   0.39285317   0.01102700
4642.00   0.38051641   0.01080716
4644.00   0.37586564   0.01080840
4646.00   0.35517287   0.01065667
4648.00   0.40889001   0.01098373
4650.00   0.36971948   0.01082256
4652.00   0.36557397   0.01081036
4654.00   0.37823263   0.01092792
4656.00   0.37308502   0.01100022
4658.00   0.39163402   0.01116766
4660.00   0.38284191   0.01126997
4662.00   0.38818237   0.01142126
4664.00   0.39985758   0.01158962
4666.00   0.38764676   0.01161836
4668.00   0.38590845   0.01188556
4670.00   0.41300902   0.01205820
4672.00   0.39855462   0.01188808
4674.00   0.42039558   0.01183629
4676.00   0.38072774   0.01140803
4678.00   0.40680423   0.01142133
4680.00   0.40875128   0.01074304
4682.00   0.39996061   0.01049889
4684.00   0.41209221   0.01055953
4686.00   0.41184187   0.01045989
4688.00   0.40333006   0.01037308
4690.00   0.39332682   0.01026261
4692.00   0.39378047   0.01027689
4694.00   0.41688240   0.01038239
4696.00   0.42329335   0.01038610
4698.00   0.39404967   0.01013249
4700.00   0.41281283   0.01018189
4702.00   0.43124208   0.01044809
4704.00   0.39695466   0.01031558
4706.00   0.37586251   0.01021268
4708.00   0.39662537   0.01042756
4710.00   0.39018002   0.01037525
4712.00   0.39309746   0.01035008
4714.00   0.38427639   0.01031085
4716.00   0.37991717   0.01020214
4718.00   0.41769305   0.01038423
4720.00   0.42750147   0.01046975
4722.00   0.40446752   0.01031960
4724.00   0.40608615   0.01031363
4726.00   0.42607915   0.01075405
4728.00   0.39267409   0.01092737
4730.00   0.38120231   0.01090174
4732.00   0.37649000   0.01075422
4734.00   0.40276682   0.01111232
4736.00   0.38544708   0.01123381
4738.00   0.39713258   0.01151911
4740.00   0.40239456   0.01170584
4742.00   0.39465353   0.01192096
4744.00   0.40265411   0.01161928
4746.00   0.41330034   0.01097561
4748.00   0.40153545   0.01042407
4750.00   0.40598372   0.01055385
4752.00   0.39904776   0.01071485
4754.00   0.41693005   0.01058678
4756.00   0.40690288   0.01030175
4758.00   0.39339870   0.00999762
4760.00   0.41768423   0.01004220
4762.00   0.40037990   0.00988095
4764.00   0.38972479   0.00978674
4766.00   0.37939101   0.00969245
4768.00   0.38280782   0.00967087
4770.00   0.40495101   0.00977606
4772.00   0.40809581   0.00978844
4774.00   0.40171492   0.00981758
4776.00   0.38556910   0.00989104
4778.00   0.39815325   0.01017673
4780.00   0.40977520   0.01029420
4782.00   0.43233442   0.01016686
4784.00   0.41664225   0.00987919
4786.00   0.41401905   0.00992862
4788.00   0.43849391   0.01012432
4790.00   0.42135251   0.01008239
4792.00   0.40187794   0.00989146
4794.00   0.40434495   0.00979687
4796.00   0.40592417   0.00983497
4798.00   0.41198137   0.00982069
4800.00   0.39479852   0.00967590
4802.00   0.40733850   0.00985298
4804.00   0.38224804   0.00962420
4806.00   0.39998525   0.00977945
4808.00   0.41075331   0.00984866
4810.00   0.42012483   0.00997330
4812.00   0.40295139   0.00988958
4814.00   0.40304008   0.00993136
4816.00   0.41385499   0.00992113
4818.00   0.39343700   0.00981229
4820.00   0.41254219   0.01008391
4822.00   0.40662345   0.01000827
4824.00   0.40510276   0.00999376
4826.00   0.39306167   0.01003231
4828.00   0.40173984   0.01006173
4830.00   0.39607841   0.01003382
4832.00   0.41223904   0.01019952
4834.00   0.43140772   0.01027711
4836.00   0.42768934   0.01029766
4838.00   0.41535261   0.01043200
4840.00   0.42003715   0.01048792
4842.00   0.44020188   0.01044292
4844.00   0.41016611   0.01013500
4846.00   0.40966773   0.01023830
4848.00   0.40439799   0.01020151
4850.00   0.40252656   0.01014371
4852.00   0.41098276   0.01016994
4854.00   0.41101894   0.01007291
4856.00   0.42007384   0.01003021
4858.00   0.42095348   0.01004384
4860.00   0.43494940   0.01025135
4862.00   0.43510023   0.01029602
4864.00   0.41700789   0.01017885
4866.00   0.42283615   0.01016384
4868.00   0.42355826   0.01019589
4870.00   0.41797721   0.01007897
4872.00   0.40799484   0.01001864
4874.00   0.41005430   0.01028944
4876.00   0.39798096   0.01035842
4878.00   0.43327725   0.01036311
4880.00   0.42394009   0.01029906
4882.00   0.42049250   0.01020148
4884.00   0.43678725   0.01019548
4886.00   0.42827144   0.01006880
4888.00   0.41803551   0.01005244
4890.00   0.41101438   0.00998440
4892.00   0.39019027   0.00991529
4894.00   0.39823157   0.00996284
4896.00   0.41318518   0.01001171
4898.00   0.42912641   0.01001789
4900.00   0.39599019   0.00981983
4902.00   0.41108358   0.00989394
4904.00   0.39424270   0.00976105
4906.00   0.39848095   0.00990533
4908.00   0.41090468   0.01000702
4910.00   0.41944695   0.01008707
4912.00   0.40405291   0.00997785
4914.00   0.39168519   0.00983116
4916.00   0.37574485   0.00995043
4918.00   0.37028024   0.00964594
4920.00   0.36164555   0.00958194
4922.00   0.37559563   0.00958873
4924.00   0.48154631   0.01240154
4926.00   0.51766264   0.01930435
4928.00   0.89427298   0.01663182
4930.00   0.74946135   0.01266293
4932.00   0.43707037   0.00994231
4934.00   0.34698859   0.00940785
4936.00   0.35646671   0.00945990
4938.00   0.36654428   0.00952032
4940.00   0.35444072   0.00952009
4942.00   0.36907521   0.00958018
4944.00   0.38421685   0.00961161
4946.00   0.40172595   0.00971803
4948.00   0.37698823   0.00954673
4950.00   0.39039522   0.00973321
4952.00   0.39191639   0.00985674
4954.00   0.38716584   0.00991863
4956.00   0.40437093   0.00992964
4958.00   0.36629382   0.00957169
4960.00   0.38426682   0.00975914
4962.00   0.41011176   0.00992289
4964.00   0.42455050   0.01011534
4966.00   0.42182249   0.01012609
4968.00   0.43849108   0.01027263
4970.00   0.42608902   0.01036174
4972.00   0.41678354   0.01054639
4974.00   0.43093818   0.01086884
4976.00   0.43474784   0.01114915
4978.00   0.41245267   0.01146913
4980.00   0.40145406   0.01179653
4982.00   0.40103665   0.01206076
4984.00   0.42296076   0.01205885
4986.00   0.41075370   0.01165604
4988.00   0.39202443   0.01112456
4990.00   0.41186583   0.01099847
4992.00   0.37269998   0.01055570
4994.00   0.40932465   0.01054929
4996.00   0.43223223   0.01044262
4998.00   0.43540916   0.01026445
5000.00   0.42922696   0.01018154
5002.00   0.43497896   0.01029402
5004.00   0.40798351   0.01010631
5006.00   0.42568591   0.01018694
5008.00   0.42229852   0.01003919
5010.00   0.40819281   0.00994902
5012.00   0.42093229   0.01002940
5014.00   0.41009828   0.00998342
5016.00   0.43295878   0.01020299
5018.00   0.44601312   0.01037649
5020.00   0.44247463   0.01039353
5022.00   0.43707612   0.01029022
5024.00   0.44141772   0.01026288
5026.00   0.43515015   0.01015245
5028.00   0.44025940   0.01027530
5030.00   0.43664917   0.01037837
5032.00   0.41572696   0.01020353
5034.00   0.42204311   0.01006259
5036.00   0.42341298   0.00998584
5038.00   0.40586063   0.00983679
5040.00   0.45010096   0.01019417
5042.00   0.42494151   0.01001858
5044.00   0.41528678   0.00999646
5046.00   0.42535311   0.01002486
5048.00   0.40877154   0.00994379
5050.00   0.39372566   0.00986374
5052.00   0.42654493   0.01005064
5054.00   0.41513044   0.00999284
5056.00   0.41015807   0.00996007
5058.00   0.43748194   0.01013637
5060.00   0.39550766   0.00995041
5062.00   0.41234490   0.01028291
5064.00   0.42024902   0.01049362
5066.00   0.41131562   0.01050180
5068.00   0.41600755   0.01087160
5070.00   0.43532756   0.01102341
5072.00   0.46211779   0.01100470
5074.00   0.50047493   0.01113589
5076.00   0.50783592   0.01111218
5078.00   0.49474972   0.01128895
5080.00   0.45125467   0.01176192
5082.00   0.43383104   0.01253590
5084.00   0.43078378   0.01291190
5086.00   0.41815594   0.01268151
5088.00   0.42691270   0.01210139
5090.00   0.40663505   0.01115508
5092.00   0.42231628   0.01073944
5094.00   0.43199304   0.01071002
5096.00   0.41407552   0.01078603
5098.00   0.40868601   0.01114213
5100.00   0.41428855   0.01119390
5102.00   0.43680775   0.01095944
5104.00   0.43529311   0.01062020
5106.00   0.44051978   0.01053267
5108.00   0.41321570   0.01014312
5110.00   0.40657905   0.00959358
5112.00   0.43251088   0.00984384
5114.00   0.41996458   0.00985533
5116.00   0.42398879   0.00992201
5118.00   0.43824095   0.00994186
5120.00   0.42621955   0.00971670
5122.00   0.44417405   0.00980441
5124.00   0.43286869   0.00972235
5126.00   0.44976521   0.00983360
5128.00   0.43848154   0.00971959
5130.00   0.44010118   0.00980417
5132.00   0.43086100   0.00976290
5134.00   0.44494036   0.00984480
5136.00   0.43880033   0.00980806
5138.00   0.42529416   0.00974799
5140.00   0.41574118   0.00966711
5142.00   0.43267328   0.00983707
5144.00   0.43146577   0.00987490
5146.00   0.45630586   0.01009661
5148.00   0.41639316   0.01009089
5150.00   0.42490023   0.01031130
5152.00   0.42205265   0.01055420
5154.00   0.43792930   0.01071977
5156.00   0.45024157   0.01062521
5158.00   0.45127133   0.01045822
5160.00   0.45218125   0.01034719
5162.00   0.46527842   0.01030121
5164.00   0.45063680   0.01015915
5166.00   0.41654530   0.00984411
5168.00   0.42952797   0.00988507
5170.00   0.44512486   0.01000510
5172.00   0.43245950   0.00990625
5174.00   0.43173856   0.00999605
5176.00   0.44283846   0.01008034
5178.00   0.43490252   0.01014026
5180.00   0.45247322   0.01011266
5182.00   0.44255987   0.01008193
5184.00   0.43642351   0.01010205
5186.00   0.44549310   0.01018880
5188.00   0.44411257   0.01017772
5190.00   0.45105460   0.01032466
5192.00   0.43739617   0.01023399
5194.00   0.45226538   0.01040664
5196.00   0.44043571   0.01053035
5198.00   0.43142566   0.01058578
5200.00   0.43581736   0.01059704
5202.00   0.44871241   0.01052814
5204.00   0.44614872   0.01044480
5206.00   0.42768276   0.01031794
5208.00   0.42973194   0.01053417
5210.00   0.45079017   0.01078658
5212.00   0.43417755   0.01073100
5214.00   0.41116682   0.01035994
5216.00   0.39962968   0.01033583
5218.00   0.42989403   0.01068868
5220.00   0.44642732   0.01085818
5222.00   0.42679808   0.01058217
5224.00   0.44512773   0.01066882
5226.00   0.44228688   0.01062511
5228.00   0.44133541   0.01063633
5230.00   0.45825249   0.01087036
5232.00   0.45804673   0.01081009
5234.00   0.45369720   0.01078397
5236.00   0.39742473   0.01040313
5238.00   0.39422169   0.01052311
5240.00   0.39983758   0.01053700
5242.00   0.41543427   0.01063371
5244.00   0.42432734   0.01067241
5246.00   0.42216143   0.01070005
5248.00   0.42788479   0.01069843
5250.00   0.44217819   0.01087141
5252.00   0.43594116   0.01079539
5254.00   0.42003539   0.01080435
5256.00   0.40917021   0.01086890
5258.00   0.44869781   0.01130981
5260.00   0.44711992   0.01120297
5262.00   0.44021645   0.01102832
5264.00   0.42973807   0.01091519
5266.00   0.43893081   0.01099157
5268.00   0.46253794   0.01122191
5270.00   0.47640038   0.01136563
5272.00   0.47642961   0.01138463
5274.00   0.46234462   0.01139489
5276.00   0.47512043   0.01149724
5278.00   0.43043378   0.01116563
5280.00   0.43517026   0.01119704
5282.00   0.44600424   0.01132775
5284.00   0.45841813   0.01162532
5286.00   0.45242152   0.01166276
5288.00   0.43013731   0.01142517
5290.00   0.45474327   0.01162849
5292.00   0.44802067   0.01156556
5294.00   0.49076363   0.01190612
5296.00   0.45810753   0.01165694
5298.00   0.43752474   0.01161879
5300.00   0.45723569   0.01173013
5302.00   0.46642160   0.01194737
5304.00   0.48275712   0.01206666
5306.00   0.46276057   0.01187401
5308.00   0.44892421   0.01188727
5310.00   0.47488046   0.01212925
5312.00   0.46912280   0.01210177
5314.00   0.46475774   0.01216227
5316.00   0.47232780   0.01215473
5318.00   0.47356540   0.01218513
5320.00   0.43739969   0.01199609
5322.00   0.44864607   0.01209572
5324.00   0.44926029   0.01217494
5326.00   0.47584298   0.01244825
5328.00   0.46124163   0.01238802
5330.00   0.48356771   0.01253676
5332.00   0.49120957   0.01271223
5334.00   0.47352734   0.01252097
5336.00   0.44800243   0.01247527
5338.00   0.43897957   0.01262455
5340.00   0.43987030   0.01266936
5342.00   0.43945807   0.01273180
5344.00   0.46526101   0.01293676
5346.00   0.47398099   0.01318862
5348.00   0.45372918   0.01326218
5350.00   0.48438624   0.01363599
5352.00   0.48239329   0.01354144
5354.00   0.45898697   0.01363539
5356.00   0.47009039   0.01379559
5358.00   0.48930719   0.01364422
5360.00   0.49481955   0.01352258
5362.00   0.49865282   0.01341326
5364.00   0.48555091   0.01330870
5366.00   0.47872040   0.01327364
5368.00   0.48122427   0.01329012
5370.00   0.47823134   0.01336709
5372.00   0.47898892   0.01345248
5374.00   0.47311068   0.01377661
5376.00   0.50452459   0.01403595
5378.00   0.49267858   0.01389466
5380.00   0.50444275   0.01394314
5382.00   0.52759594   0.01413846
5384.00   0.50329566   0.01398172
5386.00   0.48747107   0.01392326
5388.00   0.50046563   0.01410741
5390.00   0.51648194   0.01455884
5392.00   0.51103014   0.01467540
5394.00   0.48900822   0.01450255
5396.00   0.48192590   0.01432042
5398.00   0.46874014   0.01429864
5400.00   0.45932901   0.01422757
5402.00   0.48325276   0.01435463
5404.00   0.44953176   0.01433763
5406.00   0.46225044   0.01449911
5408.00   0.52059889   0.01509136
5410.00   0.52708036   0.01523794
5412.00   0.48621514   0.01524276
5414.00   0.48285881   0.01544874
5416.00   0.49403116   0.01575497
5418.00   0.46362969   0.01565068
5420.00   0.46370977   0.01567659
5422.00   0.49032459   0.01602388
5424.00   0.48841417   0.01604624
5426.00   0.52142471   0.01629256
5428.00   0.50020736   0.01591868
5430.00   0.49446911   0.01598666
5432.00   0.52017790   0.01627918
5434.00   0.50165904   0.01605546
5436.00   0.46772885   0.01601934
5438.00   0.46907982   0.01607452
5440.00   0.50865263   0.01635761
5442.00   0.47728190   0.01635392
5444.00   0.49893484   0.00586937
5446.00   0.50132006   0.00594244
5448.00   0.49377346   0.00571591
5450.00   0.48548615   0.00555705
5452.00   0.48266453   0.00576533
5454.00   0.48228297   0.00617750
5456.00   0.48449877   0.00672688
5458.00   0.49523887   0.00772202
5460.00   0.49517918   0.00807351
5462.00   0.48224744   0.00798501
5464.00   0.47245747   0.00772076
5466.00   0.47553402   0.00731280
5468.00   0.48438030   0.00672880
5470.00   0.48125038   0.00633810
5472.00   0.46661505   0.00604884
5474.00   0.46052760   0.00579200
5476.00   0.45637110   0.00552356
5478.00   0.45627013   0.00545358
5480.00   0.46183398   0.00577243
5482.00   0.47076389   0.00618131
5484.00   0.47858116   0.00614297
5486.00   0.48896560   0.00576767
5488.00   0.49340144   0.00549766
5490.00   0.49114874   0.00505546
5492.00   0.49205562   0.00482872
5494.00   0.49969608   0.00493839
5496.00   0.50613087   0.00516553
5498.00   0.50108176   0.00532055
5500.00   0.48640177   0.00553549
5502.00   0.48017532   0.00545025
5504.00   0.47616792   0.00490057
5506.00   0.47559115   0.00470467
5508.00   0.47986880   0.00494022
5510.00   0.48529992   0.00521943
5512.00   0.48897052   0.00533375
5514.00   0.49226260   0.00539799
5516.00   0.49666977   0.00534432
5518.00   0.50542742   0.00510358
5520.00   0.50638217   0.00496033
5522.00   0.49788061   0.00486548
5524.00   0.49120724   0.00479073
5526.00   0.49167407   0.00471506
5528.00   0.49561062   0.00465837
5530.00   0.49829456   0.00469624
5532.00   0.50502962   0.00489603
5534.00   0.50355166   0.00492657
5536.00   0.49314526   0.00485950
5538.00   0.48582608   0.00477243
5540.00   0.48455080   0.00463749
5542.00   0.48587069   0.00450673
5544.00   0.48688942   0.00454698
5546.00   0.49103561   0.00469997
5548.00   0.48788866   0.00492141
5550.00   0.47475517   0.00541591
5552.00   0.46905988   0.00557291
5554.00   0.47257498   0.00528935
5556.00   0.47998208   0.00485972
5558.00   0.48765150   0.00463437
5560.00   0.49838942   0.00446332
5562.00   0.50294006   0.00445256
5564.00   0.50400227   0.00444964
5566.00   0.50252658   0.00482483
5568.00   0.49341366   0.00547924
5570.00   0.48830250   0.00627663
5572.00   0.49801770   0.00729832
5574.00   0.51768547   0.00843773
5576.00   0.52702671   0.00866628
5578.00   0.53559756   0.00820801
5580.00   0.53491467   0.00777514
5582.00   0.52253395   0.00704870
5584.00   0.50989151   0.00629367
5586.00   0.50087994   0.00564954
5588.00   0.49323767   0.00506260
5590.00   0.48921734   0.00466755
5592.00   0.48776871   0.00457518
5594.00   0.48968342   0.00445344
5596.00   0.49767518   0.00443871
5598.00   0.50353062   0.00445359
5600.00   0.50581366   0.00449989
5602.00   0.50611454   0.00456519
5604.00   0.50475389   0.00459578
5606.00   0.50039268   0.00460725
5608.00   0.49873859   0.00462864
5610.00   0.49698678   0.00468138
5612.00   0.49819374   0.00467524
5614.00   0.50370485   0.00456637
5616.00   0.51035255   0.00445322
5618.00   0.51464963   0.00446392
5620.00   0.51799363   0.00456472
5622.00   0.52147627   0.00458050
5624.00   0.52557731   0.00453067
5626.00   0.52768707   0.00453448
5628.00   0.52790475   0.00462843
5630.00   0.52697074   0.00467996
5632.00   0.52491790   0.00457531
5634.00   0.52168053   0.00436152
5636.00   0.52017528   0.00430075
5638.00   0.52012897   0.00435546
5640.00   0.51914328   0.00436755
5642.00   0.51665157   0.00437362
5644.00   0.51563334   0.00437769
5646.00   0.51846731   0.00437048
5648.00   0.52285385   0.00436328
5650.00   0.52174759   0.00440603
5652.00   0.51564640   0.00450898
5654.00   0.51203984   0.00456512
5656.00   0.50675857   0.00457165
5658.00   0.50523084   0.00462824
5660.00   0.51039714   0.00478845
5662.00   0.51760298   0.00495844
5664.00   0.51868522   0.00498307
5666.00   0.51486361   0.00485583
5668.00   0.51610172   0.00492823
5670.00   0.52161407   0.00518230
5672.00   0.52448529   0.00532649
5674.00   0.52323699   0.00533647
5676.00   0.52198398   0.00532391
5678.00   0.52524507   0.00537837
5680.00   0.53193343   0.00545430
5682.00   0.53398526   0.00559115
5684.00   0.53467250   0.00578119
5686.00   0.53202438   0.00599120
5688.00   0.52155006   0.00630741
5690.00   0.51479518   0.00652492
5692.00   0.52167392   0.00652690
5694.00   0.53714091   0.00638175
5696.00   0.54153413   0.00610315
5698.00   0.53897148   0.00545366
5700.00   0.53833205   0.00508320
5702.00   0.53811270   0.00488439
5704.00   0.53648746   0.00482182
5706.00   0.53157640   0.00497166
5708.00   0.52544391   0.00522406
5710.00   0.52487034   0.00516766
5712.00   0.52849418   0.00479588
5714.00   0.53210127   0.00467037
5716.00   0.53945518   0.00470173
5718.00   0.54349971   0.00469488
5720.00   0.54208559   0.00460529
5722.00   0.53857142   0.00449615
5724.00   0.53741556   0.00444017
5726.00   0.53703845   0.00441934
5728.00   0.53634214   0.00438478
5730.00   0.53602535   0.00434731
5732.00   0.53502667   0.00432064
5734.00   0.53283566   0.00428464
5736.00   0.53072315   0.00428069
5738.00   0.52986234   0.00435277
5740.00   0.52961916   0.00447625
5742.00   0.53100282   0.00466454
5744.00   0.53397048   0.00499485
5746.00   0.53760934   0.00517657
5748.00   0.54248559   0.00525102
5750.00   0.54761457   0.00527359
5752.00   0.55286884   0.00525586
5754.00   0.55829549   0.00519205
5756.00   0.56020409   0.00516674
5758.00   0.55924177   0.00518523
5760.00   0.55752200   0.00513333
5762.00   0.55208218   0.00497357
5764.00   0.54933566   0.00487537
5766.00   0.55280781   0.00493402
5768.00   0.55907315   0.00506027
5770.00   0.56074524   0.00507769
5772.00   0.56091660   0.00505804
5774.00   0.55832893   0.00498283
5776.00   0.55095422   0.00473540
5778.00   0.54561979   0.00465038
5780.00   0.54311115   0.00486068
5782.00   0.54231840   0.00513889
5784.00   0.54304326   0.00520318
5786.00   0.54540700   0.00513895
5788.00   0.54919446   0.00514605
5790.00   0.55796975   0.00514839
5792.00   0.56121522   0.00518551
5794.00   0.55636001   0.00531605
5796.00   0.55099505   0.00540158
5798.00   0.55265361   0.00528487
5800.00   0.55873376   0.00499978
5802.00   0.56050545   0.00485084
5804.00   0.56018877   0.00474729
5806.00   0.55990708   0.00467476
5808.00   0.55836624   0.00466376
5810.00   0.55778003   0.00465203
5812.00   0.56054121   0.00459543
5814.00   0.56522864   0.00451759
5816.00   0.56433672   0.00446962
5818.00   0.55766541   0.00443261
5820.00   0.55460984   0.00441198
5822.00   0.55272233   0.00439134
5824.00   0.55198008   0.00441146
5826.00   0.55200464   0.00448741
5828.00   0.55334157   0.00460281
5830.00   0.55820310   0.00474275
5832.00   0.57045972   0.00500534
5834.00   0.57201415   0.00502078
5836.00   0.56214815   0.00476265
5838.00   0.55850542   0.00462751
5840.00   0.56661844   0.00473523
5842.00   0.57667363   0.00489030
5844.00   0.57541806   0.00485450
5846.00   0.56594938   0.00465099
5848.00   0.56120777   0.00468761
5850.00   0.55574107   0.00492167
5852.00   0.55366158   0.00507968
5854.00   0.55953890   0.00519304
5856.00   0.56243527   0.00526433
5858.00   0.54896408   0.00527506
5860.00   0.52239752   0.00523559
5862.00   0.51676601   0.00513804
5864.00   0.52740425   0.00484579
5866.00   0.53312898   0.00478466
5868.00   0.53870791   0.00501974
5870.00   0.54235011   0.00519734
5872.00   0.54240501   0.00506314
5874.00   0.53981447   0.00476928
5876.00   0.53564835   0.00499340
5878.00   0.52408481   0.00565145
5880.00   0.52325201   0.00607318
5882.00   0.53221530   0.00626157
5884.00   0.54043639   0.00673525
5886.00   0.54580462   0.00773773
5888.00   0.54948443   0.00879720
5890.00   0.54816967   0.00922856
5892.00   0.53803480   0.00939863
5894.00   0.53915387   0.00925666
5896.00   0.54994839   0.00862276
5898.00   0.55747807   0.00797629
5900.00   0.56102026   0.00730651
5902.00   0.56187397   0.00662569
5904.00   0.55834746   0.00615273
5906.00   0.54798204   0.00591181
5908.00   0.54909021   0.00552131
5910.00   0.56181592   0.00494388
5912.00   0.56804353   0.00462765
5914.00   0.56800580   0.00469408
5916.00   0.56551158   0.00487840
5918.00   0.56187129   0.00500129
5920.00   0.55583906   0.00516395
5922.00   0.55577958   0.00511553
5924.00   0.56257135   0.00479200
5926.00   0.56446820   0.00464716
5928.00   0.56276274   0.00463280
5930.00   0.56004632   0.00467110
5932.00   0.55706817   0.00474750
5934.00   0.55349040   0.00486331
5936.00   0.55142981   0.00491267
5938.00   0.54943299   0.00495440
5940.00   0.54984635   0.00492253
5942.00   0.55265146   0.00476706
5944.00   0.55615556   0.00466593
5946.00   0.55854070   0.00470602
5948.00   0.56222713   0.00479501
5950.00   0.57389665   0.00476621
5952.00   0.59716880   0.00460327
5954.00   0.60696059   0.00462712
5956.00   0.61303854   0.00482459
5958.00   0.60925329   0.00494406
5960.00   0.59600991   0.00497986
5962.00   0.57262522   0.00495958
5964.00   0.53601438   0.00487178
5966.00   0.48511088   0.00470741
5968.00   0.43427488   0.00452146
5970.00   0.36044824   0.00420442
5972.00   0.32005113   0.00401001
5974.00   0.31417376   0.00389037
5976.00   0.32551876   0.00392752
5978.00   0.34367108   0.00426771
5980.00   0.37408584   0.00482565
5982.00   0.40898916   0.00497258
5984.00   0.46022472   0.00489598
5986.00   0.49817806   0.00477410
5988.00   0.53012604   0.00447067
5990.00   0.55315411   0.00420212
5992.00   0.56306982   0.00413207
5994.00   0.56302434   0.00417485
5996.00   0.56707090   0.00416193
5998.00   0.57174927   0.00416024
6000.00   0.57181823   0.00414732
6002.00   0.56512445   0.00412448
6004.00   0.56153935   0.00410515
6006.00   0.56493765   0.00409463
6008.00   0.57092267   0.00408706
6010.00   0.57252651   0.00407306
6012.00   0.57246178   0.00405513
6014.00   0.57058859   0.00403774
6016.00   0.56588107   0.00397212
6018.00   0.56144226   0.00399588
6020.00   0.55617291   0.00418784
6022.00   0.55211520   0.00437476
6024.00   0.55334425   0.00434247
6026.00   0.55955029   0.00413880
6028.00   0.56165552   0.00404301
6030.00   0.56180054   0.00396072
6032.00   0.56234980   0.00391335
6034.00   0.56239635   0.00391560
6036.00   0.56333041   0.00393124
6038.00   0.56709868   0.00392466
6040.00   0.57310152   0.00390945
6042.00   0.57519412   0.00394986
6044.00   0.57484418   0.00408854
6046.00   0.57401770   0.00411302
6048.00   0.57255578   0.00399322
6050.00   0.56979471   0.00392217
6052.00   0.56478989   0.00404319
6054.00   0.55836028   0.00424396
6056.00   0.55458069   0.00421753
6058.00   0.55051559   0.00395477
6060.00   0.55112284   0.00385073
6062.00   0.55882251   0.00381219
6064.00   0.56307739   0.00379832
6066.00   0.55904955   0.00378757
6068.00   0.55288070   0.00380855
6070.00   0.55603439   0.00392571
6072.00   0.56920671   0.00420519
6074.00   0.57021040   0.00421910
6076.00   0.56008339   0.00396737
6078.00   0.55569196   0.00383741
6080.00   0.56000477   0.00390202
6082.00   0.56606579   0.00401365
6084.00   0.56734979   0.00403694
6086.00   0.56731212   0.00401707
6088.00   0.56139898   0.00404899
6090.00   0.54361796   0.00416052
6092.00   0.53697342   0.00416910
6094.00   0.54112828   0.00399888
6096.00   0.54969680   0.00387714
6098.00   0.55991751   0.00403135
6100.00   0.57353061   0.00435136
6102.00   0.58182985   0.00446678
6104.00   0.59038186   0.00451568
6106.00   0.59074670   0.00449192
6108.00   0.57891327   0.00430061
6110.00   0.56989652   0.00417940
6112.00   0.57069623   0.00426972
6114.00   0.57674009   0.00447111
6116.00   0.58382154   0.00462466
6118.00   0.60067701   0.00492090
6120.00   0.60288197   0.00490561
6122.00   0.59267163   0.00454214
6124.00   0.58368891   0.00428157
6126.00   0.57801414   0.00433069
6128.00   0.57402462   0.00445930
6130.00   0.57380027   0.00431070
6132.00   0.57845253   0.00386710
6134.00   0.57940143   0.00373998
6136.00   0.57882863   0.00385340
6138.00   0.57809877   0.00393290
6140.00   0.57653469   0.00399432
6142.00   0.57539868   0.00403213
6144.00   0.57673007   0.00398791
6146.00   0.58003736   0.00385868
6148.00   0.58250308   0.00383540
6150.00   0.58651906   0.00387793
6152.00   0.58750021   0.00392302
6154.00   0.58526617   0.00395974
6156.00   0.58177674   0.00403357
6158.00   0.57779890   0.00420534
6160.00   0.57281703   0.00444362
6162.00   0.57078242   0.00447842
6164.00   0.57063359   0.00438434
6166.00   0.57143044   0.00423511
6168.00   0.57442904   0.00390844
6170.00   0.57695132   0.00363389
6172.00   0.57789689   0.00356445
6174.00   0.57796365   0.00361530
6176.00   0.57726264   0.00363869
6178.00   0.57487249   0.00371935
6180.00   0.57383144   0.00374797
6182.00   0.57394195   0.00376895
6184.00   0.57325524   0.00375080
6186.00   0.57005912   0.00364172
6188.00   0.56699896   0.00351962
6190.00   0.56974709   0.00357774
6192.00   0.57891101   0.00381150
6194.00   0.58137995   0.00387020
6196.00   0.58004612   0.00383739
6198.00   0.57836217   0.00380112
6200.00   0.57577872   0.00373498
6202.00   0.57306242   0.00368309
6204.00   0.57173830   0.00372795
6206.00   0.57134867   0.00385488
6208.00   0.57028055   0.00388419
6210.00   0.56834340   0.00383446
6212.00   0.56776404   0.00383439
6214.00   0.56869686   0.00390757
6216.00   0.56997657   0.00395119
6218.00   0.57098782   0.00388732
6220.00   0.57206184   0.00374967
6222.00   0.57233626   0.00365353
6224.00   0.57195336   0.00352806
6226.00   0.57141644   0.00347630
6228.00   0.57025284   0.00350130
6230.00   0.56937987   0.00353951
6232.00   0.56971329   0.00357451
6234.00   0.57036054   0.00361340
6236.00   0.56827062   0.00362357
6238.00   0.56491655   0.00360466
6240.00   0.55904871   0.00360110
6242.00   0.54758376   0.00357472
6244.00   0.54017085   0.00359524
6246.00   0.53860790   0.00370279
6248.00   0.54073453   0.00382935
6250.00   0.54576826   0.00386812
6252.00   0.55678374   0.00386514
6254.00   0.56056601   0.00381636
6256.00   0.55992246   0.00361297
6258.00   0.55872577   0.00357254
6260.00   0.55633914   0.00379909
6262.00   0.55359417   0.00402584
6264.00   0.55176651   0.00400880
6266.00   0.55003464   0.00383572
6268.00   0.55055320   0.00371501
6270.00   0.55516106   0.00349473
6272.00   0.55590278   0.00342871
6274.00   0.55322832   0.00355580
6276.00   0.54912114   0.00369768
6278.00   0.54348552   0.00376149
6280.00   0.53626519   0.00379900
6282.00   0.53615475   0.00377559
6284.00   0.54239315   0.00364829
6286.00   0.54761994   0.00359276
6288.00   0.55573320   0.00354649
6290.00   0.56122887   0.00356598
6292.00   0.56039554   0.00369006
6294.00   0.55669391   0.00387317
6296.00   0.55921072   0.00401708
6298.00   0.56819540   0.00420997
6300.00   0.57063997   0.00426737
6302.00   0.56916785   0.00423991
6304.00   0.56732339   0.00415416
6306.00   0.56553555   0.00397678
6308.00   0.56332523   0.00375280
6310.00   0.56079316   0.00360615
6312.00   0.55769426   0.00349515
6314.00   0.55504447   0.00341164
6316.00   0.55140567   0.00336080
6318.00   0.55012107   0.00334587
6320.00   0.55083519   0.00331838
6322.00   0.55379105   0.00338217
6324.00   0.56054342   0.00369885
6326.00   0.57164842   0.00421787
6328.00   0.57577950   0.00429243
6330.00   0.57789403   0.00403694
6332.00   0.57410651   0.00383188
6334.00   0.55896538   0.00356182
6336.00   0.54717499   0.00333601
6338.00   0.55002701   0.00328284
6340.00   0.56161755   0.00335111
6342.00   0.56543785   0.00338428
6344.00   0.56509137   0.00347007
6346.00   0.56761175   0.00349594
6348.00   0.57402629   0.00343015
6350.00   0.57698750   0.00343286
6352.00   0.57235330   0.00357936
6354.00   0.56406665   0.00379100
6356.00   0.56124955   0.00394818
6358.00   0.56421912   0.00414521
6360.00   0.55926514   0.00420615
6362.00   0.54637074   0.00419116
6364.00   0.53720874   0.00409531
6366.00   0.53287297   0.00384388
6368.00   0.53207821   0.00354042
6370.00   0.53573716   0.00344478
6372.00   0.54371703   0.00348574
6374.00   0.55479717   0.00357736
6376.00   0.57171106   0.00384438
6378.00   0.58740979   0.00396693
6380.00   0.60480583   0.00391166
6382.00   0.61887062   0.00383196
6384.00   0.62303573   0.00388628
6386.00   0.61958879   0.00402705
6388.00   0.61531430   0.00399379
6390.00   0.60592592   0.00381742
6392.00   0.59788442   0.00365996
6394.00   0.58955908   0.00343750
6396.00   0.58211827   0.00327585
6398.00   0.57592177   0.00329257
6400.00   0.57081693   0.00342948
6402.00   0.57064265   0.00354265
6404.00   0.58087069   0.00378859
6406.00   0.57896209   0.00380417
6408.00   0.56336313   0.00354109
6410.00   0.55359495   0.00337209
6412.00   0.55832070   0.00352483
6414.00   0.56952131   0.00377660
6416.00   0.57323617   0.00371984
6418.00   0.57245082   0.00333009
6420.00   0.57566220   0.00325090
6422.00   0.58270359   0.00339669
6424.00   0.58677047   0.00349213
6426.00   0.58673841   0.00352368
6428.00   0.58441132   0.00351584
6430.00   0.58072978   0.00342934
6432.00   0.57325172   0.00321871
6434.00   0.57307416   0.00318139
6436.00   0.57980442   0.00328208
6438.00   0.58407515   0.00335664
6440.00   0.58586228   0.00343584
6442.00   0.58710039   0.00348736
6444.00   0.58920771   0.00343536
6446.00   0.59186381   0.00327859
6448.00   0.59145504   0.00338091
6450.00   0.58902752   0.00374794
6452.00   0.58506656   0.00392513
6454.00   0.57573920   0.00402811
6456.00   0.57022464   0.00402548
6458.00   0.57588851   0.00383339
6460.00   0.58837909   0.00348000
6462.00   0.59236485   0.00334657
6464.00   0.59327352   0.00337129
6466.00   0.59098804   0.00337335
6468.00   0.58231246   0.00337773
6470.00   0.57587105   0.00344585
6472.00   0.57494587   0.00365492
6474.00   0.57652396   0.00388785
6476.00   0.57648838   0.00385958
6478.00   0.57507598   0.00354616
6480.00   0.57740706   0.00345583
6482.00   0.58384681   0.00336941
6484.00   0.58891946   0.00349788
6486.00   0.59293908   0.00399860
6488.00   0.59522033   0.00447404
6490.00   0.59297717   0.00448199
6492.00   0.58606499   0.00415045
6494.00   0.58177090   0.00393536
6496.00   0.57766670   0.00353908
6498.00   0.57411391   0.00339908
6500.00   0.56954253   0.00366875
6502.00   0.56734431   0.00394448
6504.00   0.57175523   0.00392599
6506.00   0.58166665   0.00374447
6508.00   0.58652133   0.00361059
6510.00   0.58951396   0.00340443
6512.00   0.59168577   0.00327005
6514.00   0.59300643   0.00316108
6516.00   0.59305084   0.00314264
6518.00   0.59105021   0.00329310
6520.00   0.58755958   0.00354378
6522.00   0.58637387   0.00363412
6524.00   0.58604437   0.00366661
6526.00   0.58692431   0.00363668
6528.00   0.59102809   0.00345509
6530.00   0.59267622   0.00335619
6532.00   0.58903217   0.00347087
6534.00   0.58323050   0.00365446
6536.00   0.58146369   0.00364982
6538.00   0.58229405   0.00347362
6540.00   0.58206254   0.00345603
6542.00   0.58214027   0.00354838
6544.00   0.58177942   0.00360523
6546.00   0.58013284   0.00361012
6548.00   0.57882154   0.00359877
6550.00   0.58031255   0.00359402
6552.00   0.58374834   0.00357477
6554.00   0.58813173   0.00360948
6556.00   0.59637803   0.00371657
6558.00   0.60057622   0.00376911
6560.00   0.60151607   0.00375699
6562.00   0.59939891   0.00373883
6564.00   0.59241694   0.00376544
6566.00   0.58040279   0.00381746
6568.00   0.57763982   0.00382433
6570.00   0.58299065   0.00379844
6572.00   0.58476764   0.00377652
6574.00   0.58608919   0.00368056
6576.00   0.58506393   0.00368649
6578.00   0.57904583   0.00397132
6580.00   0.56996727   0.00436994
6582.00   0.56724572   0.00435242
6584.00   0.57023090   0.00387536
6586.00   0.56987023   0.00371733
6588.00   0.56456912   0.00369537
6590.00   0.56545961   0.00377058
6592.00   0.57866573   0.00402651
6594.00   0.59677964   0.00430440
6596.00   0.60486352   0.00420955
6598.00   0.60986012   0.00371760
6600.00   0.60672873   0.00348234
6602.00   0.59006697   0.00329959
6604.00   0.57996213   0.00323952
6606.00   0.57919079   0.00337321
6608.00   0.58184254   0.00356266
6610.00   0.58296669   0.00364303
6612.00   0.58490950   0.00369973
6614.00   0.58601117   0.00366415
6616.00   0.58539933   0.00348043
6618.00   0.58736813   0.00337548
6620.00   0.59186912   0.00323717
6622.00   0.59783900   0.00327212
6624.00   0.60041451   0.00368004
6626.00   0.59942329   0.00429147
6628.00   0.63570994   0.00481617
6630.00   0.71770459   0.00554625
6632.00   0.77404636   0.00584467
6634.00   0.82804251   0.00546499
6636.00   0.85868585   0.00551702
6638.00   0.78739971   0.00640803
6640.00   0.68371946   0.00767591
6642.00   0.96412539   0.00936105
6644.00   1.76595402   0.01192772
6646.00   2.12540984   0.01295226
6648.00   2.27684069   0.01322999
6650.00   2.32783365   0.01330229
6652.00   2.29228067   0.01336962
6654.00   2.16429257   0.01319850
6656.00   1.97452283   0.01232700
6658.00   1.67000270   0.01035057
6660.00   1.42521489   0.00888800
6662.00   1.09758139   0.00688466
6664.00   0.94653547   0.00599726
6666.00   1.06050420   0.00747825
6668.00   1.25209272   0.00916134
6670.00   1.29634416   0.00951865
6672.00   1.27972972   0.00936049
6674.00   1.26154447   0.00895727
6676.00   1.23927546   0.00785934
6678.00   1.16206181   0.00689672
6680.00   1.00326705   0.00597757
6682.00   0.83908832   0.00510266
6684.00   0.72514564   0.00440357
6686.00   0.63311481   0.00393018
6688.00   0.58949113   0.00351640
6690.00   0.61214721   0.00338616
6692.00   0.61437923   0.00324068
6694.00   0.61415541   0.00314202
6696.00   0.61370444   0.00313098
6698.00   0.61277604   0.00326049
6700.00   0.61149639   0.00347043
6702.00   0.60952067   0.00352666
6704.00   0.60433859   0.00349925
6706.00   0.60484886   0.00345777
6708.00   0.61138225   0.00331687
6710.00   0.61593062   0.00324896
6712.00   0.61655241   0.00334577
6714.00   0.61525410   0.00348664
6716.00   0.61344528   0.00346711
6718.00   0.61026818   0.00330810
6720.00   0.60707808   0.00326472
6722.00   0.60289735   0.00323142
6724.00   0.59936702   0.00329404
6726.00   0.59564900   0.00353492
6728.00   0.59331554   0.00375594
6730.00   0.59520566   0.00372680
6732.00   0.60111415   0.00349744
6734.00   0.60396814   0.00343359
6736.00   0.60638636   0.00347838
6738.00   0.60733265   0.00345577
6740.00   0.60650140   0.00336090
6742.00   0.60493433   0.00325662
6744.00   0.60303426   0.00317855
6746.00   0.60048264   0.00310775
6748.00   0.60026610   0.00311134
6750.00   0.60229844   0.00307917
6752.00   0.60355866   0.00329266
6754.00   0.60374933   0.00381962
6756.00   0.60537201   0.00419265
6758.00   0.61008078   0.00430350
6760.00   0.61655700   0.00426730
6762.00   0.62105775   0.00408465
6764.00   0.62672192   0.00352149
6766.00   0.62748414   0.00325093
6768.00   0.62399632   0.00314867
6770.00   0.61941093   0.00311487
6772.00   0.61133391   0.00312511
6774.00   0.60410029   0.00320795
6776.00   0.61042953   0.00338484
6778.00   0.63440955   0.00367288
6780.00   0.63500088   0.00387957
6782.00   0.61550784   0.00418825
6784.00   0.60352767   0.00424909
6786.00   0.60025227   0.00394800
6788.00   0.60067654   0.00353015
6790.00   0.60166055   0.00332899
6792.00   0.60328805   0.00318196
6794.00   0.61508060   0.00341800
6796.00   0.61702460   0.00394696
6798.00   0.66167086   0.00450054
6800.00   0.76411068   0.00519644
6802.00   0.87080044   0.00577370
6804.00   0.95254147   0.00612225
6806.00   1.02572465   0.00635253
6808.00   1.03032649   0.00640967
6810.00   0.94630086   0.00631938
6812.00   0.90593010   0.00608394
6814.00   0.87352151   0.00540854
6816.00   0.86193269   0.00495110
6818.00   0.89305496   0.00524712
6820.00   0.94517094   0.00587031
6822.00   0.93285710   0.00600520
6824.00   0.87106651   0.00602336
6826.00   0.81636113   0.00575614
6828.00   0.73614347   0.00495176
6830.00   0.67442483   0.00423321
6832.00   0.64156997   0.00388066
6834.00   0.62471312   0.00371645
6836.00   0.61191809   0.00349597
6838.00   0.61003512   0.00332660
6840.00   0.60908139   0.00321327
6842.00   0.61579078   0.00313120
6844.00   0.61940634   0.00317749
6846.00   0.61950260   0.00345804
6848.00   0.61821353   0.00370785
6850.00   0.61678910   0.00365359
6852.00   0.61477017   0.00336612
6854.00   0.61144429   0.00324895
6856.00   0.60447174   0.00316760
6858.00   0.60187608   0.00315318
6860.00   0.60174054   0.00321105
6862.00   0.60563552   0.00331736
6864.00   0.61706489   0.00345573
6866.00   0.63455635   0.00362831
6868.00   0.64121938   0.00382877
6870.00   0.64296049   0.00418342
6872.00   0.63949353   0.00426487
6874.00   0.62764305   0.00412623
6876.00   0.61585093   0.00392505
6878.00   0.60571301   0.00365876
6880.00   0.59699577   0.00334085
6882.00   0.59750110   0.00331019
6884.00   0.60627234   0.00351177
6886.00   0.61650050   0.00373439
6888.00   0.63687700   0.00416214
6890.00   0.64874446   0.00439430
6892.00   0.64627868   0.00435117
6894.00   0.63793153   0.00419516
6896.00   0.63526505   0.00415070
6898.00   0.63485610   0.00415928
6900.00   0.63094211   0.00407718
6902.00   0.62187642   0.00392058
6904.00   0.61790103   0.00375979
6906.00   0.62109214   0.00356134
6908.00   0.62564272   0.00338019
6910.00   0.62582678   0.00330088
6912.00   0.62378860   0.00329288
6914.00   0.62295526   0.00337500
6916.00   0.62187499   0.00367143
6918.00   0.62157941   0.00374618
6920.00   0.62286985   0.00360013
6922.00   0.62342256   0.00341992
6924.00   0.62123930   0.00332494
6926.00   0.61732596   0.00325814
6928.00   0.61577129   0.00322253
6930.00   0.61611009   0.00321525
6932.00   0.61521637   0.00324772
6934.00   0.61368912   0.00334636
6936.00   0.61197853   0.00342927
6938.00   0.60953838   0.00347840
6940.00   0.60713530   0.00350426
6942.00   0.60825145   0.00347288
6944.00   0.61260033   0.00334718
6946.00   0.61652619   0.00330208
6948.00   0.62411600   0.00331046
6950.00   0.62693596   0.00330624
6952.00   0.62131065   0.00327427
6954.00   0.61317641   0.00323629
6956.00   0.61189306   0.00321621
6958.00   0.61516732   0.00320575
6960.00   0.61557209   0.00319962
6962.00   0.61403143   0.00318236
6964.00   0.61473691   0.00320533
6966.00   0.61915767   0.00330160
6968.00   0.62346828   0.00338773
6970.00   0.62382400   0.00337610
6972.00   0.62178057   0.00329457
6974.00   0.61894941   0.00325826
6976.00   0.60993320   0.00319329
6978.00   0.61005700   0.00321424
6980.00   0.62212580   0.00331385
6982.00   0.63294965   0.00345407
6984.00   0.63342386   0.00366242
6986.00   0.62840259   0.00391099
6988.00   0.62909400   0.00387604
6990.00   0.63532227   0.00350619
6992.00   0.63478017   0.00332322
6994.00   0.62694794   0.00321921
6996.00   0.62144178   0.00316582
6998.00   0.62157911   0.00317251
7000.00   0.62482303   0.00322516
7002.00   0.62960422   0.00325197
7004.00   0.64061302   0.00328872
7006.00   0.64251131   0.00330167
7008.00   0.63630223   0.00327988
7010.00   0.63220382   0.00328376
7012.00   0.63233119   0.00334516
7014.00   0.63335824   0.00340773
7016.00   0.63164771   0.00338225
7018.00   0.62749201   0.00327514
7020.00   0.62711656   0.00323817
7022.00   0.62942660   0.00323151
7024.00   0.63182658   0.00323505
7026.00   0.63513988   0.00324564
7028.00   0.63806754   0.00327367
7030.00   0.63907272   0.00334031
7032.00   0.63890570   0.00344769
7034.00   0.63703942   0.00345195
7036.00   0.63234490   0.00335634
7038.00   0.62894493   0.00330255
7040.00   0.62623429   0.00327017
7042.00   0.62386477   0.00324890
7044.00   0.62125641   0.00323742
7046.00   0.61877543   0.00323662
7048.00   0.61995733   0.00324280
7050.00   0.62412465   0.00324250
7052.00   0.62941593   0.00328437
7054.00   0.63972920   0.00339941
7056.00   0.64597988   0.00346617
7058.00   0.64423180   0.00341844
7060.00   0.63816488   0.00332763
7062.00   0.63368577   0.00337014
7064.00   0.62664968   0.00356475
7066.00   0.62444144   0.00357484
7068.00   0.62607306   0.00344152
7070.00   0.62800884   0.00333856
7072.00   0.63030344   0.00328791
7074.00   0.63275045   0.00326229
7076.00   0.63400763   0.00325939
7078.00   0.63417518   0.00328877
7080.00   0.63572317   0.00330452
7082.00   0.63881516   0.00330792
7084.00   0.64059883   0.00333884
7086.00   0.64127588   0.00342739
7088.00   0.64100540   0.00349594
7090.00   0.63952833   0.00346529
7092.00   0.63680226   0.00336010
7094.00   0.63468486   0.00330806
7096.00   0.63287395   0.00326392
7098.00   0.63036644   0.00323923
7100.00   0.62605852   0.00319354
7102.00   0.62313616   0.00322254
7104.00   0.62342143   0.00341999
7106.00   0.62589288   0.00370434
7108.00   0.62984437   0.00378922
7110.00   0.63905615   0.00376839
7112.00   0.64177781   0.00370601
7114.00   0.63839227   0.00350757
7116.00   0.63628709   0.00336435
7118.00   0.63892168   0.00337664
7120.00   0.64267427   0.00345319
7122.00   0.64044660   0.00343462
7124.00   0.63119864   0.00335328
7126.00   0.62959391   0.00331666
7128.00   0.63315403   0.00326979
7130.00   0.63624507   0.00327874
7132.00   0.63866919   0.00337095
7134.00   0.64075077   0.00349014
7136.00   0.64128095   0.00356886
7138.00   0.63913995   0.00364102
7140.00   0.64364564   0.00368076
7142.00   0.65876460   0.00368351
7144.00   0.66347134   0.00369192
7146.00   0.65586376   0.00373188
7148.00   0.64511400   0.00373577
7150.00   0.63784820   0.00361658
7152.00   0.63077664   0.00338203
7154.00   0.62641114   0.00332821
7156.00   0.62375093   0.00340407
7158.00   0.62331033   0.00347727
7160.00   0.62524968   0.00362304
7162.00   0.62891835   0.00371302
7164.00   0.63502604   0.00364500
7166.00   0.64291346   0.00348453
7168.00   0.64578766   0.00350933
7170.00   0.64446080   0.00369496
7172.00   0.64427155   0.00378717
7174.00   0.64328969   0.00389177
7176.00   0.64278036   0.00391757
7178.00   0.64257926   0.00378690
7180.00   0.64315617   0.00359125
7182.00   0.64701056   0.00359748
7184.00   0.65718323   0.00380485
7186.00   0.65751082   0.00381113
7188.00   0.64900506   0.00368582
7190.00   0.64293480   0.00358191
7192.00   0.63949358   0.00347899
7194.00   0.63816595   0.00341910
7196.00   0.64103252   0.00352751
7198.00   0.64902550   0.00381067
7200.00   0.65125912   0.00384882
7202.00   0.65019673   0.00371548
7204.00   0.64891565   0.00361148
7206.00   0.64730483   0.00350961
7208.00   0.64481670   0.00342056
7210.00   0.64133745   0.00337613
7212.00   0.63702273   0.00336715
7214.00   0.63035578   0.00334011
7216.00   0.61738139   0.00330152
7218.00   0.61241633   0.00328816
7220.00   0.61509621   0.00328699
7222.00   0.61896759   0.00331243
7224.00   0.62009311   0.00336447
7226.00   0.62107718   0.00344372
7228.00   0.62868088   0.00358973
7230.00   0.64758533   0.00382431
7232.00   0.65398455   0.00399606
7234.00   0.65306926   0.00420651
7236.00   0.64886910   0.00430472
7238.00   0.64094949   0.00420945
7240.00   0.63059741   0.00402653
7242.00   0.62334150   0.00400127
7244.00   0.61634767   0.00408588
7246.00   0.61257833   0.00409910
7248.00   0.61021632   0.00405742
7250.00   0.61190772   0.00407435
7252.00   0.62056607   0.00422988
7254.00   0.63038909   0.00435656
7256.00   0.63285315   0.00421640
7258.00   0.63023478   0.00380471
7260.00   0.63094246   0.00367102
7262.00   0.63261145   0.00373903
7264.00   0.63423115   0.00375665
7266.00   0.63484555   0.00371252
7268.00   0.63691843   0.00370508
7270.00   0.64326751   0.00382458
7272.00   0.65298367   0.00403167
7274.00   0.65821522   0.00410591
7276.00   0.66544384   0.00414589
7278.00   0.66233647   0.00409113
7280.00   0.64496809   0.00388115
7282.00   0.62990171   0.00368195
7284.00   0.62511623   0.00357640
7286.00   0.62567985   0.00352811
7288.00   0.62793654   0.00358617
7290.00   0.63794857   0.00385887
7292.00   0.63971436   0.00390308
7294.00   0.63484442   0.00379569
7296.00   0.63148814   0.00368622
7298.00   0.63167793   0.00357688
7300.00   0.63339847   0.00348843
7302.00   0.63531029   0.00356650
7304.00   0.63842541   0.00384216
7306.00   0.64062345   0.00390708
7308.00   0.64280415   0.00381888
7310.00   0.64424098   0.00379431
7312.00   0.64594591   0.00388579
7314.00   0.64594251   0.00397591
7316.00   0.64027464   0.00393762
7318.00   0.62809873   0.00380311
7320.00   0.62648159   0.00371033
7322.00   0.63356185   0.00358493
7324.00   0.63814384   0.00351807
7326.00   0.64113355   0.00348948
7328.00   0.64388752   0.00352552
7330.00   0.64740306   0.00368216
7332.00   0.65142423   0.00393188
7334.00   0.65096086   0.00398945
7336.00   0.64473355   0.00391726
7338.00   0.64236420   0.00385103
7340.00   0.64289045   0.00372004
7342.00   0.64335656   0.00362228
7344.00   0.64249372   0.00363366
7346.00   0.64112669   0.00369957
7348.00   0.64002746   0.00367024
7350.00   0.63789177   0.00351312
7352.00   0.63818836   0.00351670
7354.00   0.64038646   0.00366033
7356.00   0.64314747   0.00376486
7358.00   0.64629877   0.00379838
7360.00   0.64994389   0.00379830
7362.00   0.65380347   0.00377614
7364.00   0.65827566   0.00369850
7366.00   0.66207772   0.00369099
7368.00   0.66684783   0.00375665
7370.00   0.66893989   0.00377367
7372.00   0.66879058   0.00373115
7374.00   0.66580552   0.00366093
7376.00   0.65759611   0.00358126
7378.00   0.64301878   0.00346886
7380.00   0.63765889   0.00342295
7382.00   0.63758886   0.00342660
7384.00   0.63935888   0.00343982
7386.00   0.64541698   0.00346828
7388.00   0.65120584   0.00351133
7390.00   0.65301114   0.00357529
7392.00   0.65263361   0.00365844
7394.00   0.65125030   0.00368500
7396.00   0.64776552   0.00367436
7398.00   0.64443332   0.00365136
7400.00   0.64026737   0.00359942
7402.00   0.63648236   0.00354498
7404.00   0.63305998   0.00348401
7406.00   0.63026857   0.00342624
7408.00   0.63111830   0.00346127
7410.00   0.63541842   0.00362544
7412.00   0.64006007   0.00367380
7414.00   0.64808077   0.00367895
7416.00   0.65361029   0.00364773
7418.00   0.65514868   0.00355206
7420.00   0.65451545   0.00343460
7422.00   0.65342200   0.00341112
7424.00   0.65006995   0.00346246
7426.00   0.64962196   0.00347807
7428.00   0.65111428   0.00349103
7430.00   0.65267527   0.00350487
7432.00   0.65490270   0.00352272
7434.00   0.65675783   0.00353771
7436.00   0.65662056   0.00354264
7438.00   0.65506482   0.00354206
7440.00   0.65310341   0.00352557
7442.00   0.64932072   0.00346768
7444.00   0.64709693   0.00345731
7446.00   0.64690077   0.00348673
7448.00   0.64642519   0.00354265
7450.00   0.64413989   0.00363266
7452.00   0.64080709   0.00375269
7454.00   0.63681990   0.00379457
7456.00   0.62843192   0.00379257
7458.00   0.62742835   0.00376376
7460.00   0.63312739   0.00367832
7462.00   0.64011323   0.00359949
7464.00   0.64751983   0.00355154
7466.00   0.65534264   0.00352145
7468.00   0.65778184   0.00352067
7470.00   0.65387303   0.00357046
7472.00   0.65447044   0.00358172
7474.00   0.65637821   0.00353605
7476.00   0.65951258   0.00355916
7478.00   0.66606891   0.00369808
7480.00   0.67228496   0.00387419
7482.00   0.66969073   0.00399173
7484.00   0.65942162   0.00413632
7486.00   0.65205342   0.00409684
7488.00   0.64081615   0.00383722
7490.00   0.63603383   0.00363861
7492.00   0.64078116   0.00348141
7494.00   0.64732969   0.00339311
7496.00   0.64723915   0.00346869
7498.00   0.64329290   0.00369519
7500.00   0.64321917   0.00378548
7502.00   0.64488310   0.00387434
7504.00   0.64706677   0.00384886
7506.00   0.65207666   0.00364313
7508.00   0.65488994   0.00343993
7510.00   0.65067583   0.00338632
7512.00   0.64175808   0.00341761
7514.00   0.63937068   0.00348974
7516.00   0.64068931   0.00365834
7518.00   0.64225572   0.00377443
7520.00   0.64588702   0.00392338
7522.00   0.64902771   0.00398154
7524.00   0.65036690   0.00385769
7526.00   0.65098798   0.00363251
7528.00   0.65292948   0.00358528
7530.00   0.65724403   0.00367912
7532.00   0.65744323   0.00369714
7534.00   0.65291923   0.00372263
7536.00   0.65081501   0.00370422
7538.00   0.65404731   0.00359536
7540.00   0.65808296   0.00346768
7542.00   0.65552497   0.00346744
7544.00   0.64674640   0.00355101
7546.00   0.64451402   0.00365169
7548.00   0.64486605   0.00386101
7550.00   0.64772570   0.00395383
7552.00   0.65606511   0.00392154
7554.00   0.66359252   0.00383133
7556.00   0.66193181   0.00371947
7558.00   0.65297216   0.00354376
7560.00   0.65321743   0.00349487
7562.00   0.66212964   0.00355334
7564.00   0.66438442   0.00359732
7566.00   0.65937066   0.00365044
7568.00   0.65475476   0.00370439
7570.00   0.65565622   0.00375882
7572.00   0.65941548   0.00381405
7574.00   0.65997571   0.00380614
7576.00   0.65983266   0.00370128
7578.00   0.65769553   0.00368290
7580.00   0.65227896   0.00376231
7582.00   0.64781147   0.00379080
7584.00   0.64573777   0.00366066
7586.00   0.64503211   0.00347473
7588.00   0.64530003   0.00355202
7590.00   0.64464629   0.00355640
7592.00   0.65059078   0.00423016
7594.00   0.66622823   0.00518092
7596.00   0.67645091   0.00623850
7598.00   0.67863089   0.00773057
7600.00   0.67654806   0.00890153
7602.00   0.67274618   0.00873276
7604.00   0.66474837   0.00719904
7606.00   0.65999901   0.00667376
7608.00   0.65568662   0.00678609
7610.00   0.65323722   0.00671435
7612.00   0.65121222   0.00648413
7614.00   0.65245825   0.00616502
7616.00   0.66252732   0.00568583
7618.00   0.68179762   0.00495135
7620.00   0.68209976   0.00471273
7622.00   0.66423464   0.00493727
7624.00   0.65499598   0.00513080
7626.00   0.65043342   0.00551225
7628.00   0.64864665   0.00573713
7630.00   0.65058184   0.00554893
7632.00   0.65565664   0.00507218
7634.00   0.65471071   0.00485107
7636.00   0.64541590   0.00471468
7638.00   0.64604545   0.00465296
7640.00   0.65559566   0.00476224
7642.00   0.66430920   0.00480539
7644.00   0.66849995   0.00466520
7646.00   0.67128760   0.00444694
7648.00   0.67672169   0.00439520
7650.00   0.68707067   0.00451938
7652.00   0.68805009   0.00445812
7654.00   0.68147415   0.00423783
7656.00   0.67440361   0.00407495
7658.00   0.66648668   0.00400874
7660.00   0.65866059   0.00399541
7662.00   0.65467155   0.00402403
7664.00   0.65395671   0.00415049
7666.00   0.65135741   0.00409386
7668.00   0.64526981   0.00381947
7670.00   0.64542222   0.00367620
7672.00   0.65409476   0.00367265
7674.00   0.66440010   0.00375044
7676.00   0.67041194   0.00390874
7678.00   0.67496699   0.00416466
7680.00   0.67670852   0.00421339
7682.00   0.67557126   0.00411323
7684.00   0.67318791   0.00402057
7686.00   0.66747314   0.00386967
7688.00   0.66279483   0.00374362
7690.00   0.66246289   0.00371180
7692.00   0.66456687   0.00373960
7694.00   0.66355324   0.00375405
7696.00   0.66051769   0.00374875
7698.00   0.65830094   0.00382911
7700.00   0.65782851   0.00402429
7702.00   0.65463346   0.00416619
7704.00   0.64411741   0.00420785
7706.00   0.63188183   0.00419763
7708.00   0.63410783   0.00417801
7710.00   0.65428543   0.00410718
7712.00   0.65526742   0.00408318
7714.00   0.64159411   0.00410412
7716.00   0.63237959   0.00409202
7718.00   0.63034654   0.00403250
7720.00   0.63080990   0.00394870
7722.00   0.63043004   0.00385908
7724.00   0.63095784   0.00373935
7726.00   0.63028091   0.00367560
7728.00   0.62835056   0.00361723
7730.00   0.62733883   0.00364230
7732.00   0.62733096   0.00379460
7734.00   0.62765867   0.00394982
7736.00   0.62704873   0.00400584
7738.00   0.62537128   0.00401143
7740.00   0.63130879   0.00400796
7742.00   0.64995837   0.00388732
7744.00   0.65587783   0.00394954
7746.00   0.64905268   0.00426912
7748.00   0.64164817   0.00448736
7750.00   0.64071560   0.00441736
7752.00   0.64209384   0.00417609
7754.00   0.63799804   0.00403369
7756.00   0.62935096   0.00387808
7758.00   0.62225044   0.00376741
7760.00   0.61448938   0.00370327
7762.00   0.60757643   0.00365051
7764.00   0.60143459   0.00357766
7766.00   0.59645677   0.00352411
7768.00   0.59490472   0.00359643
7770.00   0.59677809   0.00381231
7772.00   0.59866047   0.00391566
7774.00   0.60202295   0.00402015
7776.00   0.60561723   0.00403439
7778.00   0.61027169   0.00390528
7780.00   0.61440891   0.00372778
7782.00   0.61515099   0.00365408
7784.00   0.61340874   0.00362734
7786.00   0.61085141   0.00363884
7788.00   0.60536480   0.00372429
7790.00   0.60176635   0.00378160
7792.00   0.59945971   0.00379893
7794.00   0.59859681   0.00383016
7796.00   0.60025519   0.00392682
7798.00   0.60436243   0.00406938
7800.00   0.60496879   0.00414089
7802.00   0.60049891   0.00419493
7804.00   0.60236621   0.00419412
7806.00   0.61117870   0.00410575
7808.00   0.61970520   0.00402860
7810.00   0.62465554   0.00398939
7812.00   0.62786603   0.00398168
7814.00   0.62859392   0.00416795
7816.00   0.62726456   0.00471204
7818.00   0.62333852   0.00479213
7820.00   0.61459255   0.00453708
7822.00   0.60744953   0.00425163
7824.00   0.60365611   0.00399205
7826.00   0.60166585   0.00372990
7828.00   0.60050619   0.00359766
7830.00   0.59948570   0.00359321
7832.00   0.60296041   0.00358178
7834.00   0.61009878   0.00361460
7836.00   0.61946577   0.00366399
7838.00   0.63412881   0.00374148
7840.00   0.64816850   0.00382290
7842.00   0.65195960   0.00386752
7844.00   0.64843136   0.00388747
7846.00   0.64442605   0.00392092
7848.00   0.63539350   0.00392094
7850.00   0.62856132   0.00399355
7852.00   0.62249297   0.00418634
7854.00   0.61849147   0.00434877
7856.00   0.61855304   0.00436745
7858.00   0.62196881   0.00429731
7860.00   0.62486821   0.00420914
7862.00   0.63098568   0.00401621
7864.00   0.63251191   0.00390613
7866.00   0.62924427   0.00386339
7868.00   0.62578952   0.00384180
7870.00   0.62351507   0.00379757
7872.00   0.62185711   0.00376461
7874.00   0.62502217   0.00389556
7876.00   0.63538247   0.00426908
7878.00   0.63990366   0.00438766
7880.00   0.64173293   0.00437767
7882.00   0.64234805   0.00431555
7884.00   0.64201820   0.00418409
7886.00   0.64054459   0.00401306
7888.00   0.63792408   0.00394303
7890.00   0.63250679   0.00394811
7892.00   0.63126063   0.00392847
7894.00   0.63420838   0.00393109
7896.00   0.63508058   0.00390872
7898.00   0.63152415   0.00383471
7900.00   0.62846100   0.00376147
7902.00   0.63204861   0.00375709
7904.00   0.64019448   0.00378654
7906.00   0.64952832   0.00389416
7908.00   0.66890937   0.00413295
7910.00   0.67443961   0.00427212
7912.00   0.66249174   0.00434161
7914.00   0.64838314   0.00436049
7916.00   0.64358675   0.00431296
7918.00   0.64276069   0.00419663
7920.00   0.64189452   0.00416920
7922.00   0.64502621   0.00417572
7924.00   0.64350760   0.00422503
7926.00   0.63598639   0.00438441
7928.00   0.63063622   0.00447151
7930.00   0.63176918   0.00437057
7932.00   0.63649505   0.00416252
7934.00   0.64002860   0.00410810
7936.00   0.64674765   0.00416366
7938.00   0.64769268   0.00417416
7940.00   0.64340132   0.00421758
7942.00   0.63951427   0.00420319
7944.00   0.63684350   0.00406844
7946.00   0.63488436   0.00389192
7948.00   0.63507473   0.00386498
7950.00   0.63822293   0.00398133
7952.00   0.63837856   0.00396171
7954.00   0.63578558   0.00381968
7956.00   0.63508081   0.00376247
7958.00   0.63694179   0.00381060
7960.00   0.63969970   0.00391418
7962.00   0.64157462   0.00404766
7964.00   0.64277339   0.00423303
7966.00   0.64713818   0.00435757
7968.00   0.65647131   0.00448377
7970.00   0.66138041   0.00454109
7972.00   0.66156775   0.00450280
7974.00   0.66070729   0.00445913
7976.00   0.66178930   0.00450082
7978.00   0.66358799   0.00459094
7980.00   0.66027367   0.00452252
7982.00   0.64698040   0.00425253
7984.00   0.64591056   0.00412721
7986.00   0.65604693   0.00407003
7988.00   0.66728872   0.00410018
7990.00   0.67849600   0.00428893
7992.00   0.68910134   0.00454937
7994.00   0.68300962   0.00454888
7996.00   0.65565544   0.00432451
7998.00   0.64234149   0.00416659
8000.00   0.63310832   0.00392938
8002.00   0.62667298   0.00376640
8004.00   0.62371325   0.00374088
8006.00   0.62295520   0.00379084
8008.00   0.62075537   0.00383242
8010.00   0.61775923   0.00392736
8012.00   0.61748004   0.00394081
8014.00   0.62073964   0.00387417
8016.00   0.62193149   0.00384748
8018.00   0.61917448   0.00386643
8020.00   0.61680824   0.00390985
8022.00   0.61984587   0.00396730
8024.00   0.62659496   0.00404099
8026.00   0.63353193   0.00413949
8028.00   0.64412516   0.00431136
8030.00   0.65115738   0.00438986
8032.00   0.65613228   0.00441110
8034.00   0.65800017   0.00435814
8036.00   0.65446746   0.00416021
8038.00   0.64636731   0.00381860
8040.00   0.64373988   0.00375759
8042.00   0.64490849   0.00390574
8044.00   0.64414394   0.00405894
8046.00   0.64332509   0.00439210
8048.00   0.64102006   0.00455054
8050.00   0.63586169   0.00432973
8052.00   0.62908286   0.00387926
8054.00   0.62478769   0.00373918
8056.00   0.62078798   0.00381592
8058.00   0.61947995   0.00383048
8060.00   0.62112027   0.00386766
8062.00   0.62302047   0.00392111
8064.00   0.62476707   0.00401159
8066.00   0.62676418   0.00410104
8068.00   0.62891591   0.00410415
8070.00   0.63125390   0.00402491
8072.00   0.63380688   0.00400574
8074.00   0.63587165   0.00402949
8076.00   0.63950080   0.00401730
8078.00   0.64537889   0.00392767
8080.00   0.65185648   0.00385297
8082.00   0.65684664   0.00390948
8084.00   0.66066891   0.00405762
8086.00   0.66801804   0.00418434
8088.00   0.68324178   0.00437995
8090.00   0.68801969   0.00447109
8092.00   0.68064243   0.00448888
8094.00   0.67186135   0.00443713
8096.00   0.66894394   0.00427459
8098.00   0.66829753   0.00400298
8100.00   0.66499132   0.00390835
8102.00   0.65812820   0.00391930
8104.00   0.65618956   0.00397889
8106.00   0.65975451   0.00419436
8108.00   0.66206515   0.00430918
8110.00   0.66008961   0.00419208
8112.00   0.65613806   0.00395046
8114.00   0.65354860   0.00386203
8116.00   0.65039587   0.00383945
8118.00   0.64916086   0.00385347
8120.00   0.64988261   0.00396538
8122.00   0.65038574   0.00402545
8124.00   0.64883727   0.00396151
8126.00   0.64820534   0.00388781
8128.00   0.65442020   0.00401950
8130.00   0.66763479   0.00435407
8132.00   0.67571068   0.00442691
8134.00   0.68098986   0.00431105
8136.00   0.68775100   0.00424699
8138.00   0.69761467   0.00420324
8140.00   0.70659077   0.00421771
8142.00   0.70958847   0.00438750
8144.00   0.70737249   0.00469377
8146.00   0.71264362   0.00480566
8148.00   0.72991139   0.00485575
8150.00   0.73203117   0.00479889
8152.00   0.71503520   0.00454953
8154.00   0.69900036   0.00430721
8156.00   0.69687080   0.00424056
8158.00   0.70201093   0.00427529
8160.00   0.70801371   0.00430118
8162.00   0.72414660   0.00440373
8164.00   0.72726345   0.00442485
8166.00   0.72038937   0.00435441
8168.00   0.71047789   0.00432217
8170.00   0.69745588   0.00437768
8172.00   0.68270475   0.00448338
8174.00   0.67804658   0.00461220
8176.00   0.68264633   0.00477163
8178.00   0.68365711   0.00495565
8180.00   0.68771392   0.00526555
8182.00   0.68695170   0.00540798
8184.00   0.67784613   0.00530114
8186.00   0.66605890   0.00508651
8188.00   0.66046172   0.00497220
8190.00   0.65808421   0.00486492
8192.00   0.65595168   0.00482563
8194.00   0.65711319   0.00490953
8196.00   0.65524000   0.00490031
8198.00   0.64815819   0.00477742
8200.00   0.64151508   0.00461306
8202.00   0.64123207   0.00443934
8204.00   0.64520228   0.00419666
8206.00   0.64834845   0.00426843
8208.00   0.65374190   0.00472281
8210.00   0.65697384   0.00490829
8212.00   0.65658534   0.00487900
8214.00   0.65792400   0.00482649
8216.00   0.66451418   0.00486471
8218.00   0.67449355   0.00493279
8220.00   0.68517005   0.00491694
8222.00   0.69959545   0.00480926
8224.00   0.71079731   0.00476449
8226.00   0.72069639   0.00475950
8228.00   0.72886813   0.00475475
8230.00   0.73710805   0.00475801
8232.00   0.74295175   0.00475182
8234.00   0.73639143   0.00463477
8236.00   0.71496266   0.00435467
8238.00   0.70170766   0.00421356
8240.00   0.68944377   0.00415453
8242.00   0.67892146   0.00410407
8244.00   0.66958702   0.00405244
8246.00   0.66248149   0.00401379
8248.00   0.66025108   0.00399232
8250.00   0.66399783   0.00398357
8252.00   0.66236150   0.00400423
8254.00   0.65805829   0.00396500
8256.00   0.65365541   0.00411651
8258.00   0.64565289   0.00453356
8260.00   0.64114940   0.00493404
8262.00   0.64930224   0.00512997
8264.00   0.66770810   0.00524155
8266.00   0.67853659   0.00518136
8268.00   0.68869889   0.00482445
8270.00   0.69498223   0.00463013
8272.00   0.69683552   0.00457081
8274.00   0.69701076   0.00454569
8276.00   0.69594628   0.00446665
8278.00   0.69350964   0.00438411
8280.00   0.69742268   0.00459370
8282.00   0.70966524   0.00517191
8284.00   0.71472687   0.00541228
8286.00   0.72006708   0.00556782
8288.00   0.71654648   0.00553006
8290.00   0.69443125   0.00511367
8292.00   0.66523391   0.00447394
8294.00   0.66252720   0.00438957
8296.00   0.68197900   0.00475723
8298.00   0.69205660   0.00498241
8300.00   0.70773244   0.00538947
8302.00   0.71343470   0.00554255
8304.00   0.70549583   0.00535439
8306.00   0.69017398   0.00499143
8308.00   0.67347187   0.00465289
8310.00   0.64887577   0.00414994
8312.00   0.63852102   0.00396846
8314.00   0.63884032   0.00413181
8316.00   0.63950235   0.00421228
8318.00   0.64203399   0.00423485
8320.00   0.64523029   0.00424074
8322.00   0.64661098   0.00422375
8324.00   0.64693129   0.00417629
8326.00   0.65054005   0.00421346
8328.00   0.65609783   0.00437566
8330.00   0.66326934   0.00440734
8332.00   0.67533338   0.00426159
8334.00   0.68438369   0.00417397
8336.00   0.68499875   0.00430187
8338.00   0.68033063   0.00454582
8340.00   0.67757124   0.00473556
8342.00   0.66951716   0.00498925
8344.00   0.67169744   0.00511085
8346.00   0.68362874   0.00514344
8348.00   0.69554204   0.00513394
8350.00   0.70735145   0.00508200
8352.00   0.71741861   0.00499451
8354.00   0.71356666   0.00492809
8356.00   0.69246083   0.00489020
8358.00   0.68520504   0.00476723
8360.00   0.68543363   0.00452035
8362.00   0.68440199   0.00433847
8364.00   0.68060577   0.00425972
8366.00   0.67677218   0.00423658
8368.00   0.67533588   0.00422302
8370.00   0.67494512   0.00421816
8372.00   0.67757791   0.00433723
8374.00   0.68535018   0.00463950
8376.00   0.68993860   0.00480183
8378.00   0.69225377   0.00486444
8380.00   0.69219947   0.00484182
8382.00   0.68801332   0.00468401
8384.00   0.67967683   0.00436987
8386.00   0.67785919   0.00428430
8388.00   0.68211478   0.00428598
8390.00   0.68249732   0.00444651
8392.00   0.67756128   0.00485025
8394.00   0.67573529   0.00518943
8396.00   0.68409234   0.00535531
8398.00   0.69796848   0.00543002
8400.00   0.69816643   0.00536537
8402.00   0.68400896   0.00502428
8404.00   0.68047810   0.00489885
8406.00   0.68396318   0.00490933
8408.00   0.68582791   0.00493297
8410.00   0.68432784   0.00494281
8412.00   0.68056989   0.00495785
8414.00   0.67256624   0.00496293
8416.00   0.65711415   0.00494135
8418.00   0.65016830   0.00498360
8420.00   0.64383584   0.00506218
8422.00   0.64688414   0.00517266
8424.00   0.66811180   0.00535097
8426.00   0.69054806   0.00552077
8428.00   0.68798774   0.00558602
8430.00   0.66690999   0.00562491
8432.00   0.65398413   0.00543338
8434.00   0.63549459   0.00485415
8436.00   0.62734592   0.00445957
8438.00   0.63150340   0.00424584
8440.00   0.63948971   0.00417992
8442.00   0.64525872   0.00431767
8444.00   0.65189832   0.00465199
8446.00   0.65606630   0.00469920
8448.00   0.65673953   0.00446926
8450.00   0.66079235   0.00447332
8452.00   0.66651434   0.00463278
8454.00   0.67467552   0.00487410
8456.00   0.68918282   0.00525451
8458.00   0.70675695   0.00568622
8460.00   0.70582575   0.00567142
8462.00   0.68476754   0.00509889
8464.00   0.67481601   0.00494324
8466.00   0.66786641   0.00512117
8468.00   0.66223890   0.00516957
8470.00   0.65713483   0.00491668
8472.00   0.65353155   0.00452810
8474.00   0.65360856   0.00431938
8476.00   0.65884423   0.00416032
8478.00   0.65963882   0.00415613
8480.00   0.65840536   0.00441041
8482.00   0.65664655   0.00452928
8484.00   0.65342665   0.00445780
8486.00   0.65052783   0.00433359
8488.00   0.65104336   0.00430033
8490.00   0.65415365   0.00430364
8492.00   0.65680492   0.00431484
8494.00   0.66354889   0.00421957
8496.00   0.66343415   0.00439556
8498.00   0.65340954   0.00499310
8500.00   0.64347333   0.00545140
8502.00   0.64181274   0.00539461
8504.00   0.64477313   0.00499141
8506.00   0.64767981   0.00483942
8508.00   0.65374601   0.00479240
8510.00   0.65770823   0.00469751
8512.00   0.66007298   0.00457364
8514.00   0.66237563   0.00445129
8516.00   0.66557246   0.00433276
8518.00   0.66897893   0.00422102
8520.00   0.67054927   0.00418381
8522.00   0.67113346   0.00424536
8524.00   0.67034131   0.00425028
8526.00   0.66728336   0.00423029
8528.00   0.66469562   0.00422023
8530.00   0.66360283   0.00423073
8532.00   0.66280472   0.00425028
8534.00   0.66033542   0.00426672
8536.00   0.65574068   0.00429568
8538.00   0.65421182   0.00429030
8540.00   0.65688640   0.00406797
8542.00   0.65580744   0.00420265
8544.00   0.64799076   0.00490927
8546.00   0.63979608   0.00556150
8548.00   0.63897002   0.00563950
8550.00   0.64265347   0.00537037
8552.00   0.64791930   0.00509233
8554.00   0.65950418   0.00440624
8556.00   0.66572279   0.00408795
8558.00   0.66530156   0.00428734
8560.00   0.66471869   0.00456972
8562.00   0.66987640   0.00465800
8564.00   0.67851651   0.00469026
8566.00   0.67778414   0.00478423
8568.00   0.66837662   0.00498454
8570.00   0.66214228   0.00501159
8572.00   0.65601617   0.00486394
8574.00   0.65118510   0.00470273
8576.00   0.64895827   0.00459239
8578.00   0.64828289   0.00450000
8580.00   0.64548588   0.00447553
8582.00   0.63935286   0.00456627
8584.00   0.63847488   0.00455647
8586.00   0.64136517   0.00446753
8588.00   0.64520943   0.00441239
8590.00   0.65089387   0.00441315
8592.00   0.65660930   0.00445199
8594.00   0.65635967   0.00453869
8596.00   0.64982647   0.00470210
8598.00   0.64872766   0.00478323
8600.00   0.64899606   0.00485393
8602.00   0.65197378   0.00485487
8604.00   0.66181910   0.00472459
8606.00   0.67002267   0.00458732
8608.00   0.66391081   0.00463037
8610.00   0.64558864   0.00480938
8612.00   0.63882470   0.00485969
8614.00   0.63703305   0.00478986
8616.00   0.63681954   0.00484479
8618.00   0.63935614   0.00505032
8620.00   0.64303094   0.00525052
8622.00   0.64702123   0.00533432
8624.00   0.65191770   0.00535667
8626.00   0.65280765   0.00548824
8628.00   0.65130377   0.00579491
8630.00   0.64761269   0.00585624
8632.00   0.63835865   0.00568497
8634.00   0.63208658   0.00550395
8636.00   0.63298887   0.00536801
8638.00   0.63813329   0.00526457
8640.00   0.64354694   0.00542218
8642.00   0.65930027   0.00600579
8644.00   0.65584439   0.00609827
8646.00   0.63444567   0.00586480
8648.00   0.61580354   0.00563783
8650.00   0.60507125   0.00547394
8652.00   0.59614897   0.00533013
8654.00   0.58234864   0.00524806
8656.00   0.56130517   0.00522684
8658.00   0.55580240   0.00521292
8660.00   0.56017315   0.00524001
8662.00   0.57034630   0.00525853
8664.00   0.58940393   0.00527427
8666.00   0.61141884   0.00528042
8668.00   0.62937981   0.00526369
8670.00   0.64816260   0.00523343
8672.00   0.65391833   0.00516075
8674.00   0.64264303   0.00497393
8676.00   0.64076859   0.00491781
8678.00   0.64654303   0.00496736
8680.00   0.65477383   0.00510164
8682.00   0.66469818   0.00539363
8684.00   0.67708635   0.00579935
8686.00   0.67739356   0.00569401
8688.00   0.66201919   0.00491622
8690.00   0.65897900   0.00460096
8692.00   0.66460341   0.00468850
8694.00   0.67141807   0.00478382
8696.00   0.67761678   0.00473557
8698.00   0.68395543   0.00464873
8700.00   0.68628466   0.00461389
8702.00   0.68600839   0.00461429
8704.00   0.68352699   0.00459523
8706.00   0.67751801   0.00457375
8708.00   0.67133617   0.00454744
8710.00   0.66370136   0.00450323
8712.00   0.65713471   0.00446276
8714.00   0.65919185   0.00447090
8716.00   0.67225540   0.00449654
8718.00   0.67091364   0.00460175
8720.00   0.65577084   0.00483711
8722.00   0.64843357   0.00497668
8724.00   0.64964718   0.00503761
8726.00   0.65521353   0.00502937
8728.00   0.66366082   0.00491065
8730.00   0.67697811   0.00465407
8732.00   0.68423373   0.00456319
8734.00   0.68870789   0.00459180
8736.00   0.69129962   0.00459493
8738.00   0.69059640   0.00457893
8740.00   0.68961412   0.00458356
8742.00   0.68958652   0.00458600
8744.00   0.68977731   0.00459246
8746.00   0.69689482   0.00493923
8748.00   0.71817124   0.00584353
8750.00   0.72233927   0.00601981
8752.00   0.71285909   0.00553725
8754.00   0.70038098   0.00512968
8756.00   0.68817466   0.00498448
8758.00   0.67423952   0.00509502
8760.00   0.65981060   0.00611304
8762.00   0.63787627   0.00838276
8764.00   0.63192725   0.00862401
8766.00   0.64301193   0.00737059
8768.00   0.64853972   0.00625771
8770.00   0.64380926   0.00578715
8772.00   0.63513845   0.00562922
8774.00   0.62819433   0.00565911
8776.00   0.62092888   0.00612419
8778.00   0.61227959   0.00606472
8780.00   0.59624934   0.00552475
8782.00   0.59168988   0.00522307
8784.00   0.59981400   0.00528957
8786.00   0.61530578   0.00542344
8788.00   0.63674611   0.00535716
8790.00   0.66824615   0.00517592
8792.00   0.67912853   0.00515690
8794.00   0.67001462   0.00531790
8796.00   0.67053181   0.00532186
8798.00   0.67935354   0.00516496
8800.00   0.68779206   0.00498607
8802.00   0.69111753   0.00486525
8804.00   0.69178712   0.00476335
8806.00   0.69158363   0.00472032
8808.00   0.68730175   0.00466528
8810.00   0.68744981   0.00479227
8812.00   0.68796003   0.00511367
8814.00   0.69396847   0.00542473
8816.00   0.70994920   0.00566883
8818.00   0.73123878   0.00589531
8820.00   0.74427992   0.00612621
8822.00   0.75754327   0.00634891
8824.00   0.75840020   0.00658190
8826.00   0.74673218   0.00678679
8828.00   0.73354715   0.00705435
8830.00   0.71724492   0.00755035
8832.00   0.70139223   0.00795440
8834.00   0.69609886   0.00772169
8836.00   0.69769043   0.00684036
8838.00   0.70411843   0.00627990
8840.00   0.72288716   0.00564968
8842.00   0.73344934   0.00523174
8844.00   0.73500401   0.00515108
8846.00   0.73275352   0.00522374
8848.00   0.72935736   0.00527938
8850.00   0.72261900   0.00541388
8852.00   0.72213846   0.00542146
8854.00   0.72890806   0.00530739
8856.00   0.72982198   0.00527044
8858.00   0.72521228   0.00528666
8860.00   0.71984178   0.00533192
8862.00   0.71602446   0.00541775
8864.00   0.71253866   0.00553493
8866.00   0.71050066   0.00553896
8868.00   0.71103001   0.00545566
8870.00   0.70914155   0.00536771
8872.00   0.70261949   0.00512864
8874.00   0.70069891   0.00506351
8876.00   0.70853537   0.00534048
8878.00   0.72102839   0.00577448
8880.00   0.72699845   0.00608830
8882.00   0.73358309   0.00652371
8884.00   0.72964382   0.00658039
8886.00   0.71262580   0.00629284
8888.00   0.69929338   0.00601285
8890.00   0.68960303   0.00574705
8892.00   0.68438393   0.00550611
8894.00   0.69048417   0.00542908
8896.00   0.70895481   0.00548730
8898.00   0.71938950   0.00558184
8900.00   0.72933310   0.00586713
8902.00   0.73542047   0.00595622
8904.00   0.73722452   0.00575779
8906.00   0.73632491   0.00555344
8908.00   0.73381430   0.00563054
8910.00   0.72898114   0.00586800
8912.00   0.72408241   0.00612989
8914.00   0.71469301   0.00663048
8916.00   0.71245974   0.00679331
8918.00   0.71909487   0.00661087
8920.00   0.72518277   0.00640467
8922.00   0.72481829   0.00637466
8924.00   0.72131038   0.00641461
8926.00   0.72065127   0.00639434
8928.00   0.71582431   0.00641054
8930.00   0.72312742   0.00629306
8932.00   0.74671483   0.00598463
8934.00   0.76411605   0.00573018
8936.00   0.76748663   0.00562978
8938.00   0.76353705   0.00561562
8940.00   0.75887316   0.00562719
8942.00   0.74628395   0.00573448
8944.00   0.74400806   0.00575425
8946.00   0.75021648   0.00568908
8948.00   0.75440085   0.00569098
8950.00   0.75617737   0.00578048
8952.00   0.75600576   0.00591993
8954.00   0.75209045   0.00610209
8956.00   0.74487942   0.00638735
8958.00   0.73598111   0.00642753
8960.00   0.72015363   0.00628215
8962.00   0.71171486   0.00611659
8964.00   0.71258879   0.00587344
8966.00   0.71542442   0.00563019
8968.00   0.71356094   0.00549338
8970.00   0.70937186   0.00542481
8972.00   0.71122926   0.00539096
8974.00   0.71989530   0.00542259
8976.00   0.72407472   0.00546192
8978.00   0.72587508   0.00549038
8980.00   0.72543693   0.00557973
8982.00   0.72115171   0.00577395
8984.00   0.71419299   0.00603624
8986.00   0.71409994   0.00629092
8988.00   0.72313321   0.00673829
8990.00   0.72253877   0.00678994
8992.00   0.71311194   0.00637233
8994.00   0.70625961   0.00611738
8996.00   0.70543092   0.00635519
8998.00   0.70766437   0.00674410
9000.00   0.71103954   0.00673408
9002.00   0.71988410   0.00643954
9004.00   0.71992493   0.00624610
9006.00   0.70932388   0.00599056
9008.00   0.70579803   0.00579755
9010.00   0.71305043   0.00569066
9012.00   0.72410631   0.00564235
9014.00   0.73201346   0.00563198
9016.00   0.74116707   0.00567254
9018.00   0.74275434   0.00574200
9020.00   0.73426270   0.00593594
9022.00   0.73184752   0.00597883
9024.00   0.73896128   0.00583065
9026.00   0.74400139   0.00564763
9028.00   0.73412347   0.00554176
9030.00   0.71270305   0.00544700
9032.00   0.71527040   0.00558298
9034.00   0.74248809   0.00609523
9036.00   0.75422674   0.00623274
9038.00   0.75670874   0.00603077
9040.00   0.75437981   0.00581316
9042.00   0.74700749   0.00575185
9044.00   0.73516548   0.00575379
9046.00   0.72954327   0.00577141
9048.00   0.72535908   0.00586221
9050.00   0.72590297   0.00588893
9052.00   0.73400068   0.00588734
9054.00   0.73955911   0.00586431
9056.00   0.73974347   0.00580105
9058.00   0.73708212   0.00572536
9060.00   0.73316193   0.00573007
9062.00   0.72659069   0.00583193
9064.00   0.72057474   0.00581858
9066.00   0.71164560   0.00570243
9068.00   0.70700270   0.00563243
9070.00   0.70810062   0.00563136
9072.00   0.71199286   0.00565613
9074.00   0.71633595   0.00567345
9076.00   0.72421730   0.00570578
9078.00   0.72273403   0.00570043
9080.00   0.70887023   0.00564021
9082.00   0.70443016   0.00562875
9084.00   0.71031350   0.00561320
9086.00   0.71869838   0.00568588
9088.00   0.72462422   0.00599094
9090.00   0.73066342   0.00646880
9092.00   0.73350704   0.00653586
9094.00   0.73358697   0.00625660
9096.00   0.73309124   0.00609551
9098.00   0.72968727   0.00594212
9100.00   0.72809547   0.00583798
9102.00   0.73141551   0.00583650
9104.00   0.73758626   0.00590183
9106.00   0.74160457   0.00589996
9108.00   0.74453461   0.00578580
9110.00   0.74881053   0.00587160
9112.00   0.75760341   0.00615551
9114.00   0.76040930   0.00637974
9116.00   0.75317210   0.00651355
9118.00   0.74049890   0.00658317
9120.00   0.72927338   0.00652460
9122.00   0.71397698   0.00630247
9124.00   0.70666283   0.00615459
9126.00   0.70507920   0.00597711
9128.00   0.70505512   0.00586056
9130.00   0.70758170   0.00578812
9132.00   0.71087605   0.00579810
9134.00   0.71183282   0.00599912
9136.00   0.71229154   0.00642723
9138.00   0.70885181   0.00644624
9140.00   0.69825238   0.00603334
9142.00   0.69385684   0.00589450
9144.00   0.69437283   0.00605859
9146.00   0.69888079   0.00627953
9148.00   0.70809984   0.00641844
9150.00   0.72201824   0.00654753
9152.00   0.73442817   0.00661397
9154.00   0.75010365   0.00663935
9156.00   0.76042265   0.00661899
9158.00   0.76846421   0.00654871
9160.00   0.77112299   0.00643948
9162.00   0.76332086   0.00625926
9164.00   0.74945664   0.00603478
9166.00   0.75083929   0.00599021
9168.00   0.76424867   0.00604255
9170.00   0.77468538   0.00621339
9172.00   0.79435414   0.00666706
9174.00   0.80165899   0.00689504
9176.00   0.78576964   0.00668897
9178.00   0.76079851   0.00633327
9180.00   0.75135040   0.00640332
9182.00   0.73655146   0.00668584
9184.00   0.76548868   0.00711471
9186.00   0.83701330   0.00769960
9188.00   0.91041553   0.00834775
9190.00   1.00658393   0.00927086
9192.00   1.08624637   0.00999376
9194.00   1.08502340   0.00997406
9196.00   1.02117002   0.00940879
9198.00   0.95819455   0.00873878
9200.00   0.84173477   0.00719402
9202.00   0.77635741   0.00633179
9204.00   0.76477712   0.00660479
9206.00   0.76789147   0.00701342
9208.00   0.76060134   0.00684022
9210.00   0.75507200   0.00639401
9212.00   0.75452387   0.00645393
9214.00   0.75640410   0.00692492
9216.00   0.76543319   0.00723023
9218.00   0.78612030   0.00765835
9220.00   0.80426204   0.00781314
9222.00   0.81268477   0.00737940
9224.00   0.81630838   0.00655576
9226.00   0.82226205   0.00634273
9228.00   0.83530122   0.00669700
9230.00   0.83057469   0.00668949
9232.00   0.80648226   0.00652049
9234.00   0.78765064   0.00639073
9236.00   0.77884620   0.00635119
9238.00   0.77542996   0.00635178
9240.00   0.77717394   0.00635971
9242.00   0.78869438   0.00641163
9244.00   0.78973174   0.00640056
9246.00   0.78426242   0.00628807
9248.00   0.77897137   0.00628321
9250.00   0.77361715   0.00642572
9252.00   0.76811779   0.00661183
9254.00   0.76338083   0.00677160
9256.00   0.75909042   0.00698315
9258.00   0.75468946   0.00689664
9260.00   0.75055730   0.00638451
9262.00   0.74607730   0.00615489
9264.00   0.74123240   0.00620138
9266.00   0.73627102   0.00635291
9268.00   0.73097152   0.00654609
9270.00   0.72533917   0.00681200
9272.00   0.72257370   0.00691989
9274.00   0.71998012   0.00693440
9276.00   0.72276527   0.00692239
9278.00   0.72922045   0.00681715
9280.00   0.74066395   0.00674957
9282.00   0.75922710   0.00675648
9284.00   0.78280938   0.00682445
9286.00   0.80283952   0.00704988
9288.00   0.82901073   0.00744091
9290.00   0.83861387   0.00779004
9292.00   0.83515054   0.00827243
9294.00   0.82758260   0.00855973
9296.00   0.81474710   0.00851570
9298.00   0.79959631   0.00837091
9300.00   0.79220551   0.00849830
9302.00   0.78927314   0.00858838
9304.00   0.78769386   0.00934383
9306.00   0.78873080   0.01084172
9308.00   0.79149580   0.01179356
9310.00   0.80041730   0.01225458
9312.00   0.80643690   0.01253876
9314.00   0.79587620   0.01288358
9316.00   0.77044278   0.01327111
9318.00   0.76349699   0.01306520
9320.00   0.77120227   0.01206674
9322.00   0.77168691   0.01143738
9324.00   0.76281327   0.01118239
9326.00   0.75755447   0.01097508
9328.00   0.76618111   0.01057007
9330.00   0.78387803   0.01006751
9332.00   0.79294896   0.00992615
9334.00   0.79783016   0.01010820
9336.00   0.80391109   0.01026990
9338.00   0.81310558   0.01064406
9340.00   0.81712747   0.01082492
9342.00   0.80978161   0.01059034
9344.00   0.79677463   0.01011816
9346.00   0.79525745   0.00986288
9348.00   0.80699492   0.00968815
9350.00   0.80350035   0.00951180
9352.00   0.78964019   0.00946753
9354.00   0.77550077   0.00925665
9356.00   0.75850272   0.00863775
9358.00   0.74403411   0.00792418
9360.00   0.74831921   0.00785957
9362.00   0.77297771   0.00818767
9364.00   0.77927023   0.00884443
9366.00   0.77314246   0.00966662
9368.00   0.77275229   0.01089207
9370.00   0.78195286   0.01289929
9372.00   0.79025763   0.01447445
9374.00   0.78778481   0.01466996
9376.00   0.77912813   0.01396932
9378.00   0.76240033   0.01316103
9380.00   0.72679651   0.01145901
9382.00   0.70806497   0.01008207
9384.00   0.70170254   0.00887136
9386.00   0.70462704   0.00794971
9388.00   0.71860361   0.00765323
9390.00   0.74293083   0.00794986
9392.00   0.75855953   0.00797678
9394.00   0.77833134   0.00812347
9396.00   0.78172755   0.00808896
9398.00   0.76111192   0.00779544
9400.00   0.74957436   0.00762871
9402.00   0.76396716   0.00783143
9404.00   0.78984767   0.00817863
9406.00   0.79850912   0.00818662
9408.00   0.79863608   0.00788186
9410.00   0.79717857   0.00782614
9412.00   0.78929532   0.00787840
9414.00   0.78276116   0.00797016
9416.00   0.77886295   0.00810854
9418.00   0.77592087   0.00827175
9420.00   0.77304029   0.00841025
9422.00   0.77083665   0.00858830
9424.00   0.76803070   0.00858747
9426.00   0.75753641   0.00821560
9428.00   0.76170212   0.00824948
9430.00   0.78777814   0.00873974
9432.00   0.81684935   0.00940202
9434.00   0.83287585   0.01008898
9436.00   0.84626573   0.01089202
9438.00   0.82750762   0.01137308
9440.00   0.76223290   0.01199390
9442.00   0.72612137   0.01186763
9444.00   0.70984954   0.01067088
9446.00   0.70478451   0.00933834
9448.00   0.71020097   0.00869445
9450.00   0.72647667   0.00844330
9452.00   0.73783118   0.00848436
9454.00   0.75018442   0.00889492
9456.00   0.76211661   0.00951796
9458.00   0.77888018   0.01067742
9460.00   0.78757095   0.01143278
9462.00   0.78169066   0.01153852
9464.00   0.76714909   0.01128912
9466.00   0.75483042   0.01099410
9468.00   0.72381198   0.01010362
9470.00   0.73664457   0.01015403
9472.00   0.79743826   0.01079650
9474.00   0.84146965   0.01166759
9476.00   0.86465645   0.01318577
9478.00   0.87071282   0.01441117
9480.00   0.84440619   0.01381394
9482.00   0.77375257   0.01122906
9484.00   0.75294673   0.00985768
9486.00   0.76650882   0.00879529
9488.00   0.77210170   0.00824117
9490.00   0.76532680   0.00838277
9492.00   0.76327920   0.00900726
9494.00   0.78517443   0.00996584
9496.00   0.82866865   0.01130717
9498.00   0.83007222   0.01191045
9500.00   0.79398376   0.01234131
9502.00   0.77233762   0.01226802
9504.00   0.75445098   0.01144493
9506.00   0.74371642   0.01052710
9508.00   0.74620849   0.00995215
9510.00   0.75846380   0.00953337
9512.00   0.76231563   0.00958740
9514.00   0.76412362   0.01026341
9516.00   0.76387548   0.01068260
9518.00   0.75979918   0.01128583
9520.00   0.75660861   0.01151411
9522.00   0.75280213   0.01101537
9524.00   0.75132811   0.01012929
9526.00   0.76695776   0.00992137
9528.00   0.80965418   0.01023249
9530.00   0.82050174   0.01027988
9532.00   0.80703080   0.01034425
9534.00   0.79832983   0.01030001
9536.00   0.79730761   0.01001880
9538.00   0.79966360   0.00972002
9540.00   0.80564606   0.00981853
9542.00   0.81711626   0.01023999
9544.00   0.82344389   0.01044665
9546.00   0.83183295   0.01069150
9548.00   0.83067173   0.01073569
9550.00   0.81965625   0.01057788
9552.00   0.80181396   0.01026835
9554.00   0.77473688   0.00968746
9556.00   0.73515224   0.00867482
9558.00   0.73159772   0.00898568
9560.00   0.76639378   0.01055149
9562.00   0.78103662   0.01144752
9564.00   0.78634751   0.01237115
9566.00   0.78261554   0.01270916
9568.00   0.76402026   0.01178931
9570.00   0.73445195   0.00980988
9572.00   0.72470355   0.00931718
9574.00   0.72665775   0.01019720
9576.00   0.73127484   0.01036814
9578.00   0.74106812   0.01040946
9580.00   0.75572270   0.01027949
9582.00   0.77857774   0.00977853
9584.00   0.80483609   0.00912879
9586.00   0.81876993   0.00922310
9588.00   0.82987642   0.01009388
9590.00   0.82425487   0.01027937
9592.00   0.78989351   0.01012324
9594.00   0.77322453   0.00996494
9596.00   0.78562093   0.00983019
9598.00   0.80644548   0.00967647
9600.00   0.81168371   0.00950262
9602.00   0.81046516   0.00927264
9604.00   0.80716401   0.00918500
9606.00   0.79875231   0.00924094
9608.00   0.79020607   0.00925693
9610.00   0.77943057   0.00923088
9612.00   0.76993358   0.00920943
9614.00   0.76611966   0.00923565
9616.00   0.76653814   0.00930071
9618.00   0.76373994   0.00926230
9620.00   0.76129299   0.00915337
9622.00   0.75574875   0.00901663
9624.00   0.74724811   0.00882860
9626.00   0.73710787   0.00861958
9628.00   0.72235131   0.00837070
9630.00   0.70546740   0.00809703
9632.00   0.71033818   0.00805371
9634.00   0.73828733   0.00822476
9636.00   0.75667834   0.00837652
9638.00   0.78003490   0.00864782
9640.00   0.79312062   0.00882482
9642.00   0.78354758   0.00866983
9644.00   0.76671988   0.00850121
9646.00   0.77958256   0.00916905
9648.00   0.80274743   0.01025906
9650.00   0.85764343   0.01159516
9652.00   0.97452915   0.01351392
9654.00   1.04751825   0.01481269
9656.00   1.06043959   0.01528892
9658.00   1.04486215   0.01571588
9660.00   1.02493000   0.01722328
9662.00   0.97947669   0.01994787
9664.00   0.97461122   0.01916911
9666.00   1.02748096   0.01361843
9668.00   1.02169847   0.00949477
9670.00   0.93828982   0.00900236
9672.00   0.84908366   0.00996408
9674.00   0.81335068   0.01063707
9676.00   0.80561084   0.01184161
9678.00   0.79058218   0.01196549
9680.00   0.79105359   0.01122649
9682.00   0.77195519   0.01076958
9684.00   0.72435391   0.01038019
9686.00   0.68835980   0.01003647
9688.00   0.68803060   0.00976137
9690.00   0.70817810   0.00954856
9692.00   0.71763253   0.00936538
9694.00   0.73211128   0.00915362
9696.00   0.73615497   0.00916122
9698.00   0.73195267   0.00952304
9700.00   0.72523481   0.00968067
9702.00   0.71126646   0.00937599
9704.00   0.69814122   0.00890476
9706.00   0.71334577   0.00890739
9708.00   0.76248854   0.00915512
9710.00   0.77894098   0.00959461
9712.00   0.77349067   0.01032333
9714.00   0.77377999   0.01098547
9716.00   0.78766423   0.01175980
9718.00   0.79906821   0.01232784
9720.00   0.78708667   0.01215046
9722.00   0.75473475   0.01124410
9724.00   0.73819607   0.01087240
9726.00   0.72081703   0.01075156
9728.00   0.71814132   0.01057997
9730.00   0.73264635   0.01028292
9732.00   0.75442398   0.01011038
9734.00   0.78018284   0.01034884
9736.00   0.81385338   0.01089202
9738.00   0.81619883   0.01096349
9740.00   0.78226656   0.01073983
9742.00   0.77054709   0.01051991
9744.00   0.77713037   0.01014253
9746.00   0.78082293   0.00983730
9748.00   0.76729208   0.00973269
9750.00   0.74687058   0.00976504
9752.00   0.75305188   0.00993591
9754.00   0.79504234   0.01054153
9756.00   0.80145860   0.01054953
9758.00   0.78371537   0.01006130
9760.00   0.76614523   0.00959199
9762.00   0.75327551   0.00926180
9764.00   0.74167025   0.00899131
9766.00   0.73379171   0.00883310
9768.00   0.72713220   0.00877091
9770.00   0.72831619   0.00882412
9772.00   0.73652560   0.00899557
9774.00   0.74823010   0.00925013
9776.00   0.76718527   0.00960225
9778.00   0.78611845   0.01000300
9780.00   0.79419029   0.01038455
9782.00   0.79605955   0.01076191
9784.00   0.79137468   0.01121608
9786.00   0.77388728   0.01189153
9788.00   0.76317036   0.01223563
9790.00   0.76094729   0.01232562
9792.00   0.75739110   0.01221194
9794.00   0.74250185   0.01179750
9796.00   0.71966141   0.01104889
9798.00   0.71863145   0.01090009
9800.00   0.74268752   0.01111993
9802.00   0.74864757   0.01149435
9804.00   0.73847157   0.01247871
9806.00   0.73112810   0.01294915
9808.00   0.73635238   0.01223545
9810.00   0.74745315   0.01074554
9812.00   0.75230366   0.01016789
9814.00   0.75193262   0.01014007
9816.00   0.75764680   0.01014374
9818.00   0.77806145   0.01059370
9820.00   0.78044713   0.01076245
9822.00   0.74513006   0.01031293
9824.00   0.69927686   0.00967334
9826.00   0.69732702   0.00979221
9828.00   0.73027545   0.01060761
9830.00   0.74463570   0.01074402
9832.00   0.76394194   0.01044390
9834.00   0.76748627   0.01028059
9836.00   0.74406755   0.01030290
9838.00   0.71777558   0.01038325
9840.00   0.71916378   0.01043929
9842.00   0.73843682   0.01050001
9844.00   0.75220698   0.01060829
9846.00   0.78045374   0.01087029
9848.00   0.78476185   0.01090998
9850.00   0.75966060   0.01045416
9852.00   0.73030168   0.01025333
9854.00   0.71119314   0.01112783
9856.00   0.69427621   0.01259767
9858.00   0.70255297   0.01274655
9860.00   0.75003010   0.01170991
9862.00   0.76581556   0.01133727
9864.00   0.75585419   0.01126991
9866.00   0.74590850   0.01144008
9868.00   0.74855274   0.01199637
9870.00   0.75470555   0.01272680
9872.00   0.74811429   0.01275903
9874.00   0.73036510   0.01205709
9876.00   0.71618962   0.01186299
9878.00   0.69056332   0.01194111
9880.00   0.68300754   0.01195590
9882.00   0.70832849   0.01181877
9884.00   0.74562502   0.01163282
9886.00   0.75732899   0.01150430
9888.00   0.75309289   0.01134269
9890.00   0.75600868   0.01137422
9892.00   0.76366961   0.01170581
9894.00   0.76214105   0.01181115
9896.00   0.74187809   0.01150386
9898.00   0.72376841   0.01121780
9900.00   0.73622888   0.01149451
9902.00   0.77429616   0.01213969
9904.00   0.78262776   0.01267936
9906.00   0.77680904   0.01350984
9908.00   0.76422250   0.01384962
9910.00   0.73137558   0.01360653
9912.00   0.70735389   0.01334144
9914.00   0.71991807   0.01352273
9916.00   0.75667572   0.01392932
9918.00   0.76331520   0.01386860
9920.00   0.75082445   0.01348812
9922.00   0.74406826   0.01306631
9924.00   0.73699182   0.01235997
9926.00   0.73027390   0.01177697
9928.00   0.72235149   0.01149901
9930.00   0.71528399   0.01145617
9932.00   0.72057229   0.01176216
9934.00   0.74115831   0.01241353
9936.00   0.75210863   0.01316173
9938.00   0.76375115   0.01427046
9940.00   0.76793474   0.01509005
9942.00   0.75805050   0.01549397
9944.00   0.74446100   0.01574673
9946.00   0.74746972   0.01617221
9948.00   0.76272303   0.01675230
9950.00   0.77292800   0.01694641
9952.00   0.79538584   0.01693936
9954.00   0.79477310   0.01671632
9956.00   0.75655437   0.01613752
9958.00   0.71516258   0.01545242
9960.00   0.71038842   0.01499868
9962.00   0.72964156   0.01463344
9964.00   0.73357683   0.01443092
9966.00   0.73750830   0.01449081
9968.00   0.73368907   0.01445637
9970.00   0.71293938   0.01440750
9972.00   0.69991040   0.01428701
9974.00   0.71547776   0.01400359
9976.00   0.74959785   0.01358929
9978.00   0.76702255   0.01332880
9980.00   0.78117323   0.01312228
9982.00   0.78789073   0.01299377
9984.00   0.78439510   0.01298187
9986.00   0.78052849   0.01297956
9988.00   0.77933067   0.01282613
9990.00   0.77907419   0.01269296
9992.00   0.78237081   0.01323420
9994.00   0.79372954   0.01458844
9996.00   0.79362446   0.01515931
9998.00   0.78349870   0.01531432
10000.00   0.77561539   0.01550425
10002.00   0.77079892   0.01569638
10004.00   0.76867568   0.01598085
10006.00   0.77410716   0.01672838
10008.00   0.79377848   0.01805975
10010.00   0.78563190   0.01840739
10012.00   0.74852353   0.01811015
10014.00   0.72489989   0.01774922
10016.00   0.71266603   0.01713340
10018.00   0.71021134   0.01655610
10020.00   0.72345573   0.01654237
10022.00   0.75394988   0.01697771
10024.00   0.76530021   0.01693035
10026.00   0.76303601   0.01659431
10028.00   0.76722294   0.01631118
10030.00   0.77742475   0.01595193
10032.00   0.78672373   0.01568779
10034.00   0.78994358   0.01571624
10036.00   0.78970456   0.01594101
10038.00   0.79713005   0.01586570
10040.00   0.81656176   0.01537191
10042.00   0.82105255   0.01540572
10044.00   0.81526023   0.01592721
10046.00   0.80444658   0.01640845
10048.00   0.78591442   0.01673041
10050.00   0.76402462   0.01696532
10052.00   0.76087165   0.01694886
10054.00   0.77903557   0.01656171
10056.00   0.77916509   0.01646370
10058.00   0.76627636   0.01646721
10060.00   0.75943184   0.01655128
10062.00   0.76194853   0.01671404
10064.00   0.76921308   0.01695299
10066.00   0.77880019   0.01727256
10068.00   0.79581463   0.01772832
10070.00   0.79932797   0.01799909
10072.00   0.79054910   0.01804917
10074.00   0.78547865   0.01830442
10076.00   0.78331411   0.01887666
10078.00   0.78312081   0.01942610
10080.00   0.78563368   0.01967583
10082.00   0.79062641   0.01978107
10084.00   0.79711038   0.01957582
10086.00   0.81168520   0.01885681
10088.00   0.81458527   0.01839385
10090.00   0.80222869   0.01810366
10092.00   0.79159987   0.01789496
10094.00   0.79208040   0.01765209
10096.00   0.79871446   0.01744064
10098.00   0.81402975   0.01788844
10100.00   0.85295749   0.01914820
10102.00   0.86329883   0.01984235
10104.00   0.84795815   0.02053667
10106.00   0.83434409   0.02074341
10108.00   0.82929093   0.01993820
10110.00   0.82891840   0.01866026
10112.00   0.84069502   0.01888618
10114.00   0.87024206   0.02013119
10116.00   0.88606262   0.02136198
10118.00   0.91335702   0.02374097
10120.00   0.90749687   0.02463321
10122.00   0.84499228   0.02333850
10124.00   0.76641518   0.02112650
10126.00   0.73427463   0.02015354
10128.00   0.72481018   0.01970677
10130.00   0.72939229   0.01948191
10132.00   0.77375484   0.02003627
10134.00   0.78867453   0.02003486
10136.00   0.75939387   0.01889900
10138.00   0.73106754   0.01808200
10140.00   0.74673653   0.01927371
10142.00   0.79042768   0.02167391
10144.00   0.82421601   0.02349319
10146.00   0.88334239   0.02644812
10148.00   0.89600807   0.02697610
10150.00   0.85312742   0.02468699
10152.00   0.80884397   0.02220673
10154.00   0.79552150   0.02168799
10156.00   0.79530770   0.02214403
10158.00   0.78556657   0.02175216
10160.00   0.77765971   0.02032601
10162.00   0.76024199   0.02054049
10164.00   0.72777808   0.02222727
10166.00   0.70290071   0.02379818
10168.00   0.69038993   0.02514957
10170.00   0.68790472   0.02625901
10172.00   0.70435548   0.02609978
10174.00   0.74873346   0.02443937
10176.00   0.77361083   0.02362788
10178.00   0.79137355   0.02276417
10180.00   0.80752486   0.02246078
10182.00   0.82438737   0.02295102
10184.00   0.83780116   0.02382992
10186.00   0.84025520   0.02465647
10188.00   0.82870513   0.02580762
10190.00   0.83694875   0.02611504
10192.00   0.87069607   0.02567258
10194.00   0.88038868   0.02539559
10196.00   0.86169124   0.02509488
10198.00   0.83472019   0.02499839
10200.00   0.81495023   0.02550842
10202.00   0.79537517   0.02650480
10204.00   0.77440786   0.02691550
10206.00   0.75420690   0.02740736
10208.00   0.72958827   0.02704885
10210.00   0.68853039   0.02533994
10212.00   0.66309339   0.02377144
10214.00   0.67948967   0.02335571
10216.00   0.72157264   0.02362831
10218.00   0.72875237   0.02438217
10220.00   0.71568662   0.02619168
10222.00   0.70474893   0.02714981
10224.00   0.68086559   0.02796913
10226.00   0.66839856   0.02824580
10228.00   0.68184465   0.02770783
10230.00   0.70487595   0.02665501
10232.00   0.70055097   0.02585479
10234.00   0.66753262   0.02491724
10236.00   0.66630876   0.02421769
10238.00   0.69733304   0.02352346
10240.00   0.70668322   0.02322749
10242.00   0.67539287   0.02340581
10244.00   0.63901371   0.02393808
10246.00   0.64638275   0.02484764
10248.00   0.68637884   0.02650318
10250.00   0.70640719   0.02642880
10252.00   0.72326994   0.02434540
10254.00   0.73667103   0.02343689
10256.00   0.74963218   0.02380800
10258.00   0.75549525   0.02468722
10260.00   0.74328911   0.02569556
10262.00   0.71435827   0.02701706
10264.00   0.71848887   0.02796588
10266.00   0.75707364   0.02911194
10268.00   0.77248281   0.02944192
10270.00   0.76990241   0.02870239
10272.00   0.76485580   0.02807359
10274.00   0.76235843   0.02795847
10276.00   0.76002294   0.02820153
10278.00   0.76899469   0.03017830
10280.00   0.79392487   0.03422788
10282.00   0.80603772   0.03653651
10284.00   0.81681567   0.03870381
10286.00   0.81657594   0.03972891
10288.00   0.80414230   0.03927892
10290.00   0.77956009   0.03776642
10292.00   0.73421252   0.03570499
10294.00   0.63631654   0.03122956
10296.00   0.62824845   0.03026213
10298.00   0.71736580   0.03236688
10300.00   0.75732428   0.03421137
10302.00   0.71257931   0.03631880
10304.00   0.65388280   0.03780614
10306.00   0.66750526   0.03659529
10308.00   0.73609930   0.03239014
10310.00   0.74590445   0.03111983
10312.00   0.72084123   0.03226658
10314.00   0.69870448   0.03224060
10316.00   0.67535800   0.03096358
10318.00   0.65023154   0.02948106
10320.00   0.61906606   0.02854622
10322.00   0.57975358   0.02782325
10324.00   0.59488463   0.02756803
10326.00   0.70148605   0.02811064
10328.00   0.71326190   0.02817318
10330.00   0.62677288   0.02787854
10332.00   0.54697710   0.02758070
10334.00   0.52173620   0.02738347
10336.00   0.52323121   0.02724472
10338.00   0.54752719   0.02747298
10340.00   0.64269167   0.02818117
10342.00   0.65207976   0.02858935
10344.00   0.58892787   0.02905447
10346.00   0.53696209   0.02921523
10348.00   0.51000822   0.02874052
10350.00   0.50002277   0.02807233
10352.00   0.53225076   0.02834437
10354.00   0.64059532   0.02947499
10356.00   0.64276445   0.02992427
10358.00   0.53673911   0.03010705
10360.00   0.49016318   0.03022807
10362.00   0.54405928   0.03021987
10364.00   0.61167598   0.03020938
10366.00   0.58570862   0.03037249
10368.00   0.48271775   0.03052100
10370.00   0.48703435   0.03136351
10372.00   0.59326714   0.03297355
10374.00   0.63664782   0.03425562
10376.00   0.62054276   0.03624118
10378.00   0.58438706   0.03693987
10380.00   0.54837340   0.03393827
10382.00   0.50157744   0.02705256
10384.00   0.46554530   0.02451788
10386.00   0.42783070   0.02594268
10388.00   0.40507174   0.02619087
10390.00   0.40907025   0.02601048
10392.00   0.40096375   0.02633718
10394.00   0.35112050   0.02781305
10396.00   0.28172940   0.02979703
10398.00   0.26677203   0.03042999
10400.00   0.28438359   0.03019231
10402.00   0.31863075   0.02998134
10404.00   0.39963078   0.02932305
10406.00   0.45745379   0.02878534
10408.00   0.47255149   0.02830739
10410.00   0.46566331   0.02808990
10412.00   0.45804191   0.02904185
10414.00   0.44663310   0.03170154
10416.00   0.40911403   0.03182509
10418.00   0.31695881   0.02962963
10420.00   0.27345228   0.02832176
10422.00   0.30035752   0.02858136
10424.00   0.34807125   0.02911102
10426.00   0.36221278   0.02853640
10428.00   0.35944137   0.02701991
10430.00   0.38421938   0.02719703
10432.00   0.45008433   0.02916010
10434.00   0.47114354   0.02993109
10436.00   0.44613871   0.02995381
10438.00   0.40461117   0.02928756
10440.00   0.35762197   0.02735756
10442.00   0.29676843   0.02396478
10444.00   0.28829432   0.02318820
10446.00   0.33353755   0.02494664
10448.00   0.35530624   0.02565743
10450.00   0.37560657   0.02631108
10452.00   0.38187760   0.02647851
10454.00   0.36336353   0.02563784
10456.00   0.32848281   0.02417057
10458.00   0.30246741   0.02389559
10460.00   0.25062430   0.02438866
10462.00   0.25948980   0.02497620
10464.00   0.34561959   0.02614140
10466.00   0.39330858   0.02700660
10468.00   0.35999361   0.02745207
10470.00   0.29985815   0.02763415
10472.00   0.29496047   0.02746255
10474.00   0.31487983   0.02631970
10476.00   0.35239205   0.02707734
10478.00   0.45028153   0.02981312
10480.00   0.48949742   0.03132688
10482.00   0.44575799   0.03189285
10484.00   0.37814206   0.03159080
10486.00   0.34564885   0.02961357
10488.00   0.32177100   0.02506429
10490.00   0.31411085   0.02418251
10492.00   0.34804481   0.02713928
10494.00   0.33733562   0.02794573
10496.00   0.26385328   0.02649681
10498.00   0.19870956   0.02526472
10500.00   0.20005383   0.02632606
10502.00   0.24182829   0.02862779
10504.00   0.24179742   0.02974155
10506.00   0.20776413   0.03114424
10508.00   0.20570813   0.03094486
10510.00   0.22667924   0.02830039
10512.00   0.25488216   0.02625096
10514.00   0.29311785   0.02699685
10516.00   0.33557627   0.02894558
10518.00   0.33528343   0.02889836
10520.00   0.28977656   0.02710411
10522.00   0.26646346   0.02674473
10524.00   0.23924534   0.02705640
10526.00   0.22515313   0.02761989
10528.00   0.23292167   0.02859555
10530.00   0.24989405   0.02962017
10532.00   0.25292510   0.02978520
10534.00   0.24472338   0.02917387
10536.00   0.25478122   0.02915303
10538.00   0.28581274   0.02961081
10540.00   0.30284810   0.02962906
10542.00   0.30341080   0.02897488
10544.00   0.29628718   0.02820476
10546.00   0.28611261   0.02787063
10548.00   0.26811102   0.02763269
10550.00   0.26355305   0.02835727
10552.00   0.27227464   0.03041875
10554.00   0.27325371   0.03153945
10556.00   0.25844648   0.03208458
10558.00   0.25434858   0.03219934
10560.00   0.28743848   0.03165377
10562.00   0.34604520   0.03049009
10564.00   0.35805437   0.03062487
10566.00   0.33721602   0.03214806
10568.00   0.31953648   0.03258526
10570.00   0.28820533   0.03233211
10572.00   0.26477638   0.03194229
10574.00   0.26197144   0.03133767
10576.00   0.26933220   0.03069788
10578.00   0.26350942   0.03149407
10580.00   0.24259040   0.03399390
10582.00   0.24346015   0.03504917
10584.00   0.25930241   0.03584140
10586.00   0.27852833   0.03587834
10588.00   0.31090865   0.03464254
10590.00   0.33856890   0.03289074
10592.00   0.31587330   0.03235006
10594.00   0.24041848   0.03257436
10596.00   0.21015045   0.03267293
10598.00   0.19932780   0.03301900
10600.00   0.19391744   0.03332120
10602.00   0.19475418   0.03362808
10604.00   0.20189402   0.03387724
10606.00   0.21547069   0.03395434
10608.00   0.23820728   0.03389796
10610.00   0.24697371   0.03382277
10612.00   0.25188065   0.03322506
10614.00   0.24494883   0.03356089
10616.00   0.21676846   0.03514073
10618.00   0.19280007   0.03655121
10620.00   0.19081239   0.03703620
10622.00   0.20178013   0.03703808
10624.00   0.21685998   0.03650536
10626.00   0.24882330   0.03468625
10628.00   0.26581353   0.03398278
10630.00   0.27344638   0.03427906
10632.00   0.27728885   0.03446632
10634.00   0.28163314   0.03411511
10636.00   0.28214914   0.03354022
10638.00   0.26482567   0.03307115
10640.00   0.21520565   0.03237394
10642.00   0.20404534   0.03221193
10644.00   0.22160539   0.03259778
10646.00   0.23589756   0.03287364
10648.00   0.24424379   0.03307565
10650.00   0.24883282   0.03309644
10652.00   0.24256031   0.03243165
10654.00   0.22069612   0.03082029
10656.00   0.22078013   0.03035782
10658.00   0.25009385   0.03092418
10660.00   0.25192654   0.03102717
10662.00   0.21723823   0.03069508
10664.00   0.17385361   0.03009355
10666.00   0.14290418   0.02907002
10668.00   0.11003763   0.02739514
10670.00   0.11954712   0.02727968
10672.00   0.18724939   0.02899150
10674.00   0.21773972   0.02946369
10676.00   0.21854818   0.02879616
10678.00   0.21039526   0.02807516
10680.00   0.20091738   0.02803459
10682.00   0.18608969   0.02830321
10684.00   0.18195149   0.02804760
10686.00   0.19026358   0.02757673
10688.00   0.18687272   0.02679128
10690.00   0.17082384   0.02523712
10692.00   0.16054191   0.02404151
10694.00   0.16345437   0.02390243
10696.00   0.17351100   0.02428157
10698.00   0.18319295   0.02405098
10700.00   0.20393065   0.02324469
10702.00   0.20383291   0.02325551
10704.00   0.17884548   0.02422966
10706.00   0.16745439   0.02456329
10708.00   0.18302323   0.02383082
10710.00   0.20384029   0.02270001
10712.00   0.19908084   0.02215234
10714.00   0.17803070   0.02195635
10716.00   0.15704054   0.02139367
10718.00   0.11104030   0.02052636
10720.00   0.09981113   0.01978567
10722.00   0.13968554   0.01919317
10724.00   0.18498102   0.01866092
10726.00   0.19006766   0.01809218
10728.00   0.17156155   0.01747976
10730.00   0.16908365   0.01733866
10732.00   0.16639851   0.01782996
10734.00   0.17347202   0.01794680
10736.00   0.20170759   0.01791359
10738.00   0.21911561   0.01762907
10740.00   0.19956750   0.01674091
10742.00   0.15753669   0.01536366
10744.00   0.14658801   0.01543955
10746.00   0.15998851   0.01688080
10748.00   0.15808605   0.01771402
10750.00   0.13832912   0.01874139
10752.00   0.13452749   0.01922556
10754.00   0.16626307   0.01886152
10756.00   0.21351750   0.01794085
10758.00   0.23029357   0.01700057
10760.00   0.23207246   0.01548246
10762.00   0.22541548   0.01450249
10764.00   0.20338745   0.01389942
10766.00   0.18009168   0.01337858
10768.00   0.14925477   0.01276759
10770.00   0.12294009   0.01238955
10772.00   0.12858509   0.01284099
10774.00   0.16421567   0.01413418
10776.00   0.18026061   0.01457852
10778.00   0.18125805   0.01387151
10780.00   0.20063947   0.01466880
10782.00   0.26116246   0.01782851
10784.00   0.30648458   0.02011130
10786.00   0.27195922   0.01928695
10788.00   0.17566618   0.01592275
10790.00   0.14330545   0.01423061
10792.00   0.13801034   0.01282308
10794.00   0.14444692   0.01227538
10796.00   0.17223904   0.01323654
10798.00   0.20477502   0.01409431
10800.00   0.23705910   0.01403592
10802.00   0.27111027   0.01355293
10804.00   0.27375400   0.01318588
10806.00   0.24239711   0.01277359
10808.00   0.22438996   0.01218365
10810.00   0.20559123   0.01115836
10812.00   0.19039212   0.01036525
10814.00   0.17933360   0.01021051
10816.00   0.17259446   0.01039628
10818.00   0.17407905   0.01032716
10820.00   0.18008757   0.00978588
10822.00   0.19927938   0.01047383
10824.00   0.25470403   0.01248495
10826.00   0.27294061   0.01354390
10828.00   0.22736727   0.01346138
10830.00   0.16643886   0.01300638
10832.00   0.15860912   0.01304370
10834.00   0.18963377   0.01335336
10836.00   0.18110360   0.01317264
10838.00   0.13774927   0.01239179
10840.00   0.12047681   0.01201847
10842.00   0.13007732   0.01241982
10844.00   0.15117839   0.01262213
10846.00   0.17735553   0.01158286
10848.00   0.21440037   0.00928182
10850.00   0.22800447   0.00835257
10852.00   0.23116313   0.00881800
10854.00   0.21892445   0.00867970
10856.00   0.18118566   0.00810584
10858.00   0.14531448   0.00759070
10860.00   0.12213738   0.00740968
10862.00   0.10641477   0.00744529
10864.00   0.12214452   0.00769922
10866.00   0.19470133   0.00840914
10868.00   0.21115121   0.00868345
10870.00   0.17723691   0.00872745
