# File created by shivutils (I.Shivvers)
# wl(A)   flm    er(optional)
3440.00   0.11317173   0.01141646
3442.00   0.10183231   0.01111803
3444.00   0.11022296   0.01122580
3446.00   0.09168849   0.01112607
3448.00   0.09935416   0.01126068
3450.00   0.10089385   0.01155204
3452.00   0.08494014   0.01148827
3454.00   0.09747215   0.01131241
3456.00   0.11497423   0.01180505
3458.00   0.10615547   0.01151550
3460.00   0.08450060   0.01109801
3462.00   0.10105553   0.01121543
3464.00   0.09707747   0.01106636
3466.00   0.09560780   0.01132416
3468.00   0.09064384   0.01113737
3470.00   0.10461470   0.01133732
3472.00   0.08906986   0.01091952
3474.00   0.07605477   0.01073289
3476.00   0.08568851   0.01100222
3478.00   0.08383108   0.01140949
3480.00   0.08250329   0.01174388
3482.00   0.09491996   0.01194174
3484.00   0.10522667   0.01189993
3486.00   0.10788037   0.01174907
3488.00   0.09933521   0.01153481
3490.00   0.12699966   0.01197169
3492.00   0.09365335   0.01109323
3494.00   0.08694840   0.01098468
3496.00   0.11104719   0.01133444
3498.00   0.08798748   0.01095299
3500.00   0.09405823   0.01105167
3502.00   0.09375653   0.01099310
3504.00   0.10447025   0.01119525
3506.00   0.09929895   0.01111823
3508.00   0.09649311   0.01090150
3510.00   0.09467611   0.01103093
3512.00   0.10576491   0.01124448
3514.00   0.11332776   0.01108154
3516.00   0.09316756   0.01069245
3518.00   0.10682118   0.01092169
3520.00   0.10937577   0.01097288
3522.00   0.10290106   0.01065459
3524.00   0.09992272   0.01065529
3526.00   0.11739096   0.01089046
3528.00   0.08985280   0.01043396
3530.00   0.11593118   0.01078591
3532.00   0.09484363   0.01047040
3534.00   0.11517169   0.01084028
3536.00   0.10221286   0.01071943
3538.00   0.09994773   0.01060449
3540.00   0.10974487   0.01109256
3542.00   0.11632787   0.01146331
3544.00   0.11706447   0.01165096
3546.00   0.08151919   0.01082209
3548.00   0.11360829   0.01135031
3550.00   0.13191475   0.01140707
3552.00   0.11392217   0.01124881
3554.00   0.11286427   0.01127184
3556.00   0.10666702   0.01096378
3558.00   0.13256441   0.01136906
3560.00   0.11096906   0.01086515
3562.00   0.10545231   0.01053609
3564.00   0.12336013   0.01070797
3566.00   0.11507598   0.01047069
3568.00   0.09668537   0.01032072
3570.00   0.11789759   0.01061543
3572.00   0.09848122   0.01045267
3574.00   0.11563233   0.01064413
3576.00   0.11069351   0.01037942
3578.00   0.10521058   0.00999344
3580.00   0.12287565   0.01035443
3582.00   0.12298796   0.01007563
3584.00   0.10220367   0.00940537
3586.00   0.10445009   0.00927902
3588.00   0.11703893   0.00970654
3590.00   0.13281201   0.01007358
3592.00   0.11230467   0.00963193
3594.00   0.10576867   0.00927053
3596.00   0.11281586   0.00950451
3598.00   0.09921536   0.00909885
3600.00   0.10488987   0.00922681
3602.00   0.11038961   0.00921106
3604.00   0.12762126   0.00933065
3606.00   0.11086328   0.00911683
3608.00   0.12411683   0.00919828
3610.00   0.12624432   0.00931268
3612.00   0.11719842   0.00943363
3614.00   0.12934552   0.00986957
3616.00   0.10808008   0.00934479
3618.00   0.11887170   0.00940647
3620.00   0.11921953   0.00919159
3622.00   0.09865715   0.00876889
3624.00   0.10693559   0.00881421
3626.00   0.10282526   0.00866558
3628.00   0.11420159   0.00902898
3630.00   0.11606026   0.00930624
3632.00   0.10905747   0.00915936
3634.00   0.11682180   0.00914734
3636.00   0.11119822   0.00891614
3638.00   0.11609384   0.00895214
3640.00   0.11685323   0.00913219
3642.00   0.09553900   0.00916680
3644.00   0.10414679   0.00944033
3646.00   0.11205084   0.00982770
3648.00   0.11465199   0.01211197
3650.00   0.13542132   0.01359525
3652.00   0.11279976   0.01269024
3654.00   0.11861517   0.01145206
3656.00   0.12021063   0.01076488
3658.00   0.11734235   0.00943635
3660.00   0.10071953   0.00946337
3662.00   0.11833229   0.01040991
3664.00   0.12463303   0.01029114
3666.00   0.13447277   0.00910103
3668.00   0.12630261   0.00847139
3670.00   0.11299019   0.00808293
3672.00   0.12185999   0.00817642
3674.00   0.11728835   0.00791852
3676.00   0.12933187   0.00802963
3678.00   0.12951688   0.00796784
3680.00   0.11373986   0.00766290
3682.00   0.12737906   0.00785854
3684.00   0.12839808   0.00777893
3686.00   0.13249680   0.00776685
3688.00   0.12101541   0.00760774
3690.00   0.11889139   0.00770563
3692.00   0.11482844   0.00772214
3694.00   0.13223450   0.00778701
3696.00   0.12108221   0.00770389
3698.00   0.11056448   0.00756674
3700.00   0.14181276   0.00799805
3702.00   0.13110888   0.00789747
3704.00   0.13587421   0.00783088
3706.00   0.13687789   0.00781239
3708.00   0.13540250   0.00772939
3710.00   0.12971084   0.00754164
3712.00   0.11225355   0.00729905
3714.00   0.10709393   0.00715989
3716.00   0.10803540   0.00721468
3718.00   0.11426987   0.00726417
3720.00   0.12538297   0.00742811
3722.00   0.13287824   0.00750506
3724.00   0.13596793   0.00751203
3726.00   0.12641519   0.00755406
3728.00   0.12131478   0.00746134
3730.00   0.13825034   0.00764895
3732.00   0.12141366   0.00729357
3734.00   0.12907714   0.00731415
3736.00   0.12892303   0.00737987
3738.00   0.13083667   0.00747771
3740.00   0.12770039   0.00749097
3742.00   0.14404403   0.00764861
3744.00   0.12660784   0.00728730
3746.00   0.14185525   0.00730040
3748.00   0.13220707   0.00718748
3750.00   0.13623868   0.00723973
3752.00   0.13028730   0.00726312
3754.00   0.14683658   0.00736855
3756.00   0.12478165   0.00711927
3758.00   0.12712908   0.00716009
3760.00   0.12374478   0.00700067
3762.00   0.14347935   0.00714809
3764.00   0.13762702   0.00700411
3766.00   0.13561921   0.00706631
3768.00   0.13763760   0.00701885
3770.00   0.13683571   0.00709973
3772.00   0.15050201   0.00727494
3774.00   0.18578722   0.00761210
3776.00   0.24015921   0.00837121
3778.00   0.24047254   0.00820310
3780.00   0.18512401   0.00760021
3782.00   0.13473663   0.00703624
3784.00   0.13450187   0.00693118
3786.00   0.14405726   0.00694285
3788.00   0.13451502   0.00682263
3790.00   0.15655470   0.00724362
3792.00   0.13510738   0.00693158
3794.00   0.13115996   0.00680120
3796.00   0.15274365   0.00692519
3798.00   0.12424899   0.00650276
3800.00   0.13439395   0.00665329
3802.00   0.12915270   0.00683576
3804.00   0.14397986   0.00699574
3806.00   0.16429366   0.00703495
3808.00   0.14885543   0.00677082
3810.00   0.15003745   0.00680087
3812.00   0.15473288   0.00691406
3814.00   0.16294397   0.00703936
3816.00   0.14873630   0.00683003
3818.00   0.12974027   0.00657085
3820.00   0.13654113   0.00663003
3822.00   0.12960947   0.00656450
3824.00   0.16230685   0.00682279
3826.00   0.14666994   0.00674711
3828.00   0.16115423   0.00707047
3830.00   0.14549442   0.00696185
3832.00   0.17433602   0.00714795
3834.00   0.16399212   0.00697724
3836.00   0.16410252   0.00697575
3838.00   0.16193551   0.00695952
3840.00   0.16812059   0.00696675
3842.00   0.16009821   0.00684341
3844.00   0.15968688   0.00680992
3846.00   0.13069567   0.00640472
3848.00   0.14443265   0.00646552
3850.00   0.15618044   0.00656497
3852.00   0.15104069   0.00651754
3854.00   0.15982379   0.00662173
3856.00   0.17571847   0.00675090
3858.00   0.18293694   0.00678786
3860.00   0.18076162   0.00677278
3862.00   0.16631025   0.00676587
3864.00   0.17070079   0.00668971
3866.00   0.16939327   0.00664164
3868.00   0.18717796   0.00682364
3870.00   0.16707399   0.00656746
3872.00   0.17109233   0.00679106
3874.00   0.17722093   0.00700110
3876.00   0.16486713   0.00671498
3878.00   0.15722989   0.00644260
3880.00   0.14793681   0.00626865
3882.00   0.15346082   0.00628749
3884.00   0.15148902   0.00622975
3886.00   0.15578306   0.00630246
3888.00   0.15351842   0.00623064
3890.00   0.14818314   0.00617039
3892.00   0.16034715   0.00633339
3894.00   0.16609791   0.00649709
3896.00   0.16934913   0.00661790
3898.00   0.17426437   0.00657310
3900.00   0.18771531   0.00676659
3902.00   0.18821301   0.00683438
3904.00   0.17892440   0.00698867
3906.00   0.19546740   0.00773202
3908.00   0.19515480   0.00801108
3910.00   0.18235248   0.00802319
3912.00   0.18724349   0.00798659
3914.00   0.18285525   0.00760195
3916.00   0.18587396   0.00719584
3918.00   0.19407374   0.00707957
3920.00   0.19541629   0.00691794
3922.00   0.18841714   0.00676645
3924.00   0.17031048   0.00657269
3926.00   0.17799832   0.00655318
3928.00   0.18446872   0.00651600
3930.00   0.16992186   0.00645105
3932.00   0.16707708   0.00670901
3934.00   0.16707842   0.00668256
3936.00   0.18335602   0.00650980
3938.00   0.19145750   0.00650428
3940.00   0.18790714   0.00656009
3942.00   0.18260108   0.00674289
3944.00   0.18451487   0.00685635
3946.00   0.18267603   0.00674765
3948.00   0.19404143   0.00667245
3950.00   0.18996529   0.00655794
3952.00   0.18398836   0.00650191
3954.00   0.18776701   0.00649246
3956.00   0.19369881   0.00648910
3958.00   0.19497320   0.00662533
3960.00   0.19060765   0.00687934
3962.00   0.19531056   0.00686437
3964.00   0.20680347   0.00661634
3966.00   0.19623518   0.00635263
3968.00   0.19081081   0.00626361
3970.00   0.20614280   0.00635130
3972.00   0.19487010   0.00640260
3974.00   0.18930799   0.00632332
3976.00   0.19037651   0.00640167
3978.00   0.20194274   0.00648257
3980.00   0.17909580   0.00622814
3982.00   0.17742544   0.00616676
3984.00   0.15201339   0.00585168
3986.00   0.11558657   0.00543673
3988.00   0.10527536   0.00541229
3990.00   0.14387448   0.00586253
3992.00   0.17746846   0.00621116
3994.00   0.19387180   0.00661671
3996.00   0.19107535   0.00676388
3998.00   0.17774494   0.00659310
4000.00   0.20298146   0.00659477
4002.00   0.19216341   0.00639230
4004.00   0.19979307   0.00638486
4006.00   0.19005658   0.00638989
4008.00   0.19955711   0.00655093
4010.00   0.18151598   0.00648205
4012.00   0.17977718   0.00638962
4014.00   0.18211956   0.00633521
4016.00   0.18717250   0.00645395
4018.00   0.17878015   0.00696314
4020.00   0.15457045   0.00735997
4022.00   0.14047292   0.00735964
4024.00   0.14698693   0.00723313
4026.00   0.16100645   0.00689003
4028.00   0.16932881   0.00666216
4030.00   0.19264653   0.00688693
4032.00   0.20256113   0.00685581
4034.00   0.20990816   0.00677164
4036.00   0.19642991   0.00661364
4038.00   0.18517546   0.00644102
4040.00   0.19855493   0.00653586
4042.00   0.20482557   0.00691431
4044.00   0.19799127   0.00972711
4046.00   0.21356484   0.01175374
4048.00   0.20143414   0.01049718
4050.00   0.21562126   0.00766281
4052.00   0.21663810   0.00714367
4054.00   0.23016186   0.00728478
4056.00   0.21432076   0.00698719
4058.00   0.21677662   0.00665182
4060.00   0.21068361   0.00653909
4062.00   0.21168391   0.00649425
4064.00   0.21269728   0.00647373
4066.00   0.21852615   0.00649885
4068.00   0.21097033   0.00644216
4070.00   0.21378350   0.00638149
4072.00   0.21982864   0.00635976
4074.00   0.21625158   0.00657461
4076.00   0.21391521   0.00718333
4078.00   0.21666722   0.00733839
4080.00   0.22641271   0.00720515
4082.00   0.22423963   0.00704116
4084.00   0.21866176   0.00696332
4086.00   0.23190250   0.00686390
4088.00   0.22451176   0.00659732
4090.00   0.21561411   0.00625108
4092.00   0.23503442   0.00631976
4094.00   0.23221490   0.00629929
4096.00   0.21800199   0.00620222
4098.00   0.22457622   0.00624344
4100.00   0.21611695   0.00616208
4102.00   0.22805718   0.00613564
4104.00   0.23590891   0.00616519
4106.00   0.22825672   0.00617724
4108.00   0.22935666   0.00620523
4110.00   0.21908207   0.00606084
4112.00   0.23405108   0.00614531
4114.00   0.22953291   0.00616186
4116.00   0.22750755   0.00611357
4118.00   0.22893186   0.00602222
4120.00   0.22879788   0.00595763
4122.00   0.22168352   0.00594488
4124.00   0.22403306   0.00597774
4126.00   0.23262616   0.00604251
4128.00   0.22364058   0.00600146
4130.00   0.22210222   0.00616133
4132.00   0.22254242   0.00627457
4134.00   0.22944488   0.00632299
4136.00   0.23165062   0.00614189
4138.00   0.22642039   0.00626592
4140.00   0.22609635   0.00633512
4142.00   0.23600380   0.00624345
4144.00   0.23571660   0.00599530
4146.00   0.22831452   0.00593085
4148.00   0.20743854   0.00582738
4150.00   0.20990674   0.00607028
4152.00   0.21285461   0.00622012
4154.00   0.20935453   0.00604588
4156.00   0.21019423   0.00582811
4158.00   0.20632434   0.00575368
4160.00   0.20769224   0.00584113
4162.00   0.20263410   0.00603436
4164.00   0.21203415   0.00643383
4166.00   0.22213224   0.00642695
4168.00   0.22840777   0.00612523
4170.00   0.22317165   0.00598822
4172.00   0.22730871   0.00583747
4174.00   0.24205105   0.00590286
4176.00   0.23626715   0.00594687
4178.00   0.23398533   0.00598245
4180.00   0.23178631   0.00589880
4182.00   0.23007803   0.00580472
4184.00   0.22948942   0.00575749
4186.00   0.24219312   0.00585383
4188.00   0.24252637   0.00587793
4190.00   0.24071281   0.00583927
4192.00   0.24932340   0.00591969
4194.00   0.24697351   0.00591859
4196.00   0.24423803   0.00577635
4198.00   0.24331035   0.00573322
4200.00   0.22526674   0.00560333
4202.00   0.23078315   0.00569755
4204.00   0.25439879   0.00587628
4206.00   0.24934734   0.00588229
4208.00   0.23198368   0.00582193
4210.00   0.23482698   0.00591731
4212.00   0.23958063   0.00589211
4214.00   0.24658979   0.00589850
4216.00   0.24737695   0.00590059
4218.00   0.24813224   0.00587780
4220.00   0.24018934   0.00580094
4222.00   0.24229130   0.00580850
4224.00   0.24435467   0.00580850
4226.00   0.24211904   0.00575044
4228.00   0.23939246   0.00574138
4230.00   0.24619207   0.00585680
4232.00   0.24255615   0.00591207
4234.00   0.23623450   0.00590226
4236.00   0.24531810   0.00594812
4238.00   0.26050404   0.00608701
4240.00   0.24860018   0.00582086
4242.00   0.24700031   0.00571693
4244.00   0.23602349   0.00612628
4246.00   0.24096841   0.00657318
4248.00   0.25077584   0.00642410
4250.00   0.24616864   0.00587232
4252.00   0.24324994   0.00565973
4254.00   0.23056760   0.00560790
4256.00   0.25116256   0.00574695
4258.00   0.24218512   0.00567626
4260.00   0.24018614   0.00559617
4262.00   0.25234652   0.00565251
4264.00   0.25037375   0.00558859
4266.00   0.24786584   0.00556750
4268.00   0.25635776   0.00565711
4270.00   0.24580351   0.00557233
4272.00   0.25346610   0.00565040
4274.00   0.24828438   0.00559389
4276.00   0.25329617   0.00568022
4278.00   0.23764636   0.00560835
4280.00   0.24695252   0.00565628
4282.00   0.23278627   0.00556898
4284.00   0.23421656   0.00552962
4286.00   0.24844590   0.00556767
4288.00   0.24322622   0.00552919
4290.00   0.25036269   0.00555224
4292.00   0.25406697   0.00560536
4294.00   0.24166955   0.00555400
4296.00   0.25232023   0.00562441
4298.00   0.25695229   0.00562857
4300.00   0.25657824   0.00555517
4302.00   0.25751576   0.00552895
4304.00   0.23571196   0.00547520
4306.00   0.24648684   0.00559431
4308.00   0.24582636   0.00555410
4310.00   0.25590029   0.00568946
4312.00   0.24830759   0.00603783
4314.00   0.24202025   0.00611624
4316.00   0.24525033   0.00586693
4318.00   0.25665402   0.00592173
4320.00   0.24466777   0.00598398
4322.00   0.26902151   0.00609129
4324.00   0.25571865   0.00591331
4326.00   0.24947755   0.00579463
4328.00   0.24051441   0.00556823
4330.00   0.24064748   0.00550567
4332.00   0.24827501   0.00553101
4334.00   0.26074380   0.00561180
4336.00   0.26136446   0.00569520
4338.00   0.24780695   0.00568113
4340.00   0.25935644   0.00577070
4342.00   0.25552705   0.00575490
4344.00   0.25116876   0.00582047
4346.00   0.24258406   0.00596215
4348.00   0.25028545   0.00604948
4350.00   0.25699881   0.00590133
4352.00   0.24853906   0.00579427
4354.00   0.23048918   0.00660958
4356.00   0.20857844   0.01189822
4358.00   0.23527205   0.01201666
4360.00   0.23482485   0.01011406
4362.00   0.23080280   0.00676563
4364.00   0.23151867   0.00602995
4366.00   0.24320252   0.00595191
4368.00   0.24078029   0.00585658
4370.00   0.23771663   0.00577749
4372.00   0.25477031   0.00604323
4374.00   0.25002497   0.00612950
4376.00   0.24171841   0.00588080
4378.00   0.26052350   0.00577960
4380.00   0.25464424   0.00566217
4382.00   0.23470673   0.00549021
4384.00   0.25192866   0.00555079
4386.00   0.24110121   0.00546508
4388.00   0.24895647   0.00552985
4390.00   0.24518187   0.00555988
4392.00   0.24492776   0.00550573
4394.00   0.23852323   0.00541765
4396.00   0.25956264   0.00559030
4398.00   0.26714689   0.00579984
4400.00   0.23870601   0.00572572
4402.00   0.21866649   0.00543575
4404.00   0.22555752   0.00537433
4406.00   0.24760674   0.00548614
4408.00   0.23361279   0.00545489
4410.00   0.25127575   0.00556929
4412.00   0.24873537   0.00558565
4414.00   0.25022450   0.00572809
4416.00   0.25917861   0.00574353
4418.00   0.24668589   0.00555204
4420.00   0.27180117   0.00567543
4422.00   0.26216972   0.00559964
4424.00   0.27166912   0.00565337
4426.00   0.25871056   0.00555124
4428.00   0.25936747   0.00555244
4430.00   0.25240615   0.00551613
4432.00   0.25574690   0.00551893
4434.00   0.26253316   0.00550869
4436.00   0.25847548   0.00550411
4438.00   0.26262012   0.00556272
4440.00   0.26343226   0.00554500
4442.00   0.25337014   0.00545196
4444.00   0.24171565   0.00537743
4446.00   0.24700330   0.00540073
4448.00   0.26683444   0.00549587
4450.00   0.26670179   0.00548915
4452.00   0.26794672   0.00549006
4454.00   0.27586740   0.00555263
4456.00   0.27863079   0.00554300
4458.00   0.26582551   0.00549794
4460.00   0.27379280   0.00553281
4462.00   0.26467738   0.00545228
4464.00   0.26071173   0.00540744
4466.00   0.25339243   0.00536267
4468.00   0.25808775   0.00538337
4470.00   0.26380408   0.00537993
4472.00   0.26798999   0.00541431
4474.00   0.26117110   0.00540095
4476.00   0.28227046   0.00553142
4478.00   0.26726034   0.00544673
4480.00   0.26456541   0.00547413
4482.00   0.27304432   0.00548317
4484.00   0.27959701   0.00549408
4486.00   0.28729942   0.00557432
4488.00   0.27600008   0.00549464
4490.00   0.28038791   0.00554699
4492.00   0.27276510   0.00555671
4494.00   0.27093631   0.00555307
4496.00   0.27687177   0.00556072
4498.00   0.29356667   0.00567030
4500.00   0.27023751   0.00549863
4502.00   0.27557036   0.00547728
4504.00   0.27916726   0.00550586
4506.00   0.28804660   0.00555239
4508.00   0.27813685   0.00547414
4510.00   0.28532630   0.00550377
4512.00   0.27635953   0.00546808
4514.00   0.28260297   0.00550211
4516.00   0.27233163   0.00537136
4518.00   0.26180577   0.00528383
4520.00   0.25837514   0.00528015
4522.00   0.26716110   0.00533910
4524.00   0.26988590   0.00534237
4526.00   0.27977702   0.00536315
4528.00   0.28944010   0.00542817
4530.00   0.29241663   0.00548649
4532.00   0.28517821   0.00545735
4534.00   0.30208597   0.00555152
4536.00   0.30657768   0.00555567
4538.00   0.30342788   0.00551135
4540.00   0.28901500   0.00546664
4542.00   0.29589137   0.00555418
4544.00   0.29855576   0.00559611
4546.00   0.30857146   0.00557594
4548.00   0.29236510   0.00543552
4550.00   0.29001436   0.00537972
4552.00   0.29538068   0.00542974
4554.00   0.29525203   0.00544697
4556.00   0.29365650   0.00549624
4558.00   0.28369278   0.00541227
4560.00   0.28334385   0.00535609
4562.00   0.29624736   0.00542986
4564.00   0.29545122   0.00540650
4566.00   0.30131158   0.00542544
4568.00   0.29644960   0.00537553
4570.00   0.30281067   0.00541737
4572.00   0.30284786   0.00546450
4574.00   0.30166492   0.00546693
4576.00   0.28995758   0.00537217
4578.00   0.29075411   0.00533203
4580.00   0.29234558   0.00530908
4582.00   0.30001318   0.00530416
4584.00   0.28922585   0.00523108
4586.00   0.28633526   0.00521562
4588.00   0.28788501   0.00523574
4590.00   0.28000569   0.00520300
4592.00   0.27328080   0.00521403
4594.00   0.28367949   0.00525024
4596.00   0.28407195   0.00525544
4598.00   0.29379517   0.00528956
4600.00   0.27762538   0.00514860
4602.00   0.28038412   0.00513547
4604.00   0.27340615   0.00508929
4606.00   0.28135359   0.00514029
4608.00   0.29172185   0.00523456
4610.00   0.28319043   0.00520077
4612.00   0.29119077   0.00519243
4614.00   0.28336588   0.00512119
4616.00   0.28220862   0.00507453
4618.00   0.28550190   0.00508721
4620.00   0.28711140   0.00514346
4622.00   0.27653953   0.00505187
4624.00   0.29166949   0.00515004
4626.00   0.28418440   0.00509189
4628.00   0.28097710   0.00510027
4630.00   0.28596431   0.00511248
4632.00   0.29345793   0.00515434
4634.00   0.30231160   0.00517754
4636.00   0.30193871   0.00516507
4638.00   0.30276904   0.00519307
4640.00   0.29377228   0.00513238
4642.00   0.29473308   0.00513993
4644.00   0.29171959   0.00511982
4646.00   0.29260746   0.00511838
4648.00   0.28997701   0.00510288
4650.00   0.28770298   0.00511680
4652.00   0.27728805   0.00504124
4654.00   0.28380144   0.00507642
4656.00   0.27050126   0.00504264
4658.00   0.27684751   0.00513746
4660.00   0.27617097   0.00514065
4662.00   0.28360182   0.00520703
4664.00   0.29045105   0.00530865
4666.00   0.28765535   0.00536370
4668.00   0.29972607   0.00546927
4670.00   0.30386522   0.00550252
4672.00   0.28194481   0.00534740
4674.00   0.28385964   0.00531038
4676.00   0.29444724   0.00528974
4678.00   0.27707824   0.00515964
4680.00   0.27932405   0.00511165
4682.00   0.26942793   0.00503552
4684.00   0.28300044   0.00508620
4686.00   0.30166528   0.00517689
4688.00   0.29088923   0.00512008
4690.00   0.31076771   0.00518412
4692.00   0.28985521   0.00507831
4694.00   0.28198308   0.00504491
4696.00   0.28654650   0.00501778
4698.00   0.29180163   0.00502874
4700.00   0.29387778   0.00504504
4702.00   0.29876292   0.00509155
4704.00   0.29878318   0.00511705
4706.00   0.29746997   0.00515866
4708.00   0.29709479   0.00516877
4710.00   0.28972721   0.00514276
4712.00   0.29958907   0.00517643
4714.00   0.30206877   0.00513091
4716.00   0.30410919   0.00513707
4718.00   0.30214790   0.00510380
4720.00   0.32243639   0.00519961
4722.00   0.30842620   0.00515178
4724.00   0.29808185   0.00508648
4726.00   0.29344004   0.00523117
4728.00   0.30232030   0.00547147
4730.00   0.28748190   0.00538686
4732.00   0.30032113   0.00541290
4734.00   0.29749721   0.00549932
4736.00   0.30455261   0.00557442
4738.00   0.31235403   0.00572749
4740.00   0.29865241   0.00576381
4742.00   0.29917741   0.00586233
4744.00   0.30361846   0.00570345
4746.00   0.30128637   0.00536285
4748.00   0.30224305   0.00516128
4750.00   0.30543828   0.00521428
4752.00   0.30526680   0.00529555
4754.00   0.30250323   0.00519676
4756.00   0.30821490   0.00508296
4758.00   0.30764472   0.00501852
4760.00   0.29615271   0.00492608
4762.00   0.30849048   0.00498901
4764.00   0.29835805   0.00489556
4766.00   0.29652244   0.00486974
4768.00   0.30211896   0.00488553
4770.00   0.29996711   0.00487052
4772.00   0.30529079   0.00490625
4774.00   0.30606994   0.00492819
4776.00   0.31371227   0.00503492
4778.00   0.31571069   0.00516358
4780.00   0.31461608   0.00515288
4782.00   0.31166813   0.00498556
4784.00   0.31077686   0.00491409
4786.00   0.30742705   0.00490092
4788.00   0.31021166   0.00493752
4790.00   0.29803273   0.00489219
4792.00   0.29871446   0.00486587
4794.00   0.30496275   0.00487126
4796.00   0.30037627   0.00483243
4798.00   0.29949081   0.00479775
4800.00   0.29436764   0.00475499
4802.00   0.31561491   0.00487737
4804.00   0.31048951   0.00484656
4806.00   0.31024694   0.00485492
4808.00   0.31846824   0.00493410
4810.00   0.32027155   0.00493537
4812.00   0.31374547   0.00490165
4814.00   0.31168196   0.00489108
4816.00   0.31417251   0.00488837
4818.00   0.31251350   0.00490067
4820.00   0.30211911   0.00486424
4822.00   0.30051553   0.00486130
4824.00   0.30032343   0.00489057
4826.00   0.29405805   0.00486514
4828.00   0.30570725   0.00493198
4830.00   0.30904186   0.00494091
4832.00   0.29985169   0.00492696
4834.00   0.30648479   0.00493846
4836.00   0.30952466   0.00494494
4838.00   0.30602968   0.00501452
4840.00   0.31229362   0.00508144
4842.00   0.31947473   0.00501374
4844.00   0.31686360   0.00494793
4846.00   0.31079575   0.00495726
4848.00   0.30269432   0.00492883
4850.00   0.30338785   0.00490941
4852.00   0.31005013   0.00494624
4854.00   0.31780443   0.00493392
4856.00   0.31407312   0.00485362
4858.00   0.32117385   0.00489872
4860.00   0.31918457   0.00492448
4862.00   0.30241722   0.00487194
4864.00   0.31280392   0.00491774
4866.00   0.30877310   0.00487855
4868.00   0.31288514   0.00487569
4870.00   0.30288354   0.00479861
4872.00   0.30780190   0.00482777
4874.00   0.29998997   0.00481157
4876.00   0.31414914   0.00490738
4878.00   0.30574247   0.00487419
4880.00   0.31307414   0.00489981
4882.00   0.29910460   0.00479588
4884.00   0.31372893   0.00483587
4886.00   0.30479783   0.00476420
4888.00   0.31483302   0.00479703
4890.00   0.30608773   0.00475307
4892.00   0.30806151   0.00478567
4894.00   0.30700380   0.00479667
4896.00   0.30928734   0.00477222
4898.00   0.30543193   0.00473713
4900.00   0.30663586   0.00473948
4902.00   0.30467427   0.00472439
4904.00   0.30996838   0.00477452
4906.00   0.29626578   0.00471292
4908.00   0.30450121   0.00478247
4910.00   0.30787963   0.00480359
4912.00   0.29764673   0.00471997
4914.00   0.29373598   0.00469162
4916.00   0.30302587   0.00472645
4918.00   0.29328501   0.00467296
4920.00   0.28110826   0.00462560
4922.00   0.31146669   0.00478729
4924.00   0.37739444   0.00513296
4926.00   0.39035606   0.00545652
4928.00   0.34049252   0.00488454
4930.00   0.29963553   0.00464543
4932.00   0.29085913   0.00460030
4934.00   0.29272649   0.00461774
4936.00   0.28777698   0.00461383
4938.00   0.28777596   0.00462048
4940.00   0.29537395   0.00466531
4942.00   0.30251917   0.00469893
4944.00   0.29805720   0.00464425
4946.00   0.29588404   0.00460218
4948.00   0.29688907   0.00462884
4950.00   0.30169302   0.00467250
4952.00   0.29845250   0.00472380
4954.00   0.29672956   0.00477182
4956.00   0.30694795   0.00475133
4958.00   0.30861878   0.00472797
4960.00   0.31819740   0.00478282
4962.00   0.31637177   0.00478769
4964.00   0.31779358   0.00480490
4966.00   0.30868521   0.00478918
4968.00   0.31500325   0.00485298
4970.00   0.31619611   0.00489807
4972.00   0.30749995   0.00494593
4974.00   0.31327048   0.00504468
4976.00   0.30758321   0.00510142
4978.00   0.31285083   0.00528204
4980.00   0.31616479   0.00545326
4982.00   0.31510723   0.00549263
4984.00   0.31846115   0.00546691
4986.00   0.31629062   0.00535174
4988.00   0.30707684   0.00520128
4990.00   0.30808511   0.00513018
4992.00   0.31672338   0.00510474
4994.00   0.33228716   0.00506061
4996.00   0.32231277   0.00492378
4998.00   0.32127228   0.00486669
5000.00   0.32965672   0.00487195
5002.00   0.32539064   0.00483985
5004.00   0.33228832   0.00484130
5006.00   0.32771522   0.00478039
5008.00   0.32063022   0.00473465
5010.00   0.31683019   0.00469887
5012.00   0.32679775   0.00476065
5014.00   0.32003567   0.00473436
5016.00   0.32857457   0.00481643
5018.00   0.32104829   0.00482631
5020.00   0.32997638   0.00488142
5022.00   0.32505763   0.00480476
5024.00   0.34726042   0.00486107
5026.00   0.33819658   0.00482647
5028.00   0.32546616   0.00481220
5030.00   0.31650698   0.00481291
5032.00   0.33246487   0.00486080
5034.00   0.32547462   0.00475108
5036.00   0.31777149   0.00466685
5038.00   0.32337400   0.00470786
5040.00   0.32905263   0.00472496
5042.00   0.32567656   0.00473777
5044.00   0.32876825   0.00476171
5046.00   0.31705084   0.00470856
5048.00   0.31868276   0.00468038
5050.00   0.32240516   0.00471056
5052.00   0.32163146   0.00470716
5054.00   0.31977463   0.00471528
5056.00   0.32384431   0.00473199
5058.00   0.32157788   0.00470893
5060.00   0.32931438   0.00476330
5062.00   0.32218674   0.00484295
5064.00   0.32153618   0.00491092
5066.00   0.31325722   0.00492804
5068.00   0.31769016   0.00503792
5070.00   0.32824823   0.00512828
5072.00   0.35627905   0.00517470
5074.00   0.37451929   0.00519330
5076.00   0.35411415   0.00505530
5078.00   0.36015138   0.00519919
5080.00   0.35019132   0.00548298
5082.00   0.34935427   0.00580331
5084.00   0.34269068   0.00593733
5086.00   0.33718067   0.00586721
5088.00   0.33532864   0.00559346
5090.00   0.34440863   0.00531019
5092.00   0.34102765   0.00507582
5094.00   0.35298699   0.00506286
5096.00   0.35026723   0.00517973
5098.00   0.34005976   0.00527358
5100.00   0.33687362   0.00523994
5102.00   0.33164036   0.00506577
5104.00   0.32186696   0.00487728
5106.00   0.32365790   0.00485083
5108.00   0.33591431   0.00489994
5110.00   0.34296313   0.00495766
5112.00   0.35085091   0.00501033
5114.00   0.34035483   0.00501216
5116.00   0.34286109   0.00503844
5118.00   0.33577788   0.00494019
5120.00   0.34418982   0.00492692
5122.00   0.35197136   0.00493532
5124.00   0.34570694   0.00490932
5126.00   0.34229699   0.00489079
5128.00   0.33775011   0.00486836
5130.00   0.34890306   0.00494447
5132.00   0.34698293   0.00494042
5134.00   0.34737700   0.00495376
5136.00   0.34292749   0.00491143
5138.00   0.34310940   0.00492228
5140.00   0.33897832   0.00492513
5142.00   0.34974468   0.00497521
5144.00   0.33783829   0.00493897
5146.00   0.33751673   0.00500500
5148.00   0.33610025   0.00507128
5150.00   0.34174594   0.00516008
5152.00   0.34385914   0.00526601
5154.00   0.34659621   0.00527952
5156.00   0.34681761   0.00525033
5158.00   0.34298083   0.00516616
5160.00   0.35826072   0.00517074
5162.00   0.34838554   0.00507942
5164.00   0.35495991   0.00510005
5166.00   0.33955187   0.00499865
5168.00   0.34731072   0.00501409
5170.00   0.33757979   0.00499067
5172.00   0.34672272   0.00504245
5174.00   0.34656656   0.00506163
5176.00   0.34255651   0.00510270
5178.00   0.34383672   0.00509131
5180.00   0.34630844   0.00508143
5182.00   0.32992339   0.00500276
5184.00   0.33216569   0.00501005
5186.00   0.32468534   0.00503686
5188.00   0.34491932   0.00514324
5190.00   0.35628369   0.00522319
5192.00   0.34364578   0.00515257
5194.00   0.33557990   0.00515367
5196.00   0.34872711   0.00530569
5198.00   0.35597044   0.00542382
5200.00   0.36560437   0.00546514
5202.00   0.36237031   0.00540790
5204.00   0.35083163   0.00529146
5206.00   0.34534156   0.00523750
5208.00   0.33457574   0.00526556
5210.00   0.32688627   0.00526758
5212.00   0.31325689   0.00518272
5214.00   0.31172004   0.00513524
5216.00   0.31964853   0.00518419
5218.00   0.33865827   0.00533647
5220.00   0.34934089   0.00542488
5222.00   0.35076132   0.00538600
5224.00   0.36181253   0.00542981
5226.00   0.35712492   0.00537686
5228.00   0.35484689   0.00539289
5230.00   0.36484376   0.00547524
5232.00   0.35195148   0.00540563
5234.00   0.34096071   0.00533319
5236.00   0.34141758   0.00535669
5238.00   0.33636624   0.00537265
5240.00   0.33069074   0.00535881
5242.00   0.33771583   0.00535011
5244.00   0.34470668   0.00538890
5246.00   0.34743387   0.00541617
5248.00   0.35183781   0.00543801
5250.00   0.34813350   0.00544660
5252.00   0.33881763   0.00539644
5254.00   0.33208436   0.00542976
5256.00   0.35128498   0.00562228
5258.00   0.35822773   0.00573732
5260.00   0.35694087   0.00566182
5262.00   0.35782349   0.00560020
5264.00   0.36298805   0.00561557
5266.00   0.35172597   0.00556152
5268.00   0.36644208   0.00563159
5270.00   0.37657627   0.00572226
5272.00   0.36901599   0.00569604
5274.00   0.35587648   0.00567819
5276.00   0.35693252   0.00568823
5278.00   0.34412828   0.00565155
5280.00   0.35280824   0.00567792
5282.00   0.36467403   0.00576771
5284.00   0.36705637   0.00586906
5286.00   0.36966422   0.00592110
5288.00   0.36372119   0.00584923
5290.00   0.36151183   0.00582685
5292.00   0.36366671   0.00584455
5294.00   0.36145902   0.00584727
5296.00   0.35143736   0.00581167
5298.00   0.36142340   0.00591364
5300.00   0.37699041   0.00601742
5302.00   0.37436214   0.00601822
5304.00   0.37186360   0.00599992
5306.00   0.36068940   0.00593584
5308.00   0.36300200   0.00595724
5310.00   0.37492254   0.00609112
5312.00   0.37583086   0.00614297
5314.00   0.36974427   0.00613422
5316.00   0.36103436   0.00605509
5318.00   0.37532264   0.00610436
5320.00   0.36263558   0.00609642
5322.00   0.36345983   0.00611202
5324.00   0.35927424   0.00614787
5326.00   0.37508458   0.00626448
5328.00   0.37154576   0.00625172
5330.00   0.35967490   0.00623934
5332.00   0.37711355   0.00635425
5334.00   0.36292800   0.00629149
5336.00   0.36998785   0.00635522
5338.00   0.35942465   0.00638444
5340.00   0.35607854   0.00646214
5342.00   0.35488909   0.00650600
5344.00   0.36351937   0.00652065
5346.00   0.37812981   0.00671964
5348.00   0.37773177   0.00687623
5350.00   0.38671866   0.00696463
5352.00   0.38009736   0.00689780
5354.00   0.38388604   0.00701013
5356.00   0.39109236   0.00713155
5358.00   0.41203886   0.00706802
5360.00   0.37712786   0.00678344
5362.00   0.39682469   0.00679465
5364.00   0.39313406   0.00675795
5366.00   0.39353383   0.00678802
5368.00   0.37958741   0.00668890
5370.00   0.37485561   0.00665985
5372.00   0.38788718   0.00686365
5374.00   0.38572142   0.00702126
5376.00   0.38096461   0.00702338
5378.00   0.38532698   0.00696847
5380.00   0.38331568   0.00695395
5382.00   0.39846441   0.00701618
5384.00   0.38002381   0.00690405
5386.00   0.37693927   0.00693159
5388.00   0.38501438   0.00706750
5390.00   0.37994811   0.00718124
5392.00   0.39169738   0.00731866
5394.00   0.39774215   0.00730063
5396.00   0.37808728   0.00715337
5398.00   0.37079898   0.00708239
5400.00   0.35902473   0.00704541
5402.00   0.38591990   0.00717737
5404.00   0.37254801   0.00718774
5406.00   0.38599387   0.00733984
5408.00   0.40000126   0.00743387
5410.00   0.37566799   0.00739594
5412.00   0.38951346   0.00754584
5414.00   0.39764744   0.00778071
5416.00   0.39349043   0.00783147
5418.00   0.40703648   0.00793436
5420.00   0.38393256   0.00783618
5422.00   0.37828547   0.00778955
5424.00   0.36582303   0.00805981
5426.00   0.35561070   0.00822321
5428.00   0.37219974   0.00843152
5430.00   0.41359860   0.00876733
5432.00   0.42601594   0.00876324
5434.00   0.42279294   0.00843521
5436.00   0.41690788   0.00820558
5438.00   0.40121055   0.00792905
5440.00   0.38786373   0.00780493
5442.00   0.38893342   0.00805816
5444.00   0.39908373   0.00856804
5446.00   0.39519495   0.00889130
5448.00   0.37444389   0.00913995
5450.00   0.37174368   0.00946284
5452.00   0.38517535   0.00965309
5454.00   0.39908057   0.01014201
5456.00   0.41005114   0.01128143
5458.00   0.41905171   0.01259362
5460.00   0.41173702   0.01292097
5462.00   0.37924302   0.01269983
5464.00   0.36933377   0.01216831
5466.00   0.37228742   0.01075455
5468.00   0.37599543   0.00953235
5470.00   0.37973899   0.00895808
5472.00   0.38315201   0.00875047
5474.00   0.37969118   0.00859901
5476.00   0.36800700   0.00879507
5478.00   0.36521140   0.00866086
5480.00   0.36797127   0.00822177
5482.00   0.37062335   0.00798330
5484.00   0.37324402   0.00805636
5486.00   0.37606251   0.00821949
5488.00   0.37848732   0.00827624
5490.00   0.38078067   0.00835283
5492.00   0.38287988   0.00817168
5494.00   0.38584375   0.00760096
5496.00   0.38647944   0.00725782
5498.00   0.38430655   0.00717778
5500.00   0.38137868   0.00715901
5502.00   0.37901139   0.00705779
5504.00   0.37647954   0.00693692
5506.00   0.37536359   0.00689829
5508.00   0.37562668   0.00692099
5510.00   0.37566707   0.00696576
5512.00   0.37765503   0.00707944
5514.00   0.37698215   0.00716239
5516.00   0.37019631   0.00715687
5518.00   0.35974222   0.00710198
5520.00   0.35352129   0.00707863
5522.00   0.34802768   0.00691007
5524.00   0.34553021   0.00709157
5526.00   0.34596443   0.00771506
5528.00   0.34777203   0.00808034
5530.00   0.35044828   0.00802251
5532.00   0.35451099   0.00774724
5534.00   0.36086744   0.00748547
5536.00   0.37218636   0.00704372
5538.00   0.37613812   0.00680077
5540.00   0.37435299   0.00661239
5542.00   0.37297633   0.00660347
5544.00   0.37144637   0.00692712
5546.00   0.37073845   0.00726832
5548.00   0.37415150   0.00718915
5550.00   0.38196680   0.00676520
5552.00   0.38437134   0.00661955
5554.00   0.38343149   0.00661761
5556.00   0.38236991   0.00659071
5558.00   0.37915525   0.00648899
5560.00   0.37752083   0.00646433
5562.00   0.38189158   0.00662456
5564.00   0.39081267   0.00689438
5566.00   0.39647013   0.00744049
5568.00   0.40736392   0.00818987
5570.00   0.40474701   0.00898968
5572.00   0.38576546   0.01006727
5574.00   0.36647043   0.01085385
5576.00   0.35361633   0.01115411
5578.00   0.34371215   0.01115155
5580.00   0.34634939   0.01081323
5582.00   0.36773586   0.00985802
5584.00   0.37599114   0.00907566
5586.00   0.37592164   0.00805807
5588.00   0.37736878   0.00726519
5590.00   0.38478059   0.00708068
5592.00   0.39367542   0.00725212
5594.00   0.39537215   0.00714351
5596.00   0.38941681   0.00696452
5598.00   0.39010188   0.00681698
5600.00   0.39825875   0.00657682
5602.00   0.39923269   0.00650944
5604.00   0.38597566   0.00677114
5606.00   0.37095398   0.00707689
5608.00   0.37385765   0.00702194
5610.00   0.39165774   0.00669472
5612.00   0.39767817   0.00650076
5614.00   0.40041015   0.00625663
5616.00   0.39961088   0.00613143
5618.00   0.39209038   0.00615536
5620.00   0.38478485   0.00624652
5622.00   0.38591015   0.00635310
5624.00   0.39296025   0.00651638
5626.00   0.39385474   0.00653725
5628.00   0.39094371   0.00644732
5630.00   0.38939872   0.00635836
5632.00   0.38884443   0.00621495
5634.00   0.38798773   0.00609969
5636.00   0.38586333   0.00608519
5638.00   0.38298455   0.00613510
5640.00   0.38188758   0.00614437
5642.00   0.38166952   0.00609905
5644.00   0.38239440   0.00616552
5646.00   0.38404775   0.00637919
5648.00   0.38662547   0.00652671
5650.00   0.39172861   0.00650726
5652.00   0.39733383   0.00641687
5654.00   0.39516339   0.00646168
5656.00   0.38410363   0.00661963
5658.00   0.37930918   0.00668807
5660.00   0.37668544   0.00668833
5662.00   0.37500060   0.00673456
5664.00   0.37381402   0.00677758
5666.00   0.37380016   0.00690927
5668.00   0.37636301   0.00737395
5670.00   0.38318071   0.00821100
5672.00   0.38338029   0.00849808
5674.00   0.37967250   0.00829548
5676.00   0.37408212   0.00840502
5678.00   0.36199912   0.00894525
5680.00   0.35279161   0.00950203
5682.00   0.35960239   0.00975316
5684.00   0.37972108   0.00985287
5686.00   0.38800275   0.00990584
5688.00   0.39318994   0.00983758
5690.00   0.39363387   0.00978058
5692.00   0.38505337   0.00981261
5694.00   0.37816390   0.00970110
5696.00   0.38248840   0.00919490
5698.00   0.39362484   0.00834329
5700.00   0.39387205   0.00787135
5702.00   0.38235515   0.00757508
5704.00   0.38175580   0.00744406
5706.00   0.38957059   0.00767631
5708.00   0.39854693   0.00779694
5710.00   0.40870064   0.00754156
5712.00   0.41875398   0.00710386
5714.00   0.41421938   0.00701312
5716.00   0.38835040   0.00731490
5718.00   0.38253704   0.00722727
5720.00   0.38995767   0.00682342
5722.00   0.39555281   0.00650806
5724.00   0.39646050   0.00641859
5726.00   0.39564154   0.00641678
5728.00   0.39369166   0.00633047
5730.00   0.38799152   0.00618721
5732.00   0.38921982   0.00616100
5734.00   0.39950979   0.00629870
5736.00   0.40293330   0.00630869
5738.00   0.39602914   0.00610094
5740.00   0.38708690   0.00587243
5742.00   0.38522589   0.00587629
5744.00   0.38764507   0.00602701
5746.00   0.38652831   0.00618474
5748.00   0.38156259   0.00650143
5750.00   0.38149902   0.00662921
5752.00   0.38619512   0.00655802
5754.00   0.39322653   0.00644077
5756.00   0.40246418   0.00635126
5758.00   0.41455215   0.00623906
5760.00   0.41765216   0.00638840
5762.00   0.41328534   0.00681848
5764.00   0.40951061   0.00710357
5766.00   0.40078387   0.00735332
5768.00   0.39670813   0.00754505
5770.00   0.40473250   0.00769232
5772.00   0.41931158   0.00778265
5774.00   0.42219570   0.00766003
5776.00   0.42038721   0.00723269
5778.00   0.41240314   0.00695709
5780.00   0.39069408   0.00654549
5782.00   0.37699035   0.00643625
5784.00   0.37921208   0.00691188
5786.00   0.38841888   0.00756141
5788.00   0.39122200   0.00772136
5790.00   0.39232492   0.00760068
5792.00   0.39361432   0.00752267
5794.00   0.39283672   0.00736533
5796.00   0.39484575   0.00718699
5798.00   0.40309298   0.00695857
5800.00   0.41073099   0.00672832
5802.00   0.40683061   0.00658987
5804.00   0.39160198   0.00650508
5806.00   0.39181828   0.00650343
5808.00   0.40591401   0.00664020
5810.00   0.41257513   0.00671838
5812.00   0.41178754   0.00675902
5814.00   0.40910640   0.00676952
5816.00   0.40742010   0.00674280
5818.00   0.40495571   0.00668203
5820.00   0.40732414   0.00658397
5822.00   0.41727880   0.00638496
5824.00   0.42001820   0.00628316
5826.00   0.41461509   0.00624905
5828.00   0.41070747   0.00626708
5830.00   0.41341200   0.00632079
5832.00   0.41974422   0.00642085
5834.00   0.42666799   0.00664055
5836.00   0.44342694   0.00715785
5838.00   0.44281012   0.00724968
5840.00   0.42634085   0.00692303
5842.00   0.40968570   0.00671083
5844.00   0.39567655   0.00687184
5846.00   0.38297915   0.00714528
5848.00   0.37733498   0.00709271
5850.00   0.37722862   0.00671147
5852.00   0.38009328   0.00664852
5854.00   0.39184156   0.00667987
5856.00   0.39780107   0.00689944
5858.00   0.39396620   0.00749338
5860.00   0.38750860   0.00804425
5862.00   0.38735256   0.00794850
5864.00   0.39027968   0.00723636
5866.00   0.39383984   0.00711015
5868.00   0.39785734   0.00727337
5870.00   0.40519685   0.00752222
5872.00   0.42173159   0.00801072
5874.00   0.43408349   0.00840476
5876.00   0.42916465   0.00819324
5878.00   0.41307369   0.00733828
5880.00   0.38472059   0.00843366
5882.00   0.32582098   0.01034756
5884.00   0.29529738   0.01253040
5886.00   0.28639901   0.01560493
5888.00   0.28956965   0.01771411
5890.00   0.30388370   0.01819159
5892.00   0.32966447   0.01775005
5894.00   0.34519160   0.01752521
5896.00   0.35836381   0.01728908
5898.00   0.36817628   0.01644105
5900.00   0.37428728   0.01466617
5902.00   0.37827459   0.01277580
5904.00   0.37904957   0.01104905
5906.00   0.37832543   0.00936515
5908.00   0.38405237   0.00837815
5910.00   0.39561635   0.00863227
5912.00   0.40438563   0.00827892
5914.00   0.41365436   0.00773176
5916.00   0.42143515   0.00736362
5918.00   0.42877069   0.00732191
5920.00   0.43368834   0.00743275
5922.00   0.43150273   0.00744943
5924.00   0.42294520   0.00742636
5926.00   0.41375199   0.00758494
5928.00   0.39615026   0.00796717
5930.00   0.38794616   0.00820919
5932.00   0.39208198   0.00838109
5934.00   0.39968184   0.00841598
5936.00   0.40270478   0.00814233
5938.00   0.40476006   0.00752588
5940.00   0.40558681   0.00726406
5942.00   0.40145898   0.00723085
5944.00   0.40429416   0.00717657
5946.00   0.41646260   0.00709527
5948.00   0.42774084   0.00710007
5950.00   0.43195334   0.00729874
5952.00   0.43230245   0.00762958
5954.00   0.42704636   0.00775745
5956.00   0.40939972   0.00785677
5958.00   0.40349612   0.00775950
5960.00   0.41175768   0.00738553
5962.00   0.41295582   0.00701202
5964.00   0.39621338   0.00674109
5966.00   0.37020865   0.00652835
5968.00   0.35222092   0.00649010
5970.00   0.33022064   0.00673766
5972.00   0.32407981   0.00675106
5974.00   0.33235517   0.00659499
5976.00   0.34265456   0.00651983
5978.00   0.35165089   0.00659123
5980.00   0.36360317   0.00672883
5982.00   0.38457972   0.00686624
5984.00   0.41951612   0.00711484
5986.00   0.43489555   0.00707577
5988.00   0.43856478   0.00673578
5990.00   0.43798360   0.00648073
5992.00   0.42962497   0.00632602
5994.00   0.41996235   0.00622643
5996.00   0.41897705   0.00618907
5998.00   0.42358029   0.00623301
6000.00   0.42481676   0.00621416
6002.00   0.42547929   0.00613100
6004.00   0.42590472   0.00613194
6006.00   0.42612866   0.00626247
6008.00   0.42595741   0.00636563
6010.00   0.42521980   0.00632162
6012.00   0.42398497   0.00618387
6014.00   0.42261741   0.00607731
6016.00   0.41902596   0.00591976
6018.00   0.41957358   0.00583629
6020.00   0.42780915   0.00582502
6022.00   0.43110177   0.00582718
6024.00   0.41877815   0.00579044
6026.00   0.39944300   0.00575778
6028.00   0.40447631   0.00589700
6030.00   0.43913883   0.00636120
6032.00   0.44748586   0.00639334
6034.00   0.43954149   0.00605611
6036.00   0.43221718   0.00578280
6038.00   0.42845973   0.00571530
6040.00   0.42601335   0.00572556
6042.00   0.42733178   0.00568199
6044.00   0.43510571   0.00559583
6046.00   0.43388188   0.00563480
6048.00   0.42271307   0.00576755
6050.00   0.41812107   0.00592826
6052.00   0.42466211   0.00616658
6054.00   0.43265820   0.00637914
6056.00   0.42984527   0.00642166
6058.00   0.41841459   0.00635939
6060.00   0.41729173   0.00620152
6062.00   0.42598271   0.00574053
6064.00   0.42744476   0.00556050
6066.00   0.41864121   0.00580498
6068.00   0.41110945   0.00602805
6070.00   0.41489762   0.00586141
6072.00   0.42602584   0.00542644
6074.00   0.43223256   0.00532228
6076.00   0.43932331   0.00541362
6078.00   0.44192085   0.00552812
6080.00   0.43977344   0.00577450
6082.00   0.43625608   0.00595406
6084.00   0.43209496   0.00596215
6086.00   0.42710352   0.00586916
6088.00   0.42675892   0.00578051
6090.00   0.43155196   0.00559755
6092.00   0.43333277   0.00551624
6094.00   0.43565995   0.00547194
6096.00   0.43497887   0.00550220
6098.00   0.42828149   0.00564025
6100.00   0.41933921   0.00583638
6102.00   0.41772452   0.00597846
6104.00   0.42300516   0.00607516
6106.00   0.42244360   0.00626622
6108.00   0.41835102   0.00655270
6110.00   0.41519189   0.00678893
6112.00   0.41181284   0.00705408
6114.00   0.41040742   0.00720996
6116.00   0.41642797   0.00696007
6118.00   0.43050772   0.00621554
6120.00   0.43638742   0.00595351
6122.00   0.43818471   0.00604133
6124.00   0.43903938   0.00605196
6126.00   0.43769988   0.00603245
6128.00   0.43622643   0.00597429
6130.00   0.43730956   0.00580309
6132.00   0.44012412   0.00551509
6134.00   0.43999001   0.00543198
6136.00   0.43598610   0.00551854
6138.00   0.43596402   0.00557071
6140.00   0.43979409   0.00562729
6142.00   0.44421422   0.00568619
6144.00   0.44844714   0.00573434
6146.00   0.45282173   0.00577974
6148.00   0.45119011   0.00586911
6150.00   0.43980098   0.00599666
6152.00   0.43820325   0.00612083
6154.00   0.44453806   0.00623243
6156.00   0.45029044   0.00638260
6158.00   0.45294583   0.00665711
6160.00   0.45432022   0.00693820
6162.00   0.45457450   0.00688388
6164.00   0.45345467   0.00650393
6166.00   0.45168519   0.00622290
6168.00   0.44876420   0.00578069
6170.00   0.44549513   0.00552935
6172.00   0.44121408   0.00563058
6174.00   0.43715426   0.00585830
6176.00   0.43606341   0.00591383
6178.00   0.43773434   0.00594624
6180.00   0.43755430   0.00582693
6182.00   0.43594530   0.00545803
6184.00   0.43597230   0.00521451
6186.00   0.43819880   0.00513202
6188.00   0.44092000   0.00511190
6190.00   0.44264650   0.00508295
6192.00   0.44412386   0.00507908
6194.00   0.44465530   0.00508745
6196.00   0.44496390   0.00513393
6198.00   0.44350022   0.00515022
6200.00   0.43866459   0.00513977
6202.00   0.43490276   0.00512215
6204.00   0.43574134   0.00510525
6206.00   0.43940654   0.00508472
6208.00   0.44041014   0.00507921
6210.00   0.44132492   0.00510223
6212.00   0.43994853   0.00508855
6214.00   0.43519703   0.00503301
6216.00   0.43129170   0.00498949
6218.00   0.42960814   0.00498659
6220.00   0.42929995   0.00500097
6222.00   0.43095025   0.00498267
6224.00   0.43446839   0.00485926
6226.00   0.43941584   0.00495096
6228.00   0.44891384   0.00527010
6230.00   0.45462045   0.00548560
6232.00   0.45458144   0.00554926
6234.00   0.45133042   0.00554166
6236.00   0.44758511   0.00551950
6238.00   0.44324163   0.00545598
6240.00   0.43374735   0.00536834
6242.00   0.41515744   0.00518076
6244.00   0.40329486   0.00509378
6246.00   0.39893660   0.00512880
6248.00   0.39872742   0.00522843
6250.00   0.40064350   0.00535952
6252.00   0.40562055   0.00555188
6254.00   0.41326410   0.00565694
6256.00   0.43031529   0.00574383
6258.00   0.43625852   0.00575872
6260.00   0.42854428   0.00570334
6262.00   0.42020723   0.00559235
6264.00   0.42090818   0.00539216
6266.00   0.42614979   0.00509519
6268.00   0.42681611   0.00506615
6270.00   0.42394134   0.00535631
6272.00   0.42428032   0.00541019
6274.00   0.42699254   0.00525999
6276.00   0.43030867   0.00515345
6278.00   0.43468243   0.00524632
6280.00   0.43935052   0.00541789
6282.00   0.43794134   0.00537696
6284.00   0.43019557   0.00506680
6286.00   0.42479932   0.00502563
6288.00   0.41594753   0.00496403
6290.00   0.41258577   0.00525365
6292.00   0.41855153   0.00604076
6294.00   0.42888913   0.00693122
6296.00   0.43517634   0.00748267
6298.00   0.44075558   0.00804748
6300.00   0.44534129   0.00810833
6302.00   0.45358449   0.00768763
6304.00   0.45217958   0.00721674
6306.00   0.43335319   0.00660726
6308.00   0.41331092   0.00595402
6310.00   0.41437858   0.00558869
6312.00   0.43145522   0.00548334
6314.00   0.43572202   0.00525274
6316.00   0.43365759   0.00495316
6318.00   0.43380940   0.00479190
6320.00   0.43715724   0.00480674
6322.00   0.43899456   0.00488295
6324.00   0.43526131   0.00494457
6326.00   0.42752880   0.00503133
6328.00   0.42221203   0.00507330
6330.00   0.41358691   0.00508528
6332.00   0.41307932   0.00509842
6334.00   0.42165399   0.00514663
6336.00   0.43088052   0.00512868
6338.00   0.43790236   0.00495407
6340.00   0.44407406   0.00467467
6342.00   0.44324726   0.00456025
6344.00   0.43003556   0.00454947
6346.00   0.42983592   0.00455546
6348.00   0.44078869   0.00461103
6350.00   0.44875318   0.00469216
6352.00   0.44964004   0.00478011
6354.00   0.44727206   0.00489641
6356.00   0.44501388   0.00509377
6358.00   0.44247797   0.00539922
6360.00   0.43603432   0.00558304
6362.00   0.42216054   0.00581551
6364.00   0.41417655   0.00583018
6366.00   0.41231391   0.00548058
6368.00   0.41602197   0.00501178
6370.00   0.42861098   0.00487790
6372.00   0.45319951   0.00497235
6374.00   0.46369696   0.00496823
6376.00   0.46288493   0.00499061
6378.00   0.46749756   0.00497571
6380.00   0.48006529   0.00491914
6382.00   0.49106216   0.00484398
6384.00   0.49206445   0.00476370
6386.00   0.48630089   0.00466782
6388.00   0.48215532   0.00459756
6390.00   0.47716421   0.00450446
6392.00   0.47026756   0.00450177
6394.00   0.45918062   0.00459645
6396.00   0.45002148   0.00471596
6398.00   0.44653079   0.00484807
6400.00   0.44658566   0.00499390
6402.00   0.44734132   0.00500125
6404.00   0.45546520   0.00484463
6406.00   0.45216393   0.00479024
6408.00   0.43427408   0.00480150
6410.00   0.42341906   0.00479302
6412.00   0.42906192   0.00472571
6414.00   0.44216219   0.00463627
6416.00   0.44693473   0.00459917
6418.00   0.44780406   0.00460414
6420.00   0.45048881   0.00458797
6422.00   0.45487443   0.00456342
6424.00   0.45638910   0.00454829
6426.00   0.45254374   0.00456600
6428.00   0.44768634   0.00457481
6430.00   0.44893950   0.00449045
6432.00   0.45518342   0.00428666
6434.00   0.45710891   0.00425744
6436.00   0.45654514   0.00435345
6438.00   0.45679218   0.00445245
6440.00   0.45671275   0.00458783
6442.00   0.45815736   0.00470637
6444.00   0.46452218   0.00474560
6446.00   0.47566119   0.00473622
6448.00   0.47837740   0.00468207
6450.00   0.47312373   0.00448399
6452.00   0.47216284   0.00444153
6454.00   0.47599554   0.00454917
6456.00   0.47831669   0.00469954
6458.00   0.47475514   0.00486556
6460.00   0.46758592   0.00505814
6462.00   0.46318823   0.00508340
6464.00   0.45815712   0.00496192
6466.00   0.45639476   0.00485759
6468.00   0.45947737   0.00467706
6470.00   0.46074516   0.00455065
6472.00   0.45668811   0.00456637
6474.00   0.45038667   0.00464944
6476.00   0.44836420   0.00461991
6478.00   0.44725078   0.00443139
6480.00   0.45048833   0.00448510
6482.00   0.45999998   0.00474617
6484.00   0.46752140   0.00495508
6486.00   0.47271216   0.00512402
6488.00   0.47547111   0.00522863
6490.00   0.47224787   0.00511722
6492.00   0.46099773   0.00470278
6494.00   0.45827442   0.00463384
6496.00   0.46022564   0.00485699
6498.00   0.46298787   0.00495834
6500.00   0.46886703   0.00492796
6502.00   0.47355413   0.00485133
6504.00   0.47056311   0.00477479
6506.00   0.46131325   0.00466454
6508.00   0.45711318   0.00461623
6510.00   0.45283929   0.00463752
6512.00   0.45296210   0.00461245
6514.00   0.45948714   0.00453954
6516.00   0.46608821   0.00446176
6518.00   0.46847963   0.00439769
6520.00   0.46882519   0.00433629
6522.00   0.46706495   0.00434846
6524.00   0.46129084   0.00440839
6526.00   0.45777628   0.00451898
6528.00   0.45448133   0.00473880
6530.00   0.45291808   0.00489975
6532.00   0.45332879   0.00493473
6534.00   0.45576328   0.00489847
6536.00   0.46265724   0.00485606
6538.00   0.47922301   0.00475610
6540.00   0.48465997   0.00468884
6542.00   0.48432717   0.00460761
6544.00   0.48041707   0.00456857
6546.00   0.47060382   0.00459417
6548.00   0.45894387   0.00465598
6550.00   0.45638189   0.00471608
6552.00   0.46087405   0.00483004
6554.00   0.46254078   0.00481489
6556.00   0.46553048   0.00466939
6558.00   0.46661887   0.00455800
6560.00   0.46548650   0.00448025
6562.00   0.46300903   0.00443098
6564.00   0.45884815   0.00443196
6566.00   0.45083365   0.00447895
6568.00   0.45468917   0.00453974
6570.00   0.47527620   0.00468599
6572.00   0.48202878   0.00472447
6574.00   0.47466645   0.00464190
6576.00   0.46315601   0.00453033
6578.00   0.45224828   0.00445629
6580.00   0.43888935   0.00438804
6582.00   0.43707952   0.00432729
6584.00   0.44660762   0.00426676
6586.00   0.45287853   0.00422964
6588.00   0.45973840   0.00421426
6590.00   0.46537676   0.00421408
6592.00   0.46836290   0.00423027
6594.00   0.46966469   0.00426060
6596.00   0.47150183   0.00428104
6598.00   0.47198385   0.00429032
6600.00   0.47478586   0.00432170
6602.00   0.48125315   0.00439794
6604.00   0.48490116   0.00443027
6606.00   0.48370856   0.00438722
6608.00   0.47974807   0.00430324
6610.00   0.47511622   0.00422983
6612.00   0.46592554   0.00412243
6614.00   0.46486425   0.00408037
6616.00   0.46913439   0.00409211
6618.00   0.47562760   0.00410823
6620.00   0.48397610   0.00407109
6622.00   0.49495679   0.00409302
6624.00   0.50853598   0.00431070
6626.00   0.52288842   0.00459098
6628.00   0.54902959   0.00521616
6630.00   0.59314811   0.00636781
6632.00   0.62571758   0.00688052
6634.00   0.64479202   0.00683210
6636.00   0.66208655   0.00663473
6638.00   0.68858975   0.00633483
6640.00   0.72112620   0.00566802
6642.00   0.73374557   0.00727622
6644.00   0.69331920   0.01074352
6646.00   0.73313278   0.01197882
6648.00   0.88349986   0.01204361
6650.00   1.00462902   0.01172808
6652.00   1.01971269   0.01126052
6654.00   0.97280717   0.01048329
6656.00   0.90404272   0.00991053
6658.00   0.72401172   0.00951803
6660.00   0.68289661   0.00880457
6662.00   0.73312122   0.00727424
6664.00   0.82260895   0.00631436
6666.00   0.98333383   0.00673150
6668.00   1.16157281   0.00797705
6670.00   1.14159501   0.00967035
6672.00   0.91514951   0.01270895
6674.00   0.82852852   0.01292267
6676.00   0.80696326   0.01090422
6678.00   0.76513207   0.00885769
6680.00   0.68356746   0.00702093
6682.00   0.59588850   0.00513282
6684.00   0.53980982   0.00409489
6686.00   0.49930120   0.00461713
6688.00   0.47755861   0.00449176
6690.00   0.48492128   0.00448319
6692.00   0.48725215   0.00442480
6694.00   0.48690230   0.00427381
6696.00   0.48542503   0.00414863
6698.00   0.48011994   0.00417897
6700.00   0.47093913   0.00432091
6702.00   0.47077134   0.00442464
6704.00   0.47920439   0.00461213
6706.00   0.48408899   0.00465119
6708.00   0.48813242   0.00451936
6710.00   0.49001852   0.00437444
6712.00   0.48786715   0.00431853
6714.00   0.48269740   0.00430064
6716.00   0.47977307   0.00427908
6718.00   0.47713885   0.00427122
6720.00   0.47518712   0.00426863
6722.00   0.47358841   0.00429449
6724.00   0.47294912   0.00429346
6726.00   0.47423053   0.00421371
6728.00   0.47632253   0.00410818
6730.00   0.47531751   0.00415467
6732.00   0.47058704   0.00437665
6734.00   0.46970972   0.00443604
6736.00   0.47020283   0.00439746
6738.00   0.47266629   0.00437427
6740.00   0.47873339   0.00438396
6742.00   0.48558316   0.00440448
6744.00   0.48749116   0.00443386
6746.00   0.48541814   0.00450758
6748.00   0.48589897   0.00445419
6750.00   0.48697066   0.00422438
6752.00   0.48840031   0.00410939
6754.00   0.49123529   0.00417027
6756.00   0.49331015   0.00425495
6758.00   0.49172696   0.00421509
6760.00   0.48719996   0.00409458
6762.00   0.48444134   0.00406399
6764.00   0.47959703   0.00409087
6766.00   0.47988588   0.00410631
6768.00   0.48853278   0.00406332
6770.00   0.49519354   0.00409928
6772.00   0.49167374   0.00437502
6774.00   0.48190284   0.00478791
6776.00   0.47728521   0.00477889
6778.00   0.47389340   0.00426790
6780.00   0.47173068   0.00414742
6782.00   0.47046417   0.00440629
6784.00   0.47095233   0.00456858
6786.00   0.47347403   0.00442987
6788.00   0.47787574   0.00414311
6790.00   0.48441958   0.00403439
6792.00   0.49230433   0.00400659
6794.00   0.50396931   0.00401333
6796.00   0.51396859   0.00396239
6798.00   0.53538942   0.00414704
6800.00   0.57636553   0.00461463
6802.00   0.62489098   0.00520611
6804.00   0.65957606   0.00582727
6806.00   0.69716203   0.00673024
6808.00   0.70004219   0.00683936
6810.00   0.65935010   0.00626530
6812.00   0.63526487   0.00576555
6814.00   0.63023502   0.00523586
6816.00   0.63404381   0.00485174
6818.00   0.64661092   0.00511997
6820.00   0.67729318   0.00591523
6822.00   0.66027862   0.00624724
6824.00   0.59508151   0.00652171
6826.00   0.54891008   0.00658376
6828.00   0.51043540   0.00635932
6830.00   0.48428443   0.00607284
6832.00   0.48153782   0.00594532
6834.00   0.49839374   0.00589091
6836.00   0.49965310   0.00557915
6838.00   0.49652699   0.00485839
6840.00   0.49145499   0.00442793
6842.00   0.48033836   0.00424302
6844.00   0.47221988   0.00418446
6846.00   0.47193000   0.00425041
6848.00   0.47627383   0.00442209
6850.00   0.48049626   0.00442500
6852.00   0.48940846   0.00423048
6854.00   0.49257666   0.00427057
6856.00   0.49163872   0.00443705
6858.00   0.49030158   0.00467105
6860.00   0.48935479   0.00500991
6862.00   0.48811188   0.00536119
6864.00   0.48625898   0.00551812
6866.00   0.48116794   0.00558704
6868.00   0.48437062   0.00553073
6870.00   0.49919802   0.00526911
6872.00   0.50575751   0.00504779
6874.00   0.50013649   0.00489313
6876.00   0.49067399   0.00475983
6878.00   0.48599994   0.00461664
6880.00   0.48225874   0.00445305
6882.00   0.48081720   0.00441951
6884.00   0.48383993   0.00448209
6886.00   0.48338389   0.00460615
6888.00   0.47677350   0.00487437
6890.00   0.47212994   0.00508852
6892.00   0.47774807   0.00508100
6894.00   0.49089617   0.00492525
6896.00   0.49446425   0.00479696
6898.00   0.49081719   0.00454825
6900.00   0.49076346   0.00444949
6902.00   0.49421307   0.00447681
6904.00   0.49597013   0.00457303
6906.00   0.49222639   0.00474829
6908.00   0.48547563   0.00497822
6910.00   0.48483691   0.00503806
6912.00   0.49143654   0.00498091
6914.00   0.49072286   0.00491579
6916.00   0.48214927   0.00473293
6918.00   0.47782892   0.00463984
6920.00   0.48299086   0.00475900
6922.00   0.49219161   0.00495267
6924.00   0.49584672   0.00495554
6926.00   0.49723980   0.00484270
6928.00   0.49774787   0.00472046
6930.00   0.49615061   0.00446510
6932.00   0.49474519   0.00432104
6934.00   0.49356782   0.00434113
6936.00   0.49258184   0.00445168
6938.00   0.49215600   0.00457608
6940.00   0.49177399   0.00470899
6942.00   0.49345201   0.00502141
6944.00   0.50067663   0.00573678
6946.00   0.50099951   0.00591963
6948.00   0.49092785   0.00545659
6950.00   0.48070639   0.00482297
6952.00   0.48032188   0.00456960
6954.00   0.48613489   0.00450975
6956.00   0.48794350   0.00444470
6958.00   0.48784435   0.00449896
6960.00   0.48991552   0.00450124
6962.00   0.49610737   0.00444566
6964.00   0.49984869   0.00442293
6966.00   0.49565119   0.00451080
6968.00   0.48660994   0.00466115
6970.00   0.48556361   0.00467097
6972.00   0.49034089   0.00451972
6974.00   0.49326614   0.00451368
6976.00   0.49749106   0.00465515
6978.00   0.49989301   0.00472916
6980.00   0.49861196   0.00462751
6982.00   0.49547437   0.00445258
6984.00   0.49467158   0.00445469
6986.00   0.49491408   0.00461962
6988.00   0.49518937   0.00465785
6990.00   0.49565834   0.00466750
6992.00   0.49672484   0.00462114
6994.00   0.49891889   0.00447455
6996.00   0.50132161   0.00429535
6998.00   0.50207216   0.00422478
7000.00   0.50094205   0.00421137
7002.00   0.50284475   0.00425271
7004.00   0.51045740   0.00443466
7006.00   0.51120490   0.00449568
7008.00   0.50133789   0.00440470
7010.00   0.49075165   0.00427373
7012.00   0.49006689   0.00420675
7014.00   0.49587739   0.00415797
7016.00   0.49657512   0.00413739
7018.00   0.49434057   0.00413711
7020.00   0.49426898   0.00417353
7022.00   0.49679294   0.00428473
7024.00   0.49888924   0.00436936
7026.00   0.49789023   0.00431858
7028.00   0.49506983   0.00418147
7030.00   0.49724990   0.00434203
7032.00   0.50687212   0.00491236
7034.00   0.50824094   0.00501373
7036.00   0.50249791   0.00471411
7038.00   0.49648812   0.00442596
7040.00   0.49230579   0.00433774
7042.00   0.48873261   0.00433772
7044.00   0.48724598   0.00435746
7046.00   0.48800069   0.00448931
7048.00   0.48855218   0.00449477
7050.00   0.48922780   0.00441478
7052.00   0.49113941   0.00433289
7054.00   0.49543658   0.00425196
7056.00   0.50029606   0.00417618
7058.00   0.50209469   0.00414981
7060.00   0.50234169   0.00416391
7062.00   0.50067985   0.00418454
7064.00   0.49595183   0.00424768
7066.00   0.49189419   0.00427714
7068.00   0.48730668   0.00425257
7070.00   0.48426539   0.00422454
7072.00   0.48635748   0.00424869
7074.00   0.49288082   0.00430306
7076.00   0.49753499   0.00436767
7078.00   0.50369686   0.00449388
7080.00   0.50723886   0.00453912
7082.00   0.50840199   0.00441890
7084.00   0.50801164   0.00438106
7086.00   0.50600183   0.00469137
7088.00   0.50223762   0.00520165
7090.00   0.50093192   0.00523228
7092.00   0.50076467   0.00476698
7094.00   0.50135636   0.00464526
7096.00   0.50488734   0.00488018
7098.00   0.50601345   0.00499104
7100.00   0.50050861   0.00471427
7102.00   0.49175966   0.00420799
7104.00   0.49118203   0.00402309
7106.00   0.49837419   0.00408748
7108.00   0.50075871   0.00407351
7110.00   0.50057131   0.00408495
7112.00   0.50172204   0.00410055
7114.00   0.50593179   0.00411118
7116.00   0.51101488   0.00412824
7118.00   0.51313633   0.00417313
7120.00   0.51362211   0.00425742
7122.00   0.51316190   0.00429243
7124.00   0.51120949   0.00431016
7126.00   0.50873786   0.00429916
7128.00   0.50548333   0.00421701
7130.00   0.50191730   0.00414592
7132.00   0.49856600   0.00421398
7134.00   0.49438798   0.00438045
7136.00   0.49462360   0.00453205
7138.00   0.50023657   0.00482541
7140.00   0.50312638   0.00488224
7142.00   0.50418395   0.00461092
7144.00   0.50366098   0.00432194
7146.00   0.50087225   0.00434843
7148.00   0.49590966   0.00456588
7150.00   0.49247402   0.00454308
7152.00   0.48741695   0.00424078
7154.00   0.48683360   0.00424403
7156.00   0.49269524   0.00463458
7158.00   0.49692228   0.00488294
7160.00   0.49430031   0.00471650
7162.00   0.48821488   0.00430522
7164.00   0.48744461   0.00416864
7166.00   0.49138600   0.00419811
7168.00   0.49159631   0.00419015
7170.00   0.48819694   0.00421305
7172.00   0.48715857   0.00423519
7174.00   0.49281883   0.00425312
7176.00   0.49978474   0.00426650
7178.00   0.49472639   0.00425329
7180.00   0.47497499   0.00420002
7182.00   0.47149792   0.00419329
7184.00   0.48104346   0.00417040
7186.00   0.48591641   0.00423623
7188.00   0.48314697   0.00444410
7190.00   0.47834700   0.00467426
7192.00   0.47689247   0.00478600
7194.00   0.47682142   0.00485619
7196.00   0.47662345   0.00482340
7198.00   0.47769132   0.00462536
7200.00   0.47725999   0.00450040
7202.00   0.47348312   0.00445047
7204.00   0.47105056   0.00442962
7206.00   0.47537380   0.00442351
7208.00   0.48501882   0.00444932
7210.00   0.48762357   0.00438814
7212.00   0.48628518   0.00418104
7214.00   0.48423615   0.00413012
7216.00   0.47845939   0.00426853
7218.00   0.47485545   0.00438190
7220.00   0.47822973   0.00434091
7222.00   0.48578113   0.00421999
7224.00   0.48760214   0.00421081
7226.00   0.48418188   0.00421990
7228.00   0.48543191   0.00433552
7230.00   0.49261317   0.00449701
7232.00   0.49550596   0.00477738
7234.00   0.48915294   0.00520768
7236.00   0.47836411   0.00570506
7238.00   0.47267228   0.00613980
7240.00   0.46971002   0.00661941
7242.00   0.46495077   0.00694241
7244.00   0.45771712   0.00737010
7246.00   0.45378903   0.00739132
7248.00   0.45317915   0.00674368
7250.00   0.45613766   0.00575332
7252.00   0.46603796   0.00520816
7254.00   0.48739100   0.00489606
7256.00   0.48991847   0.00468805
7258.00   0.47274208   0.00476329
7260.00   0.46695387   0.00480048
7262.00   0.47423294   0.00478276
7264.00   0.48569429   0.00480252
7266.00   0.49635643   0.00491956
7268.00   0.51035726   0.00509451
7270.00   0.51029193   0.00538115
7272.00   0.49559170   0.00587447
7274.00   0.48602518   0.00615429
7276.00   0.47564641   0.00619592
7278.00   0.47067264   0.00629055
7280.00   0.48033470   0.00673271
7282.00   0.50009590   0.00733053
7284.00   0.49470213   0.00711895
7286.00   0.46055454   0.00587670
7288.00   0.44955009   0.00516489
7290.00   0.45453325   0.00475416
7292.00   0.46097493   0.00451473
7294.00   0.46468320   0.00446051
7296.00   0.46816453   0.00458336
7298.00   0.46874180   0.00465576
7300.00   0.46478412   0.00479742
7302.00   0.46560553   0.00487261
7304.00   0.47115818   0.00487276
7306.00   0.47381747   0.00494012
7308.00   0.47226503   0.00498248
7310.00   0.46806690   0.00516433
7312.00   0.46123210   0.00590873
7314.00   0.44754443   0.00728904
7316.00   0.44687241   0.00742523
7318.00   0.45700821   0.00657509
7320.00   0.46621388   0.00588876
7322.00   0.47492582   0.00538621
7324.00   0.48360991   0.00501727
7326.00   0.49194750   0.00493081
7328.00   0.50122571   0.00512761
7330.00   0.50263458   0.00532077
7332.00   0.49571860   0.00571492
7334.00   0.49079669   0.00592038
7336.00   0.48682994   0.00597547
7338.00   0.48262829   0.00596726
7340.00   0.47770807   0.00594135
7342.00   0.47228435   0.00587509
7344.00   0.46718347   0.00574564
7346.00   0.45755213   0.00552527
7348.00   0.45823181   0.00530826
7350.00   0.47130403   0.00499991
7352.00   0.48273462   0.00477530
7354.00   0.48530930   0.00474762
7356.00   0.48424369   0.00485096
7358.00   0.48902476   0.00496545
7360.00   0.50288141   0.00514212
7362.00   0.50322765   0.00533630
7364.00   0.49192670   0.00559851
7366.00   0.48220056   0.00581137
7368.00   0.47679320   0.00602806
7370.00   0.47298408   0.00616031
7372.00   0.46963921   0.00592566
7374.00   0.46603340   0.00520672
7376.00   0.46725926   0.00479800
7378.00   0.47441399   0.00446634
7380.00   0.47971663   0.00426501
7382.00   0.48216230   0.00425476
7384.00   0.48425144   0.00435408
7386.00   0.48841384   0.00445474
7388.00   0.49417168   0.00461200
7390.00   0.49781412   0.00473778
7392.00   0.50174087   0.00483508
7394.00   0.50224900   0.00498285
7396.00   0.49766925   0.00522935
7398.00   0.49290603   0.00542725
7400.00   0.49269819   0.00548024
7402.00   0.49526176   0.00544474
7404.00   0.49176347   0.00528153
7406.00   0.47999272   0.00483683
7408.00   0.47665659   0.00458628
7410.00   0.48008624   0.00450297
7412.00   0.48559663   0.00445761
7414.00   0.49223977   0.00438997
7416.00   0.50025272   0.00433701
7418.00   0.50354868   0.00432548
7420.00   0.50115544   0.00429379
7422.00   0.50363362   0.00441758
7424.00   0.50968665   0.00475895
7426.00   0.51479870   0.00497694
7428.00   0.51855719   0.00497351
7430.00   0.52087086   0.00487637
7432.00   0.51892644   0.00487484
7434.00   0.51259744   0.00489662
7436.00   0.50678188   0.00494154
7438.00   0.49688941   0.00509662
7440.00   0.49184793   0.00510817
7442.00   0.49370116   0.00488064
7444.00   0.49841899   0.00458395
7446.00   0.50160158   0.00449200
7448.00   0.50543547   0.00454149
7450.00   0.50785089   0.00450280
7452.00   0.51165396   0.00439828
7454.00   0.51032352   0.00438022
7456.00   0.50116903   0.00447448
7458.00   0.49173206   0.00458612
7460.00   0.48834774   0.00463568
7462.00   0.48791918   0.00465487
7464.00   0.49213162   0.00473168
7466.00   0.50688010   0.00484258
7468.00   0.51161593   0.00496212
7470.00   0.50553018   0.00513146
7472.00   0.50041562   0.00525703
7474.00   0.50342804   0.00528443
7476.00   0.51038861   0.00524909
7478.00   0.51259214   0.00521318
7480.00   0.51609081   0.00512479
7482.00   0.51098508   0.00508099
7484.00   0.49317703   0.00510328
7486.00   0.48060670   0.00506758
7488.00   0.48003072   0.00488998
7490.00   0.48534542   0.00465170
7492.00   0.48850718   0.00459033
7494.00   0.49362206   0.00470383
7496.00   0.49656552   0.00468447
7498.00   0.49798790   0.00460894
7500.00   0.49958023   0.00452066
7502.00   0.50196987   0.00439447
7504.00   0.50406820   0.00427490
7506.00   0.50415647   0.00426607
7508.00   0.50211287   0.00434500
7510.00   0.50228852   0.00441836
7512.00   0.50517565   0.00428625
7514.00   0.50518090   0.00463143
7516.00   0.50165468   0.00561400
7518.00   0.49703419   0.00644249
7520.00   0.49297708   0.00665997
7522.00   0.48830375   0.00655527
7524.00   0.48717076   0.00634238
7526.00   0.48834059   0.00572242
7528.00   0.49138892   0.00530702
7530.00   0.49905714   0.00502085
7532.00   0.50491220   0.00487123
7534.00   0.50386029   0.00494803
7536.00   0.49858436   0.00520332
7538.00   0.49745247   0.00519243
7540.00   0.49761918   0.00502343
7542.00   0.49886408   0.00484812
7544.00   0.50352114   0.00452110
7546.00   0.50561231   0.00429842
7548.00   0.50105435   0.00432585
7550.00   0.49381462   0.00449949
7552.00   0.49463004   0.00465806
7554.00   0.50287932   0.00496124
7556.00   0.50645041   0.00502562
7558.00   0.50961375   0.00484720
7560.00   0.51054770   0.00477819
7562.00   0.50775129   0.00487387
7564.00   0.50368863   0.00506856
7566.00   0.50298005   0.00537337
7568.00   0.50460148   0.00589764
7570.00   0.50458664   0.00598527
7572.00   0.50465167   0.00576113
7574.00   0.50337464   0.00551065
7576.00   0.49818009   0.00514567
7578.00   0.49462911   0.00478457
7580.00   0.50001425   0.00466670
7582.00   0.51258886   0.00473104
7584.00   0.52055150   0.00480376
7586.00   0.52964395   0.00491717
7588.00   0.53397930   0.00513322
7590.00   0.53255826   0.00530459
7592.00   0.52989250   0.00572051
7594.00   0.52937621   0.00653499
7596.00   0.52939564   0.00753938
7598.00   0.52591610   0.00850155
7600.00   0.51726860   0.00993402
7602.00   0.51340103   0.01038047
7604.00   0.51008910   0.01010421
7606.00   0.51223987   0.00959147
7608.00   0.52605736   0.00893521
7610.00   0.54561883   0.00804799
7612.00   0.54759783   0.00737114
7614.00   0.53684276   0.00670987
7616.00   0.52588624   0.00627947
7618.00   0.50278687   0.00607066
7620.00   0.49029544   0.00609267
7622.00   0.49656796   0.00644379
7624.00   0.51093274   0.00692299
7626.00   0.51746613   0.00716298
7628.00   0.52309829   0.00736102
7630.00   0.52475023   0.00735557
7632.00   0.52176690   0.00712572
7634.00   0.51885241   0.00687546
7636.00   0.51563150   0.00658312
7638.00   0.51249111   0.00626461
7640.00   0.51058978   0.00597326
7642.00   0.50925195   0.00565774
7644.00   0.50970256   0.00552790
7646.00   0.51258230   0.00562134
7648.00   0.51469862   0.00565450
7650.00   0.51531059   0.00565280
7652.00   0.51711416   0.00564740
7654.00   0.52407229   0.00564016
7656.00   0.53518200   0.00562679
7658.00   0.53207099   0.00567354
7660.00   0.51141381   0.00587795
7662.00   0.50402361   0.00584863
7664.00   0.50577885   0.00556478
7666.00   0.51025575   0.00527207
7668.00   0.51635325   0.00509940
7670.00   0.52424198   0.00498010
7672.00   0.52580225   0.00489306
7674.00   0.52084190   0.00488687
7676.00   0.51981097   0.00483570
7678.00   0.52119476   0.00471505
7680.00   0.52101940   0.00468782
7682.00   0.51739079   0.00484207
7684.00   0.51261622   0.00506009
7686.00   0.51106781   0.00513793
7688.00   0.51152533   0.00516211
7690.00   0.51207477   0.00512116
7692.00   0.51319265   0.00493300
7694.00   0.51519275   0.00483719
7696.00   0.52070719   0.00487301
7698.00   0.52463239   0.00496752
7700.00   0.51744938   0.00503523
7702.00   0.49784517   0.00504436
7704.00   0.49799094   0.00539367
7706.00   0.51518798   0.00605858
7708.00   0.52635717   0.00655736
7710.00   0.53899336   0.00699842
7712.00   0.54221964   0.00733063
7714.00   0.51976067   0.00750032
7716.00   0.47560072   0.00755882
7718.00   0.45947284   0.00739624
7720.00   0.45720601   0.00686419
7722.00   0.46083334   0.00648460
7724.00   0.47781861   0.00619991
7726.00   0.49358025   0.00592830
7728.00   0.49929965   0.00560579
7730.00   0.50015157   0.00526927
7732.00   0.50311679   0.00512721
7734.00   0.50591421   0.00514409
7736.00   0.50790787   0.00524936
7738.00   0.50964266   0.00551701
7740.00   0.51011795   0.00577157
7742.00   0.50881988   0.00587921
7744.00   0.50629848   0.00601373
7746.00   0.50386572   0.00661094
7748.00   0.50408208   0.00785279
7750.00   0.49506742   0.00802543
7752.00   0.47384995   0.00738601
7754.00   0.45917720   0.00683846
7756.00   0.45421576   0.00652209
7758.00   0.45350459   0.00627841
7760.00   0.45201257   0.00606678
7762.00   0.45140097   0.00594754
7764.00   0.45385790   0.00572718
7766.00   0.45872524   0.00530926
7768.00   0.46590284   0.00514334
7770.00   0.47759652   0.00534800
7772.00   0.48903102   0.00560916
7774.00   0.49524978   0.00566818
7776.00   0.49839547   0.00563584
7778.00   0.49973983   0.00566348
7780.00   0.49637568   0.00566392
7782.00   0.49615362   0.00575340
7784.00   0.50003779   0.00592668
7786.00   0.50225788   0.00613252
7788.00   0.49928203   0.00636425
7790.00   0.49301389   0.00662012
7792.00   0.48589718   0.00676921
7794.00   0.47325805   0.00699719
7796.00   0.46769339   0.00686444
7798.00   0.46768141   0.00621814
7800.00   0.46880010   0.00565735
7802.00   0.47048658   0.00552074
7804.00   0.47266445   0.00560033
7806.00   0.47131008   0.00558558
7808.00   0.46439880   0.00543377
7810.00   0.46483994   0.00572225
7812.00   0.46805304   0.00626950
7814.00   0.47603971   0.00694033
7816.00   0.49696904   0.00795039
7818.00   0.51657063   0.00880433
7820.00   0.50473464   0.00874074
7822.00   0.46087870   0.00788160
7824.00   0.44769046   0.00725861
7826.00   0.45020545   0.00630742
7828.00   0.45461702   0.00560414
7830.00   0.46247038   0.00532442
7832.00   0.47252899   0.00526993
7834.00   0.48298493   0.00522925
7836.00   0.49645743   0.00530166
7838.00   0.49763626   0.00547916
7840.00   0.48370656   0.00587586
7842.00   0.47912690   0.00609604
7844.00   0.48441467   0.00608883
7846.00   0.48900744   0.00616384
7848.00   0.48628172   0.00655225
7850.00   0.47955996   0.00710292
7852.00   0.47248238   0.00742786
7854.00   0.45770389   0.00777401
7856.00   0.45510963   0.00783531
7858.00   0.46552643   0.00761071
7860.00   0.47456640   0.00730240
7862.00   0.47643465   0.00692824
7864.00   0.47514990   0.00648804
7866.00   0.47382268   0.00631879
7868.00   0.46837038   0.00637846
7870.00   0.46902683   0.00645729
7872.00   0.47280034   0.00661624
7874.00   0.47956115   0.00684592
7876.00   0.49182096   0.00721315
7878.00   0.50537795   0.00758261
7880.00   0.51061475   0.00769476
7882.00   0.51114976   0.00765576
7884.00   0.50775439   0.00751081
7886.00   0.49731854   0.00716828
7888.00   0.48828420   0.00681869
7890.00   0.47904876   0.00642789
7892.00   0.47208846   0.00603687
7894.00   0.47201148   0.00575312
7896.00   0.47721040   0.00555179
7898.00   0.48491469   0.00539488
7900.00   0.49938634   0.00517728
7902.00   0.51022524   0.00528767
7904.00   0.52084017   0.00575332
7906.00   0.52673185   0.00629943
7908.00   0.52271098   0.00680967
7910.00   0.51086384   0.00734740
7912.00   0.50190091   0.00767411
7914.00   0.48796609   0.00796477
7916.00   0.48266956   0.00800252
7918.00   0.48389763   0.00774890
7920.00   0.48937821   0.00742494
7922.00   0.50089025   0.00710512
7924.00   0.51633847   0.00674776
7926.00   0.52038956   0.00651463
7928.00   0.51684159   0.00636747
7930.00   0.51153135   0.00628091
7932.00   0.49929175   0.00640522
7934.00   0.48964447   0.00636171
7936.00   0.48339820   0.00593547
7938.00   0.48065785   0.00534834
7940.00   0.48697793   0.00520073
7942.00   0.50664794   0.00535136
7944.00   0.51246989   0.00556356
7946.00   0.51049191   0.00611991
7948.00   0.50735402   0.00634460
7950.00   0.50268966   0.00611069
7952.00   0.49694362   0.00574293
7954.00   0.49145800   0.00563019
7956.00   0.48430130   0.00554540
7958.00   0.48402828   0.00594634
7960.00   0.49453065   0.00702552
7962.00   0.49553913   0.00747745
7964.00   0.48326975   0.00743710
7966.00   0.47174481   0.00717363
7968.00   0.47377878   0.00675122
7970.00   0.48462483   0.00603178
7972.00   0.48434865   0.00585275
7974.00   0.47659945   0.00624487
7976.00   0.47114989   0.00633030
7978.00   0.46310836   0.00622255
7980.00   0.45971227   0.00609834
7982.00   0.46658757   0.00598803
7984.00   0.48006526   0.00588624
7986.00   0.48844242   0.00609042
7988.00   0.50134367   0.00659934
7990.00   0.50052756   0.00697393
7992.00   0.48397699   0.00754494
7994.00   0.47056621   0.00775010
7996.00   0.46434540   0.00734734
7998.00   0.46264091   0.00656834
8000.00   0.46914712   0.00600393
8002.00   0.48873976   0.00529707
8004.00   0.49659100   0.00497390
8006.00   0.49948105   0.00507870
8008.00   0.49957114   0.00521846
8010.00   0.49453244   0.00539224
8012.00   0.48875225   0.00559062
8014.00   0.49068591   0.00570583
8016.00   0.49916118   0.00572672
8018.00   0.50121641   0.00598386
8020.00   0.50182611   0.00646552
8022.00   0.49837020   0.00681685
8024.00   0.48936200   0.00716755
8026.00   0.47862518   0.00734916
8028.00   0.46916798   0.00713168
8030.00   0.45908898   0.00654592
8032.00   0.45406368   0.00613799
8034.00   0.45032772   0.00564589
8036.00   0.45383060   0.00532114
8038.00   0.46615824   0.00518247
8040.00   0.48074836   0.00515120
8042.00   0.49646619   0.00521179
8044.00   0.51368922   0.00536768
8046.00   0.51480502   0.00541910
8048.00   0.49592626   0.00540975
8050.00   0.49032328   0.00543242
8052.00   0.49060228   0.00541136
8054.00   0.49358025   0.00548349
8056.00   0.49997574   0.00573735
8058.00   0.50833470   0.00605972
8060.00   0.51114666   0.00621541
8062.00   0.50992876   0.00635407
8064.00   0.50947928   0.00628412
8066.00   0.50966263   0.00595268
8068.00   0.50678581   0.00564229
8070.00   0.49799344   0.00536689
8072.00   0.48818964   0.00513231
8074.00   0.48585492   0.00505158
8076.00   0.48849189   0.00510796
8078.00   0.49139312   0.00520677
8080.00   0.49986410   0.00545091
8082.00   0.50246978   0.00560288
8084.00   0.49752825   0.00569774
8086.00   0.49045601   0.00571526
8088.00   0.48519644   0.00556675
8090.00   0.47883829   0.00522180
8092.00   0.48154935   0.00519619
8094.00   0.49638262   0.00543288
8096.00   0.50330454   0.00559096
8098.00   0.50453347   0.00578621
8100.00   0.50272560   0.00588241
8102.00   0.49733299   0.00573910
8104.00   0.48849019   0.00541367
8106.00   0.48832887   0.00527817
8108.00   0.49537408   0.00527536
8110.00   0.50071162   0.00519777
8112.00   0.50723928   0.00505239
8114.00   0.51303744   0.00494706
8116.00   0.51793206   0.00494514
8118.00   0.52172011   0.00499627
8120.00   0.52120179   0.00498429
8122.00   0.51428670   0.00487780
8124.00   0.51249433   0.00493733
8126.00   0.51426148   0.00516427
8128.00   0.51438826   0.00532326
8130.00   0.51253885   0.00538567
8132.00   0.50877595   0.00539273
8134.00   0.50056684   0.00533731
8136.00   0.48387364   0.00513953
8138.00   0.48214060   0.00517320
8140.00   0.49147210   0.00544778
8142.00   0.50189120   0.00558150
8144.00   0.51835859   0.00554946
8146.00   0.53175431   0.00546266
8148.00   0.52703059   0.00541649
8150.00   0.50640637   0.00537909
8152.00   0.50230175   0.00527769
8154.00   0.50792474   0.00503566
8156.00   0.51168823   0.00495144
8158.00   0.51592195   0.00503302
8160.00   0.51915228   0.00517217
8162.00   0.51973206   0.00532698
8164.00   0.51848263   0.00552093
8166.00   0.51537091   0.00557450
8168.00   0.50595421   0.00539412
8170.00   0.50467122   0.00549486
8172.00   0.51086867   0.00574290
8174.00   0.51788819   0.00614335
8176.00   0.52440810   0.00683996
8178.00   0.53068495   0.00760151
8180.00   0.52926713   0.00764288
8182.00   0.51831019   0.00675173
8184.00   0.51316524   0.00669493
8186.00   0.51201838   0.00705112
8188.00   0.50751340   0.00757288
8190.00   0.49593997   0.00840528
8192.00   0.48222184   0.00919526
8194.00   0.47533396   0.00919729
8196.00   0.47042716   0.00855885
8198.00   0.47336999   0.00800180
8200.00   0.48939556   0.00703690
8202.00   0.49800342   0.00626084
8204.00   0.49531737   0.00584185
8206.00   0.49014202   0.00562919
8208.00   0.49124816   0.00546172
8210.00   0.49436978   0.00543571
8212.00   0.50300044   0.00548209
8214.00   0.52501619   0.00576211
8216.00   0.53282821   0.00583829
8218.00   0.52414882   0.00568790
8220.00   0.51206869   0.00549598
8222.00   0.50550878   0.00539609
8224.00   0.49998999   0.00532356
8226.00   0.49867705   0.00534287
8228.00   0.50179803   0.00556879
8230.00   0.50519449   0.00555998
8232.00   0.51057935   0.00528662
8234.00   0.51583070   0.00503953
8236.00   0.52040935   0.00499453
8238.00   0.52445817   0.00505594
8240.00   0.52441293   0.00510332
8242.00   0.51604575   0.00517114
8244.00   0.51776600   0.00528357
8246.00   0.52985996   0.00552735
8248.00   0.53771853   0.00563876
8250.00   0.53656292   0.00550830
8252.00   0.53109968   0.00525909
8254.00   0.52682704   0.00514366
8256.00   0.52046174   0.00507981
8258.00   0.51677191   0.00502950
8260.00   0.51368237   0.00499512
8262.00   0.51298851   0.00500672
8264.00   0.51445901   0.00506856
8266.00   0.51852405   0.00517021
8268.00   0.52749240   0.00527110
8270.00   0.54444110   0.00528768
8272.00   0.54611534   0.00577573
8274.00   0.53726768   0.00612153
8276.00   0.52589536   0.00735904
8278.00   0.50734389   0.00984325
8280.00   0.49005255   0.01151875
8282.00   0.48363301   0.01123701
8284.00   0.48450783   0.00945559
8286.00   0.48212677   0.00877744
8288.00   0.47651100   0.00853243
8290.00   0.47876436   0.00839705
8292.00   0.49199602   0.00859795
8294.00   0.50338000   0.00875814
8296.00   0.50619918   0.00863994
8298.00   0.50412518   0.00837490
8300.00   0.49647552   0.00818061
8302.00   0.47216412   0.00806485
8304.00   0.46873942   0.00774490
8306.00   0.48219430   0.00709553
8308.00   0.49694937   0.00655835
8310.00   0.51138270   0.00641788
8312.00   0.52491951   0.00646270
8314.00   0.52380043   0.00623107
8316.00   0.50122666   0.00574400
8318.00   0.50246251   0.00550511
8320.00   0.52359891   0.00542897
8322.00   0.53702545   0.00538476
8324.00   0.53741330   0.00538086
8326.00   0.53325397   0.00539777
8328.00   0.53228188   0.00533230
8330.00   0.52928716   0.00509113
8332.00   0.53502363   0.00536275
8334.00   0.55880636   0.00576686
8336.00   0.56259328   0.00661307
8338.00   0.54258764   0.00791578
8340.00   0.51362896   0.00916380
8342.00   0.48613471   0.01016392
8344.00   0.45333207   0.01117007
8346.00   0.43464413   0.01132476
8348.00   0.42455035   0.01075472
8350.00   0.42028677   0.01009041
8352.00   0.42279738   0.00894535
8354.00   0.43095353   0.00776135
8356.00   0.44560736   0.00706584
8358.00   0.46637890   0.00672328
8360.00   0.48059145   0.00640160
8362.00   0.49460152   0.00638621
8364.00   0.50199276   0.00623252
8366.00   0.49759427   0.00593488
8368.00   0.49907172   0.00578654
8370.00   0.51725215   0.00593828
8372.00   0.54219860   0.00626207
8374.00   0.54895711   0.00655934
8376.00   0.54357225   0.00696301
8378.00   0.53738564   0.00722847
8380.00   0.52328485   0.00750418
8382.00   0.51169860   0.00760926
8384.00   0.50181848   0.00742290
8386.00   0.49593428   0.00713915
8388.00   0.50351232   0.00713714
8390.00   0.52745163   0.00724440
8392.00   0.53602719   0.00757299
8394.00   0.54909468   0.00818670
8396.00   0.53711063   0.00868956
8398.00   0.48302814   0.00927279
8400.00   0.42581978   0.00962265
8402.00   0.40938672   0.00927747
8404.00   0.41543752   0.00824504
8406.00   0.43633342   0.00760600
8408.00   0.49704030   0.00686767
8410.00   0.52766579   0.00652889
8412.00   0.53362983   0.00680182
8414.00   0.52715355   0.00713619
8416.00   0.50891966   0.00713542
8418.00   0.47731993   0.00699088
8420.00   0.47390056   0.00722292
8422.00   0.49227315   0.00766406
8424.00   0.50690895   0.00819097
8426.00   0.53451073   0.00902129
8428.00   0.54727858   0.00958268
8430.00   0.52607095   0.00972130
8432.00   0.48637488   0.00958345
8434.00   0.47168210   0.00914691
8436.00   0.46783590   0.00805145
8438.00   0.46920043   0.00728320
8440.00   0.48293874   0.00640075
8442.00   0.49389449   0.00586761
8444.00   0.49994463   0.00599402
8446.00   0.50264019   0.00649095
8448.00   0.49860236   0.00690684
8450.00   0.48335597   0.00754890
8452.00   0.48238119   0.00774925
8454.00   0.48746818   0.00756671
8456.00   0.49966323   0.00751673
8458.00   0.53143996   0.00760130
8460.00   0.55777067   0.00778207
8462.00   0.54056633   0.00815252
8464.00   0.48680103   0.00879237
8466.00   0.45923051   0.00872877
8468.00   0.42921397   0.00804147
8470.00   0.42264798   0.00739720
8472.00   0.44720188   0.00659174
8474.00   0.47751763   0.00582122
8476.00   0.49507284   0.00543268
8478.00   0.50911272   0.00536807
8480.00   0.51484585   0.00534800
8482.00   0.50871867   0.00550545
8484.00   0.50738722   0.00572555
8486.00   0.50901657   0.00610467
8488.00   0.50928050   0.00642170
8490.00   0.50501949   0.00654794
8492.00   0.49857008   0.00659235
8494.00   0.49875727   0.00684608
8496.00   0.50798798   0.00732284
8498.00   0.50757247   0.00757075
8500.00   0.50363070   0.00774095
8502.00   0.49385986   0.00780918
8504.00   0.47134215   0.00774924
8506.00   0.44617376   0.00759777
8508.00   0.44630373   0.00745356
8510.00   0.46892771   0.00736108
8512.00   0.48160881   0.00696685
8514.00   0.49739292   0.00603733
8516.00   0.50719184   0.00535088
8518.00   0.50801563   0.00517576
8520.00   0.50577992   0.00523880
8522.00   0.50820923   0.00523300
8524.00   0.51317006   0.00529679
8526.00   0.51415831   0.00536975
8528.00   0.51277381   0.00549427
8530.00   0.51045614   0.00559447
8532.00   0.50649554   0.00565648
8534.00   0.50211865   0.00573265
8536.00   0.49825519   0.00588696
8538.00   0.49422479   0.00610330
8540.00   0.49315342   0.00614043
8542.00   0.49633160   0.00596719
8544.00   0.49631840   0.00595019
8546.00   0.49367338   0.00614135
8548.00   0.49060580   0.00623426
8550.00   0.48791236   0.00604013
8552.00   0.48518956   0.00565545
8554.00   0.48385155   0.00537188
8556.00   0.48073828   0.00500701
8558.00   0.48469332   0.00482504
8560.00   0.49772903   0.00481106
8562.00   0.50815821   0.00486701
8564.00   0.51291496   0.00501100
8566.00   0.51419276   0.00519199
8568.00   0.51109987   0.00519673
8570.00   0.50016987   0.00502819
8572.00   0.49602994   0.00499134
8574.00   0.49701327   0.00501511
8576.00   0.49527970   0.00504314
8578.00   0.48799828   0.00505948
8580.00   0.48013896   0.00509174
8582.00   0.47847897   0.00517315
8584.00   0.48008046   0.00528570
8586.00   0.48584074   0.00543992
8588.00   0.49887389   0.00562605
8590.00   0.50896859   0.00584842
8592.00   0.51890355   0.00623595
8594.00   0.52462155   0.00649147
8596.00   0.51974410   0.00627297
8598.00   0.50574493   0.00561441
8600.00   0.49680629   0.00543476
8602.00   0.48506695   0.00561016
8604.00   0.48052984   0.00566125
8606.00   0.48429045   0.00564103
8608.00   0.48942372   0.00563034
8610.00   0.49224287   0.00563351
8612.00   0.49470112   0.00564868
8614.00   0.49522391   0.00589519
8616.00   0.49276447   0.00641009
8618.00   0.49257517   0.00673183
8620.00   0.49367502   0.00696100
8622.00   0.49517372   0.00717815
8624.00   0.49867961   0.00745594
8626.00   0.50200009   0.00771229
8628.00   0.49544701   0.00769969
8630.00   0.47578675   0.00741309
8632.00   0.46781304   0.00720726
8634.00   0.46182191   0.00684599
8636.00   0.46422970   0.00668245
8638.00   0.48130608   0.00689542
8640.00   0.50257343   0.00721086
8642.00   0.50873542   0.00722520
8644.00   0.50682557   0.00703938
8646.00   0.50021064   0.00697209
8648.00   0.48902324   0.00672084
8650.00   0.46974805   0.00689125
8652.00   0.43484375   0.00776269
8654.00   0.40058440   0.00851625
8656.00   0.38517621   0.00843641
8658.00   0.37995005   0.00773931
8660.00   0.38996488   0.00747630
8662.00   0.42531303   0.00738522
8664.00   0.44936255   0.00726202
8666.00   0.46804649   0.00714924
8668.00   0.48098096   0.00702357
8670.00   0.48470461   0.00683945
8672.00   0.48065528   0.00661194
8674.00   0.48253655   0.00649966
8676.00   0.48638350   0.00655397
8678.00   0.48975414   0.00644679
8680.00   0.49536732   0.00617806
8682.00   0.49768490   0.00592524
8684.00   0.49186468   0.00577232
8686.00   0.48230317   0.00567144
8688.00   0.48387474   0.00558373
8690.00   0.49677277   0.00541002
8692.00   0.50161195   0.00554792
8694.00   0.50202328   0.00608278
8696.00   0.50386292   0.00638732
8698.00   0.51022273   0.00634235
8700.00   0.51667297   0.00613818
8702.00   0.51480436   0.00598942
8704.00   0.50502300   0.00578634
8706.00   0.50032830   0.00562909
8708.00   0.49437934   0.00549847
8710.00   0.49399412   0.00536616
8712.00   0.50399530   0.00519736
8714.00   0.51406199   0.00506380
8716.00   0.50980109   0.00507738
8718.00   0.49360624   0.00522103
8720.00   0.49210453   0.00528617
8722.00   0.50049734   0.00537091
8724.00   0.50704104   0.00538250
8726.00   0.51427579   0.00528766
8728.00   0.52006561   0.00519155
8730.00   0.52119106   0.00517551
8732.00   0.51883137   0.00520093
8734.00   0.52124721   0.00527015
8736.00   0.52966172   0.00544262
8738.00   0.53107190   0.00551571
8740.00   0.52537096   0.00551476
8742.00   0.52001327   0.00549483
8744.00   0.51713616   0.00540283
8746.00   0.51584023   0.00529637
8748.00   0.52215493   0.00562776
8750.00   0.54224819   0.00624012
8752.00   0.54806721   0.00690427
8754.00   0.54984868   0.00760114
8756.00   0.54156792   0.00843788
8758.00   0.51587862   0.00953963
8760.00   0.48321572   0.01061767
8762.00   0.46899873   0.01120538
8764.00   0.46609086   0.01167883
8766.00   0.46338379   0.01156706
8768.00   0.47431797   0.01053453
8770.00   0.46980518   0.00988643
8772.00   0.44494948   0.00990871
8774.00   0.41021377   0.01016757
8776.00   0.37279043   0.01029101
8778.00   0.32114807   0.01048061
8780.00   0.30751115   0.01045440
8782.00   0.31872547   0.01033191
8784.00   0.34398693   0.01001815
8786.00   0.39823946   0.00943841
8788.00   0.45076326   0.00870404
8790.00   0.47135860   0.00786252
8792.00   0.47268346   0.00677375
8794.00   0.47748435   0.00614305
8796.00   0.47248530   0.00602829
8798.00   0.47571266   0.00587585
8800.00   0.48538575   0.00582884
8802.00   0.49695414   0.00583771
8804.00   0.51061267   0.00588133
8806.00   0.52574933   0.00596627
8808.00   0.52815378   0.00597006
8810.00   0.50951105   0.00579499
8812.00   0.51433069   0.00591191
8814.00   0.54198045   0.00562646
8816.00   0.56175381   0.00643370
8818.00   0.56942856   0.00834810
8820.00   0.56575286   0.01057081
8822.00   0.53186429   0.01288797
8824.00   0.44775119   0.01642166
8826.00   0.41964880   0.01673968
8828.00   0.42973241   0.01423075
8830.00   0.43694833   0.01208719
8832.00   0.43619654   0.01118373
8834.00   0.43628901   0.01072430
8836.00   0.44271052   0.00999449
8838.00   0.45361790   0.00926704
8840.00   0.46674767   0.00867658
8842.00   0.48536593   0.00818107
8844.00   0.50178254   0.00788423
8846.00   0.52075970   0.00799874
8848.00   0.53349811   0.00809687
8850.00   0.52733439   0.00768343
8852.00   0.50468040   0.00683954
8854.00   0.50145733   0.00646922
8856.00   0.50985277   0.00622990
8858.00   0.51690608   0.00641583
8860.00   0.53130335   0.00721248
8862.00   0.53765601   0.00789019
8864.00   0.52360839   0.00813723
8866.00   0.49599111   0.00818302
8868.00   0.47619331   0.00820919
8870.00   0.44308624   0.00812810
8872.00   0.44171396   0.00802395
8874.00   0.46768132   0.00747153
8876.00   0.50218594   0.00752723
8878.00   0.54976302   0.00870677
8880.00   0.60105741   0.01023398
8882.00   0.60512275   0.01117835
8884.00   0.56995225   0.01229150
8886.00   0.53606105   0.01243481
8888.00   0.46691844   0.01177288
8890.00   0.43125480   0.01089085
8892.00   0.44836718   0.00945338
8894.00   0.48833850   0.00782422
8896.00   0.51373351   0.00779111
8898.00   0.54232585   0.00926612
8900.00   0.56062144   0.00965064
8902.00   0.58029962   0.00986476
8904.00   0.57914352   0.00974476
8906.00   0.54429346   0.00874047
8908.00   0.50630116   0.00791195
8910.00   0.49996191   0.00900057
8912.00   0.51388073   0.01120327
8914.00   0.51275545   0.01198342
8916.00   0.50240386   0.01230464
8918.00   0.50082815   0.01234161
8920.00   0.51257813   0.01205377
8922.00   0.51985800   0.01146738
8924.00   0.50578856   0.01044982
8926.00   0.47829649   0.00888427
8928.00   0.48286799   0.00786242
8930.00   0.51560688   0.00710839
8932.00   0.53792053   0.00672266
8934.00   0.56641984   0.00692190
8936.00   0.58199054   0.00729078
8938.00   0.57326096   0.00775989
8940.00   0.54965681   0.00829798
8942.00   0.53235978   0.00847450
8944.00   0.49876434   0.00825309
8946.00   0.50073212   0.00839592
8948.00   0.53649479   0.00859853
8950.00   0.56812203   0.00904751
8952.00   0.60006541   0.00977870
8954.00   0.62090564   0.01064422
8956.00   0.58658051   0.01156279
8958.00   0.48549989   0.01301544
8960.00   0.45061490   0.01283890
8962.00   0.45040369   0.01082482
8964.00   0.45637822   0.00924361
8966.00   0.47302145   0.00857057
8968.00   0.49398246   0.00822253
8970.00   0.50673288   0.00765820
8972.00   0.51588869   0.00708441
8974.00   0.52741665   0.00671814
8976.00   0.54445422   0.00644629
8978.00   0.55130786   0.00651965
8980.00   0.54754776   0.00700172
8982.00   0.53938282   0.00759525
8984.00   0.52958786   0.00813208
8986.00   0.51637697   0.00869187
8988.00   0.50972497   0.00923782
8990.00   0.50648266   0.00997707
8992.00   0.50583845   0.01028296
8994.00   0.50807196   0.01012250
8996.00   0.51293141   0.01002495
8998.00   0.52250743   0.01032901
9000.00   0.53462625   0.01076587
9002.00   0.53626537   0.01068132
9004.00   0.52563971   0.01019351
9006.00   0.52464110   0.00967016
9008.00   0.52612591   0.00871442
9010.00   0.53225958   0.00798628
9012.00   0.54664874   0.00785289
9014.00   0.56392413   0.00800418
9016.00   0.57148957   0.00791227
9018.00   0.57677341   0.00782024
9020.00   0.56892401   0.00755163
9022.00   0.54153764   0.00698479
9024.00   0.52290845   0.00655724
9026.00   0.51462692   0.00631673
9028.00   0.51225114   0.00622208
9030.00   0.51530772   0.00629485
9032.00   0.52651674   0.00655644
9034.00   0.52987713   0.00678607
9036.00   0.52761114   0.00710992
9038.00   0.52861893   0.00734016
9040.00   0.53221768   0.00744611
9042.00   0.53748983   0.00756971
9044.00   0.54640347   0.00785784
9046.00   0.55940968   0.00825466
9048.00   0.55521637   0.00833517
9050.00   0.53278577   0.00822993
9052.00   0.51840806   0.00800793
9054.00   0.50526839   0.00750440
9056.00   0.49690518   0.00703787
9058.00   0.49654859   0.00684026
9060.00   0.50208241   0.00680083
9062.00   0.50724751   0.00673145
9064.00   0.51248407   0.00672723
9066.00   0.52376801   0.00670022
9068.00   0.54749101   0.00665117
9070.00   0.56198090   0.00664352
9072.00   0.55772674   0.00669996
9074.00   0.54499573   0.00679682
9076.00   0.54197049   0.00690518
9078.00   0.54112792   0.00706829
9080.00   0.54487175   0.00715182
9082.00   0.55796719   0.00717612
9084.00   0.56464624   0.00720598
9086.00   0.56153166   0.00723955
9088.00   0.55493712   0.00728029
9090.00   0.55198586   0.00735046
9092.00   0.55050802   0.00744970
9094.00   0.54610986   0.00752326
9096.00   0.53837544   0.00760775
9098.00   0.53277993   0.00764613
9100.00   0.53187943   0.00767186
9102.00   0.52884108   0.00762562
9104.00   0.51504803   0.00741436
9106.00   0.49210504   0.00703957
9108.00   0.48695868   0.00681606
9110.00   0.49446267   0.00661483
9112.00   0.50250977   0.00653791
9114.00   0.51751792   0.00666253
9116.00   0.52932870   0.00676269
9118.00   0.52964270   0.00667852
9120.00   0.52323186   0.00649930
9122.00   0.52583802   0.00651457
9124.00   0.53494573   0.00673204
9126.00   0.54058623   0.00678784
9128.00   0.54592437   0.00671734
9130.00   0.54944056   0.00668336
9132.00   0.55137330   0.00677068
9134.00   0.55108929   0.00689395
9136.00   0.54474741   0.00687703
9138.00   0.52810842   0.00672730
9140.00   0.52243984   0.00666278
9142.00   0.52234167   0.00655409
9144.00   0.52498806   0.00658431
9146.00   0.53238821   0.00682433
9148.00   0.54078740   0.00713835
9150.00   0.54207891   0.00736551
9152.00   0.53825831   0.00762761
9154.00   0.53591222   0.00765449
9156.00   0.53127998   0.00742340
9158.00   0.52942318   0.00726301
9160.00   0.52990001   0.00716825
9162.00   0.53280836   0.00710396
9164.00   0.53948587   0.00707665
9166.00   0.55028051   0.00709759
9168.00   0.55660182   0.00704540
9170.00   0.56117600   0.00691642
9172.00   0.56431329   0.00684356
9174.00   0.56610948   0.00682516
9176.00   0.56621015   0.00681512
9178.00   0.56386083   0.00677338
9180.00   0.55941391   0.00671936
9182.00   0.55704641   0.00676915
9184.00   0.55328286   0.00695473
9186.00   0.55477071   0.00703283
9188.00   0.55996037   0.00704688
9190.00   0.56866205   0.00704419
9192.00   0.58550853   0.00703648
9194.00   0.60489845   0.00701758
9196.00   0.60206753   0.00700263
9198.00   0.57286042   0.00696324
9200.00   0.56434691   0.00698027
9202.00   0.56712443   0.00704372
9204.00   0.56828946   0.00711303
9206.00   0.56489807   0.00719463
9208.00   0.56076694   0.00727342
9210.00   0.55949116   0.00729594
9212.00   0.55885178   0.00723110
9214.00   0.56256616   0.00732712
9216.00   0.57629472   0.00752031
9218.00   0.57990390   0.00775553
9220.00   0.56898755   0.00815813
9222.00   0.55490804   0.00845888
9224.00   0.54924393   0.00831438
9226.00   0.54733187   0.00778607
9228.00   0.54616332   0.00747123
9230.00   0.54943866   0.00705342
9232.00   0.54870933   0.00692529
9234.00   0.54170811   0.00719505
9236.00   0.53666902   0.00749408
9238.00   0.54114699   0.00757565
9240.00   0.55193979   0.00756495
9242.00   0.55247122   0.00765424
9244.00   0.54373062   0.00789457
9246.00   0.54090703   0.00790099
9248.00   0.54174286   0.00766787
9250.00   0.54317188   0.00742853
9252.00   0.54470074   0.00726784
9254.00   0.54637384   0.00714524
9256.00   0.54481965   0.00715841
9258.00   0.53914273   0.00741318
9260.00   0.53650838   0.00743078
9262.00   0.53194296   0.00728251
9264.00   0.53332794   0.00716109
9266.00   0.54667759   0.00706142
9268.00   0.56337684   0.00702173
9270.00   0.56486374   0.00724338
9272.00   0.55347484   0.00779259
9274.00   0.55044216   0.00795416
9276.00   0.54787064   0.00782766
9278.00   0.54973769   0.00781118
9280.00   0.56031084   0.00797711
9282.00   0.57086706   0.00815398
9284.00   0.56953877   0.00815718
9286.00   0.56055790   0.00801015
9288.00   0.54935116   0.00808812
9290.00   0.52231145   0.00825102
9292.00   0.51584983   0.00854373
9294.00   0.51723444   0.00738568
9296.00   0.54484475   0.00841771
9298.00   0.62591738   0.01355254
9300.00   0.75281435   0.01925710
9302.00   0.83214533   0.02242487
9304.00   0.93699461   0.02568461
9306.00   0.93392873   0.02692781
9308.00   0.79477596   0.02634290
9310.00   0.66076553   0.02530852
9312.00   0.60292524   0.02440626
9314.00   0.57804334   0.02328608
9316.00   0.54741985   0.02226705
9318.00   0.53589797   0.02064135
9320.00   0.50658590   0.02039558
9322.00   0.45356852   0.02220475
9324.00   0.42079431   0.02280350
9326.00   0.42251942   0.02097503
9328.00   0.44449776   0.01777137
9330.00   0.47138888   0.01593178
9332.00   0.52770162   0.01460332
9334.00   0.53789109   0.01394491
9336.00   0.50817055   0.01471871
9338.00   0.48691598   0.01497294
9340.00   0.47533637   0.01449854
9342.00   0.47063273   0.01372677
9344.00   0.47956949   0.01294856
9346.00   0.50305456   0.01182282
9348.00   0.51938057   0.01143980
9350.00   0.53916329   0.01187078
9352.00   0.55114555   0.01203208
9354.00   0.55866671   0.01200799
9356.00   0.55698895   0.01188429
9358.00   0.53425646   0.01149325
9360.00   0.49030083   0.01073578
9362.00   0.49456266   0.01143600
9364.00   0.51391703   0.01014240
9366.00   0.57999289   0.01516670
9368.00   0.74033946   0.02383236
9370.00   0.86295670   0.02975975
9372.00   0.87561947   0.03282001
9374.00   0.81832093   0.03461812
9376.00   0.69784248   0.03381823
9378.00   0.40449178   0.02900433
9380.00   0.29435620   0.02554815
9382.00   0.30323237   0.02180425
9384.00   0.35139188   0.01811612
9386.00   0.43923959   0.01468821
9388.00   0.55247390   0.01165786
9390.00   0.58675259   0.00996856
9392.00   0.55758148   0.01106584
9394.00   0.55526698   0.01130240
9396.00   0.55096424   0.01197288
9398.00   0.54923016   0.01248039
9400.00   0.55409503   0.01292141
9402.00   0.55838412   0.01314634
9404.00   0.54785573   0.01264289
9406.00   0.51807302   0.01108944
9408.00   0.52282858   0.01084433
9410.00   0.55637956   0.01137912
9412.00   0.58514732   0.01220723
9414.00   0.62476057   0.01371196
9416.00   0.64770472   0.01492667
9418.00   0.61365533   0.01495721
9420.00   0.53097212   0.01412708
9422.00   0.49438268   0.01394569
9424.00   0.45937955   0.01383596
9426.00   0.46767613   0.01407692
9428.00   0.54051811   0.01453376
9430.00   0.60929799   0.01535167
9432.00   0.63427919   0.01660929
9434.00   0.63641721   0.01815292
9436.00   0.60393810   0.01972623
9438.00   0.50954902   0.02231774
9440.00   0.45640084   0.02285368
9442.00   0.41016039   0.02182283
9444.00   0.39361659   0.02023106
9446.00   0.42244858   0.01789624
9448.00   0.48193726   0.01482162
9450.00   0.53575742   0.01398352
9452.00   0.63424879   0.01542473
9454.00   0.64462131   0.01629112
9456.00   0.57332647   0.01790565
9458.00   0.51345319   0.01876839
9460.00   0.47075534   0.01869114
9462.00   0.44288144   0.01807531
9464.00   0.45981556   0.01714968
9466.00   0.53440118   0.01500395
9468.00   0.54756171   0.01509457
9470.00   0.53867066   0.01702409
9472.00   0.50100911   0.01865901
9474.00   0.40852267   0.02047877
9476.00   0.31631574   0.02184329
9478.00   0.29227045   0.02194321
9480.00   0.31155279   0.02118822
9482.00   0.33407480   0.01970779
9484.00   0.39055574   0.01606370
9486.00   0.42607027   0.01337907
9488.00   0.44266024   0.01166079
9490.00   0.45544276   0.01100100
9492.00   0.46849328   0.01177491
9494.00   0.47877634   0.01370034
9496.00   0.52137661   0.01509513
9498.00   0.62745577   0.01726678
9500.00   0.65642142   0.01779456
9502.00   0.61696261   0.01692561
9504.00   0.57070804   0.01576630
9506.00   0.53671652   0.01449893
9508.00   0.50482315   0.01306329
9510.00   0.49644557   0.01323075
9512.00   0.52628559   0.01495572
9514.00   0.51744837   0.01610712
9516.00   0.47237086   0.01777347
9518.00   0.44716692   0.01862919
9520.00   0.45863876   0.01848271
9522.00   0.48614654   0.01767588
9524.00   0.50403625   0.01639779
9526.00   0.52638805   0.01376391
9528.00   0.53529125   0.01237885
9530.00   0.53320986   0.01201442
9532.00   0.52910566   0.01174326
9534.00   0.51910269   0.01162590
9536.00   0.51031464   0.01163909
9538.00   0.51406670   0.01153241
9540.00   0.52624208   0.01130561
9542.00   0.54177654   0.01168407
9544.00   0.57119554   0.01257360
9546.00   0.58712053   0.01338520
9548.00   0.59406376   0.01430562
9550.00   0.59008157   0.01507843
9552.00   0.56586635   0.01551522
9554.00   0.52295595   0.01574519
9556.00   0.51865363   0.01579265
9558.00   0.55590671   0.01509883
9560.00   0.56264305   0.01544725
9562.00   0.54784638   0.01701885
9564.00   0.52797365   0.01817126
9566.00   0.50656909   0.01839305
9568.00   0.48254284   0.01807729
9570.00   0.47330520   0.01711778
9572.00   0.47553486   0.01455386
9574.00   0.47940058   0.01307414
9576.00   0.49144256   0.01226676
9578.00   0.50145632   0.01169871
9580.00   0.50375086   0.01133331
9582.00   0.50543135   0.01121244
9584.00   0.52174711   0.01110227
9586.00   0.55594504   0.01112698
9588.00   0.57044059   0.01116489
9590.00   0.58187991   0.01122979
9592.00   0.57533044   0.01138686
9594.00   0.53479958   0.01157099
9596.00   0.49151668   0.01189552
9598.00   0.49415711   0.01262885
9600.00   0.53348804   0.01387061
9602.00   0.54239148   0.01397279
9604.00   0.53800571   0.01294351
9606.00   0.53336084   0.01242867
9608.00   0.52565932   0.01246470
9610.00   0.51786876   0.01266358
9612.00   0.51299340   0.01279078
9614.00   0.50913376   0.01294835
9616.00   0.51270515   0.01322545
9618.00   0.52594745   0.01382083
9620.00   0.53486717   0.01397862
9622.00   0.54126221   0.01377178
9624.00   0.54751664   0.01341285
9626.00   0.55566698   0.01283386
9628.00   0.56434751   0.01207186
9630.00   0.56618899   0.01228754
9632.00   0.55392140   0.01374563
9634.00   0.56041050   0.01408669
9636.00   0.59269667   0.01370530
9638.00   0.60830188   0.01336817
9640.00   0.58713698   0.01330024
9642.00   0.55001062   0.01333734
9644.00   0.53669089   0.01346349
9646.00   0.53053862   0.01390804
9648.00   0.53782725   0.01379238
9650.00   0.56066608   0.01310615
9652.00   0.58762729   0.01259222
9654.00   0.62429297   0.01224815
9656.00   0.66007137   0.01215438
9658.00   0.67345417   0.01268453
9660.00   0.67220670   0.01382725
9662.00   0.66197342   0.01446535
9664.00   0.63139808   0.01511415
9666.00   0.60929459   0.01537554
9668.00   0.59542066   0.01500223
9670.00   0.58462816   0.01464237
9672.00   0.57487822   0.01506330
9674.00   0.56773257   0.01599935
9676.00   0.55676848   0.01625882
9678.00   0.53898031   0.01618175
9680.00   0.53056097   0.01601166
9682.00   0.53002024   0.01550788
9684.00   0.53395170   0.01512575
9686.00   0.54206985   0.01518251
9688.00   0.55448437   0.01551493
9690.00   0.56187105   0.01604504
9692.00   0.57600963   0.01706467
9694.00   0.56880635   0.01759634
9696.00   0.53814882   0.01806919
9698.00   0.50830734   0.01808594
9700.00   0.48211750   0.01721289
9702.00   0.46050143   0.01582909
9704.00   0.46841994   0.01554339
9706.00   0.51392353   0.01611939
9708.00   0.53372955   0.01643405
9710.00   0.54275042   0.01677499
9712.00   0.55236298   0.01726077
9714.00   0.56654495   0.01802969
9716.00   0.57910281   0.01880491
9718.00   0.58060974   0.01918476
9720.00   0.57194835   0.01954816
9722.00   0.56737143   0.01894234
9724.00   0.55658048   0.01671740
9726.00   0.55695695   0.01529492
9728.00   0.57532465   0.01509866
9730.00   0.59486419   0.01538325
9732.00   0.59650517   0.01560931
9734.00   0.58606011   0.01610319
9736.00   0.58556271   0.01605812
9738.00   0.59262586   0.01547620
9740.00   0.59219366   0.01516334
9742.00   0.58583933   0.01516871
9744.00   0.57552814   0.01509864
9746.00   0.55830467   0.01464258
9748.00   0.53505212   0.01391903
9750.00   0.53570694   0.01349579
9752.00   0.56224567   0.01324461
9754.00   0.57456952   0.01300182
9756.00   0.58382827   0.01286214
9758.00   0.58573353   0.01269310
9760.00   0.57636583   0.01240836
9762.00   0.55919176   0.01207199
9764.00   0.54456574   0.01185517
9766.00   0.52056992   0.01153042
9768.00   0.51537615   0.01168788
9770.00   0.52408510   0.01234401
9772.00   0.53710353   0.01290851
9774.00   0.55451828   0.01315263
9776.00   0.57512271   0.01343678
9778.00   0.59329760   0.01417908
9780.00   0.61701411   0.01427274
9782.00   0.62019593   0.01751967
9784.00   0.61720514   0.02319819
9786.00   0.58954716   0.02663077
9788.00   0.51465040   0.02888298
9790.00   0.43997407   0.03002208
9792.00   0.42882028   0.02920301
9794.00   0.46240503   0.02613765
9796.00   0.47994700   0.02466795
9798.00   0.51191545   0.02412632
9800.00   0.52494568   0.02307085
9802.00   0.51309407   0.02138397
9804.00   0.50086033   0.01960472
9806.00   0.50813663   0.01815147
9808.00   0.52625608   0.01686064
9810.00   0.53080171   0.01612933
9812.00   0.51932955   0.01631256
9814.00   0.52656543   0.01614044
9816.00   0.56045544   0.01586172
9818.00   0.58143973   0.01554829
9820.00   0.56507725   0.01517239
9822.00   0.52895904   0.01476138
9824.00   0.51814640   0.01456857
9826.00   0.52039671   0.01446451
9828.00   0.52226073   0.01460721
9830.00   0.52777213   0.01504594
9832.00   0.53648198   0.01549409
9834.00   0.54628253   0.01596571
9836.00   0.56038207   0.01640015
9838.00   0.58931744   0.01649275
9840.00   0.65031779   0.01604191
9842.00   0.65380311   0.01642458
9844.00   0.60403669   0.01765533
9846.00   0.56823385   0.01833923
9848.00   0.54993182   0.01849522
9850.00   0.53968412   0.01826837
9852.00   0.53526741   0.01748368
9854.00   0.53605646   0.01577995
9856.00   0.55176663   0.01529158
9858.00   0.59640253   0.01526131
9860.00   0.61769456   0.01615286
9862.00   0.61249977   0.01793864
9864.00   0.60185778   0.02006874
9866.00   0.60610926   0.02252243
9868.00   0.61940074   0.02535946
9870.00   0.58684230   0.02596445
9872.00   0.48566639   0.02481790
9874.00   0.44765934   0.02377124
9876.00   0.46050635   0.02211025
9878.00   0.48849827   0.02049615
9880.00   0.52605176   0.01941959
9882.00   0.57388735   0.01869731
9884.00   0.56787354   0.01841100
9886.00   0.48865491   0.01828572
9888.00   0.47679877   0.01924465
9890.00   0.50926059   0.02193596
9892.00   0.54489321   0.02343913
9894.00   0.58242285   0.02304454
9896.00   0.61681992   0.02166367
9898.00   0.60437262   0.02060902
9900.00   0.51715702   0.01896648
9902.00   0.53044242   0.01821532
9904.00   0.65161580   0.01770787
9906.00   0.70735967   0.01826167
9908.00   0.66093099   0.02039988
9910.00   0.57905233   0.02271316
9912.00   0.53291970   0.02374616
9914.00   0.48900500   0.02436296
9916.00   0.47057152   0.02401607
9918.00   0.47121233   0.02230594
9920.00   0.48802912   0.02076180
9922.00   0.53222561   0.01905419
9924.00   0.57990575   0.01757032
9926.00   0.60322165   0.01692842
9928.00   0.61086535   0.01688603
9930.00   0.64752740   0.01834248
9932.00   0.73080355   0.02129823
9934.00   0.75804192   0.02369529
9936.00   0.74244577   0.02607303
9938.00   0.69787782   0.02817939
9940.00   0.61672604   0.03001762
9942.00   0.50417560   0.03165237
9944.00   0.45182019   0.03231276
9946.00   0.42615384   0.03172874
9948.00   0.43186566   0.03193667
9950.00   0.48343691   0.03281605
9952.00   0.53937143   0.03327467
9954.00   0.60269910   0.03290898
9956.00   0.66157430   0.03206462
9958.00   0.63585019   0.03123573
9960.00   0.49516171   0.03005646
9962.00   0.46312159   0.02911904
9964.00   0.49913239   0.02840690
9966.00   0.52817512   0.02749422
9968.00   0.54132533   0.02616566
9970.00   0.55015111   0.02469564
9972.00   0.55535001   0.02358566
9974.00   0.55692047   0.02261700
9976.00   0.55345201   0.02208336
9978.00   0.52544892   0.02239910
9980.00   0.53240341   0.02217339
9982.00   0.59259307   0.02113941
9984.00   0.65788424   0.01999129
9986.00   0.67733252   0.01948053
9988.00   0.66829699   0.01932893
9990.00   0.67815065   0.01945568
9992.00   0.70381445   0.01965491
9994.00   0.70623875   0.02062449
9996.00   0.67310244   0.02278081
9998.00   0.64913774   0.02450389
10000.00   0.67090052   0.02443817
10002.00   0.72044855   0.02331370
10004.00   0.73012757   0.02596836
10006.00   0.71140027   0.03141519
10008.00   0.70328730   0.03499309
10010.00   0.71844524   0.03927266
10012.00   0.69949812   0.04120648
10014.00   0.59460676   0.03908393
10016.00   0.45421079   0.03430761
10018.00   0.44662505   0.03224402
10020.00   0.56001335   0.03112463
10022.00   0.61872351   0.03118382
10024.00   0.70180988   0.03412126
10026.00   0.73466188   0.03494816
10028.00   0.68364966   0.03203598
10030.00   0.59808195   0.02729572
10032.00   0.55914503   0.02509934
10034.00   0.53150040   0.02452032
10036.00   0.53010255   0.02380028
10038.00   0.56355238   0.02330082
10040.00   0.59282112   0.02375059
10042.00   0.62526661   0.02604897
10044.00   0.64986497   0.02798560
10046.00   0.64578432   0.02710201
10048.00   0.61904782   0.02366504
10050.00   0.59213960   0.02276126
10052.00   0.54473037   0.02286866
10054.00   0.51719207   0.02409118
10056.00   0.50513309   0.02731985
10058.00   0.50513321   0.02980828
10060.00   0.51891822   0.02989259
10062.00   0.54640990   0.02850899
10064.00   0.56755883   0.02782771
10066.00   0.59242219   0.02667645
10068.00   0.61058760   0.02643994
10070.00   0.59242290   0.02522385
10072.00   0.61953127   0.02714428
10074.00   0.76882875   0.03492064
10076.00   0.97539151   0.04355311
10078.00   0.99081045   0.04500557
10080.00   0.84090829   0.04130008
10082.00   0.74196625   0.03881973
10084.00   0.59941286   0.03455997
10086.00   0.49959362   0.03093005
10088.00   0.46127629   0.02880009
10090.00   0.46654356   0.02796619
10092.00   0.51461154   0.02885699
10094.00   0.65160978   0.03250328
10096.00   0.68100345   0.03317957
10098.00   0.62245452   0.03109077
10100.00   0.59442872   0.03109515
10102.00   0.61878222   0.03492890
10104.00   0.64622200   0.03842061
10106.00   0.61761999   0.03740963
10108.00   0.53481138   0.03238177
10110.00   0.54745668   0.03104279
10112.00   0.63891095   0.03137071
10114.00   0.71297997   0.03272113
10116.00   0.79788506   0.03554377
10118.00   0.85678887   0.03850253
10120.00   0.84978926   0.04105455
10122.00   0.79437661   0.04369763
10124.00   0.71654326   0.04346344
10126.00   0.55055797   0.04005373
10128.00   0.47911796   0.03749729
10130.00   0.50103652   0.03475839
10132.00   0.52451426   0.03231551
10134.00   0.49641821   0.03062578
10136.00   0.45076442   0.02958798
10138.00   0.46290153   0.02922034
10140.00   0.51437360   0.02934768
10142.00   0.57704657   0.03067312
10144.00   0.69877720   0.03368164
10146.00   0.77135342   0.03600839
10148.00   0.75134820   0.03726096
10150.00   0.68481374   0.03798776
10152.00   0.64511585   0.03840220
10154.00   0.59382886   0.03833924
10156.00   0.57285374   0.03822355
10158.00   0.56961888   0.03710622
10160.00   0.58363485   0.03733427
10162.00   0.63639677   0.03939521
10164.00   0.68719912   0.04213294
10166.00   0.66420126   0.04447712
10168.00   0.57807112   0.04686895
10170.00   0.53819239   0.04928506
10172.00   0.48458984   0.05246981
10174.00   0.49370211   0.05417061
10176.00   0.62075472   0.05469517
10178.00   0.72657323   0.05419449
10180.00   0.66056764   0.05224394
10182.00   0.47038165   0.04853732
10184.00   0.41458577   0.04679482
10186.00   0.42121467   0.04615555
10188.00   0.44530550   0.04585423
10190.00   0.52210689   0.04671459
10192.00   0.58603120   0.04710069
10194.00   0.58556974   0.04557779
10196.00   0.55072147   0.04287714
10198.00   0.57766432   0.04285685
10200.00   0.66467988   0.04356048
10202.00   0.70541573   0.04700195
10204.00   0.74692541   0.05481110
10206.00   0.73811966   0.05944606
10208.00   0.63101280   0.05916377
10210.00   0.48080331   0.05628518
10212.00   0.44401804   0.05388706
10214.00   0.47956708   0.04949771
10216.00   0.52116585   0.04753458
10218.00   0.62773073   0.04738675
10220.00   0.68883455   0.04761821
10222.00   0.67535138   0.04838024
10224.00   0.63491040   0.04930732
10226.00   0.62684655   0.04941433
10228.00   0.63187367   0.04923875
10230.00   0.62523025   0.04810579
10232.00   0.59425879   0.04535519
10234.00   0.60015112   0.04330813
10236.00   0.66700357   0.04213062
10238.00   0.73270243   0.04129813
10240.00   0.73486507   0.04044775
10242.00   0.69936341   0.03974937
10244.00   0.64674664   0.03926857
10246.00   0.50864470   0.03837220
10248.00   0.47854745   0.03901812
10250.00   0.57576877   0.04183204
10252.00   0.67490715   0.04420603
10254.00   0.70362180   0.04472617
10256.00   0.69976282   0.04425453
10258.00   0.65817279   0.04385560
10260.00   0.51559985   0.04209574
10262.00   0.48543730   0.04242413
10264.00   0.55339450   0.04489187
10266.00   0.61980027   0.04697086
10268.00   0.64308238   0.04789421
10270.00   0.65564013   0.04831800
10272.00   0.70285332   0.04855860
10274.00   0.81415492   0.04451315
10276.00   0.82491833   0.05029673
10278.00   0.74574262   0.06330906
10280.00   0.68425912   0.07278459
10282.00   0.67724198   0.07983606
10284.00   0.67118871   0.08473194
10286.00   0.58147353   0.08467209
10288.00   0.39710045   0.07937147
10290.00   0.32932198   0.07617766
10292.00   0.34621072   0.07290233
10294.00   0.34782466   0.06912738
10296.00   0.31748256   0.06389107
10298.00   0.30156896   0.05886184
10300.00   0.35102552   0.05692631
10302.00   0.45655060   0.05765940
10304.00   0.51755846   0.05754305
10306.00   0.59976953   0.05870454
10308.00   0.60072225   0.05810351
10310.00   0.47837609   0.05544405
10312.00   0.36743575   0.05222465
10314.00   0.37237847   0.04914636
10316.00   0.44402230   0.04568742
10318.00   0.48077166   0.04560386
10320.00   0.53644812   0.04993024
10322.00   0.54924971   0.05124829
10324.00   0.49793819   0.05120041
10326.00   0.47335383   0.05026948
10328.00   0.52244282   0.04717706
10330.00   0.61114484   0.04299983
10332.00   0.67800367   0.04617104
10334.00   0.80239725   0.05667439
10336.00   0.79098928   0.06097179
10338.00   0.62359887   0.06404878
10340.00   0.51316768   0.06506018
10342.00   0.51332402   0.06285606
10344.00   0.56453961   0.05912125
10346.00   0.61856329   0.05835883
10348.00   0.74402493   0.05970629
10350.00   0.72297269   0.05970744
10352.00   0.53942782   0.05914043
10354.00   0.43614191   0.05884128
10356.00   0.44788957   0.05879256
10358.00   0.48923370   0.05898188
10360.00   0.48217833   0.05949999
10362.00   0.46130764   0.06024210
10364.00   0.41818228   0.06157445
10366.00   0.31431419   0.06383688
10368.00   0.27633572   0.06547780
10370.00   0.32049978   0.06726041
10372.00   0.37196627   0.06799421
10374.00   0.37476593   0.06631332
10376.00   0.35473964   0.06256300
10378.00   0.33391261   0.05989936
10380.00   0.26395655   0.05677208
10382.00   0.27633578   0.05475491
10384.00   0.39212143   0.05372667
10386.00   0.48809454   0.05347656
10388.00   0.49798939   0.05385499
10390.00   0.46406928   0.05496170
10392.00   0.45301148   0.05713011
10394.00   0.43641478   0.06186335
10396.00   0.42948142   0.06321824
10398.00   0.44776863   0.06276609
10400.00   0.43748116   0.06121024
10402.00   0.36621493   0.05706104
10404.00   0.27426651   0.05220180
10406.00   0.24812649   0.05443386
10408.00   0.26271594   0.06294479
10410.00   0.28517097   0.06700549
10412.00   0.34531251   0.07111483
10414.00   0.38604113   0.07262350
10416.00   0.40847224   0.07059610
10418.00   0.41134638   0.06702349
10420.00   0.37348682   0.06480510
10422.00   0.28014424   0.06278975
10424.00   0.27045316   0.06084321
10426.00   0.32923973   0.05904939
10428.00   0.36794350   0.05734033
10430.00   0.39559755   0.05570425
10432.00   0.41359165   0.05421368
10434.00   0.41930759   0.05276208
10436.00   0.41630951   0.05126012
10438.00   0.37523559   0.05160892
10440.00   0.26095924   0.05458347
10442.00   0.21653089   0.05558874
10444.00   0.24058048   0.05504897
10446.00   0.26796004   0.05428737
10448.00   0.26503435   0.05388975
10450.00   0.25080544   0.05354102
10452.00   0.23878008   0.05348078
10454.00   0.19713573   0.05388204
10456.00   0.21574728   0.05389370
10458.00   0.30739412   0.05330338
10460.00   0.37415230   0.05328155
10462.00   0.39083058   0.05438926
10464.00   0.37483844   0.05601263
10466.00   0.31404319   0.05709286
10468.00   0.16055785   0.05858599
10470.00   0.11536519   0.05841389
10472.00   0.12236444   0.05677731
10474.00   0.16850023   0.05482931
10476.00   0.29760310   0.05225816
10478.00   0.42894885   0.04955210
10480.00   0.40503889   0.04822150
10482.00   0.24828215   0.04806948
10484.00   0.18098263   0.04748736
10486.00   0.12326860   0.04703341
10488.00   0.10458501   0.04656989
10490.00   0.14426057   0.04598254
10492.00   0.19505663   0.04554323
10494.00   0.21057037   0.04540905
10496.00   0.21187420   0.04536776
10498.00   0.19889367   0.04682768
10500.00   0.15809856   0.05041269
10502.00   0.13218741   0.05225479
10504.00   0.11076951   0.05323702
10506.00   0.10082801   0.05321687
10508.00   0.10897563   0.05146344
10510.00   0.13171290   0.04820379
10512.00   0.16185297   0.04734287
10514.00   0.21851893   0.04816184
10516.00   0.24703290   0.04887384
10518.00   0.25959298   0.05023590
10520.00   0.26009268   0.05137109
10522.00   0.24449591   0.05205283
10524.00   0.21843220   0.05243809
10526.00   0.20734218   0.05230927
10528.00   0.20416518   0.05139580
10530.00   0.20034312   0.05095629
10532.00   0.19410396   0.05050684
10534.00   0.19760294   0.05035996
10536.00   0.22334699   0.05073883
10538.00   0.25049827   0.05127763
10540.00   0.23552749   0.05129004
10542.00   0.16969031   0.05073779
10544.00   0.17963549   0.05114303
10546.00   0.26392505   0.05257336
10548.00   0.30957055   0.05336332
10550.00   0.31786805   0.05344760
10552.00   0.30118501   0.05324299
10554.00   0.25173238   0.05293241
10556.00   0.15872993   0.05225626
10558.00   0.13717806   0.05262647
10560.00   0.16904607   0.05402626
10562.00   0.19348741   0.05501156
10564.00   0.22739150   0.05580335
10566.00   0.25334117   0.05644393
10568.00   0.25406450   0.05685457
10570.00   0.23779324   0.05707212
10572.00   0.22561295   0.05751465
10574.00   0.19959521   0.05813139
10576.00   0.19453363   0.05860990
10578.00   0.21891026   0.05913527
10580.00   0.22986788   0.05942443
10582.00   0.20134030   0.05923737
10584.00   0.15453824   0.05878920
10586.00   0.14374326   0.05881089
10588.00   0.16931663   0.05929269
10590.00   0.16199850   0.05935230
10592.00   0.13990293   0.05930964
10594.00   0.10967676   0.05900450
10596.00   0.05466143   0.05809921
10598.00   0.00301301   0.05710746
10600.00   0.02692568   0.05726893
10602.00   0.12224464   0.05832432
10604.00   0.18107301   0.05925168
10606.00   0.24887247   0.06085051
10608.00   0.29005039   0.06166023
10610.00   0.30288815   0.06155867
10612.00   0.29371470   0.06097113
10614.00   0.26105073   0.06015417
10616.00   0.19571273   0.05878803
10618.00   0.16574328   0.05819383
10620.00   0.15079847   0.05819741
10622.00   0.14585193   0.05807347
10624.00   0.15974125   0.05792280
10626.00   0.17370273   0.05774058
10628.00   0.16983426   0.05747014
10630.00   0.15560469   0.05713242
10632.00   0.15673316   0.05683806
10634.00   0.18244807   0.05674883
10636.00   0.17483480   0.05622204
10638.00   0.12140053   0.05507379
10640.00   0.08555041   0.05408180
10642.00   0.10625035   0.05365456
10644.00   0.15622960   0.05355458
10646.00   0.16708764   0.05354258
10648.00   0.16592199   0.05424235
10650.00   0.14427830   0.05384617
10652.00   0.08227179   0.05247132
10654.00   0.04064604   0.05113320
10656.00   0.03445792   0.04996155
10658.00   0.04971403   0.04893913
10660.00   0.08057458   0.04861042
10662.00   0.14444733   0.04914967
10664.00   0.17831588   0.04904114
10666.00   0.20943804   0.04882841
10668.00   0.21468799   0.04827356
10670.00   0.18044952   0.04709596
10672.00   0.13379766   0.04579473
10674.00   0.11145743   0.04519746
10676.00   0.09868751   0.04511454
10678.00   0.09135102   0.04474864
10680.00   0.08354957   0.04422328
10682.00   0.09729166   0.04393525
10684.00   0.14751591   0.04408611
10686.00   0.19508016   0.04413224
10688.00   0.20430382   0.04351629
10690.00   0.19031301   0.04240605
10692.00   0.17659865   0.04182103
10694.00   0.14292687   0.04166836
10696.00   0.12874587   0.04119421
10698.00   0.13728902   0.04051922
10700.00   0.14103858   0.03969219
10702.00   0.11859532   0.03855082
10704.00   0.08377539   0.03719394
10706.00   0.08974240   0.03677714
10708.00   0.14211810   0.03753448
10710.00   0.15943520   0.03742871
10712.00   0.15655522   0.03690057
10714.00   0.15265274   0.03622892
10716.00   0.15547949   0.03521606
10718.00   0.15723337   0.03416280
10720.00   0.14362256   0.03439577
10722.00   0.10249718   0.03634926
10724.00   0.10226316   0.03633325
10726.00   0.14130300   0.03504601
10728.00   0.16508095   0.03365857
10730.00   0.16769096   0.03210267
10732.00   0.15901788   0.03048913
10734.00   0.14053082   0.02942110
10736.00   0.10217910   0.02874417
10738.00   0.09552562   0.02826943
10740.00   0.11205680   0.02826728
10742.00   0.12831204   0.02816867
10744.00   0.15656932   0.02748372
10746.00   0.17486005   0.02739073
10748.00   0.15052250   0.02956457
10750.00   0.08933051   0.03344554
10752.00   0.08686991   0.03334500
10754.00   0.12703981   0.02941329
10756.00   0.16064227   0.02706144
10758.00   0.20179914   0.02541041
10760.00   0.23781739   0.02478551
10762.00   0.26910147   0.02605792
10764.00   0.29493576   0.02857602
10766.00   0.24690346   0.02906691
10768.00   0.07241726   0.02854790
10770.00   0.02382626   0.02772009
10772.00   0.06908841   0.02567678
10774.00   0.12324614   0.02409790
10776.00   0.16936514   0.02405693
10778.00   0.21401775   0.02472908
10780.00   0.21328212   0.02445308
10782.00   0.16152556   0.02381139
10784.00   0.13950290   0.02287150
10786.00   0.11699424   0.02051879
10788.00   0.11091626   0.01961023
10790.00   0.13513970   0.02171696
10792.00   0.16626161   0.02424887
10794.00   0.16128239   0.02406186
10796.00   0.12712376   0.02175963
10798.00   0.11522034   0.02089296
10800.00   0.11112631   0.02076410
10802.00   0.10994313   0.02033834
10804.00   0.11481003   0.01937404
10806.00   0.11983311   0.01846670
10808.00   0.11570346   0.01824792
10810.00   0.10348004   0.01843931
10812.00   0.10932422   0.01931902
10814.00   0.13674159   0.02186311
10816.00   0.14798580   0.02238584
10818.00   0.14454471   0.02018851
10820.00   0.13737477   0.01842145
10822.00   0.13376558   0.02044841
10824.00   0.13018298   0.02421217
10826.00   0.11537598   0.02419334
10828.00   0.06379069   0.02059751
10830.00   0.07157453   0.01910930
10832.00   0.15181659   0.01891783
10834.00   0.21117522   0.01924623
10836.00   0.20742372   0.02024746
10838.00   0.17202580   0.02152389
10840.00   0.14960513   0.02095152
10842.00   0.10343976   0.01791929
10844.00   0.10450422   0.01678654
10846.00   0.15646397   0.01695393
10848.00   0.19059560   0.01701090
10850.00   0.18414786   0.01653172
10852.00   0.16780905   0.01605968
10854.00   0.18739672   0.01642737
10856.00   0.24042466   0.01779364
10858.00   0.25581661   0.01777962
10860.00   0.24944015   0.01619879
10862.00   0.23936458   0.01574045
10864.00   0.22226232   0.01732581
10866.00   0.20319669   0.01881203
10868.00   0.19267973   0.01816341
10870.00   0.18901689   0.01572641
