# File created by shivutils (I.Shivvers)
# wl(A)   flm    er(optional)
3440.00   0.48529106   0.04895487
3442.00   0.43666655   0.04767516
3444.00   0.47264645   0.04813728
3446.00   0.39316890   0.04770963
3448.00   0.42604002   0.04828686
3450.00   0.43264231   0.04953623
3452.00   0.36423135   0.04926278
3454.00   0.41796976   0.04850868
3456.00   0.49302033   0.05062117
3458.00   0.45520464   0.04937953
3460.00   0.36234656   0.04758930
3462.00   0.43333560   0.04809280
3464.00   0.41627735   0.04745358
3466.00   0.40997526   0.04855906
3468.00   0.38868931   0.04775808
3470.00   0.44859767   0.04861548
3472.00   0.38193995   0.04682394
3474.00   0.32613003   0.04602364
3476.00   0.36744040   0.04717855
3478.00   0.35947555   0.04892497
3480.00   0.35378188   0.05035885
3482.00   0.40702569   0.05120729
3484.00   0.45122188   0.05102800
3486.00   0.46260118   0.05038113
3488.00   0.42595872   0.04946237
3490.00   0.54458654   0.05133573
3492.00   0.40159437   0.04756880
3494.00   0.37284294   0.04710335
3496.00   0.47618079   0.04860314
3498.00   0.37729862   0.04696746
3500.00   0.40333056   0.04739062
3502.00   0.40203682   0.04713943
3504.00   0.44797826   0.04800628
3506.00   0.42580324   0.04767602
3508.00   0.41377154   0.04674666
3510.00   0.40598008   0.04730165
3512.00   0.45352989   0.04821739
3514.00   0.48596013   0.04751868
3516.00   0.39951128   0.04585025
3518.00   0.45805928   0.04683324
3520.00   0.46901360   0.04705276
3522.00   0.44124943   0.04568788
3524.00   0.42847803   0.04569090
3526.00   0.50338352   0.04669931
3528.00   0.38529727   0.04474181
3530.00   0.49712378   0.04625101
3532.00   0.40669841   0.04489808
3534.00   0.49386707   0.04648415
3536.00   0.43829837   0.04596593
3538.00   0.42858529   0.04547305
3540.00   0.47059631   0.04756595
3542.00   0.49882489   0.04915574
3544.00   0.50198346   0.04996043
3546.00   0.34956196   0.04640612
3548.00   0.48716304   0.04867119
3550.00   0.56566286   0.04891459
3552.00   0.48850900   0.04823598
3554.00   0.48397264   0.04833473
3556.00   0.45739824   0.04701371
3558.00   0.56844866   0.04875161
3560.00   0.47584578   0.04659078
3562.00   0.45218948   0.04517974
3564.00   0.52897990   0.04591678
3566.00   0.49345666   0.04489928
3568.00   0.41459599   0.04425620
3570.00   0.50555599   0.04551995
3572.00   0.42229673   0.04482202
3574.00   0.49584234   0.04564305
3576.00   0.47466421   0.04450791
3578.00   0.45115289   0.04285281
3580.00   0.52690232   0.04440076
3582.00   0.52738398   0.04320527
3584.00   0.43825898   0.04033110
3586.00   0.44789183   0.03978932
3588.00   0.50187391   0.04162254
3590.00   0.56951040   0.04319647
3592.00   0.48157299   0.04130261
3594.00   0.45354605   0.03975290
3596.00   0.48376504   0.04075624
3598.00   0.42544481   0.03901674
3600.00   0.44977763   0.03956544
3602.00   0.47336102   0.03949790
3604.00   0.54725200   0.04001073
3606.00   0.47539222   0.03909384
3608.00   0.53222466   0.03944307
3610.00   0.54134756   0.03993365
3612.00   0.50255787   0.04045228
3614.00   0.55464578   0.04232166
3616.00   0.46345755   0.04007133
3618.00   0.50973308   0.04033581
3620.00   0.51122463   0.03941439
3622.00   0.42305112   0.03760183
3624.00   0.45854989   0.03779616
3626.00   0.44092441   0.03715881
3628.00   0.48970717   0.03871711
3630.00   0.49767733   0.03990603
3632.00   0.46764871   0.03927622
3634.00   0.50094289   0.03922465
3636.00   0.47682849   0.03823325
3638.00   0.49782130   0.03838761
3640.00   0.50107765   0.03915968
3642.00   0.40968019   0.03930810
3644.00   0.44659123   0.04048102
3646.00   0.48048455   0.04214210
3648.00   0.49163851   0.05193727
3650.00   0.58069938   0.05829771
3652.00   0.48369601   0.05441694
3654.00   0.50863302   0.04910750
3656.00   0.51547450   0.04616084
3658.00   0.50317502   0.04046395
3660.00   0.43189484   0.04057983
3662.00   0.50742000   0.04463866
3664.00   0.53443819   0.04412940
3666.00   0.57663190   0.03902608
3668.00   0.54159755   0.03632614
3670.00   0.48451257   0.03466035
3672.00   0.52254713   0.03506124
3674.00   0.50294352   0.03395538
3676.00   0.55458730   0.03443180
3678.00   0.55538058   0.03416686
3680.00   0.48772725   0.03285923
3682.00   0.54621339   0.03369816
3684.00   0.55058306   0.03335679
3686.00   0.56815881   0.03330499
3688.00   0.51892549   0.03262272
3690.00   0.50981748   0.03304249
3692.00   0.49239513   0.03311325
3694.00   0.56703395   0.03339145
3696.00   0.51921195   0.03303499
3698.00   0.47411087   0.03244689
3700.00   0.60810643   0.03429638
3702.00   0.56220722   0.03386510
3704.00   0.58264142   0.03357955
3706.00   0.58694535   0.03350027
3708.00   0.58061868   0.03314433
3710.00   0.55621231   0.03233926
3712.00   0.48135379   0.03129901
3714.00   0.45922887   0.03070226
3716.00   0.46326596   0.03093722
3718.00   0.48999995   0.03114943
3720.00   0.53765398   0.03185244
3722.00   0.56979442   0.03218238
3724.00   0.58304322   0.03221228
3726.00   0.54208028   0.03239251
3728.00   0.52020919   0.03199495
3730.00   0.59283048   0.03279942
3732.00   0.52063322   0.03127552
3734.00   0.55349493   0.03136379
3736.00   0.55283409   0.03164556
3738.00   0.56103992   0.03206513
3740.00   0.54759127   0.03212199
3742.00   0.61767435   0.03279795
3744.00   0.54290628   0.03124863
3746.00   0.60828871   0.03130482
3748.00   0.56691635   0.03082058
3750.00   0.58420432   0.03104463
3752.00   0.55868423   0.03114496
3754.00   0.62964910   0.03159702
3756.00   0.53507549   0.03052812
3758.00   0.54514146   0.03070314
3760.00   0.53062928   0.03001951
3762.00   0.61525297   0.03065168
3764.00   0.59015763   0.03003428
3766.00   0.58154792   0.03030101
3768.00   0.59020299   0.03009749
3770.00   0.58676440   0.03044432
3772.00   0.64536679   0.03119564
3774.00   0.79667306   0.03264139
3776.00   1.02982533   0.03589654
3778.00   1.03116894   0.03517568
3780.00   0.79382920   0.03259041
3782.00   0.57776332   0.03017208
3784.00   0.57675672   0.02972156
3786.00   0.61773109   0.02977159
3788.00   0.57681310   0.02925608
3790.00   0.67132127   0.03106131
3792.00   0.57935321   0.02972328
3794.00   0.56242627   0.02916418
3796.00   0.65497917   0.02969585
3798.00   0.53279138   0.02788444
3800.00   0.57629389   0.02852993
3802.00   0.55381894   0.02931237
3804.00   0.61739922   0.02999840
3806.00   0.70450670   0.03016653
3808.00   0.63830614   0.02903391
3810.00   0.64337474   0.02916279
3812.00   0.66350919   0.02964814
3814.00   0.69871908   0.03018546
3816.00   0.63779527   0.02928781
3818.00   0.55633849   0.02817643
3820.00   0.58550119   0.02843019
3822.00   0.55577761   0.02814920
3824.00   0.69598699   0.02925677
3826.00   0.62893456   0.02893225
3828.00   0.69104451   0.03031884
3830.00   0.62389374   0.02985308
3832.00   0.74756926   0.03065108
3834.00   0.70321369   0.02991908
3836.00   0.70368707   0.02991268
3838.00   0.69439471   0.02984309
3840.00   0.72091693   0.02987407
3842.00   0.68651623   0.02934518
3844.00   0.68475240   0.02920157
3846.00   0.56043535   0.02746403
3848.00   0.61934078   0.02772477
3850.00   0.66971642   0.02815122
3852.00   0.64767665   0.02794783
3854.00   0.68533945   0.02839459
3856.00   0.75349736   0.02894850
3858.00   0.78445083   0.02910697
3860.00   0.77512288   0.02904232
3862.00   0.71315402   0.02901269
3864.00   0.73198104   0.02868612
3866.00   0.72637427   0.02847999
3868.00   0.80263668   0.02926041
3870.00   0.71642905   0.02816188
3872.00   0.73366004   0.02912070
3874.00   0.75994003   0.03002136
3876.00   0.70696580   0.02879445
3878.00   0.67421657   0.02762648
3880.00   0.63436693   0.02688057
3882.00   0.65805441   0.02696136
3884.00   0.64959913   0.02671374
3886.00   0.66801244   0.02702555
3888.00   0.65830147   0.02671758
3890.00   0.63542324   0.02645921
3892.00   0.68758363   0.02715816
3894.00   0.71224350   0.02786014
3896.00   0.72618502   0.02837818
3898.00   0.74726206   0.02818609
3900.00   0.80494094   0.02901578
3902.00   0.80707508   0.02930645
3904.00   0.76724464   0.02996808
3906.00   0.83818263   0.03315561
3908.00   0.83684218   0.03435228
3910.00   0.78194463   0.03440420
3912.00   0.80291772   0.03424723
3914.00   0.78410053   0.03259790
3916.00   0.79704505   0.03085643
3918.00   0.83220643   0.03035785
3920.00   0.83796346   0.02966480
3922.00   0.80795044   0.02901519
3924.00   0.73030740   0.02818433
3926.00   0.76327360   0.02810064
3928.00   0.79101926   0.02794121
3930.00   0.72864091   0.02766272
3932.00   0.71644223   0.02876888
3934.00   0.71644795   0.02865547
3936.00   0.78624791   0.02791465
3938.00   0.82098782   0.02789097
3940.00   0.80576354   0.02813029
3942.00   0.78301060   0.02891413
3944.00   0.79121715   0.02940065
3946.00   0.78333205   0.02893457
3948.00   0.83206791   0.02861212
3950.00   0.81458902   0.02812106
3952.00   0.78895944   0.02788080
3954.00   0.80516261   0.02784029
3956.00   0.83059871   0.02782589
3958.00   0.83606344   0.02841006
3960.00   0.81734353   0.02949926
3962.00   0.83751005   0.02943505
3964.00   0.88679272   0.02837149
3966.00   0.84147489   0.02724066
3968.00   0.81821471   0.02685893
3970.00   0.88395971   0.02723498
3972.00   0.83562136   0.02745496
3974.00   0.81177050   0.02711501
3976.00   0.81635243   0.02745098
3978.00   0.86594951   0.02779786
3980.00   0.76797968   0.02670686
3982.00   0.76081699   0.02644364
3984.00   0.65184772   0.02509256
3986.00   0.49564609   0.02331322
3988.00   0.45143065   0.02320840
3990.00   0.61694729   0.02513909
3992.00   0.76100147   0.02663406
3994.00   0.83134049   0.02837308
3996.00   0.81934911   0.02900413
3998.00   0.76218706   0.02827183
4000.00   0.87040359   0.02827898
4002.00   0.82401478   0.02741078
4004.00   0.85673153   0.02737887
4006.00   0.81498051   0.02740043
4008.00   0.85571969   0.02809102
4010.00   0.77835763   0.02779564
4012.00   0.77090144   0.02739929
4014.00   0.78094584   0.02716596
4016.00   0.80261338   0.02767516
4018.00   0.76662612   0.02985858
4020.00   0.66281265   0.03156023
4022.00   0.60236108   0.03155885
4024.00   0.63029379   0.03101633
4026.00   0.69041085   0.02954508
4028.00   0.72609782   0.02856795
4030.00   0.82608646   0.02953182
4032.00   0.86860114   0.02939836
4034.00   0.90010595   0.02903743
4036.00   0.84230995   0.02835990
4038.00   0.79404980   0.02761972
4040.00   0.85142231   0.02802638
4042.00   0.87831128   0.02964923
4044.00   0.84900522   0.04171077
4046.00   0.91578621   0.05040115
4048.00   0.86376852   0.04501291
4050.00   0.92460430   0.03285884
4052.00   0.92896461   0.03063271
4054.00   0.98695576   0.03123782
4056.00   0.91902763   0.02996174
4058.00   0.92955863   0.02852362
4060.00   0.90343124   0.02804022
4062.00   0.90772051   0.02784796
4064.00   0.91206598   0.02775997
4066.00   0.93706071   0.02786766
4068.00   0.90466064   0.02762459
4070.00   0.91672379   0.02736442
4072.00   0.94264591   0.02727127
4074.00   0.92730719   0.02819254
4076.00   0.91728854   0.03080280
4078.00   0.92908943   0.03146771
4080.00   0.97087908   0.03089637
4082.00   0.96156067   0.03019315
4084.00   0.93764222   0.02985935
4086.00   0.99441975   0.02943304
4088.00   0.96272761   0.02828993
4090.00   0.92457360   0.02680522
4092.00   1.00784981   0.02709974
4094.00   0.99575931   0.02701196
4096.00   0.93481308   0.02659569
4098.00   0.96300399   0.02677247
4100.00   0.92672986   0.02642356
4102.00   0.97793067   0.02631021
4104.00   1.01159966   0.02643693
4106.00   0.97878635   0.02648859
4108.00   0.98350298   0.02660862
4110.00   0.93944454   0.02598944
4112.00   1.00363302   0.02635167
4114.00   0.98425877   0.02642262
4116.00   0.97557378   0.02621554
4118.00   0.98168135   0.02582383
4120.00   0.98110682   0.02554687
4122.00   0.95059979   0.02549219
4124.00   0.96067482   0.02563309
4126.00   0.99752283   0.02591086
4128.00   0.95899183   0.02573480
4130.00   0.95239526   0.02642038
4132.00   0.95428282   0.02690597
4134.00   0.98388124   0.02711358
4136.00   0.99333972   0.02633698
4138.00   0.97091192   0.02686885
4140.00   0.96952242   0.02716557
4142.00   1.01200652   0.02677250
4144.00   1.01077497   0.02570840
4146.00   0.97903419   0.02543202
4148.00   0.88951600   0.02498835
4150.00   0.90009987   0.02602992
4152.00   0.91274059   0.02667245
4154.00   0.89773196   0.02592530
4156.00   0.90133268   0.02499147
4158.00   0.88473815   0.02467233
4160.00   0.89060384   0.02504730
4162.00   0.86891407   0.02587588
4164.00   0.90922242   0.02758885
4166.00   0.95252395   0.02755937
4168.00   0.97943407   0.02626558
4170.00   0.95698106   0.02567803
4172.00   0.97472113   0.02503161
4174.00   1.03793764   0.02531201
4176.00   1.01313579   0.02550074
4178.00   1.00335121   0.02565331
4180.00   0.99392152   0.02529461
4182.00   0.98659623   0.02489119
4184.00   0.98407227   0.02468864
4186.00   1.03854692   0.02510179
4188.00   1.03997588   0.02520510
4190.00   1.03219914   0.02503934
4192.00   1.06912220   0.02538421
4194.00   1.05904567   0.02537946
4196.00   1.04731572   0.02476955
4198.00   1.04333770   0.02458461
4200.00   0.96596503   0.02402761
4202.00   0.98961991   0.02443164
4204.00   1.09088600   0.02519806
4206.00   1.06922495   0.02522380
4208.00   0.99476790   0.02496498
4210.00   1.00696027   0.02537398
4212.00   1.02734435   0.02526593
4214.00   1.05740035   0.02529332
4216.00   1.06077564   0.02530229
4218.00   1.06401443   0.02520456
4220.00   1.02995455   0.02487500
4222.00   1.03896785   0.02490741
4224.00   1.04781580   0.02490739
4226.00   1.03822935   0.02465844
4228.00   1.02653742   0.02461957
4230.00   1.05569482   0.02511450
4232.00   1.04010367   0.02535152
4234.00   1.01299584   0.02530946
4236.00   1.05194712   0.02550608
4238.00   1.11706579   0.02610168
4240.00   1.06602097   0.02496038
4242.00   1.05916059   0.02451472
4244.00   1.01209092   0.02627008
4246.00   1.03329527   0.02818640
4248.00   1.07535040   0.02754715
4250.00   1.05559433   0.02518107
4252.00   1.04307866   0.02426944
4254.00   0.98869562   0.02404721
4256.00   1.07700872   0.02464345
4258.00   1.03851259   0.02434035
4260.00   1.02994072   0.02399689
4262.00   1.08208561   0.02423848
4264.00   1.07362616   0.02396439
4266.00   1.06287205   0.02387394
4268.00   1.09928620   0.02425821
4270.00   1.05402851   0.02389467
4272.00   1.08688653   0.02422944
4274.00   1.06466687   0.02398713
4276.00   1.08615780   0.02435730
4278.00   1.01905000   0.02404914
4280.00   1.05895567   0.02425466
4282.00   0.99820942   0.02388029
4284.00   1.00434268   0.02371154
4286.00   1.06535947   0.02387471
4288.00   1.04297686   0.02370967
4290.00   1.07357883   0.02380854
4292.00   1.08946311   0.02403632
4294.00   1.03630185   0.02381609
4296.00   1.08197284   0.02411799
4298.00   1.10183561   0.02413582
4300.00   1.10023165   0.02382111
4302.00   1.10425174   0.02370864
4304.00   1.01075506   0.02347816
4306.00   1.05695879   0.02398894
4308.00   1.05412662   0.02381652
4310.00   1.09732449   0.02439693
4312.00   1.06476629   0.02589080
4314.00   1.03780556   0.02622702
4316.00   1.05165648   0.02515793
4318.00   1.10055661   0.02539295
4320.00   1.04915845   0.02565987
4322.00   1.15358961   0.02612001
4324.00   1.09654570   0.02535684
4326.00   1.06978321   0.02484790
4328.00   1.03134847   0.02387710
4330.00   1.03191900   0.02360884
4332.00   1.06462669   0.02371749
4334.00   1.11809397   0.02406391
4336.00   1.12075543   0.02442154
4338.00   1.06261957   0.02436123
4340.00   1.11214483   0.02474529
4342.00   1.09572399   0.02467755
4344.00   1.07703531   0.02495870
4346.00   1.04022336   0.02556627
4348.00   1.07324755   0.02594076
4350.00   1.10203516   0.02530546
4352.00   1.06575882   0.02484636
4354.00   0.98835933   0.02834249
4356.00   0.89440399   0.05102068
4358.00   1.00886869   0.05152856
4360.00   1.00695109   0.04337005
4362.00   0.98970419   0.02901164
4364.00   0.99277383   0.02585698
4366.00   1.04287529   0.02552237
4368.00   1.03248858   0.02511355
4370.00   1.01935136   0.02477444
4372.00   1.09247899   0.02591393
4374.00   1.07213068   0.02628386
4376.00   1.03651130   0.02521742
4378.00   1.11714935   0.02478345
4380.00   1.09193850   0.02427990
4382.00   1.00644457   0.02354255
4384.00   1.08029377   0.02380230
4386.00   1.03386474   0.02343480
4388.00   1.06754875   0.02371251
4390.00   1.05136299   0.02384128
4392.00   1.05027330   0.02360908
4394.00   1.02281010   0.02323140
4396.00   1.11302912   0.02397171
4398.00   1.14555097   0.02487025
4400.00   1.02359378   0.02455245
4402.00   0.93766254   0.02330902
4404.00   0.96721190   0.02304563
4406.00   1.06176102   0.02352508
4408.00   1.00175369   0.02339109
4410.00   1.07749414   0.02388163
4412.00   1.06660068   0.02395180
4414.00   1.07298625   0.02456259
4416.00   1.11138225   0.02462879
4418.00   1.05781233   0.02380767
4420.00   1.16550910   0.02433680
4422.00   1.12420833   0.02401180
4424.00   1.16494274   0.02424219
4426.00   1.10937524   0.02380425
4428.00   1.11219215   0.02380938
4430.00   1.08234131   0.02365368
4432.00   1.09666681   0.02366567
4434.00   1.12576699   0.02362177
4436.00   1.10836720   0.02360216
4438.00   1.12613988   0.02385348
4440.00   1.12962234   0.02377748
4442.00   1.08647501   0.02337850
4444.00   1.03649950   0.02305894
4446.00   1.05917346   0.02315882
4448.00   1.14421117   0.02356683
4450.00   1.14364231   0.02353799
4452.00   1.14898086   0.02354188
4454.00   1.18294537   0.02381019
4456.00   1.19479501   0.02376892
4458.00   1.13988483   0.02357567
4460.00   1.17404938   0.02372521
4462.00   1.13496149   0.02337988
4464.00   1.11795640   0.02318759
4466.00   1.08657062   0.02299564
4468.00   1.10670459   0.02308441
4470.00   1.13121665   0.02306964
4472.00   1.14916623   0.02321707
4474.00   1.11992633   0.02315979
4476.00   1.21040237   0.02371926
4478.00   1.14603746   0.02335607
4480.00   1.13448131   0.02347360
4482.00   1.17083979   0.02351236
4484.00   1.19893837   0.02355911
4486.00   1.23196709   0.02390322
4488.00   1.18351436   0.02356154
4490.00   1.20232964   0.02378600
4492.00   1.16964245   0.02382771
4494.00   1.16180038   0.02381209
4496.00   1.18725216   0.02384488
4498.00   1.25884151   0.02431478
4500.00   1.15880382   0.02357863
4502.00   1.18167162   0.02348711
4504.00   1.19709551   0.02360964
4506.00   1.23517096   0.02380919
4508.00   1.19267702   0.02347362
4510.00   1.22350609   0.02360069
4512.00   1.18505573   0.02344765
4514.00   1.21182811   0.02359357
4516.00   1.16778362   0.02303292
4518.00   1.12264776   0.02265756
4520.00   1.10793698   0.02264178
4522.00   1.14561200   0.02289455
4524.00   1.15729606   0.02290858
4526.00   1.19971013   0.02299767
4528.00   1.24114633   0.02327652
4530.00   1.25391006   0.02352658
4532.00   1.22287107   0.02340163
4534.00   1.29537308   0.02380544
4536.00   1.31463397   0.02382323
4538.00   1.30112731   0.02363317
4540.00   1.23932350   0.02344146
4542.00   1.26881003   0.02381683
4544.00   1.28023517   0.02399664
4546.00   1.32318342   0.02391014
4548.00   1.25368917   0.02330801
4550.00   1.24360883   0.02306875
4552.00   1.26662016   0.02328323
4554.00   1.26606858   0.02335714
4556.00   1.25922668   0.02356839
4558.00   1.21650136   0.02320832
4560.00   1.21500504   0.02296743
4562.00   1.27033663   0.02328377
4564.00   1.26692271   0.02318358
4566.00   1.29205239   0.02326481
4568.00   1.27120376   0.02305076
4570.00   1.29848063   0.02323018
4572.00   1.29864013   0.02343228
4574.00   1.29356754   0.02344270
4576.00   1.24336541   0.02303636
4578.00   1.24678099   0.02286423
4580.00   1.25360537   0.02276583
4582.00   1.28648484   0.02274472
4584.00   1.24022770   0.02243134
4586.00   1.22783267   0.02236508
4588.00   1.23447812   0.02245136
4590.00   1.20069087   0.02231096
4592.00   1.17185378   0.02235825
4594.00   1.21644437   0.02251351
4596.00   1.21812725   0.02253582
4598.00   1.25982141   0.02268214
4600.00   1.19048381   0.02207769
4602.00   1.20231354   0.02202137
4604.00   1.17239130   0.02182334
4606.00   1.20647073   0.02204204
4608.00   1.25093079   0.02244627
4610.00   1.21434724   0.02230137
4612.00   1.24865353   0.02226565
4614.00   1.21509957   0.02196015
4616.00   1.21013713   0.02176006
4618.00   1.22425914   0.02181442
4620.00   1.23116076   0.02205565
4622.00   1.18582761   0.02166288
4624.00   1.25070620   0.02208385
4626.00   1.21860945   0.02183450
4628.00   1.20485628   0.02187045
4630.00   1.22624183   0.02192278
4632.00   1.25837529   0.02210231
4634.00   1.29634058   0.02220179
4636.00   1.29474163   0.02214832
4638.00   1.29830205   0.02226837
4640.00   1.25972331   0.02200812
4642.00   1.26384318   0.02204049
4644.00   1.25092101   0.02195426
4646.00   1.25472832   0.02194811
4648.00   1.24344873   0.02188161
4650.00   1.23369741   0.02194130
4652.00   1.18903732   0.02161731
4654.00   1.21696734   0.02176817
4656.00   1.15993488   0.02162330
4658.00   1.18714821   0.02202990
4660.00   1.18424714   0.02204358
4662.00   1.21611130   0.02232822
4664.00   1.24548149   0.02276397
4666.00   1.23349321   0.02300005
4668.00   1.28525364   0.02345273
4670.00   1.30300272   0.02359533
4672.00   1.20900595   0.02293015
4674.00   1.21721685   0.02277142
4676.00   1.26261747   0.02268289
4678.00   1.18813753   0.02212503
4680.00   1.19776785   0.02191924
4682.00   1.15533221   0.02159278
4684.00   1.21353257   0.02181010
4686.00   1.29356921   0.02219899
4688.00   1.24736035   0.02195539
4690.00   1.33260119   0.02222999
4692.00   1.24292636   0.02177625
4694.00   1.20917010   0.02163303
4696.00   1.22873843   0.02151672
4698.00   1.25127292   0.02156371
4700.00   1.26017559   0.02163361
4702.00   1.28112352   0.02183303
4704.00   1.28121042   0.02194240
4706.00   1.27557933   0.02212083
4708.00   1.27397048   0.02216419
4710.00   1.24237764   0.02205265
4712.00   1.28466606   0.02219702
4714.00   1.29529941   0.02200184
4716.00   1.30404890   0.02202823
4718.00   1.29563856   0.02188559
4720.00   1.38263762   0.02229640
4722.00   1.32256067   0.02209132
4724.00   1.27820301   0.02181130
4726.00   1.25829852   0.02243177
4728.00   1.29637790   0.02346216
4730.00   1.23274946   0.02309935
4732.00   1.28780532   0.02321102
4734.00   1.27569604   0.02358162
4736.00   1.30595028   0.02390364
4738.00   1.33940351   0.02456002
4740.00   1.28064966   0.02471574
4742.00   1.28290081   0.02513820
4744.00   1.30194461   0.02445695
4746.00   1.29194438   0.02299641
4748.00   1.29604673   0.02213206
4750.00   1.30974805   0.02235932
4752.00   1.30901277   0.02270782
4754.00   1.29716229   0.02228418
4756.00   1.32165444   0.02179620
4758.00   1.31920958   0.02151990
4760.00   1.26993072   0.02112348
4762.00   1.32283616   0.02139333
4764.00   1.27938735   0.02099264
4766.00   1.27151608   0.02088189
4768.00   1.29551458   0.02094962
4770.00   1.28628731   0.02088523
4772.00   1.30911565   0.02103845
4774.00   1.31245673   0.02113255
4776.00   1.34522784   0.02159019
4778.00   1.35379720   0.02214193
4780.00   1.34910345   0.02209603
4782.00   1.33646226   0.02137853
4784.00   1.33264041   0.02107207
4786.00   1.31827617   0.02101560
4788.00   1.33021688   0.02117255
4790.00   1.27799237   0.02097816
4792.00   1.28091574   0.02086531
4794.00   1.30770898   0.02088840
4796.00   1.28804171   0.02072192
4798.00   1.28424478   0.02057322
4800.00   1.26227605   0.02038986
4802.00   1.35338640   0.02091460
4804.00   1.33140826   0.02078252
4806.00   1.33036816   0.02081836
4808.00   1.36562181   0.02115787
4810.00   1.37335455   0.02116331
4812.00   1.34537005   0.02101876
4814.00   1.33652151   0.02097342
4816.00   1.34720135   0.02096177
4818.00   1.34008729   0.02101453
4820.00   1.29551518   0.02085834
4822.00   1.28863895   0.02084572
4824.00   1.28781509   0.02097123
4826.00   1.26094866   0.02086220
4828.00   1.31090140   0.02114881
4830.00   1.32520056   0.02118709
4832.00   1.28579235   0.02112727
4834.00   1.31423569   0.02117659
4836.00   1.32727087   0.02120438
4838.00   1.31228399   0.02150272
4840.00   1.33914447   0.02178970
4842.00   1.36993778   0.02149941
4844.00   1.35874093   0.02121718
4846.00   1.33272147   0.02125720
4848.00   1.29798174   0.02113528
4850.00   1.30095565   0.02105200
4852.00   1.32952416   0.02120996
4854.00   1.36277533   0.02115712
4856.00   1.34677505   0.02081277
4858.00   1.37722373   0.02100619
4860.00   1.36869347   0.02111666
4862.00   1.29679358   0.02089135
4864.00   1.34133267   0.02108772
4866.00   1.32404816   0.02091968
4868.00   1.34168088   0.02090742
4870.00   1.29879308   0.02057691
4872.00   1.31988347   0.02070194
4874.00   1.28638518   0.02063245
4876.00   1.34710109   0.02104331
4878.00   1.31105256   0.02090101
4880.00   1.34249139   0.02101085
4882.00   1.28258872   0.02056519
4884.00   1.34529912   0.02073669
4886.00   1.30700183   0.02042936
4888.00   1.35003364   0.02057011
4890.00   1.31253302   0.02038160
4892.00   1.32099676   0.02052139
4894.00   1.31646121   0.02056859
4896.00   1.32625329   0.02046373
4898.00   1.30972087   0.02031328
4900.00   1.31488347   0.02032333
4902.00   1.30647194   0.02025862
4904.00   1.32917356   0.02047360
4906.00   1.27041566   0.02020947
4908.00   1.30572987   0.02050770
4910.00   1.32021689   0.02059826
4912.00   1.27633715   0.02023970
4914.00   1.25956750   0.02011810
4916.00   1.29940343   0.02026747
4918.00   1.25763381   0.02003808
4920.00   1.20541871   0.01983503
4922.00   1.33559859   0.02052834
4924.00   1.61830294   0.02201062
4926.00   1.67388356   0.02339806
4928.00   1.46006393   0.02094536
4930.00   1.28486538   0.01992004
4932.00   1.24723136   0.01972651
4934.00   1.25523865   0.01980130
4936.00   1.23401475   0.01978453
4938.00   1.23401046   0.01981303
4940.00   1.26659119   0.02000529
4942.00   1.29723072   0.02014945
4944.00   1.27809739   0.01991499
4946.00   1.26877856   0.01973458
4948.00   1.27308822   0.01984889
4950.00   1.29368806   0.02003611
4952.00   1.27979243   0.02025611
4954.00   1.27240431   0.02046203
4956.00   1.31622171   0.02037415
4958.00   1.32338643   0.02027397
4960.00   1.36446047   0.02050920
4962.00   1.35663188   0.02053005
4964.00   1.36272871   0.02060385
4966.00   1.32367122   0.02053644
4968.00   1.35076356   0.02081003
4970.00   1.35587871   0.02100338
4972.00   1.31858873   0.02120860
4974.00   1.34333324   0.02163206
4976.00   1.31894577   0.02187536
4978.00   1.34153390   0.02264991
4980.00   1.35574436   0.02338411
4982.00   1.35120940   0.02355290
4984.00   1.36559141   0.02344262
4986.00   1.35628402   0.02294875
4988.00   1.31677437   0.02230359
4990.00   1.32109797   0.02199868
4992.00   1.35813963   0.02188959
4994.00   1.42487860   0.02170039
4996.00   1.38210762   0.02111364
4998.00   1.37764585   0.02086882
5000.00   1.41359901   0.02089139
5002.00   1.39530563   0.02075373
5004.00   1.42488360   0.02075996
5006.00   1.40527368   0.02049877
5008.00   1.37489259   0.02030263
5010.00   1.35859776   0.02014922
5012.00   1.40133965   0.02041410
5014.00   1.37234306   0.02030138
5016.00   1.40895867   0.02065332
5018.00   1.37668538   0.02069569
5020.00   1.41496980   0.02093197
5022.00   1.39387774   0.02060326
5024.00   1.48908544   0.02084471
5026.00   1.45021880   0.02069635
5028.00   1.39562953   0.02063516
5030.00   1.35721171   0.02063822
5032.00   1.42564058   0.02084357
5034.00   1.39566576   0.02037306
5036.00   1.36263406   0.02001191
5038.00   1.38665819   0.02018774
5040.00   1.41100860   0.02026108
5042.00   1.39653170   0.02031602
5044.00   1.40978920   0.02041865
5046.00   1.35954392   0.02019074
5048.00   1.36654174   0.02006991
5050.00   1.38250375   0.02019933
5052.00   1.37918603   0.02018474
5054.00   1.37122381   0.02021958
5056.00   1.38867497   0.02029121
5058.00   1.37895620   0.02019233
5060.00   1.41213107   0.02042548
5062.00   1.38156700   0.02076702
5064.00   1.37877738   0.02105847
5066.00   1.34327638   0.02113191
5068.00   1.36228526   0.02160309
5070.00   1.40755928   0.02199054
5072.00   1.52775812   0.02218961
5074.00   1.60597396   0.02226936
5076.00   1.51847482   0.02167758
5078.00   1.54436302   0.02229462
5080.00   1.50165343   0.02351153
5082.00   1.49806392   0.02488516
5084.00   1.46948993   0.02545985
5086.00   1.44586241   0.02515914
5088.00   1.43792081   0.02398529
5090.00   1.47685671   0.02277060
5092.00   1.46235859   0.02176559
5094.00   1.51364148   0.02171003
5096.00   1.50197887   0.02221116
5098.00   1.45820820   0.02261359
5100.00   1.44454575   0.02246935
5102.00   1.42210507   0.02172251
5104.00   1.38019586   0.02091422
5106.00   1.38787556   0.02080082
5108.00   1.44043219   0.02101139
5110.00   1.47065818   0.02125893
5112.00   1.50448167   0.02148476
5114.00   1.45947361   0.02149260
5116.00   1.47022057   0.02160532
5118.00   1.43984711   0.02118399
5120.00   1.47591829   0.02112709
5122.00   1.50928628   0.02116312
5124.00   1.48242390   0.02105165
5126.00   1.46780169   0.02097215
5128.00   1.44830430   0.02087600
5130.00   1.49612916   0.02120235
5132.00   1.48789549   0.02118497
5134.00   1.48958528   0.02124217
5136.00   1.47050536   0.02106067
5138.00   1.47128546   0.02110722
5140.00   1.45357096   0.02111944
5142.00   1.49973810   0.02133419
5144.00   1.44868243   0.02117878
5146.00   1.44730353   0.02146193
5148.00   1.44122958   0.02174612
5150.00   1.46543884   0.02212689
5152.00   1.47450042   0.02258114
5154.00   1.48623717   0.02263906
5156.00   1.48718667   0.02251392
5158.00   1.47073412   0.02215298
5160.00   1.53625572   0.02217262
5162.00   1.49391007   0.02178104
5164.00   1.52210152   0.02186949
5166.00   1.45603037   0.02143470
5168.00   1.48930109   0.02150087
5170.00   1.44757390   0.02140044
5172.00   1.48677969   0.02162252
5174.00   1.48610997   0.02170475
5176.00   1.46891451   0.02188086
5178.00   1.47440422   0.02183200
5180.00   1.48500311   0.02178963
5182.00   1.41474259   0.02145232
5184.00   1.42435777   0.02148356
5186.00   1.39228129   0.02159854
5188.00   1.47904658   0.02205469
5190.00   1.52777803   0.02239753
5192.00   1.47358549   0.02209470
5194.00   1.43899822   0.02209940
5196.00   1.49537468   0.02275132
5198.00   1.52643478   0.02325785
5200.00   1.56774604   0.02343503
5202.00   1.55387807   0.02318960
5204.00   1.50439906   0.02269027
5206.00   1.48085725   0.02245890
5208.00   1.43469226   0.02257922
5210.00   1.40171909   0.02258790
5212.00   1.34327495   0.02222397
5214.00   1.33668494   0.02202039
5216.00   1.37068295   0.02223029
5218.00   1.45219851   0.02288328
5220.00   1.49800670   0.02326241
5222.00   1.50409758   0.02309567
5224.00   1.55148625   0.02328354
5226.00   1.53138530   0.02305646
5228.00   1.52161694   0.02312523
5230.00   1.56448436   0.02347834
5232.00   1.50920105   0.02317987
5234.00   1.46207166   0.02286921
5236.00   1.46403074   0.02297000
5238.00   1.44237006   0.02303841
5240.00   1.41803300   0.02297909
5242.00   1.44815731   0.02294177
5244.00   1.47813463   0.02310810
5246.00   1.48982918   0.02322507
5248.00   1.50871372   0.02331871
5250.00   1.49282920   0.02335555
5252.00   1.45288181   0.02314043
5254.00   1.42400897   0.02328332
5256.00   1.50634313   0.02410886
5258.00   1.53611422   0.02460218
5260.00   1.53059602   0.02427841
5262.00   1.53438091   0.02401419
5264.00   1.55652702   0.02408010
5266.00   1.50823402   0.02384831
5268.00   1.57133818   0.02414879
5270.00   1.61479449   0.02453761
5272.00   1.58237529   0.02442514
5274.00   1.52603185   0.02434863
5276.00   1.53056026   0.02439168
5278.00   1.47565448   0.02423440
5280.00   1.51287496   0.02434744
5282.00   1.56375659   0.02473250
5284.00   1.57397234   0.02516708
5286.00   1.58515501   0.02539023
5288.00   1.55967069   0.02508206
5290.00   1.55019677   0.02498610
5292.00   1.55943716   0.02506196
5294.00   1.54997027   0.02507365
5296.00   1.50699651   0.02492099
5298.00   1.54981756   0.02535825
5300.00   1.61657035   0.02580327
5302.00   1.60530007   0.02580671
5304.00   1.59458613   0.02572821
5306.00   1.54667020   0.02545342
5308.00   1.55658674   0.02554519
5310.00   1.60770321   0.02611928
5312.00   1.61159813   0.02634165
5314.00   1.58549833   0.02630413
5316.00   1.54814935   0.02596482
5318.00   1.60941887   0.02617608
5320.00   1.55501556   0.02614200
5322.00   1.55854988   0.02620890
5324.00   1.54060173   0.02636263
5326.00   1.60839796   0.02686270
5328.00   1.59322321   0.02680795
5330.00   1.54231989   0.02675488
5332.00   1.61709845   0.02724762
5334.00   1.55626953   0.02697851
5336.00   1.58654273   0.02725179
5338.00   1.54124677   0.02737708
5340.00   1.52689826   0.02771028
5342.00   1.52179790   0.02789834
5344.00   1.55880523   0.02796114
5346.00   1.62145627   0.02881445
5348.00   1.61974943   0.02948590
5350.00   1.65828598   0.02986500
5352.00   1.62989330   0.02957840
5354.00   1.64613950   0.03006012
5356.00   1.67704093   0.03058078
5358.00   1.76686144   0.03030834
5360.00   1.61715972   0.02908804
5362.00   1.70162165   0.02913609
5364.00   1.68579590   0.02897873
5366.00   1.68751013   0.02910768
5368.00   1.62770653   0.02868265
5370.00   1.60741615   0.02855806
5372.00   1.66329682   0.02943199
5374.00   1.65400970   0.03010781
5376.00   1.63361216   0.03011690
5378.00   1.65231836   0.02988148
5380.00   1.64369369   0.02981918
5382.00   1.70865285   0.03008603
5384.00   1.62957788   0.02960524
5386.00   1.61635101   0.02972333
5388.00   1.65097797   0.03030608
5390.00   1.62925327   0.03079383
5392.00   1.67963529   0.03138312
5394.00   1.70555580   0.03130579
5396.00   1.62127388   0.03067433
5398.00   1.59002090   0.03036995
5400.00   1.53953195   0.03021138
5402.00   1.65486085   0.03077725
5404.00   1.59752095   0.03082171
5406.00   1.65517795   0.03147392
5408.00   1.71524310   0.03187715
5410.00   1.61089969   0.03171448
5412.00   1.67027032   0.03235726
5414.00   1.70514977   0.03336441
5416.00   1.68732405   0.03358210
5418.00   1.74541068   0.03402330
5420.00   1.64633906   0.03360226
5422.00   1.62212372   0.03340232
5424.00   1.69331992   0.03367305
5426.00   1.65083659   0.03357650
5428.00   1.74724221   0.03407888
5430.00   1.69705272   0.03376070
5432.00   1.67876768   0.01335468
5434.00   1.65919363   0.01242759
5436.00   1.65274811   0.01210643
5438.00   1.66255331   0.01248207
5440.00   1.67559767   0.01296006
5442.00   1.68390405   0.01319508
5444.00   1.69179964   0.01336703
5446.00   1.69017982   0.01346129
5448.00   1.67226636   0.01316180
5450.00   1.67001832   0.01351446
5452.00   1.69201601   0.01466814
5454.00   1.69836092   0.01550636
5456.00   1.65922379   0.01548806
5458.00   1.59790969   0.01507038
5460.00   1.59149218   0.01540035
5462.00   1.63898122   0.01690367
5464.00   1.64989412   0.01665142
5466.00   1.64325631   0.01462701
5468.00   1.63870251   0.01286623
5470.00   1.64559746   0.01229107
5472.00   1.65198600   0.01226822
5474.00   1.63380289   0.01201780
5476.00   1.58166325   0.01181523
5478.00   1.57491517   0.01179781
5480.00   1.60708678   0.01210631
5482.00   1.62628567   0.01221132
5484.00   1.62958491   0.01201625
5486.00   1.62502337   0.01173744
5488.00   1.61295712   0.01162036
5490.00   1.58768678   0.01158740
5492.00   1.58425546   0.01149518
5494.00   1.60010433   0.01139944
5496.00   1.60870898   0.01126863
5498.00   1.61442924   0.01104706
5500.00   1.61468887   0.01086429
5502.00   1.60202420   0.01083980
5504.00   1.57770717   0.01092150
5506.00   1.57620049   0.01107679
5508.00   1.59589076   0.01150673
5510.00   1.60480976   0.01158551
5512.00   1.60671091   0.01124737
5514.00   1.60854685   0.01098187
5516.00   1.61658144   0.01107728
5518.00   1.62631524   0.01136069
5520.00   1.61552799   0.01159361
5522.00   1.57382584   0.01206086
5524.00   1.56233609   0.01208471
5526.00   1.56922126   0.01170988
5528.00   1.58113003   0.01131547
5530.00   1.59874535   0.01096868
5532.00   1.61889827   0.01064364
5534.00   1.62394786   0.01052042
5536.00   1.61792302   0.01062977
5538.00   1.61145806   0.01061232
5540.00   1.59284210   0.01057782
5542.00   1.58639765   0.01052417
5544.00   1.59984910   0.01043875
5546.00   1.61879838   0.01034419
5548.00   1.62441301   0.01027368
5550.00   1.62289512   0.01019621
5552.00   1.62314296   0.01021139
5554.00   1.61576331   0.01026932
5556.00   1.62062716   0.01042398
5558.00   1.64503479   0.01079651
5560.00   1.66860294   0.01109131
5562.00   1.67149949   0.01095496
5564.00   1.66122878   0.01044832
5566.00   1.65631413   0.01066466
5568.00   1.64540112   0.01131376
5570.00   1.64495373   0.01206525
5572.00   1.65961087   0.01324898
5574.00   1.67053139   0.01409191
5576.00   1.66558385   0.01421692
5578.00   1.65155458   0.01389750
5580.00   1.64158142   0.01348038
5582.00   1.62691247   0.01239644
5584.00   1.62124848   0.01200982
5586.00   1.61556697   0.01231804
5588.00   1.62436616   0.01250566
5590.00   1.66446209   0.01229844
5592.00   1.71616530   0.01191591
5594.00   1.71843326   0.01157428
5596.00   1.67182803   0.01098500
5598.00   1.65954804   0.01090557
5600.00   1.66076648   0.01149733
5602.00   1.66362274   0.01167882
5604.00   1.66677296   0.01113823
5606.00   1.67200899   0.01036181
5608.00   1.67975283   0.01015978
5610.00   1.69144273   0.01037811
5612.00   1.69887519   0.01029214
5614.00   1.70598137   0.00993268
5616.00   1.70870602   0.00987747
5618.00   1.70271420   0.01022076
5620.00   1.69790387   0.01065688
5622.00   1.70762777   0.01099121
5624.00   1.72990966   0.01137710
5626.00   1.72873104   0.01125079
5628.00   1.70635724   0.01044129
5630.00   1.69280946   0.01000556
5632.00   1.68267465   0.00987618
5634.00   1.67687643   0.00987349
5636.00   1.67873299   0.00991639
5638.00   1.68665802   0.01004624
5640.00   1.68790674   0.01025532
5642.00   1.68603969   0.01073430
5644.00   1.68385029   0.01084314
5646.00   1.67491329   0.01064202
5648.00   1.67419851   0.01039866
5650.00   1.69343495   0.01017756
5652.00   1.72144198   0.00995162
5654.00   1.72443843   0.00988297
5656.00   1.71107924   0.00976635
5658.00   1.69472480   0.01012793
5660.00   1.65843785   0.01117845
5662.00   1.63836050   0.01174592
5664.00   1.64537537   0.01157321
5666.00   1.66440809   0.01111636
5668.00   1.67581916   0.01102576
5670.00   1.68924403   0.01109364
5672.00   1.69603753   0.01111404
5674.00   1.70052576   0.01110549
5676.00   1.69786417   0.01120176
5678.00   1.68081617   0.01142914
5680.00   1.66481805   0.01170808
5682.00   1.67107260   0.01197675
5684.00   1.69532847   0.01228348
5686.00   1.69984317   0.01245758
5688.00   1.68916297   0.01229179
5690.00   1.68723702   0.01261704
5692.00   1.69506276   0.01377005
5694.00   1.70205092   0.01454742
5696.00   1.69979715   0.01411727
5698.00   1.69195390   0.01281542
5700.00   1.69367659   0.01198548
5702.00   1.70603633   0.01099352
5704.00   1.70875311   0.01042719
5706.00   1.69838285   0.01027913
5708.00   1.69550097   0.01040574
5710.00   1.71365654   0.01085764
5712.00   1.74221337   0.01151381
5714.00   1.75080121   0.01173028
5716.00   1.75536239   0.01174629
5718.00   1.73921275   0.01161265
5720.00   1.69261861   0.01120364
5722.00   1.65579259   0.01079358
5724.00   1.64120948   0.01038369
5726.00   1.63423932   0.01001494
5728.00   1.61519849   0.00995703
5730.00   1.58438551   0.01022409
5732.00   1.57364798   0.01034017
5734.00   1.58121014   0.01031388
5736.00   1.58369589   0.01054765
5738.00   1.58052540   0.01131022
5740.00   1.57421339   0.01196875
5742.00   1.56075156   0.01174588
5744.00   1.53294194   0.01071445
5746.00   1.54902899   0.01046609
5748.00   1.61199892   0.01085049
5750.00   1.65524662   0.01085103
5752.00   1.68601298   0.01024647
5754.00   1.70709944   0.00980635
5756.00   1.71501076   0.01034447
5758.00   1.71043682   0.01147889
5760.00   1.70995808   0.01183324
5762.00   1.69998765   0.01189519
5764.00   1.70617759   0.01174648
5766.00   1.73694968   0.01091671
5768.00   1.75768328   0.01048766
5770.00   1.74738145   0.01138277
5772.00   1.71972084   0.01282943
5774.00   1.70547152   0.01302997
5776.00   1.68803513   0.01248839
5778.00   1.68619120   0.01187558
5780.00   1.71043575   0.01042060
5782.00   1.71818936   0.00946126
5784.00   1.68603861   0.00981474
5786.00   1.64195180   0.01074369
5788.00   1.64497709   0.01117468
5790.00   1.68763602   0.01169620
5792.00   1.70898664   0.01166418
5794.00   1.73216653   0.01096360
5796.00   1.74398744   0.01046504
5798.00   1.74017000   0.01029439
5800.00   1.72896850   0.01027893
5802.00   1.71997833   0.01034837
5804.00   1.70662284   0.01061017
5806.00   1.70390856   0.01059753
5808.00   1.70891726   0.01032312
5810.00   1.71602464   0.01019608
5812.00   1.73091209   0.01023784
5814.00   1.74231982   0.01031449
5816.00   1.73649728   0.01034299
5818.00   1.71743739   0.01037030
5820.00   1.71417534   0.01029878
5822.00   1.71865404   0.01011220
5824.00   1.72569561   0.00995840
5826.00   1.74423730   0.00977924
5828.00   1.75474083   0.00964834
5830.00   1.74115372   0.00963402
5832.00   1.71311283   0.00969749
5834.00   1.70659530   0.00969297
5836.00   1.71497285   0.00955890
5838.00   1.71819544   0.00966956
5840.00   1.72791457   0.01011151
5842.00   1.72717845   0.01036667
5844.00   1.70178366   0.01016089
5846.00   1.66802132   0.00979038
5848.00   1.67050099   0.00998553
5850.00   1.70760357   0.01045540
5852.00   1.72184229   0.01118060
5854.00   1.73923242   0.01275595
5856.00   1.73512077   0.01330063
5858.00   1.69331896   0.01224264
5860.00   1.64229345   0.01058445
5862.00   1.62819254   0.01043468
5864.00   1.63593721   0.01146073
5866.00   1.64618707   0.01140455
5868.00   1.67414665   0.01055265
5870.00   1.69247746   0.01014068
5872.00   1.70427942   0.01019943
5874.00   1.70779788   0.01053472
5876.00   1.69566882   0.01104443
5878.00   1.66771770   0.01172541
5880.00   1.65718782   0.01266769
5882.00   1.65513325   0.01380366
5884.00   1.65521514   0.01502839
5886.00   1.66097069   0.01650326
5888.00   1.66652405   0.01779047
5890.00   1.66832769   0.01885072
5892.00   1.66825581   0.01976368
5894.00   1.66372132   0.01948422
5896.00   1.64782774   0.01767747
5898.00   1.64618361   0.01644792
5900.00   1.65216649   0.01540143
5902.00   1.66649973   0.01424990
5904.00   1.69437504   0.01266939
5906.00   1.72959924   0.01083829
5908.00   1.74735165   0.00998451
5910.00   1.74884820   0.01034968
5912.00   1.76265562   0.01028531
5914.00   1.78469813   0.01028007
5916.00   1.80249906   0.01035661
5918.00   1.81470978   0.01057142
5920.00   1.82261634   0.01082050
5922.00   1.82523608   0.01090811
5924.00   1.82546079   0.01089792
5926.00   1.81133389   0.01087754
5928.00   1.78401077   0.01076198
5930.00   1.75110102   0.01072113
5932.00   1.70118272   0.01084122
5934.00   1.65704596   0.01092216
5936.00   1.64679766   0.01070761
5938.00   1.65777349   0.01022476
5940.00   1.69239843   0.01004608
5942.00   1.75201225   0.00995805
5944.00   1.82998621   0.01007605
5946.00   1.94440365   0.01051305
5948.00   2.05514717   0.01092905
5950.00   2.13907290   0.01096896
5952.00   2.20922112   0.01078725
5954.00   2.21834087   0.01163055
5956.00   2.16523933   0.01364069
5958.00   2.10652161   0.01443875
5960.00   2.03832483   0.01481580
5962.00   1.93690240   0.01453558
5964.00   1.78545880   0.01306855
5966.00   1.59824681   0.01051149
5968.00   1.41994250   0.00907182
5970.00   1.17162085   0.00822963
5972.00   1.06695545   0.00808576
5974.00   1.05868793   0.00929553
5976.00   1.10280025   0.01005865
5978.00   1.20586562   0.01013661
5980.00   1.35178256   0.00993932
5982.00   1.48628664   0.00975234
5984.00   1.65102267   0.00934471
5986.00   1.75575686   0.00920591
5988.00   1.82088768   0.00918360
5990.00   1.86814022   0.00930598
5992.00   1.89747417   0.00961131
5994.00   1.90739226   0.00999723
5996.00   1.89548528   0.01038075
5998.00   1.85416389   0.01086773
6000.00   1.84194410   0.01095331
6002.00   1.84423959   0.01071796
6004.00   1.84787679   0.01044416
6006.00   1.85711133   0.01001236
6008.00   1.86620295   0.00958326
6010.00   1.86894691   0.00934037
6012.00   1.86794603   0.00921590
6014.00   1.87094975   0.00909082
6016.00   1.87919676   0.00901048
6018.00   1.88024426   0.00896755
6020.00   1.87396669   0.00893915
6022.00   1.86740923   0.00898908
6024.00   1.86160898   0.00917942
6026.00   1.85665202   0.00945409
6028.00   1.86489475   0.00960419
6030.00   1.89753413   0.00982036
6032.00   1.90209067   0.00972727
6034.00   1.88461113   0.00921116
6036.00   1.86902606   0.00883390
6038.00   1.85886908   0.00876257
6040.00   1.85243678   0.00887899
6042.00   1.85881209   0.00917611
6044.00   1.88909519   0.00992953
6046.00   1.88325834   0.00992384
6048.00   1.84128118   0.00920888
6050.00   1.81616080   0.00869464
6052.00   1.81610572   0.00851397
6054.00   1.82415080   0.00848256
6056.00   1.82425117   0.00849148
6058.00   1.82204390   0.00858385
6060.00   1.82397473   0.00877425
6062.00   1.82972658   0.00927107
6064.00   1.83400798   0.00939778
6066.00   1.83831394   0.00904413
6068.00   1.84062922   0.00863421
6070.00   1.83728015   0.00856304
6072.00   1.82884014   0.00866811
6074.00   1.83033025   0.00880930
6076.00   1.84748602   0.00922686
6078.00   1.84600174   0.00928551
6080.00   1.82579410   0.00895565
6082.00   1.80374181   0.00861993
6084.00   1.78585780   0.00850986
6086.00   1.76921332   0.00850318
6088.00   1.76818848   0.00846503
6090.00   1.78745031   0.00843544
6092.00   1.79456496   0.00844105
6094.00   1.79710817   0.00845369
6096.00   1.79805779   0.00852930
6098.00   1.79482639   0.00867530
6100.00   1.79151213   0.00888546
6102.00   1.80423570   0.00919486
6104.00   1.84088039   0.00978070
6106.00   1.84752297   0.00986271
6108.00   1.82860506   0.00943943
6110.00   1.81793606   0.00921345
6112.00   1.82338655   0.00938137
6114.00   1.83135700   0.00962311
6116.00   1.82594383   0.00956848
6118.00   1.81207061   0.00932255
6120.00   1.79825819   0.00912821
6122.00   1.77284265   0.00883399
6124.00   1.76282001   0.00865639
6126.00   1.77192128   0.00864363
6128.00   1.78681171   0.00866549
6130.00   1.79752958   0.00858331
6132.00   1.81000078   0.00843090
6134.00   1.81025743   0.00848843
6136.00   1.79502797   0.00875854
6138.00   1.78920591   0.00892935
6140.00   1.79091418   0.00909581
6142.00   1.79396999   0.00917024
6144.00   1.79631650   0.00903163
6146.00   1.79902518   0.00873987
6148.00   1.79539108   0.00875668
6150.00   1.78031242   0.00909240
6152.00   1.77829719   0.00918082
6154.00   1.78888965   0.00915165
6156.00   1.79702592   0.00904966
6158.00   1.79809511   0.00883431
6160.00   1.79517674   0.00855463
6162.00   1.78724897   0.00847432
6164.00   1.76660776   0.00860739
6166.00   1.76270974   0.00856591
6168.00   1.77306473   0.00843617
6170.00   1.77987778   0.00829781
6172.00   1.77835727   0.00806952
6174.00   1.77562416   0.00789677
6176.00   1.78137994   0.00815801
6178.00   1.79652572   0.00889398
6180.00   1.79760611   0.00902279
6182.00   1.78605986   0.00878584
6184.00   1.77938795   0.00852472
6186.00   1.77893662   0.00807299
6188.00   1.77942681   0.00770991
6190.00   1.77625501   0.00794190
6192.00   1.77060699   0.00865170
6194.00   1.76953745   0.00877551
6196.00   1.77269912   0.00847959
6198.00   1.77397585   0.00838525
6200.00   1.77288163   0.00847081
6202.00   1.77286315   0.00856282
6204.00   1.77838242   0.00857917
6206.00   1.78758633   0.00856391
6208.00   1.78131640   0.00844905
6210.00   1.75434029   0.00811055
6212.00   1.74523699   0.00801278
6214.00   1.74886012   0.00817360
6216.00   1.75498068   0.00827750
6218.00   1.75852764   0.00814656
6220.00   1.76350522   0.00792454
6222.00   1.77853131   0.00799446
6224.00   1.81461155   0.00839204
6226.00   1.82281089   0.00849389
6228.00   1.80770159   0.00835724
6230.00   1.79683208   0.00835215
6232.00   1.79775417   0.00865897
6234.00   1.80105770   0.00900504
6236.00   1.79513741   0.00894051
6238.00   1.78027976   0.00847519
6240.00   1.77576840   0.00835396
6242.00   1.78274369   0.00840423
6244.00   1.78035069   0.00847855
6246.00   1.76333261   0.00856413
6248.00   1.74415588   0.00869737
6250.00   1.73650122   0.00894592
6252.00   1.73533523   0.00935894
6254.00   1.73452175   0.00931926
6256.00   1.73759043   0.00881899
6258.00   1.73977101   0.00848069
6260.00   1.74138939   0.00821035
6262.00   1.74322009   0.00805498
6264.00   1.74680734   0.00812375
6266.00   1.75189662   0.00837622
6268.00   1.74769258   0.00851707
6270.00   1.72954845   0.00877010
6272.00   1.72432017   0.00873992
6274.00   1.72858536   0.00826961
6276.00   1.73610008   0.00795396
6278.00   1.74765050   0.00823737
6280.00   1.76155579   0.00878441
6282.00   1.75884771   0.00878051
6284.00   1.73790431   0.00828082
6286.00   1.72718108   0.00809803
6288.00   1.71732950   0.00794216
6290.00   1.71157122   0.00799139
6292.00   1.70999718   0.00834006
6294.00   1.71295500   0.00883498
6296.00   1.72397459   0.00924311
6298.00   1.75094438   0.00980727
6300.00   1.75507653   0.00989052
6302.00   1.74167061   0.00956914
6304.00   1.72978735   0.00921821
6306.00   1.71712220   0.00879602
6308.00   1.70748949   0.00835442
6310.00   1.71142113   0.00808074
6312.00   1.72818744   0.00792829
6314.00   1.73487127   0.00780023
6316.00   1.73793793   0.00773435
6318.00   1.74003077   0.00772382
6320.00   1.74144661   0.00776414
6322.00   1.74081850   0.00786723
6324.00   1.73807788   0.00804235
6326.00   1.73392773   0.00828045
6328.00   1.71883869   0.00856407
6330.00   1.68046451   0.00905761
6332.00   1.66849864   0.00923043
6334.00   1.67891026   0.00919507
6336.00   1.69682050   0.00897414
6338.00   1.72023571   0.00844297
6340.00   1.74917781   0.00763671
6342.00   1.75372279   0.00736036
6344.00   1.73227692   0.00750775
6346.00   1.72557652   0.00763822
6348.00   1.72289908   0.00803593
6350.00   1.72327006   0.00823643
6352.00   1.72723973   0.00801924
6354.00   1.73391902   0.00762970
6356.00   1.74086952   0.00763846
6358.00   1.75933909   0.00792880
6360.00   1.74878895   0.00811890
6362.00   1.70468700   0.00841197
6364.00   1.67515981   0.00855234
6366.00   1.66264915   0.00850122
6368.00   1.66325593   0.00834040
6370.00   1.68310869   0.00812305
6372.00   1.72538829   0.00771630
6374.00   1.75855529   0.00768521
6376.00   1.80099797   0.00808727
6378.00   1.82735109   0.00821879
6380.00   1.83508432   0.00801133
6382.00   1.83504295   0.00777716
6384.00   1.83606362   0.00781188
6386.00   1.83438826   0.00800695
6388.00   1.82678032   0.00808658
6390.00   1.81236970   0.00825541
6392.00   1.79730713   0.00815920
6394.00   1.77275515   0.00763189
6396.00   1.75749338   0.00718565
6398.00   1.76781261   0.00725450
6400.00   1.79454017   0.00761364
6402.00   1.80029881   0.00771358
6404.00   1.80471838   0.00765586
6406.00   1.78618634   0.00775541
6408.00   1.72534955   0.00787635
6410.00   1.68802083   0.00815221
6412.00   1.70599473   0.00873962
6414.00   1.74994802   0.00939853
6416.00   1.76324499   0.00953813
6418.00   1.75824499   0.00918607
6420.00   1.76736474   0.00916149
6422.00   1.78472543   0.00941003
6424.00   1.79945147   0.00939335
6426.00   1.81230938   0.00885805
6428.00   1.82128525   0.00816650
6430.00   1.81788933   0.00806484
6432.00   1.79866016   0.00846687
6434.00   1.79814589   0.00844199
6436.00   1.81244648   0.00815973
6438.00   1.82091749   0.00797663
6440.00   1.82545352   0.00791368
6442.00   1.82524490   0.00788530
6444.00   1.81563306   0.00783135
6446.00   1.79656100   0.00777476
6448.00   1.78659523   0.00774947
6450.00   1.77771676   0.00773431
6452.00   1.77596116   0.00776171
6454.00   1.78336644   0.00789219
6456.00   1.79271984   0.00796671
6458.00   1.79974329   0.00785061
6460.00   1.80667531   0.00760435
6462.00   1.81137192   0.00750321
6464.00   1.81535101   0.00748617
6466.00   1.81607044   0.00745311
6468.00   1.80996585   0.00741637
6470.00   1.80788410   0.00740703
6472.00   1.81744564   0.00745110
6474.00   1.83176160   0.00752296
6476.00   1.83102334   0.00754031
6478.00   1.81644511   0.00754339
6480.00   1.80926085   0.00749812
6482.00   1.80100083   0.00736005
6484.00   1.79766238   0.00727750
6486.00   1.80332816   0.00729827
6488.00   1.81173432   0.00736066
6490.00   1.81081343   0.00738230
6492.00   1.80300605   0.00738714
6494.00   1.79904270   0.00741545
6496.00   1.79520106   0.00745954
6498.00   1.79264510   0.00750468
6500.00   1.78986394   0.00757391
6502.00   1.78983116   0.00762131
6504.00   1.79810965   0.00754420
6506.00   1.81546569   0.00729757
6508.00   1.81850660   0.00751820
6510.00   1.81253064   0.00824124
6512.00   1.80462885   0.00861807
6514.00   1.78830576   0.00876978
6516.00   1.77628374   0.00878436
6518.00   1.78022432   0.00865250
6520.00   1.79495990   0.00836153
6522.00   1.80509126   0.00817759
6524.00   1.82119918   0.00804039
6526.00   1.82603192   0.00785727
6528.00   1.82109594   0.00760157
6530.00   1.81239653   0.00738608
6532.00   1.79967773   0.00723558
6534.00   1.78417432   0.00715355
6536.00   1.78103018   0.00731460
6538.00   1.79398990   0.00781592
6540.00   1.79193127   0.00806225
6542.00   1.78263152   0.00819322
6544.00   1.76960433   0.00833156
6546.00   1.75133812   0.00855149
6548.00   1.73070049   0.00874788
6550.00   1.71615338   0.00871458
6552.00   1.70004272   0.00849434
6554.00   1.70106375   0.00824229
6556.00   1.71704888   0.00774909
6558.00   1.73760772   0.00744556
6560.00   1.76899648   0.00746129
6562.00   1.79940033   0.00757032
6564.00   1.80863583   0.00751174
6566.00   1.80160904   0.00736138
6568.00   1.80167449   0.00733271
6570.00   1.80184340   0.00736425
6572.00   1.80056989   0.00743749
6574.00   1.79920173   0.00762812
6576.00   1.79511833   0.00776387
6578.00   1.78401029   0.00768020
6580.00   1.76670623   0.00743690
6582.00   1.76251316   0.00728848
6584.00   1.76689923   0.00711892
6586.00   1.77353919   0.00702843
6588.00   1.78747702   0.00696368
6590.00   1.79936206   0.00701428
6592.00   1.80395842   0.00726688
6594.00   1.80442321   0.00764137
6596.00   1.80415225   0.00785911
6598.00   1.80314159   0.00805064
6600.00   1.79735839   0.00813821
6602.00   1.77858102   0.00812393
6604.00   1.77200770   0.00807106
6606.00   1.79145658   0.00800738
6608.00   1.82082164   0.00790098
6610.00   1.82612407   0.00768354
6612.00   1.81514525   0.00726694
6614.00   1.80851567   0.00706217
6616.00   1.79329205   0.00696644
6618.00   1.78863502   0.00695096
6620.00   1.79107070   0.00683105
6622.00   1.80717182   0.00695850
6624.00   1.85428965   0.00797259
6626.00   1.93353486   0.00976024
6628.00   1.99766254   0.01009573
6630.00   2.07458615   0.00891887
6632.00   2.12520432   0.00895652
6634.00   2.12418723   0.01060099
6636.00   2.13611937   0.01207207
6638.00   2.20196986   0.01223370
6640.00   2.28594708   0.01152710
6642.00   2.58138108   0.01258454
6644.00   3.23836517   0.01524227
6646.00   3.57650518   0.01638926
6648.00   3.71932650   0.01670406
6650.00   3.67811704   0.01656454
6652.00   3.38577485   0.01600963
6654.00   2.88588881   0.01497281
6656.00   2.56938648   0.01390552
6658.00   2.19257045   0.01180084
6660.00   2.10752559   0.01119927
6662.00   2.34876513   0.01222684
6664.00   2.58065104   0.01317959
6666.00   2.71178150   0.01364551
6668.00   2.80376935   0.01400318
6670.00   2.82543802   0.01444537
6672.00   2.80620933   0.01552428
6674.00   2.67937160   0.01488188
6676.00   2.38669610   0.01193084
6678.00   2.15003943   0.00930557
6680.00   1.99201834   0.00831495
6682.00   1.88236856   0.00818554
6684.00   1.82980919   0.00776304
6686.00   1.85071659   0.00760277
6688.00   1.84258246   0.00744883
6690.00   1.83697116   0.00747515
6692.00   1.83579147   0.00742899
6694.00   1.84142399   0.00726145
6696.00   1.84845757   0.00711468
6698.00   1.85130751   0.00712692
6700.00   1.85259438   0.00723967
6702.00   1.85132158   0.00742955
6704.00   1.84806073   0.00777108
6706.00   1.84204674   0.00802383
6708.00   1.82692790   0.00832599
6710.00   1.81823766   0.00845744
6712.00   1.83045840   0.00820716
6714.00   1.85631979   0.00765753
6716.00   1.86044729   0.00737206
6718.00   1.85061502   0.00714880
6720.00   1.84155500   0.00705611
6722.00   1.82430005   0.00716122
6724.00   1.81283379   0.00726056
6726.00   1.81442654   0.00727607
6728.00   1.82300735   0.00726636
6730.00   1.82671678   0.00728452
6732.00   1.82861733   0.00734258
6734.00   1.83336580   0.00732780
6736.00   1.84649968   0.00724604
6738.00   1.84867156   0.00717347
6740.00   1.83217740   0.00685191
6742.00   1.80844223   0.00672678
6744.00   1.79479146   0.00783960
6746.00   1.78192043   0.00986866
6748.00   1.78124774   0.01078057
6750.00   1.79792178   0.01175188
6752.00   1.80622673   0.01171785
6754.00   1.79691994   0.01001382
6756.00   1.79209244   0.00761602
6758.00   1.82091415   0.00671534
6760.00   1.88045251   0.00681235
6762.00   1.89527106   0.00786958
6764.00   1.87278914   0.01059720
6766.00   1.86619771   0.01155130
6768.00   1.86696732   0.01128190
6770.00   1.87640584   0.01057114
6772.00   1.90367436   0.00972849
6774.00   1.94580925   0.00845134
6776.00   1.95374632   0.00781132
6778.00   1.93451786   0.00779846
6780.00   1.91982579   0.00763148
6782.00   1.90068996   0.00747050
6784.00   1.88156152   0.00737773
6786.00   1.86215580   0.00736568
6788.00   1.84376538   0.00743095
6790.00   1.84057486   0.00760022
6792.00   1.83215034   0.00804309
6794.00   1.87022221   0.00812247
6796.00   1.95299411   0.00754796
6798.00   2.04339218   0.00765537
6800.00   2.15089250   0.00885574
6802.00   2.25546217   0.01034232
6804.00   2.28981614   0.01143585
6806.00   2.26506042   0.01271890
6808.00   2.24713349   0.01307232
6810.00   2.20667887   0.01285189
6812.00   2.17014527   0.01225410
6814.00   2.13908100   0.01079879
6816.00   2.10871410   0.00908809
6818.00   2.07715797   0.00875817
6820.00   2.04619384   0.00964661
6822.00   2.00934672   0.00947510
6824.00   1.96818507   0.00850803
6826.00   1.92429185   0.00808202
6828.00   1.87034392   0.00837524
6830.00   1.82258618   0.00872156
6832.00   1.79429078   0.00867873
6834.00   1.77895856   0.00845370
6836.00   1.77811313   0.00823877
6838.00   1.80246282   0.00774054
6840.00   1.81592870   0.00767003
6842.00   1.82681215   0.00811705
6844.00   1.83340764   0.00848046
6846.00   1.83485591   0.00850808
6848.00   1.83147395   0.00837079
6850.00   1.81970692   0.00821542
6852.00   1.79119205   0.00789482
6854.00   1.77822924   0.00770389
6856.00   1.77297759   0.00743072
6858.00   1.77213705   0.00744022
6860.00   1.77403295   0.00794764
6862.00   1.78068566   0.00862679
6864.00   1.79644680   0.00890188
6866.00   1.82245040   0.00852506
6868.00   1.84730518   0.00950100
6870.00   1.89875662   0.01216554
6872.00   1.90684485   0.01298413
6874.00   1.84241569   0.01137844
6876.00   1.76216149   0.00864999
6878.00   1.74379718   0.00775955
6880.00   1.76376343   0.00826388
6882.00   1.77021241   0.00805741
6884.00   1.78244376   0.00771758
6886.00   1.79197693   0.00751623
6888.00   1.79944754   0.00747624
6890.00   1.80547965   0.00750645
6892.00   1.81092048   0.00755556
6894.00   1.81615257   0.00765886
6896.00   1.81152511   0.00766421
6898.00   1.79136527   0.00759620
6900.00   1.78397894   0.00753891
6902.00   1.78686166   0.00743475
6904.00   1.79269433   0.00738482
6906.00   1.79963148   0.00747681
6908.00   1.80844736   0.00765437
6910.00   1.80931294   0.00771976
6912.00   1.80246389   0.00774260
6914.00   1.79863048   0.00772956
6916.00   1.79424381   0.00764920
6918.00   1.79123163   0.00757956
6920.00   1.79187858   0.00755743
6922.00   1.79340112   0.00754751
6924.00   1.78749287   0.00748406
6926.00   1.77160466   0.00737623
6928.00   1.76742220   0.00727918
6930.00   1.77129328   0.00712503
6932.00   1.77499008   0.00705818
6934.00   1.78125060   0.00709238
6936.00   1.78478360   0.00721096
6938.00   1.77179956   0.00743654
6940.00   1.73892701   0.00781771
6942.00   1.73371148   0.00798861
6944.00   1.75436115   0.00801223
6946.00   1.76128805   0.00807451
6948.00   1.75277889   0.00811174
6950.00   1.73985600   0.00822578
6952.00   1.72617769   0.00854020
6954.00   1.70515847   0.00898838
6956.00   1.72460186   0.00947524
6958.00   1.80121219   0.01049716
6960.00   1.83270514   0.01054218
6962.00   1.82350814   0.00933947
6964.00   1.80605268   0.00803022
6966.00   1.79704118   0.00773691
6968.00   1.78765464   0.00802608
6970.00   1.77780700   0.00799791
6972.00   1.75915861   0.00803488
6974.00   1.75923181   0.00790769
6976.00   1.78194892   0.00754401
6978.00   1.79901004   0.00725580
6980.00   1.79593527   0.00716206
6982.00   1.78552127   0.00720018
6984.00   1.79452837   0.00739520
6986.00   1.82210004   0.00777726
6988.00   1.83556068   0.00814530
6990.00   1.84973562   0.00880828
6992.00   1.85044181   0.00903970
6994.00   1.82828546   0.00849407
6996.00   1.79846132   0.00770323
6998.00   1.78807735   0.00787536
7000.00   1.78893852   0.00892829
7002.00   1.78833985   0.00886711
7004.00   1.79286361   0.00781753
7006.00   1.79473627   0.00717208
7008.00   1.79157782   0.00702597
7010.00   1.78937256   0.00722520
7012.00   1.79601777   0.00782378
7014.00   1.81096005   0.00884734
7016.00   1.81069279   0.00915451
7018.00   1.79771090   0.00915600
7020.00   1.78814268   0.00891546
7022.00   1.77667987   0.00817729
7024.00   1.76992702   0.00739923
7026.00   1.77614844   0.00706024
7028.00   1.79180086   0.00699104
7030.00   1.79247034   0.00688935
7032.00   1.77623940   0.00687682
7034.00   1.77665937   0.00691226
7036.00   1.79331541   0.00696077
7038.00   1.80712152   0.00713342
7040.00   1.81113207   0.00757990
7042.00   1.80963826   0.00811259
7044.00   1.80156398   0.00812928
7046.00   1.77617264   0.00750457
7048.00   1.77160954   0.00745248
7050.00   1.78186595   0.00765215
7052.00   1.79232943   0.00800917
7054.00   1.80407929   0.00871479
7056.00   1.81361032   0.00937323
7058.00   1.80564892   0.00916728
7060.00   1.77843654   0.00800172
7062.00   1.76644444   0.00758405
7064.00   1.76150656   0.00751828
7066.00   1.75637341   0.00758873
7068.00   1.74736369   0.00796025
7070.00   1.74245489   0.00829340
7072.00   1.75257015   0.00808079
7074.00   1.77600014   0.00734323
7076.00   1.79219866   0.00728053
7078.00   1.81411350   0.00780420
7080.00   1.82228541   0.00802672
7082.00   1.81279838   0.00802503
7084.00   1.80069828   0.00793862
7086.00   1.79813564   0.00780781
7088.00   1.79978609   0.00759847
7090.00   1.79376900   0.00751270
7092.00   1.77577329   0.00754930
7094.00   1.77268744   0.00750136
7096.00   1.78483796   0.00737245
7098.00   1.79670525   0.00726296
7100.00   1.80205870   0.00723779
7102.00   1.80444670   0.00725319
7104.00   1.80147016   0.00718884
7106.00   1.78629422   0.00701538
7108.00   1.78478980   0.00697156
7110.00   1.79714966   0.00697032
7112.00   1.80280709   0.00706817
7114.00   1.79464149   0.00722520
7116.00   1.78045523   0.00749931
7118.00   1.77060664   0.00811265
7120.00   1.75503278   0.00936384
7122.00   1.75892472   0.00937461
7124.00   1.78278804   0.00819381
7126.00   1.80289090   0.00730674
7128.00   1.82030737   0.00700941
7130.00   1.83359838   0.00698425
7132.00   1.83565819   0.00702327
7134.00   1.82842767   0.00723591
7136.00   1.81820703   0.00747670
7138.00   1.79332626   0.00799815
7140.00   1.78321171   0.00813952
7142.00   1.78961658   0.00769083
7144.00   1.80110610   0.00730359
7146.00   1.80995917   0.00760187
7148.00   1.82014453   0.00826733
7150.00   1.82724750   0.00915876
7152.00   1.84055316   0.01053726
7154.00   1.83515513   0.01139407
7156.00   1.80127215   0.01213905
7158.00   1.77539647   0.01248411
7160.00   1.78128922   0.01208523
7162.00   1.80447912   0.01114373
7164.00   1.80968833   0.01104901
7166.00   1.80523109   0.01192061
7168.00   1.80501747   0.01178429
7170.00   1.80458319   0.01073133
7172.00   1.80584490   0.00981382
7174.00   1.81020308   0.00959424
7176.00   1.81604052   0.00964296
7178.00   1.81943274   0.00920960
7180.00   1.82098794   0.00827733
7182.00   1.82410800   0.00782995
7184.00   1.83068919   0.00769172
7186.00   1.83237946   0.00766250
7188.00   1.82825780   0.00760185
7190.00   1.81984782   0.00776779
7192.00   1.80615997   0.00863867
7194.00   1.78148317   0.01028364
7196.00   1.77905250   0.01037268
7198.00   1.80422795   0.00904270
7200.00   1.80924034   0.00820264
7202.00   1.79039860   0.00797116
7204.00   1.76529193   0.00800100
7206.00   1.74616241   0.00813261
7208.00   1.72604418   0.00846330
7210.00   1.71906972   0.00865421
7212.00   1.72066724   0.00899710
7214.00   1.73049271   0.00893430
7216.00   1.75669169   0.00824034
7218.00   1.77964926   0.00763628
7220.00   1.78480804   0.00777877
7222.00   1.78007925   0.00832758
7224.00   1.78649187   0.00840042
7226.00   1.80471575   0.00822131
7228.00   1.80832243   0.00809639
7230.00   1.80275702   0.00777597
7232.00   1.79135501   0.00770726
7234.00   1.77129269   0.00817672
7236.00   1.74676299   0.00885440
7238.00   1.73677039   0.00910319
7240.00   1.74290991   0.00897932
7242.00   1.73343146   0.00924917
7244.00   1.71375906   0.00981581
7246.00   1.69541466   0.01024327
7248.00   1.67094505   0.01064077
7250.00   1.65426517   0.01082870
7252.00   1.68046260   0.01025940
7254.00   1.75604117   0.00864629
7256.00   1.77919412   0.00782682
7258.00   1.76767290   0.00744735
7260.00   1.76339209   0.00721143
7262.00   1.76472342   0.00718407
7264.00   1.76898062   0.00731668
7266.00   1.77985418   0.00751304
7268.00   1.79869223   0.00782028
7270.00   1.80032861   0.00811241
7272.00   1.79139471   0.00850871
7274.00   1.77691555   0.00875218
7276.00   1.75226521   0.00871125
7278.00   1.72649956   0.00882654
7280.00   1.70407915   0.00954106
7282.00   1.68242693   0.01055933
7284.00   1.67662859   0.01059337
7286.00   1.69120705   0.00952051
7288.00   1.69441450   0.00925135
7290.00   1.69093907   0.00951517
7292.00   1.68818462   0.00992390
7294.00   1.68578815   0.01056779
7296.00   1.68543398   0.01124133
7298.00   1.70280397   0.01084948
7300.00   1.74633682   0.00886617
7302.00   1.76675129   0.00808348
7304.00   1.77718627   0.00780390
7306.00   1.78178298   0.00813153
7308.00   1.77693188   0.00938558
7310.00   1.76909840   0.01072784
7312.00   1.77669811   0.01092514
7314.00   1.80688047   0.01010657
7316.00   1.79414296   0.01036946
7318.00   1.72664976   0.01160229
7320.00   1.69880545   0.01207955
7322.00   1.72062612   0.01169034
7324.00   1.76299763   0.01095583
7326.00   1.80754077   0.01031223
7328.00   1.87384379   0.00940440
7330.00   1.87854719   0.00925166
7332.00   1.81388557   0.01011094
7334.00   1.78727233   0.01026489
7336.00   1.79489934   0.00957523
7338.00   1.81057072   0.00892287
7340.00   1.82284904   0.00922419
7342.00   1.83858001   0.01008068
7344.00   1.83032453   0.00990152
7346.00   1.78461874   0.00858947
7348.00   1.77517855   0.00806093
7350.00   1.80298865   0.00786299
7352.00   1.82415330   0.00830498
7354.00   1.81393290   0.00987657
7356.00   1.78985238   0.01172347
7358.00   1.79136527   0.01172701
7360.00   1.81916869   0.00984867
7362.00   1.82296240   0.00898303
7364.00   1.81391847   0.00813147
7366.00   1.80118060   0.00797670
7368.00   1.78613031   0.00900283
7370.00   1.76790082   0.01037591
7372.00   1.74728596   0.01099069
7374.00   1.71233821   0.01159280
7376.00   1.71222687   0.01125119
7378.00   1.74649262   0.00946538
7380.00   1.77272666   0.00809144
7382.00   1.79070294   0.00767490
7384.00   1.80259728   0.00768176
7386.00   1.80185485   0.00758738
7388.00   1.78563190   0.00764405
7390.00   1.78907728   0.00769502
7392.00   1.81079340   0.00783383
7394.00   1.82064664   0.00792377
7396.00   1.81986737   0.00796047
7398.00   1.81383383   0.00799411
7400.00   1.80423725   0.00808768
7402.00   1.78962767   0.00822908
7404.00   1.77950633   0.00813370
7406.00   1.76790583   0.00770463
7408.00   1.76369870   0.00753200
7410.00   1.76826453   0.00754546
7412.00   1.77366674   0.00765015
7414.00   1.77500606   0.00787240
7416.00   1.77535295   0.00817034
7418.00   1.78181839   0.00814251
7420.00   1.79607916   0.00775871
7422.00   1.80409944   0.00759082
7424.00   1.81100774   0.00748322
7426.00   1.81334102   0.00744927
7428.00   1.80859625   0.00752944
7430.00   1.79978728   0.00766706
7432.00   1.79418063   0.00770622
7434.00   1.79123306   0.00770323
7436.00   1.78218234   0.00767420
7438.00   1.76342082   0.00747463
7440.00   1.75290287   0.00750269
7442.00   1.75537729   0.00797299
7444.00   1.76209176   0.00844705
7446.00   1.76244390   0.00835553
7448.00   1.76055026   0.00780337
7450.00   1.75785625   0.00751184
7452.00   1.75294745   0.00718893
7454.00   1.74871337   0.00704518
7456.00   1.74219632   0.00715792
7458.00   1.73925626   0.00733260
7460.00   1.74728155   0.00736601
7462.00   1.76427448   0.00731531
7464.00   1.77473330   0.00759907
7466.00   1.78724492   0.00829547
7468.00   1.79092693   0.00861932
7470.00   1.78455770   0.00867284
7472.00   1.77603793   0.00864133
7474.00   1.76832533   0.00858121
7476.00   1.75994039   0.00846306
7478.00   1.76001441   0.00847422
7480.00   1.77284455   0.00869995
7482.00   1.77363932   0.00864042
7484.00   1.76417232   0.00832432
7486.00   1.75670242   0.00799679
7488.00   1.75442564   0.00772041
7490.00   1.75534081   0.00746664
7492.00   1.76184046   0.00733983
7494.00   1.77984190   0.00732752
7496.00   1.78398871   0.00736084
7498.00   1.77699435   0.00753613
7500.00   1.77272737   0.00763512
7502.00   1.77372468   0.00757890
7504.00   1.77621436   0.00750199
7506.00   1.77745843   0.00762190
7508.00   1.78091812   0.00793004
7510.00   1.77465904   0.00799494
7512.00   1.75570369   0.00787929
7514.00   1.74411833   0.00781225
7516.00   1.74030972   0.00774249
7518.00   1.74018633   0.00774448
7520.00   1.74180901   0.00796910
7522.00   1.74664652   0.00839505
7524.00   1.74937260   0.00848222
7526.00   1.75002694   0.00834019
7528.00   1.75396740   0.00820823
7530.00   1.76419759   0.00801896
7532.00   1.77142155   0.00783207
7534.00   1.76768684   0.00767129
7536.00   1.75691009   0.00752303
7538.00   1.75539923   0.00761836
7540.00   1.75767887   0.00810461
7542.00   1.76320279   0.00821053
7544.00   1.77408218   0.00798641
7546.00   1.78516710   0.00780900
7548.00   1.79566526   0.00784082
7550.00   1.80552363   0.00796686
7552.00   1.80902338   0.00807125
7554.00   1.80566704   0.00829027
7556.00   1.80462027   0.00828965
7558.00   1.79995978   0.00805380
7560.00   1.80058873   0.00790109
7562.00   1.81255138   0.00791629
7564.00   1.82647681   0.00799788
7566.00   1.82449746   0.00804522
7568.00   1.81019199   0.00812291
7570.00   1.79981256   0.00811536
7572.00   1.78168011   0.00797467
7574.00   1.77536607   0.00794710
7576.00   1.78228247   0.00804273
7578.00   1.79743087   0.00821358
7580.00   1.81963313   0.00844810
7582.00   1.85398555   0.00877063
7584.00   1.86626351   0.00898082
7586.00   1.85624826   0.00902713
7588.00   1.85907412   0.00928705
7590.00   1.87083244   0.00956619
7592.00   1.88864338   0.01014541
7594.00   1.91847312   0.01124553
7596.00   1.95942652   0.01263367
7598.00   1.95596302   0.01377912
7600.00   1.90943897   0.01519599
7602.00   1.87695408   0.01588193
7604.00   1.82585835   0.01571253
7606.00   1.80666637   0.01581717
7608.00   1.86163795   0.01709266
7610.00   1.95612919   0.01864689
7612.00   1.97187483   0.01806011
7614.00   1.93278408   0.01484045
7616.00   1.90276849   0.01286553
7618.00   1.84246051   0.01079640
7620.00   1.80860376   0.00944557
7622.00   1.82535052   0.00968515
7624.00   1.86188865   0.01077263
7626.00   1.86500216   0.01127477
7628.00   1.84758890   0.01175524
7630.00   1.84315228   0.01222267
7632.00   1.84403539   0.01278346
7634.00   1.84255135   0.01312772
7636.00   1.83862662   0.01334968
7638.00   1.83282936   0.01331940
7640.00   1.82370102   0.01270610
7642.00   1.80946887   0.01135838
7644.00   1.80565119   0.01058280
7646.00   1.81169033   0.00987821
7648.00   1.81401324   0.00967717
7650.00   1.81292880   0.01035767
7652.00   1.81161487   0.01096094
7654.00   1.81214285   0.01073247
7656.00   1.81366801   0.00996602
7658.00   1.81374431   0.00966112
7660.00   1.81433141   0.00951994
7662.00   1.81178927   0.00948071
7664.00   1.80344677   0.00976518
7666.00   1.79789948   0.00985232
7668.00   1.80005527   0.00936875
7670.00   1.80683398   0.00850707
7672.00   1.81303132   0.00812550
7674.00   1.82850468   0.00800709
7676.00   1.82647705   0.00799938
7678.00   1.80737090   0.00822958
7680.00   1.79016125   0.00846808
7682.00   1.77907610   0.00866868
7684.00   1.77093732   0.00886643
7686.00   1.76748359   0.00904458
7688.00   1.77230632   0.00926499
7690.00   1.76828647   0.00931018
7692.00   1.75788939   0.00921517
7694.00   1.74900472   0.00907633
7696.00   1.73916924   0.00885305
7698.00   1.73302269   0.00861394
7700.00   1.74079287   0.00849334
7702.00   1.76179302   0.00840632
7704.00   1.77552104   0.00854873
7706.00   1.79003751   0.00879981
7708.00   1.80065930   0.00929805
7710.00   1.81395912   0.01024496
7712.00   1.81649435   0.01102997
7714.00   1.78968191   0.01115762
7716.00   1.73719430   0.01084565
7718.00   1.71775115   0.01086481
7720.00   1.71554482   0.01128473
7722.00   1.71861339   0.01106618
7724.00   1.73580050   0.00996186
7726.00   1.75097859   0.00886859
7728.00   1.75114918   0.00854766
7730.00   1.74398255   0.00868891
7732.00   1.75569427   0.00875515
7734.00   1.79847848   0.00919903
7736.00   1.80132687   0.00913398
7738.00   1.76389575   0.00839467
7740.00   1.73670399   0.00798959
7742.00   1.74024963   0.00846705
7744.00   1.75577903   0.00928539
7746.00   1.75434649   0.00965924
7748.00   1.74678028   0.00994345
7750.00   1.73320484   0.01002606
7752.00   1.70445251   0.00979250
7754.00   1.68642700   0.00968159
7756.00   1.68648386   0.00988031
7758.00   1.69239235   0.01007177
7760.00   1.68811369   0.00977980
7762.00   1.67798281   0.00901412
7764.00   1.67334175   0.00855152
7766.00   1.66748703   0.00805342
7768.00   1.66981590   0.00785136
7770.00   1.68233967   0.00805420
7772.00   1.69909465   0.00840582
7774.00   1.71550572   0.00870007
7776.00   1.73473942   0.00904785
7778.00   1.74647486   0.00924425
7780.00   1.75056529   0.00939205
7782.00   1.75816000   0.00940766
7784.00   1.77315772   0.00921432
7786.00   1.78159881   0.00902887
7788.00   1.77404320   0.00901547
7790.00   1.75539672   0.00909184
7792.00   1.73342216   0.00909440
7794.00   1.69716763   0.00908949
7796.00   1.67373776   0.00904586
7798.00   1.65446258   0.00892254
7800.00   1.64452469   0.00884456
7802.00   1.64981782   0.00890827
7804.00   1.66420352   0.00902021
7806.00   1.66726673   0.00891285
7808.00   1.66246021   0.00852611
7810.00   1.66439700   0.00840561
7812.00   1.66916955   0.00835261
7814.00   1.67550814   0.00848624
7816.00   1.68544483   0.00894116
7818.00   1.69537306   0.00945262
7820.00   1.69754398   0.00958179
7822.00   1.69649065   0.00944159
7824.00   1.68532455   0.00941475
7826.00   1.64927387   0.00942946
7828.00   1.63841116   0.00934553
7830.00   1.66309762   0.00906386
7832.00   1.69573867   0.00879338
7834.00   1.70864522   0.00881950
7836.00   1.71275961   0.00906641
7838.00   1.71752238   0.00916962
7840.00   1.71923089   0.00923558
7842.00   1.71983528   0.00930665
7844.00   1.72299218   0.00894445
7846.00   1.71942520   0.00916728
7848.00   1.69561744   0.01103249
7850.00   1.65657425   0.01356302
7852.00   1.66104150   0.01375685
7854.00   1.71950352   0.01191942
7856.00   1.73242664   0.01089508
7858.00   1.70530522   0.01000991
7860.00   1.68289769   0.00949196
7862.00   1.68537056   0.00975276
7864.00   1.69863117   0.01044144
7866.00   1.70401311   0.01033093
7868.00   1.70662677   0.00948667
7870.00   1.71217108   0.00915593
7872.00   1.72122586   0.00906594
7874.00   1.72754717   0.00901945
7876.00   1.72956133   0.00896957
7878.00   1.72903919   0.00896773
7880.00   1.72747362   0.00906213
7882.00   1.72298229   0.00931851
7884.00   1.72127628   0.00935182
7886.00   1.72417533   0.00922236
7888.00   1.72121453   0.00910536
7890.00   1.70669043   0.00898550
7892.00   1.69273591   0.00888186
7894.00   1.69471061   0.00887389
7896.00   1.70703399   0.00898081
7898.00   1.72304070   0.00884957
7900.00   1.74793303   0.00834687
7902.00   1.77231681   0.00820272
7904.00   1.80379796   0.00840071
7906.00   1.82779980   0.00878009
7908.00   1.82906640   0.00930328
7910.00   1.81351173   0.00997931
7912.00   1.80818021   0.01035505
7914.00   1.80452573   0.01068433
7916.00   1.80058944   0.01072720
7918.00   1.79614544   0.01034205
7920.00   1.79281545   0.01001369
7922.00   1.79030812   0.01005925
7924.00   1.78913689   0.01027687
7926.00   1.79557705   0.01024404
7928.00   1.81617951   0.00999989
7930.00   1.82141495   0.00991725
7932.00   1.82037199   0.01005135
7934.00   1.81098402   0.00997239
7936.00   1.78642201   0.00941478
7938.00   1.75667083   0.00864753
7940.00   1.74905884   0.00841962
7942.00   1.75644684   0.00856248
7944.00   1.76514697   0.00875051
7946.00   1.79068184   0.00929874
7948.00   1.80030417   0.00954272
7950.00   1.78461647   0.00928010
7952.00   1.76227891   0.00894469
7954.00   1.75554585   0.00916461
7956.00   1.75460446   0.00976491
7958.00   1.76251268   0.01011258
7960.00   1.79529238   0.01043491
7962.00   1.80126131   0.01067835
7964.00   1.77398789   0.01095794
7966.00   1.74050033   0.01104537
7968.00   1.72164547   0.01065239
7970.00   1.70760155   0.00980513
7972.00   1.69896007   0.00932146
7974.00   1.69894445   0.00892188
7976.00   1.69665718   0.00870500
7978.00   1.68776906   0.00863138
7980.00   1.68822968   0.00879305
7982.00   1.70934939   0.00932474
7984.00   1.74426138   0.01007638
7986.00   1.77224839   0.01041300
7988.00   1.80950189   0.01058509
7990.00   1.82653022   0.01061036
7992.00   1.82844007   0.01040239
7994.00   1.82261860   0.01018189
7996.00   1.80773509   0.01003971
7998.00   1.78691590   0.00989351
8000.00   1.77522802   0.00961253
8002.00   1.76354373   0.00912690
8004.00   1.76512313   0.00884835
8006.00   1.79251599   0.00818867
8008.00   1.79857230   0.00850603
8010.00   1.76652575   0.01042408
8012.00   1.72577250   0.01225026
8014.00   1.71794307   0.01242086
8016.00   1.73185647   0.01139555
8018.00   1.73636317   0.01110669
8020.00   1.74928546   0.01088931
8022.00   1.74658334   0.01095825
8024.00   1.72398198   0.01168479
8026.00   1.69531441   0.01217945
8028.00   1.66943657   0.01144798
8030.00   1.63858771   0.00950761
8032.00   1.63982320   0.00894528
8034.00   1.67561150   0.00960261
8036.00   1.69956458   0.00976640
8038.00   1.72073460   0.00974861
8040.00   1.73706031   0.00955877
8042.00   1.74434185   0.00902531
8044.00   1.74482620   0.00817769
8046.00   1.74956787   0.00793445
8048.00   1.75014961   0.00809134
8050.00   1.76159739   0.00841143
8052.00   1.78797936   0.00915585
8054.00   1.80868733   0.00969084
8056.00   1.81739950   0.00984897
8058.00   1.81821811   0.00980193
8060.00   1.80888712   0.00965249
8062.00   1.77869594   0.00917713
8064.00   1.76957166   0.00901296
8066.00   1.77396119   0.00904789
8068.00   1.77784038   0.00908915
8070.00   1.77910399   0.00911351
8072.00   1.78038251   0.00914719
8074.00   1.78323281   0.00919335
8076.00   1.79037082   0.00930552
8078.00   1.78553677   0.00921546
8080.00   1.77055156   0.00886465
8082.00   1.75508153   0.00865681
8084.00   1.73178148   0.00860850
8086.00   1.71470928   0.00865145
8088.00   1.72526991   0.00877734
8090.00   1.76014745   0.00902480
8092.00   1.76909125   0.00907237
8094.00   1.76385725   0.00900086
8096.00   1.75899422   0.00889366
8098.00   1.74770546   0.00868148
8100.00   1.74063611   0.00848877
8102.00   1.74874198   0.00841527
8104.00   1.76703155   0.00841494
8106.00   1.77098668   0.00846842
8108.00   1.76334333   0.00853616
8110.00   1.76267409   0.00876265
8112.00   1.76754236   0.00926103
8114.00   1.77039433   0.00961005
8116.00   1.76719260   0.00964223
8118.00   1.76114571   0.00949977
8120.00   1.75947714   0.00938776
8122.00   1.75595915   0.00914990
8124.00   1.76296258   0.00905803
8126.00   1.78504503   0.00904851
8128.00   1.79943776   0.00908283
8130.00   1.80123091   0.00911340
8132.00   1.79590774   0.00921318
8134.00   1.78616154   0.00956918
8136.00   1.76331699   0.01034325
8138.00   1.76156676   0.01036533
8140.00   1.77754450   0.00972107
8142.00   1.79012942   0.00922268
8144.00   1.80294490   0.00891176
8146.00   1.81043446   0.00869237
8148.00   1.79914546   0.00856386
8150.00   1.76856267   0.00853559
8152.00   1.76278913   0.00859528
8154.00   1.77301681   0.00874894
8156.00   1.78245044   0.00898097
8158.00   1.79627347   0.00947947
8160.00   1.80785382   0.00978894
8162.00   1.81045973   0.00948205
8164.00   1.80711412   0.00868485
8166.00   1.80348587   0.00845413
8168.00   1.79396141   0.00857271
8170.00   1.79044211   0.00867470
8172.00   1.79062593   0.00880407
8174.00   1.79377389   0.00904358
8176.00   1.80158556   0.00946293
8178.00   1.81235421   0.00997910
8180.00   1.81489527   0.01032043
8182.00   1.81816351   0.01036934
8184.00   1.80556643   0.01088982
8186.00   1.76486576   0.01213245
8188.00   1.74238026   0.01266742
8190.00   1.75535154   0.01193911
8192.00   1.78404582   0.01063087
8194.00   1.79863620   0.01044885
8196.00   1.81448698   0.01113951
8198.00   1.81544554   0.01125746
8200.00   1.79835486   0.01130848
8202.00   1.78667319   0.01112694
8204.00   1.78282893   0.01051423
8206.00   1.78134537   0.00979419
8208.00   1.77805781   0.00958205
8210.00   1.77370250   0.00977879
8212.00   1.77450776   0.00962418
8214.00   1.78705323   0.00922445
8216.00   1.78519523   0.00896921
8218.00   1.75920630   0.00886153
8220.00   1.73774314   0.00881855
8222.00   1.74840665   0.00880350
8224.00   1.78107190   0.00884266
8226.00   1.79492462   0.00882038
8228.00   1.80936563   0.00866262
8230.00   1.80616903   0.00872895
8232.00   1.77007389   0.00875391
8234.00   1.74805689   0.00920463
8236.00   1.77338910   0.01062844
8238.00   1.82509136   0.01234627
8240.00   1.84024668   0.01224328
8242.00   1.82860756   0.00997503
8244.00   1.83203173   0.00914843
8246.00   1.84579539   0.00936914
8248.00   1.85211599   0.00954989
8250.00   1.84381795   0.00938333
8252.00   1.82812476   0.00912778
8254.00   1.81670380   0.00895862
8256.00   1.80263412   0.00881881
8258.00   1.79570198   0.00867984
8260.00   1.79752386   0.00848538
8262.00   1.79500377   0.00842327
8264.00   1.78335965   0.00844841
8266.00   1.77127111   0.00865113
8268.00   1.77104068   0.00926882
8270.00   1.77977467   0.01033914
8272.00   1.78558862   0.01071408
8274.00   1.79083550   0.01054366
8276.00   1.79975569   0.01064065
8278.00   1.82548285   0.01109184
8280.00   1.83850503   0.01151182
8282.00   1.80259776   0.01153629
8284.00   1.72681224   0.01124522
8286.00   1.69102180   0.01166430
8288.00   1.66111064   0.01299834
8290.00   1.66119897   0.01335127
8292.00   1.70874417   0.01273313
8294.00   1.75061464   0.01207362
8296.00   1.75277448   0.01204564
8298.00   1.73373342   0.01230429
8300.00   1.71915233   0.01210676
8302.00   1.68543828   0.01161480
8304.00   1.68083596   0.01109841
8306.00   1.70371735   0.01020525
8308.00   1.72582531   0.00961009
8310.00   1.74025905   0.00979701
8312.00   1.75079501   0.01035089
8314.00   1.74813724   0.01039626
8316.00   1.71680033   0.01022377
8318.00   1.72664595   0.00998789
8320.00   1.77284729   0.00951212
8322.00   1.80991209   0.00912216
8324.00   1.83630347   0.00864391
8326.00   1.85189211   0.00843473
8328.00   1.83919013   0.00941195
8330.00   1.78664362   0.01145235
8332.00   1.78702080   0.01208299
8334.00   1.83822310   0.01194724
8336.00   1.85996604   0.01191633
8338.00   1.85502601   0.01193117
8340.00   1.82970607   0.01198747
8342.00   1.77614880   0.01223494
8344.00   1.68899274   0.01268318
8346.00   1.64432764   0.01259765
8348.00   1.61479437   0.01203172
8350.00   1.60795212   0.01153943
8352.00   1.63313043   0.01100988
8354.00   1.66521823   0.01047992
8356.00   1.68709981   0.00992324
8358.00   1.70749295   0.00933753
8360.00   1.73149157   0.00944747
8362.00   1.76434302   0.01056382
8364.00   1.78314912   0.01079779
8366.00   1.78873682   0.01040372
8368.00   1.79318726   0.00997756
8370.00   1.80062211   0.00969210
8372.00   1.80844688   0.00947371
8374.00   1.81750333   0.00963855
8376.00   1.83347189   0.01037292
8378.00   1.83542550   0.01056229
8380.00   1.82965291   0.01051567
8382.00   1.81596065   0.01034280
8384.00   1.78509641   0.00990523
8386.00   1.75255859   0.00941567
8388.00   1.75484705   0.00949346
8390.00   1.78974473   0.00997829
8392.00   1.80136418   0.01047318
8394.00   1.82480657   0.01116925
8396.00   1.80772054   0.01178388
8398.00   1.72253847   0.01253570
8400.00   1.63068295   0.01302702
8402.00   1.60393143   0.01268974
8404.00   1.61249459   0.01156809
8406.00   1.64656579   0.01083499
8408.00   1.74979496   0.00983200
8410.00   1.79695833   0.00942966
8412.00   1.78861892   0.00992526
8414.00   1.76501811   0.01046824
8416.00   1.74800825   0.01047234
8418.00   1.72594309   0.01021989
8420.00   1.71897376   0.01028066
8422.00   1.72169125   0.01034153
8424.00   1.72937310   0.01077614
8426.00   1.75850809   0.01175990
8428.00   1.76977563   0.01249224
8430.00   1.73661435   0.01274816
8432.00   1.67905319   0.01271436
8434.00   1.65370452   0.01227432
8436.00   1.63201797   0.01105002
8438.00   1.64132893   0.01022074
8440.00   1.69802189   0.00924710
8442.00   1.73550820   0.00872417
8444.00   1.73635888   0.00906652
8446.00   1.71867800   0.00979684
8448.00   1.69673920   0.01012154
8450.00   1.65178084   0.01041334
8452.00   1.64011502   0.01046842
8454.00   1.64403367   0.01013105
8456.00   1.66479492   0.01004752
8458.00   1.72030950   0.01027611
8460.00   1.77531278   0.01067052
8462.00   1.77619421   0.01119485
8464.00   1.73831832   0.01196654
8466.00   1.70817602   0.01217550
8468.00   1.64704967   0.01215620
8470.00   1.62779939   0.01175936
8472.00   1.65904272   0.01060770
8474.00   1.70115650   0.00937303
8476.00   1.72654915   0.00895812
8478.00   1.74941480   0.00910695
8480.00   1.75417721   0.00909955
8482.00   1.73374712   0.00908353
8484.00   1.72763264   0.00936303
8486.00   1.73298299   0.01008626
8488.00   1.73666322   0.01063886
8490.00   1.73233068   0.01075203
8492.00   1.72378194   0.01062516
8494.00   1.71494102   0.01050542
8496.00   1.70148528   0.00987907
8498.00   1.69319069   0.01015314
8500.00   1.69135106   0.01143243
8502.00   1.68522155   0.01220093
8504.00   1.66858518   0.01216804
8506.00   1.64873421   0.01170120
8508.00   1.64114916   0.01105725
8510.00   1.63616168   0.00968075
8512.00   1.64880478   0.00906862
8514.00   1.68996119   0.00910114
8516.00   1.71530485   0.00910248
8518.00   1.71443987   0.00901571
8520.00   1.70680022   0.00894487
8522.00   1.71585548   0.00890571
8524.00   1.73636687   0.00888199
8526.00   1.74307024   0.00893197
8528.00   1.74075508   0.00909851
8530.00   1.73917770   0.00919152
8532.00   1.73965061   0.00920219
8534.00   1.73713028   0.00919639
8536.00   1.72484434   0.00921304
8538.00   1.70330954   0.00922555
8540.00   1.70209515   0.00933019
8542.00   1.72707486   0.00956461
8544.00   1.72843909   0.00969800
8546.00   1.71090758   0.00970561
8548.00   1.68573487   0.00976162
8550.00   1.65207911   0.01007245
8552.00   1.61106813   0.01049662
8554.00   1.60431516   0.01024161
8556.00   1.62496686   0.00901076
8558.00   1.64735055   0.00853772
8560.00   1.69087219   0.00862271
8562.00   1.72175825   0.00878697
8564.00   1.72589648   0.00888273
8566.00   1.71579587   0.00902222
8568.00   1.70991993   0.00926834
8570.00   1.69732940   0.00976499
8572.00   1.69312131   0.00985097
8574.00   1.69545245   0.00961291
8576.00   1.69668496   0.00939092
8578.00   1.69515109   0.00917394
8580.00   1.69346380   0.00900370
8582.00   1.69485807   0.00907202
8584.00   1.70003235   0.00933327
8586.00   1.69871163   0.00960859
8588.00   1.69132853   0.01007627
8590.00   1.68623376   0.01034329
8592.00   1.68507016   0.01045677
8594.00   1.68294418   0.01041589
8596.00   1.67392063   0.01006589
8598.00   1.65867233   0.00929004
8600.00   1.65522099   0.00948227
8602.00   1.66463614   0.01074484
8604.00   1.66497111   0.01119121
8606.00   1.65674722   0.01103658
8608.00   1.64755154   0.01069023
8610.00   1.63967788   0.01024313
8612.00   1.63179553   0.00961156
8614.00   1.63799989   0.00971986
8616.00   1.66639125   0.01043291
8618.00   1.67441702   0.01109009
8620.00   1.66520584   0.01209421
8622.00   1.65766954   0.01273701
8624.00   1.65899849   0.01278645
8626.00   1.66399169   0.01247898
8628.00   1.66840911   0.01210252
8630.00   1.68021488   0.01125926
8632.00   1.67671204   0.01088763
8634.00   1.65605009   0.01089128
8636.00   1.64226723   0.01084453
8638.00   1.64202881   0.01065201
8640.00   1.64621878   0.01042981
8642.00   1.64459538   0.01027907
8644.00   1.64732039   0.01011321
8646.00   1.62579668   0.01016180
8648.00   1.57237482   0.01025314
8650.00   1.53589833   0.01067358
8652.00   1.51956344   0.01145962
8654.00   1.51127052   0.01237751
8656.00   1.50033581   0.01338069
8658.00   1.48738778   0.01469597
8660.00   1.50308931   0.01454667
8662.00   1.55270720   0.01273376
8664.00   1.58895397   0.01149975
8666.00   1.61597097   0.01067173
8668.00   1.64049399   0.01016591
8670.00   1.66811788   0.01014896
8672.00   1.69690931   0.01059628
8674.00   1.70205307   0.01065199
8676.00   1.67695475   0.01062135
8678.00   1.67055535   0.01047276
8680.00   1.67567575   0.01009888
8682.00   1.68220353   0.00976866
8684.00   1.68638790   0.00958790
8686.00   1.69061840   0.00951214
8688.00   1.69589949   0.00966603
8690.00   1.70569706   0.01019041
8692.00   1.70705616   0.01041541
8694.00   1.70157564   0.01057591
8696.00   1.69533765   0.01059524
8698.00   1.68659973   0.01041565
8700.00   1.67895198   0.01011273
8702.00   1.68490052   0.00985227
8704.00   1.70696592   0.00951935
8706.00   1.71307552   0.00932247
8708.00   1.71290898   0.00921169
8710.00   1.70701027   0.00916732
8712.00   1.68915188   0.00915055
8714.00   1.67167568   0.00924166
8716.00   1.67364585   0.00960147
8718.00   1.69111979   0.01027040
8720.00   1.69661570   0.01035759
8722.00   1.69841301   0.01002972
8724.00   1.69822550   0.00969331
8726.00   1.69351816   0.00903999
8728.00   1.68956625   0.00861792
8730.00   1.69132745   0.00910542
8732.00   1.69668508   0.01016951
8734.00   1.70100629   0.01072255
8736.00   1.69958103   0.01105301
8738.00   1.71256745   0.01152550
8740.00   1.74639499   0.01231687
8742.00   1.77427483   0.01275797
8744.00   1.78239727   0.01248652
8746.00   1.77922666   0.01174061
8748.00   1.77360892   0.01118154
8750.00   1.74944770   0.01000980
8752.00   1.75007939   0.01007419
8754.00   1.78258562   0.01127457
8756.00   1.79499197   0.01237175
8758.00   1.76793683   0.01327104
8760.00   1.72199106   0.01404415
8762.00   1.68767595   0.01433473
8764.00   1.64954245   0.01416606
8766.00   1.62290084   0.01415915
8768.00   1.61775398   0.01367153
8770.00   1.59186792   0.01400948
8772.00   1.53289676   0.01571442
8774.00   1.46481097   0.01742096
8776.00   1.41440439   0.01781702
8778.00   1.36267126   0.01760072
8780.00   1.35537851   0.01660771
8782.00   1.38609099   0.01368613
8784.00   1.43014836   0.01159590
8786.00   1.50712645   0.01081987
8788.00   1.57947052   0.01068971
8790.00   1.60424876   0.01075789
8792.00   1.59635365   0.01132063
8794.00   1.61821830   0.01134240
8796.00   1.65972579   0.01116056
8798.00   1.68678856   0.01080826
8800.00   1.70100284   0.01000267
8802.00   1.71456373   0.00933030
8804.00   1.73689282   0.00931154
8806.00   1.76221561   0.00968525
8808.00   1.76571929   0.00976820
8810.00   1.73794293   0.00966887
8812.00   1.73930120   0.00983349
8814.00   1.75722635   0.00995049
8816.00   1.78266752   0.01050725
8818.00   1.82750249   0.01155522
8820.00   1.87388527   0.01290634
8822.00   1.85332954   0.01455511
8824.00   1.76866102   0.01705744
8826.00   1.70711339   0.01784326
8828.00   1.62834930   0.01756506
8830.00   1.57221520   0.01713952
8832.00   1.54827356   0.01632392
8834.00   1.54060507   0.01554792
8836.00   1.52902019   0.01620768
8838.00   1.51438761   0.01851332
8840.00   1.53532577   0.01786562
8842.00   1.60289121   0.01356593
8844.00   1.64744735   0.01071795
8846.00   1.67188811   0.01129612
8848.00   1.68263280   0.01248095
8850.00   1.67541599   0.01195074
8852.00   1.64696777   0.01046510
8854.00   1.64704657   0.01009923
8856.00   1.66080201   0.01043178
8858.00   1.68331301   0.01086635
8860.00   1.73466182   0.01176455
8862.00   1.76854432   0.01240848
8864.00   1.74939084   0.01234323
8866.00   1.69579494   0.01183444
8868.00   1.65766394   0.01155457
8870.00   1.59111989   0.01117459
8872.00   1.58332825   0.01100640
8874.00   1.62312222   0.01059400
8876.00   1.68301952   0.01095497
8878.00   1.77323353   0.01266149
8880.00   1.87607944   0.01475389
8882.00   1.89347255   0.01578793
8884.00   1.83673978   0.01679076
8886.00   1.79563177   0.01661402
8888.00   1.72038209   0.01478988
8890.00   1.67530322   0.01338494
8892.00   1.66879630   0.01288222
8894.00   1.69159067   0.01302946
8896.00   1.75238633   0.01408593
8898.00   1.88579762   0.01656491
8900.00   1.90907454   0.01657633
8902.00   1.84965074   0.01437357
8904.00   1.79499698   0.01274819
8906.00   1.72381747   0.01183505
8908.00   1.66928804   0.01151321
8910.00   1.69283414   0.01208703
8912.00   1.78599632   0.01350703
8914.00   1.80130517   0.01436450
8916.00   1.78049362   0.01538904
8918.00   1.74337482   0.01582528
8920.00   1.66358900   0.01583350
8922.00   1.59597313   0.01542221
8924.00   1.58341372   0.01430343
8926.00   1.60500908   0.01237377
8928.00   1.63344002   0.01171006
8930.00   1.69851315   0.01230669
8932.00   1.73375130   0.01236767
8934.00   1.74926591   0.01202430
8936.00   1.75873256   0.01202129
8938.00   1.77123606   0.01293571
8940.00   1.77899277   0.01414796
8942.00   1.75716043   0.01409890
8944.00   1.67144287   0.01254385
8946.00   1.66991949   0.01228040
8948.00   1.73814309   0.01267599
8950.00   1.79500079   0.01329499
8952.00   1.83479452   0.01424030
8954.00   1.85699189   0.01521221
8956.00   1.82288611   0.01551811
8958.00   1.71737790   0.01546519
8960.00   1.67446136   0.01510154
8962.00   1.65458333   0.01402975
8964.00   1.65253234   0.01323680
8966.00   1.67767072   0.01295528
8968.00   1.71158564   0.01277352
8970.00   1.72858751   0.01219720
8972.00   1.73966503   0.01125833
8974.00   1.74502718   0.01091825
8976.00   1.74237776   0.01100020
8978.00   1.73857915   0.01122549
8980.00   1.73164415   0.01173661
8982.00   1.72402561   0.01224833
8984.00   1.71814907   0.01254463
8986.00   1.71286952   0.01274232
8988.00   1.70750558   0.01290490
8990.00   1.69970429   0.01294590
8992.00   1.69778931   0.01308570
8994.00   1.70192695   0.01325567
8996.00   1.70717847   0.01350324
8998.00   1.71109891   0.01396584
9000.00   1.71524203   0.01450412
9002.00   1.72154498   0.01443651
9004.00   1.73413515   0.01382126
9006.00   1.73681235   0.01326563
9008.00   1.72853255   0.01241380
9010.00   1.72462976   0.01168824
9012.00   1.72923076   0.01126039
9014.00   1.73839104   0.01101735
9016.00   1.74987006   0.01081920
9018.00   1.77244663   0.01065451
9020.00   1.77345085   0.01082843
9022.00   1.75987983   0.01149691
9024.00   1.74034894   0.01188505
9026.00   1.70833743   0.01193196
9028.00   1.67622697   0.01183239
9030.00   1.66590011   0.01171968
9032.00   1.67184913   0.01149264
9034.00   1.67208242   0.01140794
9036.00   1.67379761   0.01142738
9038.00   1.67644560   0.01142448
9040.00   1.67785716   0.01137107
9042.00   1.68301547   0.01136190
9044.00   1.70051885   0.01148919
9046.00   1.72954416   0.01171837
9048.00   1.72760057   0.01188668
9050.00   1.69365084   0.01218520
9052.00   1.67637253   0.01217996
9054.00   1.66359568   0.01183509
9056.00   1.66168034   0.01143911
9058.00   1.67988718   0.01111589
9060.00   1.71204579   0.01080483
9062.00   1.72576642   0.01072909
9064.00   1.72835910   0.01093107
9066.00   1.73362851   0.01102705
9068.00   1.73597085   0.01113972
9070.00   1.74046409   0.01121670
9072.00   1.75040460   0.01124888
9074.00   1.76208258   0.01124051
9076.00   1.76675367   0.01115617
9078.00   1.76591873   0.01084008
9080.00   1.76654923   0.01093891
9082.00   1.76172340   0.01140878
9084.00   1.76516831   0.01178755
9086.00   1.78714573   0.01211459
9088.00   1.80904984   0.01232819
9090.00   1.80024934   0.01217412
9092.00   1.76729178   0.01156643
9094.00   1.74255455   0.01147997
9096.00   1.70465434   0.01175756
9098.00   1.68717802   0.01196698
9100.00   1.69919431   0.01223756
9102.00   1.71442509   0.01237723
9104.00   1.70730615   0.01210411
9106.00   1.68743145   0.01146389
9108.00   1.67581165   0.01108776
9110.00   1.65954113   0.01074732
9112.00   1.65740359   0.01053493
9114.00   1.67175329   0.01046760
9116.00   1.68875051   0.01048749
9118.00   1.70151019   0.01056073
9120.00   1.71367407   0.01070381
9122.00   1.71895945   0.01091312
9124.00   1.71349955   0.01122512
9126.00   1.71726096   0.01150426
9128.00   1.73352218   0.01192644
9130.00   1.74036098   0.01211696
9132.00   1.72603917   0.01185316
9134.00   1.70146930   0.01134593
9136.00   1.69044554   0.01118453
9138.00   1.68040383   0.01111560
9140.00   1.68494868   0.01130175
9142.00   1.71126485   0.01186275
9144.00   1.72767961   0.01227787
9146.00   1.72680926   0.01251329
9148.00   1.71940291   0.01263064
9150.00   1.71738136   0.01257859
9152.00   1.71696293   0.01230431
9154.00   1.71323371   0.01216200
9156.00   1.70708501   0.01211061
9158.00   1.70043278   0.01194665
9160.00   1.68853354   0.01157253
9162.00   1.68108118   0.01120288
9164.00   1.69066513   0.01109560
9166.00   1.71354485   0.01115918
9168.00   1.73438704   0.01128658
9170.00   1.76838624   0.01165680
9172.00   1.78376472   0.01180431
9174.00   1.77357292   0.01174665
9176.00   1.76627398   0.01163310
9178.00   1.78008103   0.01148343
9180.00   1.80570471   0.01127387
9182.00   1.84252858   0.01153443
9184.00   1.91000855   0.01223810
9186.00   1.94535494   0.01278811
9188.00   1.96660614   0.01364328
9190.00   1.96553707   0.01398102
9192.00   1.92991436   0.01323831
9194.00   1.87183833   0.01182339
9196.00   1.83791113   0.01147215
9198.00   1.81092560   0.01197445
9200.00   1.79145110   0.01210819
9202.00   1.78750622   0.01213010
9204.00   1.77638972   0.01233584
9206.00   1.74569154   0.01300059
9208.00   1.71349645   0.01365046
9210.00   1.71307337   0.01338915
9212.00   1.73499382   0.01209886
9214.00   1.76270914   0.01176527
9216.00   1.82139587   0.01205297
9218.00   1.85213435   0.01226921
9220.00   1.84832621   0.01242678
9222.00   1.82861269   0.01256798
9224.00   1.80677879   0.01267368
9226.00   1.77287996   0.01280128
9228.00   1.75523067   0.01260922
9230.00   1.74487829   0.01189031
9232.00   1.74117947   0.01157377
9234.00   1.75052261   0.01172009
9236.00   1.75835121   0.01194635
9238.00   1.75054538   0.01203070
9240.00   1.73288453   0.01209053
9242.00   1.73078895   0.01198297
9244.00   1.74360228   0.01159876
9246.00   1.74551547   0.01143117
9248.00   1.73581719   0.01135154
9250.00   1.73071337   0.01142748
9252.00   1.73993146   0.01179858
9254.00   1.75648677   0.01231793
9256.00   1.76263773   0.01237326
9258.00   1.76257920   0.01193597
9260.00   1.76371038   0.01187191
9262.00   1.76374424   0.01206756
9264.00   1.76311421   0.01215939
9266.00   1.76240623   0.01194655
9268.00   1.76077521   0.01168753
9270.00   1.75569713   0.01195790
9272.00   1.74340343   0.01280372
9274.00   1.74383688   0.01299781
9276.00   1.75402057   0.01264690
9278.00   1.76487398   0.01258665
9280.00   1.78118467   0.01299399
9282.00   1.79394746   0.01347913
9284.00   1.78707075   0.01367678
9286.00   1.76429415   0.01377547
9288.00   1.74452984   0.01363110
9290.00   1.71100736   0.01292815
9292.00   1.69645917   0.01273767
9294.00   1.68390703   0.01280608
9296.00   1.70282996   0.01344828
9298.00   1.79272437   0.01496800
9300.00   1.94280493   0.01701521
9302.00   2.03833652   0.01893934
9304.00   2.15975761   0.02122307
9306.00   2.17311311   0.02290022
9308.00   2.06357479   0.02427246
9310.00   1.93547952   0.02537410
9312.00   1.83078408   0.02628421
9314.00   1.72772717   0.02698085
9316.00   1.67972708   0.02705030
9318.00   1.69131017   0.02634428
9320.00   1.68408489   0.02587785
9322.00   1.68489254   0.02543170
9324.00   1.67904639   0.02484134
9326.00   1.65639067   0.02397372
9328.00   1.62890303   0.02295364
9330.00   1.62504625   0.02214039
9332.00   1.64387763   0.02113364
9334.00   1.64659691   0.02103390
9336.00   1.64798284   0.02207201
9338.00   1.63941324   0.02265520
9340.00   1.60939062   0.02282917
9342.00   1.57931519   0.02256532
9344.00   1.58531082   0.02128697
9346.00   1.62011468   0.01849952
9348.00   1.64140511   0.01707603
9350.00   1.66639078   0.01648571
9352.00   1.68357706   0.01617445
9354.00   1.69441545   0.01648448
9356.00   1.69816542   0.01683318
9358.00   1.68472934   0.01645336
9360.00   1.65013862   0.01549666
9362.00   1.68774009   0.01585430
9364.00   1.80957294   0.01586491
9366.00   1.87945390   0.01857591
9368.00   1.93523133   0.02288028
9370.00   1.94570267   0.02756513
9372.00   1.87561059   0.03325873
9374.00   1.74510074   0.03910103
9376.00   1.65012944   0.03951735
9378.00   1.51989162   0.03514697
9380.00   1.47727132   0.03142432
9382.00   1.51452041   0.02504303
9384.00   1.56852043   0.01902070
9386.00   1.63013458   0.01702049
9388.00   1.69983006   0.01794346
9390.00   1.72940302   0.01736351
9392.00   1.72819817   0.01669678
9394.00   1.72826827   0.01684969
9396.00   1.71335399   0.01781553
9398.00   1.70218408   0.01876895
9400.00   1.69270790   0.01996958
9402.00   1.68966794   0.02090754
9404.00   1.71038663   0.02041729
9406.00   1.76120746   0.01834038
9408.00   1.77498043   0.01750284
9410.00   1.75618720   0.01704986
9412.00   1.75424325   0.01713560
9414.00   1.78639293   0.01792942
9416.00   1.80829918   0.01897726
9418.00   1.76842344   0.01993073
9420.00   1.67907035   0.02103196
9422.00   1.63412583   0.02144940
9424.00   1.57773232   0.02120345
9426.00   1.58831537   0.02121077
9428.00   1.68739545   0.02125165
9430.00   1.79284728   0.02148961
9432.00   1.86193717   0.02190879
9434.00   1.91768003   0.02248772
9436.00   1.89333332   0.02429593
9438.00   1.77810383   0.02812717
9440.00   1.68279266   0.02936756
9442.00   1.53227854   0.02931726
9444.00   1.45236659   0.02815540
9446.00   1.51941919   0.02492279
9448.00   1.66791320   0.01985249
9450.00   1.73939478   0.01846463
9452.00   1.80355680   0.02081195
9454.00   1.82000208   0.02179182
9456.00   1.78362799   0.02346989
9458.00   1.74209523   0.02423828
9460.00   1.68564796   0.02358622
9462.00   1.63552642   0.02231811
9464.00   1.66142595   0.02174925
9466.00   1.77109814   0.02090248
9468.00   1.80124068   0.02200202
9470.00   1.82244992   0.02447714
9472.00   1.77594721   0.02722587
9474.00   1.61399448   0.03155279
9476.00   1.44052279   0.03452354
9478.00   1.38323152   0.03282830
9480.00   1.39566779   0.02647484
9482.00   1.41060805   0.02279033
9484.00   1.46305287   0.01964101
9486.00   1.51216030   0.01721203
9488.00   1.56863821   0.01615249
9490.00   1.62135732   0.01604998
9492.00   1.65410495   0.01645479
9494.00   1.67292821   0.01756418
9496.00   1.72925282   0.01900121
9498.00   1.85844135   0.02176297
9500.00   1.88908267   0.02259496
9502.00   1.82585859   0.02200280
9504.00   1.75502980   0.02099066
9506.00   1.70419192   0.01965278
9508.00   1.65933204   0.01794603
9510.00   1.65941274   0.01776202
9512.00   1.72595930   0.01857239
9514.00   1.73868740   0.02002390
9516.00   1.71738839   0.02267466
9518.00   1.70400321   0.02466063
9520.00   1.71386337   0.02615470
9522.00   1.72837269   0.02701342
9524.00   1.71804404   0.02595490
9526.00   1.68471897   0.02228632
9528.00   1.66956079   0.01999827
9530.00   1.66673052   0.01769600
9532.00   1.65642846   0.01615707
9534.00   1.63315904   0.01573638
9536.00   1.60879230   0.01623988
9538.00   1.59418905   0.01751396
9540.00   1.57793295   0.01983811
9542.00   1.60381234   0.02055699
9544.00   1.68915558   0.02031752
9546.00   1.73781538   0.02015042
9548.00   1.76723325   0.01988481
9550.00   1.76498747   0.01961460
9552.00   1.69590211   0.01947773
9554.00   1.56550264   0.01940252
9556.00   1.55374420   0.01952278
9558.00   1.63663125   0.01951640
9560.00   1.69657815   0.02025615
9562.00   1.78523898   0.02211573
9564.00   1.83427811   0.02345239
9566.00   1.79285657   0.02367486
9568.00   1.69467115   0.02322488
9570.00   1.63749051   0.02211655
9572.00   1.57018483   0.01905263
9574.00   1.54718149   0.01773130
9576.00   1.56722701   0.01781443
9578.00   1.59300423   0.01809116
9580.00   1.61601102   0.01841372
9582.00   1.64265501   0.01878979
9584.00   1.67073882   0.01853710
9586.00   1.70357966   0.01738297
9588.00   1.73124397   0.01738687
9590.00   1.77242827   0.01856231
9592.00   1.78209352   0.01905518
9594.00   1.73430753   0.01851723
9596.00   1.67824006   0.01767760
9598.00   1.69162285   0.01747414
9600.00   1.76783133   0.01765779
9602.00   1.76046944   0.01754204
9604.00   1.67637551   0.01702783
9606.00   1.63565671   0.01706743
9608.00   1.63705766   0.01792190
9610.00   1.65608525   0.01874599
9612.00   1.68441105   0.01881157
9614.00   1.73085940   0.01838730
9616.00   1.73778307   0.01857152
9618.00   1.71657610   0.01918633
9620.00   1.69201899   0.01960091
9622.00   1.64624548   0.02002847
9624.00   1.61157870   0.02025463
9626.00   1.60673034   0.02011161
9628.00   1.62146580   0.01969479
9630.00   1.65565252   0.01927620
9632.00   1.73760104   0.01862227
9634.00   1.77367604   0.01815472
9636.00   1.78580618   0.01764592
9638.00   1.78080773   0.01743141
9640.00   1.74839044   0.01779211
9642.00   1.70349896   0.01840663
9644.00   1.70264184   0.01847024
9646.00   1.71399510   0.01795978
9648.00   1.77766657   0.01812532
9650.00   1.91395283   0.01837844
9652.00   2.03108501   0.01928240
9654.00   2.14466405   0.02135058
9656.00   2.22230768   0.02335250
9658.00   2.16900158   0.02365542
9660.00   1.97823787   0.02265376
9662.00   1.88285303   0.02235640
9664.00   1.81196034   0.02225251
9666.00   1.75871253   0.02199559
9668.00   1.72506285   0.02142207
9670.00   1.70801198   0.02092086
9672.00   1.70736265   0.02098183
9674.00   1.72811711   0.02148541
9676.00   1.72488081   0.02153874
9678.00   1.71312106   0.02137505
9680.00   1.69119895   0.02119126
9682.00   1.64191318   0.02093911
9684.00   1.60719597   0.02064812
9686.00   1.61768436   0.02027819
9688.00   1.65758514   0.01984177
9690.00   1.69596148   0.01986405
9692.00   1.77640498   0.02035317
9694.00   1.79111564   0.02068308
9696.00   1.74762571   0.02104851
9698.00   1.69544303   0.02134253
9700.00   1.64309824   0.02155721
9702.00   1.58930528   0.02168560
9704.00   1.57528126   0.02156442
9706.00   1.58314824   0.02081853
9708.00   1.62244153   0.02098425
9710.00   1.72464085   0.02182633
9712.00   1.79381001   0.02266649
9714.00   1.82032681   0.02362589
9716.00   1.81214583   0.02444133
9718.00   1.74642432   0.02437724
9720.00   1.59081244   0.02353104
9722.00   1.54128635   0.02285386
9724.00   1.54999828   0.02183397
9726.00   1.57816303   0.02104901
9728.00   1.64788568   0.02043251
9730.00   1.71801281   0.02012052
9732.00   1.72889173   0.02045084
9734.00   1.69867337   0.02142042
9736.00   1.68899477   0.02175763
9738.00   1.67331016   0.02199725
9740.00   1.67175663   0.02181497
9742.00   1.68686926   0.02086559
9744.00   1.70560086   0.02000873
9746.00   1.72294521   0.02011620
9748.00   1.74236906   0.02081471
9750.00   1.73421335   0.02064721
9752.00   1.69186640   0.01967608
9754.00   1.66980243   0.01927514
9756.00   1.64997137   0.01911842
9758.00   1.64665329   0.01928945
9760.00   1.67589676   0.02012045
9762.00   1.72337031   0.02121299
9764.00   1.73428226   0.02099253
9766.00   1.71287811   0.01926304
9768.00   1.71220279   0.01852711
9770.00   1.71955216   0.01796899
9772.00   1.72675145   0.01793077
9774.00   1.73361337   0.01851063
9776.00   1.73939943   0.01954711
9778.00   1.73732901   0.02085386
9780.00   1.71845984   0.02248625
9782.00   1.73347640   0.02413836
9784.00   1.79969370   0.02610131
9786.00   1.82094121   0.02769967
9788.00   1.78375340   0.02920962
9790.00   1.72132874   0.03026977
9792.00   1.65771317   0.03026647
9794.00   1.56806374   0.02935787
9796.00   1.54954100   0.02840531
9798.00   1.59835243   0.02660001
9800.00   1.63002217   0.02539451
9802.00   1.65025640   0.02479104
9804.00   1.67115128   0.02454173
9806.00   1.70305014   0.02463269
9808.00   1.74384904   0.02513293
9810.00   1.74215090   0.02495425
9812.00   1.69175911   0.02418210
9814.00   1.66850686   0.02369094
9816.00   1.66168582   0.02343269
9818.00   1.65778625   0.02308373
9820.00   1.64957500   0.02240345
9822.00   1.64199710   0.02153717
9824.00   1.64865291   0.02108467
9826.00   1.67645431   0.02105197
9828.00   1.68589306   0.02077358
9830.00   1.67533290   0.02018877
9832.00   1.67933011   0.01995859
9834.00   1.70848310   0.02031005
9836.00   1.75228190   0.02100566
9838.00   1.80252802   0.02178649
9840.00   1.89741731   0.02287722
9842.00   1.89395487   0.02365415
9844.00   1.79489076   0.02415457
9846.00   1.71802235   0.02487307
9848.00   1.67000449   0.02624117
9850.00   1.63630092   0.02735018
9852.00   1.61727619   0.02694118
9854.00   1.61044097   0.02521344
9856.00   1.62957668   0.02391061
9858.00   1.69479775   0.02164636
9860.00   1.73164892   0.02082233
9862.00   1.74443007   0.02141914
9864.00   1.74161589   0.02314907
9866.00   1.72793746   0.02612459
9868.00   1.70331109   0.03007874
9870.00   1.64103055   0.03197861
9872.00   1.49768972   0.03366827
9874.00   1.43985975   0.03345185
9876.00   1.44609153   0.03005289
9878.00   1.48953676   0.02701611
9880.00   1.57922697   0.02760720
9882.00   1.70667231   0.03005817
9884.00   1.73857665   0.03029476
9886.00   1.66329050   0.02854196
9888.00   1.67578864   0.02896316
9890.00   1.77512681   0.03194495
9892.00   1.82544756   0.03325027
9894.00   1.76228738   0.03121484
9896.00   1.65090621   0.02734200
9898.00   1.61806834   0.02562083
9900.00   1.61964512   0.02471869
9902.00   1.64183283   0.02494323
9904.00   1.72035873   0.02676455
9906.00   1.76542568   0.02844218
9908.00   1.76784182   0.02993892
9910.00   1.74148500   0.03134374
9912.00   1.68348336   0.03254971
9914.00   1.57550657   0.03402518
9916.00   1.52104700   0.03366842
9918.00   1.47640181   0.03101012
9920.00   1.47486210   0.02922497
9922.00   1.53479958   0.02854885
9924.00   1.61033392   0.02821229
9926.00   1.65529561   0.02763484
9928.00   1.68881404   0.02701512
9930.00   1.72876275   0.02699199
9932.00   1.77270424   0.02675829
9934.00   1.80972171   0.02819381
9936.00   1.85484731   0.03121222
9938.00   1.87642157   0.03447795
9940.00   1.85742950   0.03782232
9942.00   1.80687022   0.04127704
9944.00   1.70395863   0.04233967
9946.00   1.45595217   0.04098227
9948.00   1.39174938   0.04085929
9950.00   1.48082900   0.04115586
9952.00   1.58736002   0.04162277
9954.00   1.68248129   0.04243270
9956.00   1.77757287   0.04331641
9958.00   1.79969895   0.04309951
9960.00   1.76372087   0.04170391
9962.00   1.71362782   0.04094717
9964.00   1.58548081   0.04089775
9966.00   1.52178288   0.03986358
9968.00   1.56873298   0.03661708
9970.00   1.65695274   0.03264257
9972.00   1.69115305   0.03179144
9974.00   1.71427047   0.03363961
9976.00   1.70284915   0.03414232
9978.00   1.62151814   0.03530028
9980.00   1.59696066   0.03493876
9982.00   1.63973808   0.03201361
9984.00   1.71091473   0.02852886
9986.00   1.78727436   0.02762853
9988.00   1.89105594   0.02852599
9990.00   1.92534041   0.02862626
9992.00   1.90757859   0.02857482
9994.00   1.88201475   0.02899875
9996.00   1.81673217   0.02994076
9998.00   1.77071869   0.03099898
10000.00   1.79355085   0.03156660
10002.00   1.86145318   0.03189373
10004.00   1.92019153   0.03495296
10006.00   2.03132868   0.04029300
10008.00   2.05504966   0.04422906
10010.00   2.03133655   0.04872096
10012.00   1.94138217   0.05137806
10014.00   1.72872519   0.05133763
10016.00   1.45218325   0.04947435
10018.00   1.37728977   0.04697758
10020.00   1.45268393   0.04131253
10022.00   1.52212489   0.03862931
10024.00   1.68960047   0.03848645
10026.00   1.79551160   0.03813729
10028.00   1.78777468   0.03685238
10030.00   1.73323047   0.03542470
10032.00   1.72611535   0.03474930
10034.00   1.73747599   0.03482945
10036.00   1.73161840   0.03427222
10038.00   1.70364547   0.03307490
10040.00   1.70022082   0.03245477
10042.00   1.73259711   0.03277050
10044.00   1.77434421   0.03326164
10046.00   1.79951942   0.03304551
10048.00   1.82405448   0.03232064
10050.00   1.81488729   0.03230723
10052.00   1.75481248   0.03256743
10054.00   1.72977746   0.03323760
10056.00   1.73969030   0.03431407
10058.00   1.75787628   0.03567373
10060.00   1.76914287   0.03753148
10062.00   1.78142655   0.03983492
10064.00   1.78439820   0.03999055
10066.00   1.76186252   0.03740943
10068.00   1.77735245   0.03694357
10070.00   1.82616675   0.03731030
10072.00   1.88534582   0.03918502
10074.00   1.96763706   0.04372726
10076.00   2.05736613   0.04920010
10078.00   2.02001858   0.05034141
10080.00   1.83050382   0.04832701
10082.00   1.73574734   0.04672680
10084.00   1.65892625   0.04373419
10086.00   1.61752748   0.04116669
10088.00   1.61982846   0.03973104
10090.00   1.65591240   0.03892148
10092.00   1.71241117   0.03813590
10094.00   1.83783817   0.03730048
10096.00   1.85197783   0.03779018
10098.00   1.76653075   0.03968348
10100.00   1.70709467   0.04137139
10102.00   1.67891991   0.04336213
10104.00   1.66819477   0.04475915
10106.00   1.67684543   0.04374894
10108.00   1.70082939   0.04005501
10110.00   1.75983417   0.03934308
10112.00   1.87878132   0.04014447
10114.00   1.96253717   0.04170817
10116.00   2.01844287   0.04435102
10118.00   2.05454469   0.04721806
10120.00   2.08312368   0.04972845
10122.00   2.10721707   0.05223116
10124.00   2.00646400   0.05405737
10126.00   1.71334481   0.05692860
10128.00   1.57221091   0.05629858
10130.00   1.55923831   0.05016885
10132.00   1.56342840   0.04485183
10134.00   1.52429187   0.04631500
10136.00   1.47814417   0.05112012
10138.00   1.49423528   0.05086945
10140.00   1.56710088   0.04653028
10142.00   1.63322210   0.04473329
10144.00   1.72687137   0.04293216
10146.00   1.80215633   0.04351538
10148.00   1.85204518   0.04853978
10150.00   1.87831640   0.05457020
10152.00   1.85309291   0.05542716
10154.00   1.73856938   0.05234810
10156.00   1.72307956   0.05098367
10158.00   1.77201641   0.04852372
10160.00   1.82136977   0.04810429
10162.00   1.89180398   0.05063480
10164.00   1.94369829   0.05431809
10166.00   1.88811183   0.05743375
10168.00   1.74067247   0.06114662
10170.00   1.61531174   0.06286184
10172.00   1.41043901   0.06380580
10174.00   1.32365227   0.06322176
10176.00   1.38606477   0.05968034
10178.00   1.48996878   0.05612385
10180.00   1.54451609   0.05649823
10182.00   1.59124124   0.05956515
10184.00   1.63054621   0.06021852
10186.00   1.70167875   0.06018736
10188.00   1.68023074   0.05947871
10190.00   1.51234078   0.05753032
10192.00   1.38342059   0.05557912
10194.00   1.40756965   0.05429457
10196.00   1.52326727   0.05337132
10198.00   1.67235029   0.05398104
10200.00   1.99156570   0.05583396
10202.00   2.09689975   0.05835675
10204.00   2.03939629   0.06281578
10206.00   1.94223166   0.06581903
10208.00   1.83587348   0.06610388
10210.00   1.70308173   0.06506258
10212.00   1.57410562   0.06519224
10214.00   1.37181926   0.06614066
10216.00   1.33819473   0.06578164
10218.00   1.45945895   0.06424592
10220.00   1.57002354   0.06290058
10222.00   1.65767395   0.06160424
10224.00   1.73312461   0.06073490
10226.00   1.76572192   0.06176523
10228.00   1.75697541   0.06535651
10230.00   1.76051843   0.06495789
10232.00   1.76841486   0.06145694
10234.00   1.75433683   0.05808754
10236.00   1.71080041   0.05415178
10238.00   1.65748346   0.05053721
10240.00   1.61291778   0.04926231
10242.00   1.56752062   0.05000973
10244.00   1.53267705   0.04989962
10246.00   1.48448062   0.04974698
10248.00   1.48599911   0.04995659
10250.00   1.54568815   0.05064563
10252.00   1.61927962   0.05136166
10254.00   1.69699204   0.05167164
10256.00   1.78643894   0.05178198
10258.00   1.74653542   0.05294694
10260.00   1.52391648   0.05548934
10262.00   1.45183551   0.05674474
10264.00   1.49286306   0.05729904
10266.00   1.53813040   0.05743632
10268.00   1.54352021   0.05634997
10270.00   1.54080677   0.05498348
10272.00   1.56519461   0.05820764
10274.00   1.58522403   0.06357998
10276.00   1.66554618   0.07129631
10278.00   1.85673761   0.08316194
10280.00   1.96502566   0.09129287
10282.00   1.96861506   0.09572668
10284.00   1.88320673   0.09781096
10286.00   1.65502822   0.09708945
10288.00   1.19722486   0.09255507
10290.00   1.00274324   0.08943956
10292.00   0.95401639   0.08606818
10294.00   0.94786668   0.08248391
10296.00   1.00748110   0.07800938
10298.00   1.09540212   0.07388532
10300.00   1.14485455   0.07230322
10302.00   1.17709291   0.07303754
10304.00   1.24733901   0.07241546
10306.00   1.40224171   0.07184522
10308.00   1.44226015   0.07062972
10310.00   1.31838048   0.06844793
10312.00   1.20965540   0.06614470
10314.00   1.26177263   0.06444906
10316.00   1.41023529   0.06305621
10318.00   1.48364925   0.06156965
10320.00   1.55361378   0.05981112
10322.00   1.57734787   0.05881173
10324.00   1.52480912   0.05867800
10326.00   1.49653924   0.05865714
10328.00   1.56707680   0.05823446
10330.00   1.67877758   0.05779705
10332.00   1.64472187   0.05852570
10334.00   1.45377886   0.05991207
10336.00   1.37086928   0.06209387
10338.00   1.31981337   0.06523164
10340.00   1.29944122   0.06844304
10342.00   1.32387650   0.07239390
10344.00   1.37091982   0.07587550
10346.00   1.38285339   0.07567317
10348.00   1.38813961   0.07192115
10350.00   1.36079443   0.06946448
10352.00   1.32899845   0.06587569
10354.00   1.23404026   0.06377606
10356.00   0.99871713   0.06403288
10358.00   0.77690327   0.06514206
10360.00   0.80707169   0.06503604
10362.00   1.05355537   0.06362264
10364.00   1.10651612   0.06692273
10366.00   1.11388123   0.07475328
10368.00   1.02485275   0.08006003
10370.00   0.74035001   0.08491436
10372.00   0.49788418   0.08747083
10374.00   0.53044337   0.08489946
10376.00   0.74773258   0.07758921
10378.00   0.84053087   0.07571992
10380.00   0.91221464   0.07863929
10382.00   0.96485192   0.07826050
10384.00   0.95740807   0.07540441
10386.00   0.99119616   0.07194901
10388.00   1.15726209   0.06756637
10390.00   1.39298427   0.06255046
10392.00   1.43619406   0.06532604
10394.00   1.33432055   0.07806579
10396.00   1.24037230   0.08122049
10398.00   1.06642091   0.07990295
10400.00   0.93624139   0.07669254
10402.00   0.86108309   0.07019842
10404.00   0.84590584   0.06184241
10406.00   0.99396461   0.06127176
10408.00   1.42499208   0.06661344
10410.00   1.50898933   0.07211930
10412.00   1.34567940   0.08184645
10414.00   1.19743931   0.08742723
10416.00   1.05766940   0.08901438
10418.00   0.94053745   0.08797801
10420.00   0.94029588   0.08404893
10422.00   1.05967069   0.07516190
10424.00   1.06481183   0.07033256
10426.00   1.00090301   0.06783534
10428.00   0.95545173   0.06554078
10430.00   0.91555816   0.06374794
10432.00   0.89048856   0.06243579
10434.00   0.90268755   0.06124024
10436.00   0.94776738   0.06024061
10438.00   0.95933628   0.06071236
10440.00   0.94873857   0.06308909
10442.00   0.94995517   0.06454117
10444.00   0.95593530   0.06564017
10446.00   0.96847242   0.06636094
10448.00   1.00754786   0.06666396
10450.00   1.06047952   0.06657862
10452.00   0.99897361   0.06579227
10454.00   0.75764585   0.06329040
10456.00   0.70159918   0.06267922
10458.00   0.80112481   0.06349210
10460.00   0.88447469   0.06457890
10462.00   0.91350621   0.06556085
10464.00   0.90776414   0.06673113
10466.00   0.80314028   0.06838004
10468.00   0.52164048   0.07157274
10470.00   0.44369990   0.07179178
10472.00   0.48731074   0.07001277
10474.00   0.56094015   0.06735679
10476.00   0.69366217   0.06302808
10478.00   0.82849699   0.05808230
10480.00   0.82419866   0.05580368
10482.00   0.70263082   0.05573204
10484.00   0.64301276   0.05502595
10486.00   0.55827892   0.05421891
10488.00   0.54056793   0.05443424
10490.00   0.61810815   0.05631165
10492.00   0.71582270   0.05820999
10494.00   0.76210463   0.05846345
10496.00   0.79076725   0.05765288
10498.00   0.78639895   0.05764532
10500.00   0.72715670   0.05759609
10502.00   0.69739354   0.05823007
10504.00   0.67791456   0.06001503
10506.00   0.68093663   0.06145880
10508.00   0.72378731   0.06153065
10510.00   0.79803985   0.06078086
10512.00   0.85432780   0.06056604
10514.00   0.93813783   0.05913835
10516.00   0.95646018   0.06068397
10518.00   0.90464640   0.06576382
10520.00   0.85364014   0.06960131
10522.00   0.82960254   0.07103259
10524.00   0.81451309   0.07108218
10526.00   0.80051625   0.06940767
10528.00   0.80505961   0.06405403
10530.00   0.77671647   0.06171447
10532.00   0.70492685   0.06105781
10534.00   0.66183114   0.06074842
10536.00   0.67321813   0.06065372
10538.00   0.70222485   0.06087375
10540.00   0.69274592   0.06113381
10542.00   0.65794331   0.06158179
10544.00   0.64011669   0.06202288
10546.00   0.62008733   0.06264359
10548.00   0.61569297   0.06306642
10550.00   0.63219321   0.06310523
10552.00   0.65681881   0.06319403
10554.00   0.67759371   0.06386626
10556.00   0.70259190   0.06496616
10558.00   0.71039593   0.06580810
10560.00   0.69253737   0.06666865
10562.00   0.69686085   0.06738748
10564.00   0.73035926   0.06796909
10566.00   0.76028329   0.06847099
10568.00   0.76705647   0.06895885
10570.00   0.76115787   0.06941126
10572.00   0.72282970   0.06955662
10574.00   0.60883170   0.06904320
10576.00   0.58128250   0.06932011
10578.00   0.63396424   0.07036550
10580.00   0.68896633   0.07136765
10582.00   0.71832293   0.07206059
10584.00   0.73813021   0.07260075
10586.00   0.73410702   0.07277886
10588.00   0.69776410   0.07247552
10590.00   0.67528754   0.07236368
10592.00   0.65261477   0.07229795
10594.00   0.63117927   0.07213566
10596.00   0.60511070   0.07174360
10598.00   0.58397883   0.07131217
10600.00   0.59509623   0.07129121
10602.00   0.64958435   0.07172262
10604.00   0.65352410   0.07167435
10606.00   0.61340237   0.07129288
10608.00   0.59446722   0.07098418
10610.00   0.61234444   0.07087387
10612.00   0.63234210   0.07069235
10614.00   0.61349922   0.07006593
10616.00   0.56571567   0.06899717
10618.00   0.53804153   0.06843762
10620.00   0.50684363   0.06816141
10622.00   0.49626157   0.06794834
10624.00   0.51484060   0.06791284
10626.00   0.53619462   0.06786126
10628.00   0.53826421   0.06760681
10630.00   0.53076959   0.06723158
10632.00   0.52840483   0.06683524
10634.00   0.53385508   0.06644373
10636.00   0.52257818   0.06586042
10638.00   0.48673692   0.06501574
10640.00   0.45885634   0.06416967
10642.00   0.45979097   0.06346476
10644.00   0.47574157   0.06281790
10646.00   0.47087425   0.06213384
10648.00   0.44836980   0.06132752
10650.00   0.44042087   0.06079734
10652.00   0.43115702   0.06046703
10654.00   0.43925917   0.06026129
10656.00   0.48089409   0.06032372
10658.00   0.53511870   0.06043057
10660.00   0.55044997   0.05985995
10662.00   0.53745931   0.05861885
10664.00   0.53281367   0.05772308
10666.00   0.52684629   0.05691571
10668.00   0.51525724   0.05605361
10670.00   0.48892665   0.05493237
10672.00   0.46523041   0.05392995
10674.00   0.47616231   0.05376800
10676.00   0.52491009   0.05452037
10678.00   0.51612562   0.05410597
10680.00   0.45399007   0.05280972
10682.00   0.41775373   0.05171279
10684.00   0.39286336   0.05048685
10686.00   0.39306363   0.04961969
10688.00   0.44982070   0.04988531
10690.00   0.55943447   0.05109351
10692.00   0.59108704   0.05121928
10694.00   0.56631362   0.05079244
10696.00   0.55531174   0.05029226
10698.00   0.54151076   0.04951913
10700.00   0.53268558   0.04871681
10702.00   0.53942561   0.04810246
10704.00   0.55522817   0.04755278
10706.00   0.54854316   0.04662596
10708.00   0.52838391   0.04509130
10710.00   0.50170130   0.04415661
10712.00   0.44639787   0.04369819
10714.00   0.41642314   0.04327286
10716.00   0.43543205   0.04276424
10718.00   0.48106056   0.04224832
10720.00   0.51587474   0.04163695
10722.00   0.56646603   0.04039223
10724.00   0.58530188   0.04066420
10726.00   0.58435595   0.04318427
10728.00   0.57031316   0.04394190
10730.00   0.53708464   0.04200648
10732.00   0.49600405   0.03886295
10734.00   0.46953413   0.03652621
10736.00   0.44866720   0.03360151
10738.00   0.43274540   0.03318603
10740.00   0.40965655   0.03587572
10742.00   0.41632527   0.03719455
10744.00   0.47493502   0.03734168
10746.00   0.53129804   0.03695025
10748.00   0.52416968   0.03616900
10750.00   0.47202083   0.03478518
10752.00   0.46159953   0.03380053
10754.00   0.45615974   0.03284360
10756.00   0.48132998   0.03207682
10758.00   0.56197083   0.03159824
10760.00   0.62768835   0.03114913
10762.00   0.63387418   0.03034515
10764.00   0.60390443   0.02936074
10766.00   0.54763061   0.02991148
10768.00   0.39292118   0.03251608
10770.00   0.36542621   0.03329163
10772.00   0.44467518   0.03272355
10774.00   0.53814960   0.03226298
10776.00   0.63443440   0.03278428
10778.00   0.73064727   0.03347588
10780.00   0.72904420   0.03235188
10782.00   0.62006474   0.02876679
10784.00   0.56743151   0.02699039
10786.00   0.52195501   0.02602147
10788.00   0.48449656   0.02558172
10790.00   0.44223821   0.02589361
10792.00   0.41735858   0.02657619
10794.00   0.46563581   0.02678291
10796.00   0.61619306   0.02700651
10798.00   0.62401539   0.02653363
10800.00   0.50727630   0.02520317
10802.00   0.43810841   0.02401011
10804.00   0.42596725   0.02286424
10806.00   0.42986584   0.02186416
10808.00   0.41774154   0.02132685
10810.00   0.39601931   0.02119843
10812.00   0.42486817   0.02116734
10814.00   0.52621388   0.02167918
10816.00   0.57085347   0.02166865
10818.00   0.54929763   0.02086088
10820.00   0.53019494   0.02025677
10822.00   0.56314236   0.02054992
10824.00   0.62474728   0.02137552
10826.00   0.66095912   0.02297270
10828.00   0.70704734   0.02648176
10830.00   0.70859891   0.02731650
10832.00   0.64149195   0.02575859
10834.00   0.60003090   0.02424628
10836.00   0.64524269   0.02420697
10838.00   0.72782642   0.02467695
10840.00   0.71255434   0.02386732
10842.00   0.60528511   0.02042269
10844.00   0.55360597   0.02080532
10846.00   0.51770926   0.02547928
10848.00   0.48700052   0.02733953
10850.00   0.44829217   0.02471644
10852.00   0.42171043   0.01974592
10854.00   0.45576137   0.01779552
10856.00   0.56498325   0.01794206
10858.00   0.60171229   0.01763842
10860.00   0.61796504   0.01816753
10862.00   0.59473997   0.01816668
10864.00   0.48691592   0.01713913
10866.00   0.38623762   0.01610270
10868.00   0.43368927   0.01667790
10870.00   0.61258590   0.01857678
