# File created by shivutils (I.Shivvers)
# wl(A)   flm    er(optional)
3440.00   0.31004828   0.09233128
3441.00   0.28676125   0.09099395
3442.00   0.12613755   0.08772504
3443.00   0.08336952   0.08587760
3444.00   0.16744572   0.08573360
3445.00   0.11471353   0.08556768
3446.00   0.12750670   0.08904337
3447.00   0.09288530   0.08990056
3448.00   0.21023165   0.08977098
3449.00   0.31677154   0.09579185
3450.00   0.30693996   0.09881537
3451.00   0.07241428   0.09493155
3452.00   0.13734792   0.09324618
3453.00   0.26329017   0.09678032
3454.00   0.25699630   0.09612411
3455.00   0.09868594   0.09340363
3456.00   0.08137689   0.09656678
3457.00   0.35740098   0.09741944
3458.00   0.17682728   0.09209540
3459.00   0.58500272   0.10041151
3460.00   0.44135639   0.09561402
3461.00   0.19728592   0.09452734
3462.00   0.09212741   0.09223000
3463.00   0.24624747   0.09491200
3464.00   0.23829868   0.09282114
3465.00   0.18678804   0.09332544
3466.00   0.19358799   0.09320442
3467.00   0.24206093   0.09293641
3468.00   0.22587825   0.09038280
3469.00   0.23541071   0.09085081
3470.00   0.14773130   0.09133708
3471.00   0.15936241   0.08984140
3472.00   0.15010756   0.08807280
3473.00   0.04002818   0.08524099
3474.00   0.19911890   0.08534233
3475.00   0.18835296   0.08702283
3476.00   0.14906840   0.09144650
3477.00   0.32227337   0.09923448
3478.00   0.22584116   0.09906241
3479.00   0.07292975   0.09639861
3480.00   0.14893962   0.09865325
3481.00   0.11502016   0.09889217
3482.00   0.00216266   0.09719034
3483.00   0.12984104   0.09797490
3484.00   0.22621509   0.09687348
3485.00   0.13725945   0.09541260
3486.00   0.11228880   0.09571626
3487.00   0.26395652   0.09621610
3488.00   0.28833136   0.09563638
3489.00   -0.01000473   0.09316178
3490.00   0.06493890   0.09527960
3491.00   0.29539397   0.09271833
3492.00   0.15359151   0.08878067
3493.00   0.11967035   0.09000361
3494.00   0.16307029   0.08718865
3495.00   0.21520767   0.08843646
3496.00   0.27865523   0.09236620
3497.00   0.13743207   0.08848983
3498.00   0.10693396   0.08956415
3499.00   0.26669985   0.09118459
3500.00   0.17878483   0.08783405
3501.00   0.08368155   0.08337432
3502.00   0.10864166   0.08445617
3503.00   0.13184565   0.08438115
3504.00   0.16784456   0.08383605
3505.00   0.29657698   0.08792900
3506.00   0.18180718   0.08562095
3507.00   0.12582219   0.08545782
3508.00   0.09710936   0.08586237
3509.00   0.18575135   0.08826113
3510.00   0.17269577   0.08870168
3511.00   0.24982843   0.08972995
3512.00   0.15802115   0.08090667
3513.00   0.14764528   0.08224343
3514.00   0.09579807   0.08410347
3515.00   0.19811757   0.08453158
3516.00   0.21436623   0.08620092
3517.00   0.02595809   0.08053956
3518.00   0.11202589   0.08123674
3519.00   0.25579944   0.08524992
3520.00   0.18234903   0.08229688
3521.00   0.27420911   0.08405219
3522.00   0.25567311   0.08341742
3523.00   0.09186953   0.07843047
3524.00   0.02933671   0.07533760
3525.00   0.13904634   0.07631202
3526.00   0.25201428   0.08151551
3527.00   0.23921871   0.08318884
3528.00   0.17752667   0.08259303
3529.00   0.12594649   0.08115433
3530.00   -0.01706188   0.07843717
3531.00   -0.00064247   0.07871048
3532.00   0.05668844   0.07917176
3533.00   0.09282119   0.07923373
3534.00   0.21799682   0.08092116
3535.00   0.31843466   0.08389158
3536.00   0.31364486   0.08463351
3537.00   0.18513823   0.08157875
3538.00   0.24299872   0.08365199
3539.00   0.28682628   0.08669600
3540.00   0.19424465   0.08574632
3541.00   0.14765574   0.08803371
3542.00   0.18162929   0.09107555
3543.00   0.19764172   0.08858958
3544.00   0.05803299   0.08480573
3545.00   0.10751761   0.08673482
3546.00   0.22740382   0.08632649
3547.00   0.20933092   0.08639777
3548.00   0.21903707   0.08596130
3549.00   0.24963620   0.08597167
3550.00   0.26960313   0.08535824
3551.00   0.25182000   0.08376420
3552.00   0.06283371   0.08350589
3553.00   -0.01761357   0.08546863
3554.00   0.20247762   0.08773485
3555.00   0.09421163   0.08376481
3556.00   0.23110065   0.08646461
3557.00   0.26818815   0.08867189
3558.00   0.16965631   0.08554182
3559.00   0.14400552   0.08311559
3560.00   0.18045197   0.08007967
3561.00   0.18645500   0.07955984
3562.00   0.24934280   0.08134146
3563.00   0.16472143   0.07738509
3564.00   0.16711222   0.07602616
3565.00   0.18633781   0.08077632
3566.00   0.09415080   0.08176527
3567.00   0.14087076   0.08062460
3568.00   0.21954069   0.07812767
3569.00   0.11702064   0.07531682
3570.00   0.23672934   0.08170537
3571.00   0.19288607   0.08273266
3572.00   0.17682743   0.07908115
3573.00   0.24732155   0.07882022
3574.00   0.29376075   0.08030888
3575.00   0.33649471   0.08066069
3576.00   0.24498719   0.07809256
3577.00   0.23269606   0.07612107
3578.00   0.17627832   0.07562303
3579.00   0.15097173   0.07683624
3580.00   0.20980401   0.07520395
3581.00   0.21132858   0.07191611
3582.00   0.12799367   0.06950924
3583.00   0.10446610   0.06898162
3584.00   0.17237535   0.06930738
3585.00   0.20239098   0.06665377
3586.00   0.18857668   0.06715074
3587.00   0.12908864   0.07202929
3588.00   0.18599591   0.07603737
3589.00   0.14964654   0.07424451
3590.00   0.05837439   0.07132290
3591.00   0.14445730   0.07115192
3592.00   0.32972699   0.07184957
3593.00   0.21732359   0.06855912
3594.00   0.12103974   0.06607960
3595.00   0.16881053   0.06741237
3596.00   0.19956487   0.06916448
3597.00   0.09512072   0.06634207
3598.00   0.20023464   0.06696851
3599.00   0.24953248   0.06793509
3600.00   0.17881413   0.06541932
3601.00   0.15059866   0.06732058
3602.00   0.23249775   0.06629608
3603.00   0.19260822   0.06437939
3604.00   0.19505356   0.06563379
3605.00   0.19714603   0.06496256
3606.00   0.25919604   0.06569542
3607.00   0.19282210   0.06615695
3608.00   0.07828585   0.06269120
3609.00   0.26276129   0.06590904
3610.00   0.19020671   0.06527969
3611.00   0.24224459   0.07238908
3612.00   0.19770202   0.07566956
3613.00   0.22122352   0.07612222
3614.00   0.32179946   0.07495637
3615.00   0.27639246   0.07169525
3616.00   0.16404374   0.06818449
3617.00   0.08907737   0.06472433
3618.00   0.12884296   0.06473838
3619.00   0.05852241   0.06549606
3620.00   0.14574085   0.06665824
3621.00   0.30204412   0.06770208
3622.00   0.26195654   0.06382775
3623.00   0.09795504   0.06210052
3624.00   0.08006753   0.06313244
3625.00   0.27375710   0.06586293
3626.00   0.32054165   0.06663013
3627.00   0.15767564   0.06464045
3628.00   0.13169692   0.06875870
3629.00   0.29705176   0.07553042
3630.00   0.24770975   0.07500195
3631.00   0.12261577   0.07038930
3632.00   0.19683729   0.06864666
3633.00   0.18216179   0.06865076
3634.00   0.09976263   0.06829437
3635.00   0.14849527   0.06883750
3636.00   0.25235063   0.06974532
3637.00   0.20226741   0.06772929
3638.00   0.04906264   0.06542628
3639.00   0.11338483   0.06809962
3640.00   0.18111445   0.07281981
3641.00   0.15651567   0.07677044
3642.00   0.14629781   0.07782852
3643.00   0.14152887   0.07565684
3644.00   0.20560119   0.07886150
3645.00   0.27180201   0.08052693
3646.00   0.38861093   0.08695766
3647.00   0.11605368   0.10635972
3648.00   0.05366580   0.13470940
3649.00   0.16808037   0.14445680
3650.00   -0.01774783   0.13018528
3651.00   0.27484637   0.11639306
3652.00   0.13274133   0.10975887
3653.00   0.16678810   0.11299734
3654.00   0.22860065   0.10796348
3655.00   0.42407364   0.09582071
3656.00   0.36110049   0.08436865
3657.00   0.22074416   0.07549205
3658.00   0.20329469   0.07291704
3659.00   0.18929531   0.07235704
3660.00   0.20185356   0.08211533
3661.00   0.28237692   0.09832307
3662.00   0.21782781   0.10221495
3663.00   0.37697309   0.09194101
3664.00   0.18132925   0.07715112
3665.00   0.05143837   0.06712565
3666.00   0.11599706   0.06246929
3667.00   0.18904093   0.06128843
3668.00   0.27296051   0.06282825
3669.00   0.32397076   0.06295472
3670.00   0.29717654   0.06139807
3671.00   0.26679802   0.06014390
3672.00   0.24882025   0.05961659
3673.00   0.21305910   0.05975352
3674.00   0.17205647   0.05838609
3675.00   0.13629800   0.05597123
3676.00   0.22675419   0.05701460
3677.00   0.27350330   0.05745017
3678.00   0.25435644   0.05730889
3679.00   0.27516705   0.05739062
3680.00   0.22660315   0.05491570
3681.00   0.18132500   0.05383135
3682.00   0.21234505   0.05492059
3683.00   0.19418027   0.05390026
3684.00   0.19854173   0.05299838
3685.00   0.24781084   0.05431819
3686.00   0.21116757   0.05406098
3687.00   0.22102629   0.05381637
3688.00   0.22513837   0.05526713
3689.00   0.16751589   0.05460564
3690.00   0.16814263   0.05394484
3691.00   0.32807699   0.05755773
3692.00   0.32227972   0.05756396
3693.00   0.21409062   0.05523198
3694.00   0.29035941   0.05722304
3695.00   0.23484936   0.05331523
3696.00   0.07603696   0.05082826
3697.00   0.14238341   0.05391793
3698.00   0.28805721   0.05712922
3699.00   0.20872414   0.05532115
3700.00   0.20352748   0.05574004
3701.00   0.21374929   0.05527130
3702.00   0.23105682   0.05503033
3703.00   0.21363673   0.05594622
3704.00   0.17333771   0.05369554
3705.00   0.03925925   0.05147564
3706.00   0.15235434   0.05425908
3707.00   0.26005450   0.05515011
3708.00   0.14700669   0.05171993
3709.00   0.23799078   0.05437896
3710.00   0.29475942   0.05385595
3711.00   0.22629991   0.05288082
3712.00   0.25161144   0.05257938
3713.00   0.19420500   0.05060316
3714.00   0.19481820   0.05140056
3715.00   0.25809473   0.05216610
3716.00   0.20310928   0.05125975
3717.00   0.15783082   0.05113546
3718.00   0.15318854   0.05098387
3719.00   0.13951007   0.05187415
3720.00   0.24424143   0.05357454
3721.00   0.21691130   0.05206254
3722.00   0.19665836   0.05081083
3723.00   0.26527208   0.05029215
3724.00   0.28986105   0.05035997
3725.00   0.25022191   0.05054240
3726.00   0.20227556   0.05086424
3727.00   0.19853239   0.05081483
3728.00   0.19634841   0.05011975
3729.00   0.20441848   0.05134193
3730.00   0.29442480   0.05274342
3731.00   0.27653232   0.05233494
3732.00   0.16888514   0.05168626
3733.00   0.20568526   0.05087533
3734.00   0.19351439   0.05009838
3735.00   0.17942630   0.05084121
3736.00   0.32853973   0.05319034
3737.00   0.34027207   0.05395085
3738.00   0.22094323   0.05263297
3739.00   0.22179171   0.05247754
3740.00   0.30568910   0.05349886
3741.00   0.30343473   0.05296551
3742.00   0.18482132   0.05085137
3743.00   0.13221599   0.04868499
3744.00   0.14646606   0.04915972
3745.00   0.20592408   0.04975949
3746.00   0.16431846   0.04949883
3747.00   0.16232178   0.04731153
3748.00   0.22952224   0.04903304
3749.00   0.27470997   0.05143123
3750.00   0.18788822   0.04980473
3751.00   0.20755972   0.04954731
3752.00   0.15020169   0.04911439
3753.00   0.15040566   0.04880103
3754.00   0.16838992   0.04893647
3755.00   0.21280608   0.04853091
3756.00   0.14423050   0.04665140
3757.00   0.19194299   0.04828261
3758.00   0.22687568   0.04900510
3759.00   0.24966143   0.04843065
3760.00   0.24481197   0.04800245
3761.00   0.27357435   0.04825918
3762.00   0.25981438   0.04758310
3763.00   0.27673438   0.04821838
3764.00   0.27882823   0.04876133
3765.00   0.28263810   0.04832171
3766.00   0.28816062   0.04750717
3767.00   0.30782759   0.04710640
3768.00   0.29796809   0.04670234
3769.00   0.22986725   0.04706210
3770.00   0.18649842   0.04705836
3771.00   0.19887802   0.04659379
3772.00   0.31766441   0.04767334
3773.00   0.34256899   0.04874365
3774.00   0.35862499   0.05027083
3775.00   0.41233906   0.05113214
3776.00   0.41205505   0.05084093
3777.00   0.40861547   0.05062867
3778.00   0.42018446   0.05026802
3779.00   0.40229768   0.04959192
3780.00   0.34747791   0.04874704
3781.00   0.23934242   0.04697893
3782.00   0.16471513   0.04530097
3783.00   0.22222708   0.04611501
3784.00   0.23404975   0.04636461
3785.00   0.20783666   0.04497443
3786.00   0.25090629   0.04473513
3787.00   0.25774583   0.04567696
3788.00   0.21428463   0.04774545
3789.00   0.22205417   0.04828484
3790.00   0.22456813   0.04718561
3791.00   0.27490377   0.04698709
3792.00   0.27616832   0.04690908
3793.00   0.24915841   0.04580068
3794.00   0.34890068   0.04671345
3795.00   0.28498906   0.04651829
3796.00   0.19640930   0.04421524
3797.00   0.17018652   0.04270238
3798.00   0.18374249   0.04272870
3799.00   0.21106870   0.04494909
3800.00   0.24159810   0.04586923
3801.00   0.23502117   0.04655416
3802.00   0.25511172   0.04711234
3803.00   0.20635776   0.04643962
3804.00   0.24261621   0.04485992
3805.00   0.25012520   0.04454179
3806.00   0.35693669   0.04488735
3807.00   0.39038455   0.04593185
3808.00   0.24243778   0.04413768
3809.00   0.16012537   0.04256604
3810.00   0.28607497   0.04474204
3811.00   0.30587119   0.04619049
3812.00   0.31423983   0.04606642
3813.00   0.32160479   0.04559668
3814.00   0.22112812   0.04387682
3815.00   0.25406215   0.04453952
3816.00   0.26520282   0.04439041
3817.00   0.28884208   0.04507311
3818.00   0.28278089   0.04467609
3819.00   0.24833167   0.04366352
3820.00   0.26126081   0.04428783
3821.00   0.29926291   0.04580627
3822.00   0.26906002   0.04493129
3823.00   0.18368824   0.04369061
3824.00   0.26335570   0.04472089
3825.00   0.35240349   0.04574073
3826.00   0.32620764   0.04706514
3827.00   0.26516548   0.04835066
3828.00   0.24535342   0.04899867
3829.00   0.29574427   0.04948876
3830.00   0.30445945   0.04885412
3831.00   0.28903666   0.04798601
3832.00   0.25118464   0.04695213
3833.00   0.24108820   0.04598693
3834.00   0.28273261   0.04600417
3835.00   0.25732413   0.04579302
3836.00   0.26852584   0.04603903
3837.00   0.25867400   0.04616083
3838.00   0.27297032   0.04736183
3839.00   0.31572738   0.04676735
3840.00   0.23820564   0.04508295
3841.00   0.24300939   0.04531199
3842.00   0.31364596   0.04594054
3843.00   0.29132518   0.04521781
3844.00   0.26723927   0.04393570
3845.00   0.20483725   0.04286929
3846.00   0.23094885   0.04167209
3847.00   0.24939102   0.04134418
3848.00   0.33088160   0.04253023
3849.00   0.28815523   0.04235671
3850.00   0.28359139   0.04239172
3851.00   0.30686533   0.04271822
3852.00   0.26876605   0.04251324
3853.00   0.24878302   0.04180876
3854.00   0.31552851   0.04285345
3855.00   0.32140523   0.04353672
3856.00   0.20979306   0.04157617
3857.00   0.30075046   0.04228626
3858.00   0.26309299   0.04174384
3859.00   0.22916271   0.04164460
3860.00   0.25417393   0.04205138
3861.00   0.26933652   0.04301025
3862.00   0.26509759   0.04336509
3863.00   0.33593768   0.04344197
3864.00   0.30282220   0.04256951
3865.00   0.31464824   0.04184426
3866.00   0.33061326   0.04154985
3867.00   0.31707558   0.04166464
3868.00   0.34330115   0.04222654
3869.00   0.26289517   0.04108019
3870.00   0.24956895   0.04059536
3871.00   0.30284092   0.04165573
3872.00   0.31681591   0.04383038
3873.00   0.31117475   0.04620448
3874.00   0.28939086   0.04574081
3875.00   0.28590667   0.04318045
3876.00   0.24498786   0.04101840
3877.00   0.20076030   0.04038085
3878.00   0.22773030   0.04061223
3879.00   0.27120754   0.04070031
3880.00   0.29203665   0.04008696
3881.00   0.26207465   0.03874509
3882.00   0.25721276   0.03896169
3883.00   0.26288506   0.03938982
3884.00   0.22612512   0.03943790
3885.00   0.22677729   0.03964281
3886.00   0.19656338   0.03901783
3887.00   0.21719159   0.03862708
3888.00   0.28602311   0.03861221
3889.00   0.27160823   0.03907252
3890.00   0.27874270   0.03932358
3891.00   0.31991288   0.03983678
3892.00   0.31176648   0.04023049
3893.00   0.29216951   0.04151258
3894.00   0.30445939   0.04244939
3895.00   0.34343687   0.04225792
3896.00   0.27291346   0.04107155
3897.00   0.23220997   0.04048488
3898.00   0.25610849   0.04101158
3899.00   0.29866526   0.04132205
3900.00   0.21756457   0.04035878
3901.00   0.40558752   0.04367509
3902.00   0.36061072   0.04367252
3903.00   0.33977911   0.04457823
3904.00   0.28185192   0.04652394
3905.00   0.34189618   0.05296082
3906.00   0.32359624   0.05642800
3907.00   0.22621205   0.05691477
3908.00   0.18472666   0.05535810
3909.00   0.14471401   0.05484207
3910.00   0.30514929   0.05784632
3911.00   0.36567184   0.05885927
3912.00   0.27806467   0.05678076
3913.00   0.13702491   0.05267932
3914.00   0.21066026   0.04977871
3915.00   0.34038171   0.04847534
3916.00   0.34851146   0.04753784
3917.00   0.29136077   0.04654678
3918.00   0.32721505   0.04562399
3919.00   0.31398305   0.04410950
3920.00   0.30520949   0.04360382
3921.00   0.28377271   0.04278813
3922.00   0.24769783   0.04173677
3923.00   0.26391611   0.04199412
3924.00   0.24440722   0.04173215
3925.00   0.29110959   0.04193401
3926.00   0.34821862   0.04215210
3927.00   0.32499379   0.04130817
3928.00   0.28014168   0.04070332
3929.00   0.27110904   0.04073198
3930.00   0.32436690   0.04185650
3931.00   0.30848598   0.04432488
3932.00   0.33367977   0.04761690
3933.00   0.28973544   0.04671432
3934.00   0.26247874   0.04318554
3935.00   0.38901067   0.04235377
3936.00   0.36039561   0.04126463
3937.00   0.27729943   0.04030479
3938.00   0.37612298   0.04144239
3939.00   0.44544858   0.04244390
3940.00   0.43769726   0.04236357
3941.00   0.31524792   0.04263271
3942.00   0.38857564   0.04637867
3943.00   0.42235482   0.04842582
3944.00   0.34219790   0.04607180
3945.00   0.32847926   0.04398120
3946.00   0.37530655   0.04359860
3947.00   0.29177392   0.04139877
3948.00   0.28367954   0.04074640
3949.00   0.35700947   0.04123856
3950.00   0.37304401   0.04182618
3951.00   0.39970350   0.04247222
3952.00   0.42450869   0.04223087
3953.00   0.43215773   0.04174500
3954.00   0.37240812   0.04018750
3955.00   0.35564932   0.03959725
3956.00   0.29352784   0.03955088
3957.00   0.26854670   0.03915126
3958.00   0.31671274   0.04043613
3959.00   0.40426138   0.04471758
3960.00   0.33784002   0.04784109
3961.00   0.37873587   0.04830381
3962.00   0.36493805   0.04500501
3963.00   0.25009707   0.04013599
3964.00   0.25122964   0.03853244
3965.00   0.28348443   0.03914126
3966.00   0.36360756   0.04082218
3967.00   0.29451087   0.03941827
3968.00   0.25931874   0.03758486
3969.00   0.31717163   0.03836309
3970.00   0.37601268   0.04075766
3971.00   0.37696657   0.04101263
3972.00   0.36316127   0.04055563
3973.00   0.32046500   0.03985495
3974.00   0.25314781   0.03825901
3975.00   0.31390858   0.03890926
3976.00   0.41931254   0.04008595
3977.00   0.41319352   0.03979728
3978.00   0.31864735   0.03917233
3979.00   0.28333434   0.03906893
3980.00   0.38429451   0.03995476
3981.00   0.41953468   0.03972832
3982.00   0.36487675   0.03842479
3983.00   0.31763071   0.03751722
3984.00   0.27216601   0.03630705
3985.00   0.24222478   0.03542886
3986.00   0.19527805   0.03519514
3987.00   0.15240404   0.03505689
3988.00   0.14588444   0.03491338
3989.00   0.21325374   0.03678561
3990.00   0.26719877   0.03794880
3991.00   0.33622041   0.03885554
3992.00   0.33753893   0.03852385
3993.00   0.31161150   0.03833814
3994.00   0.34770557   0.04190194
3995.00   0.28469616   0.04565397
3996.00   0.32867509   0.04657743
3997.00   0.37268943   0.04409077
3998.00   0.38458267   0.04153172
3999.00   0.42801780   0.04157109
4000.00   0.36211342   0.04025510
4001.00   0.38508630   0.03997810
4002.00   0.32540101   0.03885299
4003.00   0.25670457   0.03846369
4004.00   0.33100721   0.03872368
4005.00   0.31363851   0.03817861
4006.00   0.33714423   0.03929271
4007.00   0.31127825   0.04053688
4008.00   0.27869180   0.04116538
4009.00   0.28882915   0.04074101
4010.00   0.33275908   0.04101755
4011.00   0.33314088   0.04147630
4012.00   0.30018294   0.04156379
4013.00   0.31971386   0.04034983
4014.00   0.32693008   0.03978529
4015.00   0.30230951   0.03923887
4016.00   0.27263951   0.03896585
4017.00   0.30267870   0.04283745
4018.00   0.32174459   0.04940192
4019.00   0.26155263   0.05307956
4020.00   0.20350103   0.05310447
4021.00   0.25961468   0.05423414
4022.00   0.31459257   0.05542888
4023.00   0.24485540   0.05410210
4024.00   0.23670141   0.05152635
4025.00   0.26760095   0.04814373
4026.00   0.29545462   0.04544951
4027.00   0.35762167   0.04407836
4028.00   0.34888363   0.04399388
4029.00   0.35219705   0.04542600
4030.00   0.33264223   0.04590097
4031.00   0.36245793   0.04561410
4032.00   0.39374676   0.04427207
4033.00   0.29876330   0.04217950
4034.00   0.23777349   0.04194322
4035.00   0.28625718   0.04265485
4036.00   0.35561901   0.04252768
4037.00   0.30357555   0.04107188
4038.00   0.27879462   0.04075315
4039.00   0.26873797   0.04073372
4040.00   0.31437448   0.04149259
4041.00   0.32056564   0.04298882
4042.00   0.37284553   0.04520730
4043.00   0.34526831   0.05192725
4044.00   0.46575108   0.08128156
4045.00   0.25716624   0.11460992
4046.00   0.42762542   0.12256607
4047.00   0.70536792   0.09953735
4048.00   0.43676385   0.07126154
4049.00   0.32751593   0.05432169
4050.00   0.30658156   0.04813635
4051.00   0.22261466   0.04542474
4052.00   0.30679286   0.04666320
4053.00   0.37364715   0.05015155
4054.00   0.37124750   0.05057676
4055.00   0.36146942   0.04773854
4056.00   0.51029396   0.04675080
4057.00   0.46469977   0.04416350
4058.00   0.34127840   0.04187108
4059.00   0.32405120   0.04093911
4060.00   0.41810763   0.04167547
4061.00   0.37838891   0.04149296
4062.00   0.32107553   0.04123899
4063.00   0.36478096   0.04154503
4064.00   0.49258262   0.04214201
4065.00   0.40201974   0.04094633
4066.00   0.33386546   0.04085480
4067.00   0.38582468   0.04130656
4068.00   0.42260820   0.04084246
4069.00   0.38681120   0.03983093
4070.00   0.31500590   0.03877363
4071.00   0.29653502   0.03826814
4072.00   0.33468595   0.03866240
4073.00   0.36760426   0.03988745
4074.00   0.37776548   0.04141093
4075.00   0.42094862   0.04627120
4076.00   0.42715651   0.05421720
4077.00   0.37579367   0.05760220
4078.00   0.39864019   0.05330535
4079.00   0.47313020   0.04730149
4080.00   0.48440176   0.04631478
4081.00   0.41482499   0.04837707
4082.00   0.46814150   0.04913374
4083.00   0.41920081   0.04555865
4084.00   0.34175241   0.04297713
4085.00   0.33052120   0.04424241
4086.00   0.31131506   0.04468170
4087.00   0.29338849   0.04256062
4088.00   0.34024552   0.03995267
4089.00   0.41293868   0.03855838
4090.00   0.40731841   0.03724467
4091.00   0.43517417   0.03780285
4092.00   0.43982625   0.03844491
4093.00   0.41778150   0.03840752
4094.00   0.43802860   0.03851727
4095.00   0.39550370   0.03801905
4096.00   0.46880212   0.03906395
4097.00   0.36197239   0.03765372
4098.00   0.32424235   0.03774141
4099.00   0.37167516   0.03805498
4100.00   0.40184855   0.03782400
4101.00   0.42108947   0.03737700
4102.00   0.40232140   0.03631847
4103.00   0.37307855   0.03540479
4104.00   0.34667465   0.03534107
4105.00   0.36332777   0.03595232
4106.00   0.41991058   0.03679457
4107.00   0.43176204   0.03755252
4108.00   0.41455379   0.03768315
4109.00   0.40348986   0.03682727
4110.00   0.39343670   0.03706674
4111.00   0.35927093   0.03709063
4112.00   0.32697487   0.03599795
4113.00   0.35301250   0.03591194
4114.00   0.40159297   0.03671787
4115.00   0.44298291   0.03790697
4116.00   0.41136757   0.03694972
4117.00   0.40931764   0.03581830
4118.00   0.39825699   0.03546687
4119.00   0.35126051   0.03438246
4120.00   0.37436184   0.03423301
4121.00   0.40523136   0.03517047
4122.00   0.36966747   0.03537278
4123.00   0.35131291   0.03504119
4124.00   0.34854668   0.03483837
4125.00   0.34583992   0.03532038
4126.00   0.34335509   0.03553560
4127.00   0.31975603   0.03488039
4128.00   0.35660270   0.03526774
4129.00   0.38067117   0.03591170
4130.00   0.39898250   0.03722217
4131.00   0.37249976   0.03904062
4132.00   0.33761322   0.04026793
4133.00   0.40184680   0.04038806
4134.00   0.35890621   0.03797715
4135.00   0.42460161   0.03714420
4136.00   0.38572487   0.03605565
4137.00   0.30233487   0.03575655
4138.00   0.39240623   0.03806399
4139.00   0.38970909   0.04088252
4140.00   0.31581914   0.04064013
4141.00   0.37956208   0.03836361
4142.00   0.38613689   0.03629504
4143.00   0.31085280   0.03474039
4144.00   0.35730132   0.03477237
4145.00   0.43197158   0.03505043
4146.00   0.39567938   0.03491678
4147.00   0.31841591   0.03443461
4148.00   0.34049469   0.03478586
4149.00   0.33342448   0.03452118
4150.00   0.33745915   0.03742414
4151.00   0.36286601   0.04121437
4152.00   0.39791161   0.04172055
4153.00   0.31996852   0.03854399
4154.00   0.29567862   0.03590775
4155.00   0.42770463   0.03575421
4156.00   0.45101941   0.03589291
4157.00   0.43889502   0.03555620
4158.00   0.41149113   0.03476310
4159.00   0.32951775   0.03443323
4160.00   0.33838460   0.03543744
4161.00   0.36552796   0.03566129
4162.00   0.41023165   0.03673554
4163.00   0.40907091   0.04032162
4164.00   0.37199458   0.04357200
4165.00   0.34533840   0.04284335
4166.00   0.34659007   0.03931110
4167.00   0.37650666   0.03678770
4168.00   0.38511899   0.03617527
4169.00   0.39185467   0.03604021
4170.00   0.36945540   0.03571679
4171.00   0.37978682   0.03572818
4172.00   0.42788383   0.03549632
4173.00   0.38472980   0.03454852
4174.00   0.35462809   0.03401016
4175.00   0.35545692   0.03412267
4176.00   0.35745460   0.03479371
4177.00   0.38512033   0.03548691
4178.00   0.37126714   0.03571758
4179.00   0.38726935   0.03554828
4180.00   0.33362541   0.03440771
4181.00   0.33176020   0.03355286
4182.00   0.35431683   0.03319880
4183.00   0.40361792   0.03378565
4184.00   0.40641093   0.03412418
4185.00   0.40801281   0.03427878
4186.00   0.35902154   0.03407695
4187.00   0.34461492   0.03349458
4188.00   0.38025674   0.03386272
4189.00   0.39058378   0.03371287
4190.00   0.41579589   0.03373152
4191.00   0.42169464   0.03494065
4192.00   0.46806318   0.03557412
4193.00   0.44832096   0.03501210
4194.00   0.40773317   0.03435468
4195.00   0.40014029   0.03338797
4196.00   0.35375908   0.03229540
4197.00   0.38918492   0.03303373
4198.00   0.41988453   0.03314170
4199.00   0.40975240   0.03351821
4200.00   0.41403723   0.03419574
4201.00   0.41236788   0.03352936
4202.00   0.42152032   0.03337425
4203.00   0.44678771   0.03404910
4204.00   0.46574160   0.03445418
4205.00   0.43427125   0.03386297
4206.00   0.36878043   0.03387162
4207.00   0.34956232   0.03416994
4208.00   0.44546378   0.03542877
4209.00   0.42573088   0.03576768
4210.00   0.39073983   0.03578626
4211.00   0.41928545   0.03612321
4212.00   0.46152595   0.03590040
4213.00   0.41157475   0.03469970
4214.00   0.36146578   0.03415046
4215.00   0.39227146   0.03451413
4216.00   0.42337111   0.03476562
4217.00   0.44747946   0.03446440
4218.00   0.46662590   0.03455872
4219.00   0.42175841   0.03455766
4220.00   0.38591376   0.03375462
4221.00   0.40309396   0.03347238
4222.00   0.39064559   0.03370404
4223.00   0.40401629   0.03411372
4224.00   0.41746938   0.03451813
4225.00   0.35959926   0.03421608
4226.00   0.37377268   0.03398665
4227.00   0.41539556   0.03409354
4228.00   0.41195220   0.03423685
4229.00   0.42422354   0.03431138
4230.00   0.42439616   0.03468004
4231.00   0.40494663   0.03553002
4232.00   0.43981436   0.03613931
4233.00   0.40121523   0.03567994
4234.00   0.33948755   0.03480579
4235.00   0.37995642   0.03504556
4236.00   0.40452027   0.03636384
4237.00   0.41887385   0.03784847
4238.00   0.46829423   0.03792161
4239.00   0.42311472   0.03576932
4240.00   0.38481262   0.03380410
4241.00   0.39832857   0.03351628
4242.00   0.39539310   0.03322419
4243.00   0.34975907   0.03283086
4244.00   0.42372558   0.03725367
4245.00   0.52719718   0.04554550
4246.00   0.44082758   0.04907956
4247.00   0.35642919   0.04498982
4248.00   0.37452933   0.03861652
4249.00   0.37522778   0.03539542
4250.00   0.38896701   0.03466325
4251.00   0.42048094   0.03433462
4252.00   0.39211974   0.03393883
4253.00   0.42196736   0.03406756
4254.00   0.41759825   0.03428001
4255.00   0.34944642   0.03404028
4256.00   0.42277423   0.03453820
4257.00   0.44594371   0.03474795
4258.00   0.39212167   0.03424476
4259.00   0.42157903   0.03426222
4260.00   0.41054600   0.03384745
4261.00   0.42095947   0.03351543
4262.00   0.39997539   0.03312646
4263.00   0.33355433   0.03260553
4264.00   0.34702000   0.03260636
4265.00   0.38087541   0.03273411
4266.00   0.39831099   0.03278338
4267.00   0.50463128   0.03383574
4268.00   0.52815700   0.03418614
4269.00   0.40236107   0.03315509
4270.00   0.39404535   0.03318355
4271.00   0.44519266   0.03380394
4272.00   0.40492281   0.03403994
4273.00   0.39098433   0.03404243
4274.00   0.43818274   0.03375696
4275.00   0.47073764   0.03409444
4276.00   0.44883469   0.03442909
4277.00   0.44170055   0.03444953
4278.00   0.45103225   0.03433382
4279.00   0.40667024   0.03367899
4280.00   0.36749661   0.03354861
4281.00   0.42004085   0.03450425
4282.00   0.42296886   0.03460484
4283.00   0.39462551   0.03409367
4284.00   0.44570783   0.03409938
4285.00   0.38591632   0.03323855
4286.00   0.31750050   0.03273218
4287.00   0.43013561   0.03358224
4288.00   0.46145755   0.03380396
4289.00   0.44910902   0.03369686
4290.00   0.45514455   0.03359248
4291.00   0.44832709   0.03322389
4292.00   0.39462101   0.03311049
4293.00   0.43450746   0.03399040
4294.00   0.47489285   0.03457069
4295.00   0.49188778   0.03568669
4296.00   0.50207227   0.03493245
4297.00   0.39787528   0.03341218
4298.00   0.38155055   0.03350821
4299.00   0.43517590   0.03384021
4300.00   0.40775606   0.03331047
4301.00   0.41453776   0.03345389
4302.00   0.41636530   0.03326821
4303.00   0.43202493   0.03359316
4304.00   0.44692484   0.03429807
4305.00   0.42390102   0.03460320
4306.00   0.36213085   0.03405298
4307.00   0.39347243   0.03376500
4308.00   0.41703802   0.03391456
4309.00   0.41975814   0.03370915
4310.00   0.46089244   0.03397729
4311.00   0.41853443   0.03556500
4312.00   0.37665740   0.03894174
4313.00   0.34056699   0.04164256
4314.00   0.37166536   0.04102191
4315.00   0.45652580   0.03805573
4316.00   0.44167858   0.03560307
4317.00   0.42887437   0.03502674
4318.00   0.47103006   0.03630394
4319.00   0.46128553   0.03912997
4320.00   0.43209147   0.04084201
4321.00   0.40530410   0.03889832
4322.00   0.39361432   0.03630642
4323.00   0.43081877   0.03729302
4324.00   0.40606463   0.03899479
4325.00   0.37913939   0.03844446
4326.00   0.45325369   0.03650935
4327.00   0.41261956   0.03420044
4328.00   0.36815736   0.03338655
4329.00   0.45908311   0.03424614
4330.00   0.43822986   0.03427114
4331.00   0.38239074   0.03366213
4332.00   0.44018269   0.03391633
4333.00   0.48842111   0.03411943
4334.00   0.49030969   0.03451407
4335.00   0.43510318   0.03464852
4336.00   0.37542605   0.03468849
4337.00   0.42297989   0.03579292
4338.00   0.41540784   0.03639638
4339.00   0.38805103   0.03626065
4340.00   0.36431816   0.03579541
4341.00   0.33765090   0.03531047
4342.00   0.45061770   0.03602155
4343.00   0.45499063   0.03600264
4344.00   0.44139111   0.03637422
4345.00   0.47756389   0.03885498
4346.00   0.44132015   0.04083992
4347.00   0.45409188   0.04164041
4348.00   0.46302345   0.04056907
4349.00   0.45391986   0.03871860
4350.00   0.45141643   0.03768790
4351.00   0.43515810   0.03708816
4352.00   0.41500393   0.03738622
4353.00   0.44655323   0.03863127
4354.00   0.47231010   0.03884427
4355.00   0.32131979   0.04903319
4356.00   0.29826552   0.08397023
4357.00   0.33423501   0.11983507
4358.00   0.40937856   0.12670490
4359.00   0.46102378   0.10313064
4360.00   0.32290560   0.07091200
4361.00   0.40951252   0.05146790
4362.00   0.52274507   0.04505147
4363.00   0.43318069   0.04208511
4364.00   0.43834710   0.04092971
4365.00   0.50546116   0.04085042
4366.00   0.49763069   0.04028646
4367.00   0.44861525   0.03946967
4368.00   0.36813784   0.03886093
4369.00   0.40366814   0.03868833
4370.00   0.48635733   0.03835358
4371.00   0.44029137   0.03803348
4372.00   0.45337811   0.03972888
4373.00   0.48647821   0.04252749
4374.00   0.44078022   0.04323493
4375.00   0.44890210   0.04149476
4376.00   0.48622948   0.03935098
4377.00   0.49067187   0.03769502
4378.00   0.43115497   0.03668729
4379.00   0.40910965   0.03642683
4380.00   0.41207057   0.03627792
4381.00   0.46090242   0.03676834
4382.00   0.45579979   0.03636605
4383.00   0.40267667   0.03548076
4384.00   0.42135131   0.03566787
4385.00   0.42520466   0.03536761
4386.00   0.42130271   0.03497375
4387.00   0.47545224   0.03519167
4388.00   0.43810028   0.03536325
4389.00   0.51951385   0.03658128
4390.00   0.40605986   0.03573285
4391.00   0.40007147   0.03565313
4392.00   0.49364644   0.03601598
4393.00   0.45856655   0.03527157
4394.00   0.37976441   0.03435996
4395.00   0.35499391   0.03399365
4396.00   0.45828682   0.03503093
4397.00   0.52230453   0.03576650
4398.00   0.47466481   0.03686067
4399.00   0.46160263   0.03851559
4400.00   0.46468148   0.03899288
4401.00   0.45495653   0.03761957
4402.00   0.44849989   0.03629275
4403.00   0.42235833   0.03537473
4404.00   0.41962045   0.03508163
4405.00   0.43605000   0.03508578
4406.00   0.44443426   0.03533980
4407.00   0.48875523   0.03577312
4408.00   0.45019975   0.03580243
4409.00   0.42768884   0.03543715
4410.00   0.39743400   0.03503047
4411.00   0.41596457   0.03525255
4412.00   0.43333006   0.03568585
4413.00   0.46203458   0.03658750
4414.00   0.45372787   0.03786665
4415.00   0.41954499   0.03846435
4416.00   0.43401489   0.03760096
4417.00   0.42186576   0.03591751
4418.00   0.44612056   0.03556714
4419.00   0.46708885   0.03594660
4420.00   0.43972507   0.03581822
4421.00   0.45322797   0.03558325
4422.00   0.45203391   0.03515343
4423.00   0.43084463   0.03548095
4424.00   0.42404062   0.03583397
4425.00   0.48468986   0.03564988
4426.00   0.43440121   0.03517294
4427.00   0.42200860   0.03470892
4428.00   0.41628578   0.03458570
4429.00   0.43261549   0.03518111
4430.00   0.46355268   0.03559576
4431.00   0.50882363   0.03563986
4432.00   0.50862944   0.03552217
4433.00   0.44811752   0.03472576
4434.00   0.44587639   0.03472134
4435.00   0.42466596   0.03476772
4436.00   0.43386033   0.03435281
4437.00   0.45759264   0.03461079
4438.00   0.47154021   0.03522119
4439.00   0.52067530   0.03565968
4440.00   0.45525873   0.03490755
4441.00   0.40396470   0.03380970
4442.00   0.43266532   0.03391850
4443.00   0.50937593   0.03465295
4444.00   0.47055307   0.03452744
4445.00   0.42591286   0.03451473
4446.00   0.49870315   0.03486995
4447.00   0.49323544   0.03461741
4448.00   0.51588243   0.03459397
4449.00   0.53918654   0.03487651
4450.00   0.47113803   0.03424162
4451.00   0.38098830   0.03359190
4452.00   0.46626166   0.03419007
4453.00   0.54324180   0.03437455
4454.00   0.49410149   0.03433912
4455.00   0.53056210   0.03474419
4456.00   0.52810150   0.03483233
4457.00   0.43887267   0.03448780
4458.00   0.44009373   0.03443302
4459.00   0.49943906   0.03492098
4460.00   0.46613055   0.03462351
4461.00   0.45626539   0.03428346
4462.00   0.47907454   0.03409695
4463.00   0.47804320   0.03384788
4464.00   0.47425678   0.03388713
4465.00   0.42559806   0.03348130
4466.00   0.35109422   0.03273533
4467.00   0.36632696   0.03292423
4468.00   0.40918720   0.03356703
4469.00   0.39744034   0.03360309
4470.00   0.43873414   0.03354158
4471.00   0.44347245   0.03340235
4472.00   0.41788551   0.03340853
4473.00   0.50167072   0.03403971
4474.00   0.50486755   0.03413044
4475.00   0.50553662   0.03395309
4476.00   0.51838320   0.03394974
4477.00   0.46276900   0.03353517
4478.00   0.46862510   0.03380379
4479.00   0.53047228   0.03441761
4480.00   0.46948016   0.03391796
4481.00   0.53450477   0.03443088
4482.00   0.49643880   0.03415573
4483.00   0.54813290   0.03448086
4484.00   0.49523899   0.03409840
4485.00   0.48824078   0.03427232
4486.00   0.54812419   0.03464588
4487.00   0.57470155   0.03478177
4488.00   0.49934855   0.03409027
4489.00   0.54209501   0.03420357
4490.00   0.45895967   0.03372845
4491.00   0.42032477   0.03420352
4492.00   0.48461869   0.03492281
4493.00   0.55939984   0.03558848
4494.00   0.54837817   0.03535316
4495.00   0.48093590   0.03456987
4496.00   0.46497601   0.03434108
4497.00   0.42964238   0.03458947
4498.00   0.45863903   0.03504611
4499.00   0.49604404   0.03524745
4500.00   0.45575091   0.03465110
4501.00   0.48472548   0.03436934
4502.00   0.48149079   0.03402065
4503.00   0.42371777   0.03352730
4504.00   0.39793473   0.03339962
4505.00   0.41855046   0.03366291
4506.00   0.48497295   0.03390060
4507.00   0.51706266   0.03382431
4508.00   0.45114514   0.03308290
4509.00   0.44936281   0.03271961
4510.00   0.52553988   0.03335817
4511.00   0.52680576   0.03369430
4512.00   0.50558293   0.03347818
4513.00   0.51886952   0.03340198
4514.00   0.51053542   0.03342596
4515.00   0.48756763   0.03320200
4516.00   0.47443828   0.03272197
4517.00   0.42383841   0.03204831
4518.00   0.38682434   0.03174828
4519.00   0.44176459   0.03217814
4520.00   0.46177518   0.03232670
4521.00   0.43111673   0.03205089
4522.00   0.42069367   0.03187595
4523.00   0.43652880   0.03206293
4524.00   0.52700526   0.03245567
4525.00   0.51594841   0.03239884
4526.00   0.48725119   0.03255673
4527.00   0.54980159   0.03274314
4528.00   0.56278747   0.03287590
4529.00   0.54335350   0.03288396
4530.00   0.51434213   0.03260834
4531.00   0.56403255   0.03322379
4532.00   0.56525457   0.03328768
4533.00   0.57849264   0.03303098
4534.00   0.52640504   0.03258833
4535.00   0.49539629   0.03273870
4536.00   0.57216388   0.03282450
4537.00   0.51756102   0.03225640
4538.00   0.46930426   0.03200841
4539.00   0.48849392   0.03187810
4540.00   0.57750630   0.03275791
4541.00   0.50995088   0.03251516
4542.00   0.51285988   0.03317366
4543.00   0.49154887   0.03347230
4544.00   0.47780162   0.03320897
4545.00   0.48730150   0.03302634
4546.00   0.50679272   0.03280707
4547.00   0.54801238   0.03263354
4548.00   0.54083484   0.03231653
4549.00   0.47662088   0.03185565
4550.00   0.48604608   0.03170005
4551.00   0.51145661   0.03149970
4552.00   0.53000772   0.03145833
4553.00   0.52815765   0.03144242
4554.00   0.51476389   0.03169097
4555.00   0.51332927   0.03201164
4556.00   0.50134593   0.03225917
4557.00   0.48504394   0.03233650
4558.00   0.48627424   0.03167402
4559.00   0.50820512   0.03127797
4560.00   0.50952804   0.03137431
4561.00   0.49451965   0.03116069
4562.00   0.51148266   0.03122657
4563.00   0.54586214   0.03156099
4564.00   0.56213766   0.03157561
4565.00   0.56176239   0.03127639
4566.00   0.54159915   0.03088094
4567.00   0.52521378   0.03093985
4568.00   0.51006877   0.03095076
4569.00   0.49718398   0.03055237
4570.00   0.50965405   0.03079018
4571.00   0.46782577   0.03098549
4572.00   0.45656255   0.03090838
4573.00   0.53033322   0.03189138
4574.00   0.55085903   0.03206577
4575.00   0.44737059   0.03070753
4576.00   0.43975088   0.03022658
4577.00   0.45619965   0.03023733
4578.00   0.46345863   0.03043631
4579.00   0.50186968   0.03028630
4580.00   0.54462916   0.03048264
4581.00   0.48923886   0.03020765
4582.00   0.49372882   0.02978265
4583.00   0.51710761   0.02975182
4584.00   0.48950908   0.02953123
4585.00   0.48962662   0.02930309
4586.00   0.48569018   0.02961847
4587.00   0.43199345   0.02931547
4588.00   0.46323451   0.02974694
4589.00   0.46671528   0.02992345
4590.00   0.48979029   0.02948370
4591.00   0.47884771   0.02938615
4592.00   0.49686423   0.02981825
4593.00   0.50259942   0.03001346
4594.00   0.52393854   0.03011423
4595.00   0.53347605   0.03012667
4596.00   0.48649529   0.02994925
4597.00   0.51232249   0.03016937
4598.00   0.54392236   0.03028492
4599.00   0.51332688   0.02962441
4600.00   0.49100605   0.02913971
4601.00   0.49832499   0.02914163
4602.00   0.47737765   0.02869650
4603.00   0.44409126   0.02878573
4604.00   0.45739958   0.02944528
4605.00   0.49852958   0.02964811
4606.00   0.50706756   0.02940657
4607.00   0.50132877   0.02926207
4608.00   0.53897816   0.02977777
4609.00   0.50615484   0.03016370
4610.00   0.45586479   0.02959050
4611.00   0.50310403   0.02920959
4612.00   0.50441009   0.02901576
4613.00   0.45534569   0.02844716
4614.00   0.46873772   0.02838732
4615.00   0.48026878   0.02851651
4616.00   0.46546385   0.02826770
4617.00   0.46030024   0.02809535
4618.00   0.47036415   0.02823385
4619.00   0.47425628   0.02847130
4620.00   0.45582888   0.02858965
4621.00   0.51121855   0.02903149
4622.00   0.55910969   0.02926361
4623.00   0.52227217   0.02894443
4624.00   0.46161121   0.02847048
4625.00   0.45191920   0.02814993
4626.00   0.49303800   0.02838335
4627.00   0.49656764   0.02860371
4628.00   0.51842105   0.02894241
4629.00   0.54175466   0.02913114
4630.00   0.53779489   0.02891330
4631.00   0.52564740   0.02890930
4632.00   0.47903621   0.02867370
4633.00   0.46425655   0.02837146
4634.00   0.51348406   0.02873144
4635.00   0.55366057   0.02897459
4636.00   0.52263671   0.02837463
4637.00   0.43950287   0.02777179
4638.00   0.40691209   0.02799010
4639.00   0.46950522   0.02846508
4640.00   0.52260333   0.02898155
4641.00   0.50576985   0.02861745
4642.00   0.49821475   0.02841579
4643.00   0.44253862   0.02776622
4644.00   0.48430240   0.02795978
4645.00   0.54961038   0.02853612
4646.00   0.47388923   0.02812052
4647.00   0.55865794   0.02859421
4648.00   0.56202155   0.02890510
4649.00   0.47550353   0.02832424
4650.00   0.44445914   0.02818487
4651.00   0.40823197   0.02810239
4652.00   0.40189841   0.02798817
4653.00   0.43576071   0.02824230
4654.00   0.49067524   0.02867896
4655.00   0.48297417   0.02874407
4656.00   0.48038009   0.02884582
4657.00   0.51307094   0.02922589
4658.00   0.47645384   0.02919831
4659.00   0.47341645   0.02953929
4660.00   0.51720858   0.03020753
4661.00   0.48872593   0.03037605
4662.00   0.46429345   0.03055326
4663.00   0.47869483   0.03092595
4664.00   0.48830742   0.03124166
4665.00   0.48918390   0.03154711
4666.00   0.47637221   0.03212547
4667.00   0.50237429   0.03292774
4668.00   0.51073700   0.03347535
4669.00   0.47290200   0.03384724
4670.00   0.50429225   0.03370784
4671.00   0.55614978   0.03306807
4672.00   0.57021499   0.03265269
4673.00   0.47546014   0.03205227
4674.00   0.44675061   0.03155089
4675.00   0.48698092   0.03137691
4676.00   0.54244828   0.03125717
4677.00   0.55013281   0.03101269
4678.00   0.47286773   0.02987443
4679.00   0.46140549   0.02984165
4680.00   0.39937115   0.02927208
4681.00   0.43052000   0.02889720
4682.00   0.50867730   0.02930995
4683.00   0.47144610   0.02889869
4684.00   0.43196046   0.02846090
4685.00   0.51491874   0.02905241
4686.00   0.49547789   0.02911948
4687.00   0.51883006   0.02896959
4688.00   0.55407310   0.02911317
4689.00   0.52961260   0.02909814
4690.00   0.52613807   0.02907111
4691.00   0.55106765   0.02908528
4692.00   0.51996911   0.02855655
4693.00   0.45272470   0.02805934
4694.00   0.43919891   0.02816953
4695.00   0.49290821   0.02821496
4696.00   0.53221744   0.02796558
4697.00   0.52110368   0.02774911
4698.00   0.50334984   0.02761349
4699.00   0.47358078   0.02746075
4700.00   0.48752835   0.02753950
4701.00   0.52230191   0.02775930
4702.00   0.53442746   0.02817816
4703.00   0.55373371   0.02866569
4704.00   0.53633159   0.02854836
4705.00   0.53162950   0.02866338
4706.00   0.51442450   0.02867032
4707.00   0.50750208   0.02885021
4708.00   0.53272480   0.02941274
4709.00   0.55906981   0.02965986
4710.00   0.54008394   0.02918473
4711.00   0.52804106   0.02885754
4712.00   0.54176915   0.02897090
4713.00   0.51583630   0.02877646
4714.00   0.48348507   0.02831688
4715.00   0.47461966   0.02798607
4716.00   0.49638534   0.02802834
4717.00   0.51460516   0.02782458
4718.00   0.51378244   0.02757304
4719.00   0.51309931   0.02764628
4720.00   0.53575140   0.02801230
4721.00   0.56541741   0.02835402
4722.00   0.54049140   0.02843559
4723.00   0.53577816   0.02847450
4724.00   0.53775722   0.02814447
4725.00   0.50120515   0.02758476
4726.00   0.51751179   0.02786517
4727.00   0.50570917   0.02985916
4728.00   0.48236391   0.03293123
4729.00   0.48903507   0.03371070
4730.00   0.52721030   0.03198043
4731.00   0.50143790   0.02983750
4732.00   0.50453669   0.02961807
4733.00   0.52562112   0.03175408
4734.00   0.54199392   0.03323312
4735.00   0.59673172   0.03264763
4736.00   0.47096267   0.03231047
4737.00   0.50876337   0.03352450
4738.00   0.54182363   0.03330395
4739.00   0.51608485   0.03333610
4740.00   0.51254475   0.03486717
4741.00   0.51022679   0.03563453
4742.00   0.49437129   0.03613017
4743.00   0.54034072   0.03698993
4744.00   0.59425819   0.03613839
4745.00   0.54151917   0.03282974
4746.00   0.50706142   0.02979428
4747.00   0.53116262   0.02867592
4748.00   0.53452051   0.02880654
4749.00   0.52764273   0.02880497
4750.00   0.54483497   0.02876522
4751.00   0.56277585   0.02993285
4752.00   0.54108578   0.03143893
4753.00   0.52764678   0.03176238
4754.00   0.52433556   0.03044301
4755.00   0.48745093   0.02842623
4756.00   0.48842481   0.02729264
4757.00   0.52602732   0.02730098
4758.00   0.51551741   0.02720545
4759.00   0.50834459   0.02696940
4760.00   0.54293013   0.02671129
4761.00   0.53225696   0.02637554
4762.00   0.50451070   0.02638154
4763.00   0.50941747   0.02627146
4764.00   0.48498115   0.02582562
4765.00   0.50530165   0.02593060
4766.00   0.54492283   0.02637823
4767.00   0.50230354   0.02599156
4768.00   0.53248435   0.02583143
4769.00   0.56727153   0.02603194
4770.00   0.56149977   0.02604120
4771.00   0.56161124   0.02622950
4772.00   0.53614855   0.02600124
4773.00   0.55244154   0.02613761
4774.00   0.58069581   0.02650979
4775.00   0.55206227   0.02623957
4776.00   0.55847085   0.02625943
4777.00   0.57932651   0.02719654
4778.00   0.56245613   0.02879970
4779.00   0.57816333   0.02968506
4780.00   0.58244312   0.02879001
4781.00   0.54644638   0.02734668
4782.00   0.54472327   0.02642407
4783.00   0.55729157   0.02607661
4784.00   0.57383889   0.02637061
4785.00   0.60171121   0.02645932
4786.00   0.53041661   0.02603886
4787.00   0.59144485   0.02642859
4788.00   0.64366877   0.02682108
4789.00   0.54874271   0.02608626
4790.00   0.49540806   0.02622929
4791.00   0.51221579   0.02652726
4792.00   0.49487737   0.02619969
4793.00   0.48324141   0.02579451
4794.00   0.48652637   0.02542092
4795.00   0.53417826   0.02547278
4796.00   0.52473921   0.02539066
4797.00   0.51402074   0.02537859
4798.00   0.55094081   0.02535675
4799.00   0.53667510   0.02509633
4800.00   0.51519907   0.02511998
4801.00   0.54932290   0.02554395
4802.00   0.58350343   0.02599708
4803.00   0.57800364   0.02575825
4804.00   0.55072355   0.02524313
4805.00   0.53180003   0.02527151
4806.00   0.54139125   0.02576121
4807.00   0.52201974   0.02578098
4808.00   0.52981150   0.02597717
4809.00   0.54440314   0.02610911
4810.00   0.48143530   0.02525922
4811.00   0.47807229   0.02509123
4812.00   0.52937222   0.02568398
4813.00   0.50850564   0.02570576
4814.00   0.51249921   0.02575171
4815.00   0.55048710   0.02578130
4816.00   0.51740903   0.02548050
4817.00   0.52058822   0.02551760
4818.00   0.54977626   0.02566282
4819.00   0.52552783   0.02567084
4820.00   0.53905147   0.02599965
4821.00   0.53701997   0.02619088
4822.00   0.52351457   0.02617759
4823.00   0.54193926   0.02639541
4824.00   0.54974413   0.02651643
4825.00   0.55025721   0.02635920
4826.00   0.54219419   0.02635925
4827.00   0.52139896   0.02642075
4828.00   0.49896327   0.02618432
4829.00   0.52151901   0.02608409
4830.00   0.50779355   0.02602650
4831.00   0.51279950   0.02635652
4832.00   0.55773586   0.02691581
4833.00   0.57418948   0.02739439
4834.00   0.58203626   0.02748239
4835.00   0.57782918   0.02683277
4836.00   0.54929489   0.02614340
4837.00   0.58450931   0.02633406
4838.00   0.52048331   0.02730313
4839.00   0.45458651   0.02792622
4840.00   0.51379633   0.02837747
4841.00   0.52387679   0.02793301
4842.00   0.49487570   0.02684917
4843.00   0.50164825   0.02624932
4844.00   0.53483176   0.02622861
4845.00   0.56131208   0.02644423
4846.00   0.56332362   0.02685284
4847.00   0.55559760   0.02731628
4848.00   0.54800153   0.02742074
4849.00   0.54776132   0.02700123
4850.00   0.53506166   0.02648456
4851.00   0.51568091   0.02652900
4852.00   0.51878047   0.02703536
4853.00   0.51786697   0.02695920
4854.00   0.52489865   0.02654387
4855.00   0.51661617   0.02612296
4856.00   0.52003384   0.02592948
4857.00   0.55144966   0.02601953
4858.00   0.58802950   0.02637664
4859.00   0.57528371   0.02649812
4860.00   0.52283591   0.02617772
4861.00   0.53434080   0.02637367
4862.00   0.53018415   0.02668608
4863.00   0.49187315   0.02665777
4864.00   0.52695775   0.02683771
4865.00   0.55652767   0.02698305
4866.00   0.55314404   0.02685426
4867.00   0.54179239   0.02639166
4868.00   0.51213479   0.02599744
4869.00   0.52720481   0.02625884
4870.00   0.53332013   0.02637700
4871.00   0.51314622   0.02629750
4872.00   0.56512284   0.02661945
4873.00   0.56782699   0.02658736
4874.00   0.51126158   0.02637284
4875.00   0.48048192   0.02571189
4876.00   0.54539675   0.02624611
4877.00   0.56019688   0.02674174
4878.00   0.50927192   0.02691954
4879.00   0.49920559   0.02707923
4880.00   0.55175287   0.02706493
4881.00   0.51635242   0.02649461
4882.00   0.54963970   0.02658945
4883.00   0.55593121   0.02670261
4884.00   0.53451586   0.02628365
4885.00   0.56097281   0.02600536
4886.00   0.55412757   0.02592133
4887.00   0.49796826   0.02551120
4888.00   0.49642539   0.02535562
4889.00   0.51435125   0.02569332
4890.00   0.52849746   0.02598427
4891.00   0.56657803   0.02609544
4892.00   0.56110227   0.02600392
4893.00   0.54943627   0.02605132
4894.00   0.55828702   0.02630967
4895.00   0.51922661   0.02607959
4896.00   0.50818521   0.02577502
4897.00   0.49752071   0.02545075
4898.00   0.53001446   0.02544092
4899.00   0.54385096   0.02537301
4900.00   0.53532588   0.02535238
4901.00   0.51714200   0.02527070
4902.00   0.53948402   0.02545145
4903.00   0.54942888   0.02542916
4904.00   0.52218038   0.02507428
4905.00   0.51300472   0.02512782
4906.00   0.52204514   0.02540533
4907.00   0.52872670   0.02562755
4908.00   0.54128277   0.02597739
4909.00   0.54067141   0.02624616
4910.00   0.50910830   0.02607923
4911.00   0.49909371   0.02567807
4912.00   0.50399929   0.02544064
4913.00   0.49504441   0.02530415
4914.00   0.51653445   0.02541260
4915.00   0.53373671   0.02581350
4916.00   0.51582277   0.02585483
4917.00   0.49980879   0.02554532
4918.00   0.46442273   0.02518642
4919.00   0.45643094   0.02497293
4920.00   0.47566175   0.02506760
4921.00   0.55027813   0.02562488
4922.00   0.54542255   0.02557894
4923.00   0.51818025   0.02545566
4924.00   0.64840961   0.02654115
4925.00   0.86097395   0.02810833
4926.00   0.90595883   0.02924716
4927.00   0.78048021   0.02858494
4928.00   0.68424928   0.02709735
4929.00   0.58589470   0.02534653
4930.00   0.52333200   0.02445553
4931.00   0.51471913   0.02430037
4932.00   0.47600695   0.02395658
4933.00   0.47598496   0.02418303
4934.00   0.50466073   0.02467664
4935.00   0.50276709   0.02494922
4936.00   0.49118727   0.02478804
4937.00   0.49255797   0.02465844
4938.00   0.53630376   0.02496879
4939.00   0.49277624   0.02478473
4940.00   0.53000319   0.02511793
4941.00   0.58466017   0.02581962
4942.00   0.56756008   0.02556435
4943.00   0.50495207   0.02542511
4944.00   0.51638651   0.02519499
4945.00   0.55379242   0.02497270
4946.00   0.53730518   0.02451479
4947.00   0.52802342   0.02440309
4948.00   0.55431259   0.02470162
4949.00   0.53625208   0.02456366
4950.00   0.51247561   0.02452528
4951.00   0.51507890   0.02480085
4952.00   0.51966095   0.02530622
4953.00   0.56912172   0.02640627
4954.00   0.59131241   0.02681272
4955.00   0.53271657   0.02615710
4956.00   0.49752331   0.02546877
4957.00   0.52836770   0.02510808
4958.00   0.54690498   0.02510875
4959.00   0.52928919   0.02523779
4960.00   0.54616445   0.02546581
4961.00   0.57151818   0.02572020
4962.00   0.56468183   0.02580582
4963.00   0.54914314   0.02593542
4964.00   0.51540834   0.02601616
4965.00   0.53597558   0.02623869
4966.00   0.56986934   0.02653086
4967.00   0.55351126   0.02664994
4968.00   0.54213619   0.02677230
4969.00   0.55664510   0.02699405
4970.00   0.59204459   0.02759687
4971.00   0.55375385   0.02774923
4972.00   0.47846371   0.02794896
4973.00   0.53669709   0.02934763
4974.00   0.57125759   0.03023283
4975.00   0.51479548   0.03026381
4976.00   0.53748363   0.03037830
4977.00   0.48310971   0.03103498
4978.00   0.53347659   0.03263893
4979.00   0.57917136   0.03434401
4980.00   0.53833371   0.03538072
4981.00   0.51737469   0.03600023
4982.00   0.58589065   0.03683180
4983.00   0.62607998   0.03720955
4984.00   0.57087082   0.03674185
4985.00   0.49530944   0.03557589
4986.00   0.52113777   0.03467619
4987.00   0.54129171   0.03380617
4988.00   0.56350911   0.03289387
4989.00   0.53746206   0.03185285
4990.00   0.48130324   0.03095248
4991.00   0.53848892   0.03104935
4992.00   0.57387888   0.03096930
4993.00   0.56483555   0.03011670
4994.00   0.59188914   0.02944529
4995.00   0.51859075   0.02818957
4996.00   0.56880891   0.02780375
4997.00   0.61892915   0.02757127
4998.00   0.56307852   0.02694175
4999.00   0.54741603   0.02659479
5000.00   0.57800269   0.02664793
5001.00   0.54822838   0.02654624
5002.00   0.54769450   0.02634719
5003.00   0.57482010   0.02605164
5004.00   0.54280978   0.02560145
5005.00   0.53500235   0.02546910
5006.00   0.56971586   0.02562360
5007.00   0.56960022   0.02547045
5008.00   0.56137955   0.02508345
5009.00   0.56956095   0.02501366
5010.00   0.56305909   0.02513786
5011.00   0.58544052   0.02527914
5012.00   0.63527733   0.02546308
5013.00   0.61064935   0.02522016
5014.00   0.56176054   0.02489211
5015.00   0.58441043   0.02516445
5016.00   0.59344304   0.02529853
5017.00   0.58671719   0.02558765
5018.00   0.60548162   0.02611910
5019.00   0.58704388   0.02633430
5020.00   0.59431404   0.02662244
5021.00   0.57155567   0.02638198
5022.00   0.56883401   0.02574890
5023.00   0.56058353   0.02513450
5024.00   0.55168468   0.02482790
5025.00   0.56177181   0.02483590
5026.00   0.56794733   0.02478820
5027.00   0.58658665   0.02490735
5028.00   0.57452840   0.02497070
5029.00   0.53906465   0.02518541
5030.00   0.56401032   0.02605718
5031.00   0.58642399   0.02642697
5032.00   0.58261287   0.02622259
5033.00   0.56211334   0.02556347
5034.00   0.58071196   0.02500318
5035.00   0.56717217   0.02438339
5036.00   0.52173942   0.02392586
5037.00   0.52641505   0.02435023
5038.00   0.57049567   0.02466771
5039.00   0.58423632   0.02484216
5040.00   0.56742638   0.02449057
5041.00   0.55494601   0.02429198
5042.00   0.55327076   0.02436770
5043.00   0.55739468   0.02449971
5044.00   0.57627326   0.02482709
5045.00   0.56899017   0.02491693
5046.00   0.53844303   0.02460234
5047.00   0.54584515   0.02441578
5048.00   0.55851811   0.02434837
5049.00   0.55455106   0.02433310
5050.00   0.57683271   0.02457068
5051.00   0.61266983   0.02473577
5052.00   0.61367685   0.02467776
5053.00   0.57770842   0.02451335
5054.00   0.55203396   0.02426394
5055.00   0.55715346   0.02420730
5056.00   0.56979555   0.02450971
5057.00   0.56301874   0.02446952
5058.00   0.54127413   0.02414808
5059.00   0.54537123   0.02426309
5060.00   0.56568086   0.02437277
5061.00   0.56609803   0.02453422
5062.00   0.56356764   0.02506835
5063.00   0.57055014   0.02601605
5064.00   0.57336581   0.02690033
5065.00   0.56822789   0.02680642
5066.00   0.55449826   0.02613692
5067.00   0.51719946   0.02576880
5068.00   0.49903288   0.02620784
5069.00   0.54539084   0.02823807
5070.00   0.53747988   0.02919794
5071.00   0.52826506   0.02851340
5072.00   0.54817688   0.02718220
5073.00   0.65780628   0.02687179
5074.00   0.70068210   0.02695367
5075.00   0.68533713   0.02738554
5076.00   0.68250763   0.02753574
5077.00   0.63655525   0.02698764
5078.00   0.63613594   0.02655973
5079.00   0.69783771   0.02740916
5080.00   0.65858984   0.02935829
5081.00   0.63023287   0.03229843
5082.00   0.66598219   0.03467878
5083.00   0.62748712   0.03537759
5084.00   0.59180593   0.03601812
5085.00   0.62118441   0.03680632
5086.00   0.65347052   0.03727821
5087.00   0.58217430   0.03598839
5088.00   0.59167111   0.03342102
5089.00   0.66327649   0.03149556
5090.00   0.63698941   0.02983817
5091.00   0.63864875   0.02837288
5092.00   0.61465830   0.02699595
5093.00   0.62643492   0.02626504
5094.00   0.64018047   0.02615247
5095.00   0.60239393   0.02624056
5096.00   0.57573766   0.02694069
5097.00   0.59634286   0.02801455
5098.00   0.62776554   0.02906244
5099.00   0.62155503   0.02994165
5100.00   0.56224102   0.02995585
5101.00   0.51782167   0.02904691
5102.00   0.55166775   0.02785723
5103.00   0.57635504   0.02670412
5104.00   0.58297133   0.02579547
5105.00   0.61923748   0.02546209
5106.00   0.61799842   0.02550189
5107.00   0.58802724   0.02548308
5108.00   0.62317902   0.02596261
5109.00   0.66316569   0.02648538
5110.00   0.61946142   0.02608581
5111.00   0.61977673   0.02612271
5112.00   0.65958190   0.02660369
5113.00   0.66265863   0.02656576
5114.00   0.62707263   0.02640411
5115.00   0.62639946   0.02666770
5116.00   0.64797145   0.02712466
5117.00   0.62084341   0.02715436
5118.00   0.61341053   0.02685997
5119.00   0.63386953   0.02641315
5120.00   0.58432084   0.02545281
5121.00   0.58134735   0.02506271
5122.00   0.62267387   0.02508592
5123.00   0.60556209   0.02503526
5124.00   0.57474393   0.02502059
5125.00   0.63856345   0.02555994
5126.00   0.66395926   0.02551171
5127.00   0.61271882   0.02493040
5128.00   0.58352774   0.02494959
5129.00   0.61706638   0.02543161
5130.00   0.60867161   0.02530411
5131.00   0.60070598   0.02517860
5132.00   0.61467671   0.02535627
5133.00   0.63957471   0.02557449
5134.00   0.65765214   0.02567154
5135.00   0.62772441   0.02543239
5136.00   0.62195075   0.02539037
5137.00   0.60737675   0.02530515
5138.00   0.56677473   0.02493710
5139.00   0.59466910   0.02509400
5140.00   0.57779348   0.02481494
5141.00   0.57773739   0.02497778
5142.00   0.60906333   0.02534338
5143.00   0.59098053   0.02562204
5144.00   0.62338001   0.02606899
5145.00   0.66287875   0.02616121
5146.00   0.62874639   0.02603395
5147.00   0.58317262   0.02620226
5148.00   0.58357662   0.02699078
5149.00   0.62274945   0.02818983
5150.00   0.65380484   0.02882434
5151.00   0.64470589   0.02889607
5152.00   0.64930111   0.02951241
5153.00   0.68292099   0.03061469
5154.00   0.64816719   0.03110537
5155.00   0.61559099   0.03064225
5156.00   0.65810239   0.02975419
5157.00   0.62334037   0.02987549
5158.00   0.57508242   0.02965174
5159.00   0.61001742   0.02752791
5160.00   0.62610137   0.02686344
5161.00   0.62588757   0.02670832
5162.00   0.58906919   0.02622205
5163.00   0.60603935   0.02616246
5164.00   0.61333919   0.02617572
5165.00   0.61572105   0.02606152
5166.00   0.62849790   0.02583688
5167.00   0.61523819   0.02543691
5168.00   0.60743201   0.02552568
5169.00   0.59192324   0.02578697
5170.00   0.57949185   0.02548135
5171.00   0.61636847   0.02563570
5172.00   0.65945047   0.02592912
5173.00   0.64260060   0.02603464
5174.00   0.58221447   0.02550001
5175.00   0.60098296   0.02599557
5176.00   0.61021614   0.02587218
5177.00   0.59382474   0.02568883
5178.00   0.57280213   0.02578200
5179.00   0.60118896   0.02581914
5180.00   0.60094899   0.02575003
5181.00   0.59048891   0.02565474
5182.00   0.57565486   0.02533711
5183.00   0.58166897   0.02530883
5184.00   0.60298342   0.02560833
5185.00   0.55891502   0.02554537
5186.00   0.58457941   0.02585552
5187.00   0.65693724   0.02639509
5188.00   0.66198665   0.02661205
5189.00   0.63701349   0.02654294
5190.00   0.64450705   0.02659901
5191.00   0.66850448   0.02688214
5192.00   0.66014916   0.02671579
5193.00   0.63916624   0.02639855
5194.00   0.64506316   0.02658708
5195.00   0.64657146   0.02683719
5196.00   0.65263319   0.02696757
5197.00   0.67499787   0.02723601
5198.00   0.67686361   0.02765333
5199.00   0.65153229   0.02790253
5200.00   0.63936883   0.02777120
5201.00   0.67286927   0.02767671
5202.00   0.70290995   0.02758791
5203.00   0.66825342   0.02709624
5204.00   0.60163945   0.02665330
5205.00   0.60188991   0.02655423
5206.00   0.64307678   0.02652706
5207.00   0.64099061   0.02660779
5208.00   0.63393486   0.02673087
5209.00   0.59054464   0.02701562
5210.00   0.54340982   0.02773748
5211.00   0.57113141   0.02825926
5212.00   0.60885471   0.02799625
5213.00   0.55866241   0.02695413
5214.00   0.51686054   0.02630869
5215.00   0.56486440   0.02643324
5216.00   0.59092206   0.02646759
5217.00   0.60863328   0.02667301
5218.00   0.68315315   0.02767033
5219.00   0.67708725   0.02858684
5220.00   0.64698637   0.02863855
5221.00   0.62422961   0.02834881
5222.00   0.65614122   0.02786225
5223.00   0.67908216   0.02790226
5224.00   0.65648013   0.02755816
5225.00   0.64606953   0.02734035
5226.00   0.68703032   0.02768482
5227.00   0.67323583   0.02741323
5228.00   0.66598272   0.02737707
5229.00   0.66350067   0.02763098
5230.00   0.66468704   0.02804657
5231.00   0.68322009   0.02842388
5232.00   0.67376631   0.02830350
5233.00   0.65391994   0.02794864
5234.00   0.64396828   0.02733398
5235.00   0.63689357   0.02708503
5236.00   0.57804108   0.02661736
5237.00   0.57984465   0.02667297
5238.00   0.66142482   0.02776356
5239.00   0.63035518   0.02796471
5240.00   0.60419112   0.02782757
5241.00   0.61585993   0.02767687
5242.00   0.58251137   0.02719313
5243.00   0.55691510   0.02691522
5244.00   0.61273199   0.02715814
5245.00   0.65925705   0.02731577
5246.00   0.64213842   0.02748161
5247.00   0.63496703   0.02796173
5248.00   0.64726293   0.02820146
5249.00   0.64614642   0.02812477
5250.00   0.62568223   0.02790412
5251.00   0.62567347   0.02784564
5252.00   0.65067840   0.02789228
5253.00   0.62979859   0.02769404
5254.00   0.60212374   0.02792128
5255.00   0.63031846   0.02850779
5256.00   0.66595274   0.02903376
5257.00   0.69378150   0.03003047
5258.00   0.70828652   0.03094977
5259.00   0.69713622   0.03084105
5260.00   0.68448710   0.03000646
5261.00   0.68408191   0.02959660
5262.00   0.68163246   0.02939056
5263.00   0.64985240   0.02880546
5264.00   0.61023402   0.02839431
5265.00   0.62730253   0.02860441
5266.00   0.68202925   0.02911707
5267.00   0.70525342   0.02917000
5268.00   0.66894430   0.02886286
5269.00   0.62747186   0.02892392
5270.00   0.70210230   0.02946922
5271.00   0.74006581   0.02973353
5272.00   0.69814301   0.02968396
5273.00   0.64309478   0.02922774
5274.00   0.64990741   0.02919133
5275.00   0.64937717   0.02917469
5276.00   0.61320728   0.02913704
5277.00   0.61698502   0.02939853
5278.00   0.60801804   0.02910830
5279.00   0.55341274   0.02843567
5280.00   0.57067430   0.02858191
5281.00   0.64731878   0.02918953
5282.00   0.68900317   0.02957041
5283.00   0.65561730   0.02959105
5284.00   0.62348825   0.02980348
5285.00   0.61942625   0.03046682
5286.00   0.62256908   0.03050273
5287.00   0.60979903   0.03068217
5288.00   0.58776009   0.02997068
5289.00   0.63714302   0.02978472
5290.00   0.67075670   0.02997045
5291.00   0.62587416   0.02961901
5292.00   0.58841032   0.02940354
5293.00   0.60803413   0.02956791
5294.00   0.64694476   0.02980937
5295.00   0.64697897   0.02984174
5296.00   0.62369096   0.02984944
5297.00   0.60629582   0.02975923
5298.00   0.58879155   0.02968834
5299.00   0.60608292   0.03007115
5300.00   0.62743419   0.03047254
5301.00   0.62239146   0.03061735
5302.00   0.65283519   0.03082705
5303.00   0.69686359   0.03089386
5304.00   0.66008317   0.03052399
5305.00   0.57994300   0.03003424
5306.00   0.58256000   0.03004024
5307.00   0.63745368   0.03055525
5308.00   0.66530275   0.03081524
5309.00   0.64935464   0.03064774
5310.00   0.61050874   0.03055934
5311.00   0.63480908   0.03101313
5312.00   0.68678606   0.03157125
5313.00   0.64165801   0.03130408
5314.00   0.62668967   0.03160711
5315.00   0.62128091   0.03187380
5316.00   0.58895290   0.03089443
5317.00   0.62471741   0.03106146
5318.00   0.67800301   0.03116346
5319.00   0.63684791   0.03085221
5320.00   0.64432061   0.03096348
5321.00   0.69492751   0.03144791
5322.00   0.64524436   0.03125678
5323.00   0.60768622   0.03115757
5324.00   0.62934810   0.03168904
5325.00   0.60247195   0.03175084
5326.00   0.60779202   0.03154958
5327.00   0.65223992   0.03156914
5328.00   0.70308787   0.03248704
5329.00   0.64952636   0.03195168
5330.00   0.64746928   0.03214126
5331.00   0.66240424   0.03275264
5332.00   0.70628124   0.03343884
5333.00   0.66330367   0.03289019
5334.00   0.59588373   0.03182240
5335.00   0.57642764   0.03154127
5336.00   0.63968205   0.03210071
5337.00   0.67224300   0.03249808
5338.00   0.62687093   0.03257495
5339.00   0.59527826   0.03260585
5340.00   0.56271535   0.03297509
5341.00   0.55897743   0.03429695
5342.00   0.57465065   0.03463255
5343.00   0.57416528   0.03413092
5344.00   0.62692523   0.03409528
5345.00   0.68084937   0.03417025
5346.00   0.62748307   0.03342173
5347.00   0.57579035   0.03343593
5348.00   0.58731627   0.03535794
5349.00   0.59209198   0.03701065
5350.00   0.57889038   0.03706166
5351.00   0.60716295   0.03651251
5352.00   0.67851335   0.03615817
5353.00   0.67133713   0.03566289
5354.00   0.62356949   0.03582927
5355.00   0.66776544   0.03749451
5356.00   0.67190182   0.03861237
5357.00   0.61762297   0.03817460
5358.00   0.64995021   0.03741498
5359.00   0.62821788   0.03604583
5360.00   0.61951435   0.01545988
5361.00   0.62201750   0.01573063
5362.00   0.62660474   0.01592747
5363.00   0.63505358   0.01601891
5364.00   0.64335614   0.01608566
5365.00   0.64766908   0.01620900
5366.00   0.65129286   0.01641908
5367.00   0.64694524   0.01644466
5368.00   0.62912309   0.01634378
5369.00   0.61959541   0.01619242
5370.00   0.62401420   0.01594182
5371.00   0.63356394   0.01566488
5372.00   0.63437712   0.01558566
5373.00   0.62858492   0.01572090
5374.00   0.62897664   0.01568262
5375.00   0.63264060   0.01547979
5376.00   0.63681221   0.01541118
5377.00   0.63990492   0.01562620
5378.00   0.64398652   0.01592921
5379.00   0.65431416   0.01588638
5380.00   0.68123490   0.01534032
5381.00   0.68186951   0.01541200
5382.00   0.65959036   0.01609377
5383.00   0.63991702   0.01647992
5384.00   0.62466115   0.01626137
5385.00   0.61389196   0.01574852
5386.00   0.62947220   0.01560442
5387.00   0.69561321   0.01556401
5388.00   0.70510685   0.01570380
5389.00   0.66773260   0.01622800
5390.00   0.63789529   0.01652933
5391.00   0.63489842   0.01636489
5392.00   0.64468735   0.01592394
5393.00   0.65567952   0.01560883
5394.00   0.67916226   0.01475481
5395.00   0.69214392   0.01504240
5396.00   0.70369887   0.01667086
5397.00   0.70613873   0.01782717
5398.00   0.69412005   0.01787015
5399.00   0.67101330   0.01729710
5400.00   0.65036374   0.01687754
5401.00   0.62001711   0.01597169
5402.00   0.60344642   0.01570157
5403.00   0.59569848   0.01618036
5404.00   0.59540117   0.01653996
5405.00   0.60099751   0.01627079
5406.00   0.61302435   0.01562321
5407.00   0.64110738   0.01540304
5408.00   0.70809954   0.01529837
5409.00   0.73140353   0.01544088
5410.00   0.70902616   0.01576638
5411.00   0.68565243   0.01633550
5412.00   0.69244552   0.01736610
5413.00   0.71581429   0.01879252
5414.00   0.71827328   0.01889644
5415.00   0.71247143   0.01765843
5416.00   0.69888747   0.01703861
5417.00   0.66621572   0.01690134
5418.00   0.63969344   0.01686588
5419.00   0.64347798   0.01667966
5420.00   0.67022514   0.01643087
5421.00   0.67864251   0.01643199
5422.00   0.67930275   0.01679242
5423.00   0.68210977   0.01686105
5424.00   0.68297678   0.01661130
5425.00   0.68760979   0.01630128
5426.00   0.70590717   0.01615580
5427.00   0.74045402   0.01607390
5428.00   0.74140275   0.01605344
5429.00   0.71406090   0.01616714
5430.00   0.69149202   0.01620117
5431.00   0.66973656   0.01595850
5432.00   0.64946914   0.01588630
5433.00   0.63485736   0.01661316
5434.00   0.62349349   0.01809609
5435.00   0.61852324   0.01856113
5436.00   0.62187839   0.01860568
5437.00   0.62493211   0.01831838
5438.00   0.62854958   0.01740788
5439.00   0.63229001   0.01632562
5440.00   0.63318717   0.01591708
5441.00   0.62782258   0.01580875
5442.00   0.63882667   0.01629941
5443.00   0.66795021   0.01806298
5444.00   0.68959236   0.01869687
5445.00   0.70252937   0.01778532
5446.00   0.71051830   0.01629618
5447.00   0.71445650   0.01590714
5448.00   0.71209580   0.01627184
5449.00   0.71142203   0.01621232
5450.00   0.71379918   0.01606233
5451.00   0.70841646   0.01591413
5452.00   0.68415314   0.01543129
5453.00   0.65876061   0.01514661
5454.00   0.67113501   0.01631295
5455.00   0.70846933   0.01720251
5456.00   0.76066315   0.02143022
5457.00   0.87983298   0.02902346
5458.00   0.93175042   0.03303027
5459.00   0.87191510   0.03341553
5460.00   0.75568283   0.03200461
5461.00   0.68437380   0.03090532
5462.00   0.59645981   0.02915081
5463.00   0.57017684   0.02693601
5464.00   0.60043544   0.02300907
5465.00   0.63771594   0.01972359
5466.00   0.68139613   0.01883548
5467.00   0.72792560   0.01941466
5468.00   0.72153777   0.01872942
5469.00   0.64614820   0.01733818
5470.00   0.62428218   0.01661602
5471.00   0.63437063   0.01641432
5472.00   0.64071834   0.01623832
5473.00   0.62955850   0.01586795
5474.00   0.61130559   0.01546607
5475.00   0.60140413   0.01537038
5476.00   0.58390301   0.01564527
5477.00   0.59239680   0.01569942
5478.00   0.63261706   0.01558870
5479.00   0.66784012   0.01556664
5480.00   0.68471974   0.01579400
5481.00   0.69157398   0.01616087
5482.00   0.67729664   0.01626683
5483.00   0.61943674   0.01635416
5484.00   0.60271925   0.01611738
5485.00   0.61750615   0.01531423
5486.00   0.63844258   0.01464834
5487.00   0.65503269   0.01465068
5488.00   0.67367989   0.01507083
5489.00   0.68190378   0.01512470
5490.00   0.68085587   0.01514306
5491.00   0.68064857   0.01495174
5492.00   0.67651570   0.01443435
5493.00   0.67471087   0.01391493
5494.00   0.68275625   0.01360540
5495.00   0.69885916   0.01339228
5496.00   0.69282305   0.01350043
5497.00   0.66558439   0.01382872
5498.00   0.64624959   0.01442474
5499.00   0.62372267   0.01561244
5500.00   0.61134231   0.01651697
5501.00   0.62828624   0.01641290
5502.00   0.67396075   0.01547551
5503.00   0.66636169   0.01566942
5504.00   0.60491413   0.01688040
5505.00   0.57507735   0.01737312
5506.00   0.56519020   0.01749592
5507.00   0.57354039   0.01714459
5508.00   0.61007220   0.01581733
5509.00   0.68175554   0.01291882
5510.00   0.70714176   0.01222535
5511.00   0.70333409   0.01355462
5512.00   0.69929492   0.01443495
5513.00   0.68682408   0.01521022
5514.00   0.67603958   0.01582341
5515.00   0.68469006   0.01598597
5516.00   0.71249062   0.01577878
5517.00   0.71588606   0.01561455
5518.00   0.70463687   0.01533899
5519.00   0.69137853   0.01499896
5520.00   0.66814923   0.01452542
5521.00   0.64833784   0.01402505
5522.00   0.65651238   0.01369264
5523.00   0.69456673   0.01347236
5524.00   0.70217872   0.01328677
5525.00   0.69295251   0.01298585
5526.00   0.68281853   0.01308278
5527.00   0.66991186   0.01385148
5528.00   0.65647340   0.01470217
5529.00   0.64988571   0.01481104
5530.00   0.64357710   0.01441603
5531.00   0.65265501   0.01406756
5532.00   0.68251956   0.01339405
5533.00   0.70476663   0.01290668
5534.00   0.71767038   0.01272161
5535.00   0.72395605   0.01270188
5536.00   0.72017032   0.01268548
5537.00   0.70392627   0.01277393
5538.00   0.68965185   0.01282690
5539.00   0.66328180   0.01293188
5540.00   0.65122890   0.01296671
5541.00   0.66414100   0.01289656
5542.00   0.68827152   0.01276408
5543.00   0.69513720   0.01263718
5544.00   0.70037049   0.01231692
5545.00   0.68775874   0.01240411
5546.00   0.63944685   0.01273118
5547.00   0.61627638   0.01323720
5548.00   0.64324999   0.01411245
5549.00   0.69513208   0.01505435
5550.00   0.71621752   0.01505400
5551.00   0.72980821   0.01410452
5552.00   0.72800285   0.01352111
5553.00   0.70036501   0.01275621
5554.00   0.67999071   0.01222854
5555.00   0.67810810   0.01221971
5556.00   0.68646866   0.01253327
5557.00   0.69993180   0.01255833
5558.00   0.73912662   0.01247806
5559.00   0.74288690   0.01242720
5560.00   0.71158439   0.01234639
5561.00   0.68512440   0.01229511
5562.00   0.68055767   0.01231342
5563.00   0.68707299   0.01237550
5564.00   0.69684982   0.01238426
5565.00   0.73044080   0.01238698
5566.00   0.73084116   0.01234351
5567.00   0.69065183   0.01221304
5568.00   0.66107810   0.01211659
5569.00   0.67484415   0.01203274
5570.00   0.71500033   0.01195259
5571.00   0.72565556   0.01255125
5572.00   0.71322572   0.01139099
5573.00   0.71913362   0.01509061
5574.00   0.76116371   0.02229628
5575.00   0.77698720   0.02733770
5576.00   0.71004355   0.02940734
5577.00   0.57877988   0.03021529
5578.00   0.54726988   0.02903458
5579.00   0.58953488   0.02392273
5580.00   0.61191297   0.02022678
5581.00   0.62512326   0.01776185
5582.00   0.64295369   0.01587887
5583.00   0.67748994   0.01423671
5584.00   0.72891480   0.01331424
5585.00   0.73921764   0.01252519
5586.00   0.71133155   0.01222697
5587.00   0.69565159   0.01225753
5588.00   0.68357277   0.01296652
5589.00   0.67761803   0.01361187
5590.00   0.68589509   0.01348344
5591.00   0.70903158   0.01276508
5592.00   0.71560055   0.01255393
5593.00   0.70899278   0.01259696
5594.00   0.71002358   0.01260644
5595.00   0.72450179   0.01261130
5596.00   0.73573697   0.01261948
5597.00   0.72272497   0.01259254
5598.00   0.68551880   0.01249005
5599.00   0.67792791   0.01264281
5600.00   0.69202930   0.01326073
5601.00   0.70001745   0.01338873
5602.00   0.70126271   0.01282941
5603.00   0.70109826   0.01208453
5604.00   0.70428479   0.01187721
5605.00   0.71385193   0.01196596
5606.00   0.70493490   0.01214858
5607.00   0.66811061   0.01277092
5608.00   0.65316027   0.01299065
5609.00   0.66941679   0.01261713
5610.00   0.69678801   0.01205962
5611.00   0.70955759   0.01197961
5612.00   0.71992397   0.01223296
5613.00   0.72102326   0.01231482
5614.00   0.70774645   0.01231252
5615.00   0.70048356   0.01242540
5616.00   0.70275342   0.01280807
5617.00   0.70882881   0.01319313
5618.00   0.71225715   0.01305338
5619.00   0.71741521   0.01230580
5620.00   0.71734488   0.01204045
5621.00   0.71388823   0.01194442
5622.00   0.70786214   0.01199847
5623.00   0.69546628   0.01233316
5624.00   0.68221319   0.01274324
5625.00   0.68539369   0.01265483
5626.00   0.70828348   0.01199824
5627.00   0.71587956   0.01177808
5628.00   0.72003794   0.01178342
5629.00   0.71737880   0.01179556
5630.00   0.70156229   0.01175507
5631.00   0.68010354   0.01171617
5632.00   0.68095654   0.01172757
5633.00   0.70631373   0.01181450
5634.00   0.71402943   0.01183214
5635.00   0.71569097   0.01179628
5636.00   0.71303898   0.01177590
5637.00   0.70550811   0.01179710
5638.00   0.69378549   0.01183975
5639.00   0.68396568   0.01187569
5640.00   0.66377068   0.01185207
5641.00   0.66599935   0.01197486
5642.00   0.69496644   0.01233553
5643.00   0.71771038   0.01255087
5644.00   0.71724057   0.01240550
5645.00   0.70457488   0.01203889
5646.00   0.70609367   0.01197166
5647.00   0.71562523   0.01208042
5648.00   0.72266769   0.01217446
5649.00   0.73375404   0.01236304
5650.00   0.73905069   0.01248727
5651.00   0.72967261   0.01241401
5652.00   0.70985514   0.01220655
5653.00   0.70891714   0.01228977
5654.00   0.72871143   0.01273805
5655.00   0.73096222   0.01283337
5656.00   0.71524441   0.01259756
5657.00   0.70163900   0.01234503
5658.00   0.70446497   0.01225778
5659.00   0.71768051   0.01223561
5660.00   0.71829802   0.01238848
5661.00   0.71004921   0.01270791
5662.00   0.70580983   0.01307872
5663.00   0.70406508   0.01372982
5664.00   0.70296049   0.01416298
5665.00   0.70150810   0.01387418
5666.00   0.70012456   0.01290760
5667.00   0.69952226   0.01305734
5668.00   0.69826829   0.01403154
5669.00   0.70000434   0.01480597
5670.00   0.70342374   0.01574649
5671.00   0.71017593   0.01640267
5672.00   0.72368103   0.01626437
5673.00   0.74536848   0.01542109
5674.00   0.75340450   0.01500271
5675.00   0.75359476   0.01441160
5676.00   0.75010526   0.01434468
5677.00   0.73704702   0.01476151
5678.00   0.72550279   0.01556336
5679.00   0.73121130   0.01678766
5680.00   0.75352502   0.01858216
5681.00   0.75517261   0.01935405
5682.00   0.74098206   0.01935513
5683.00   0.73220485   0.01964880
5684.00   0.72620642   0.02027071
5685.00   0.72481138   0.02095522
5686.00   0.73603052   0.02151323
5687.00   0.76659048   0.02210414
5688.00   0.76623553   0.02237418
5689.00   0.74545151   0.02255279
5690.00   0.72006375   0.02233916
5691.00   0.67899776   0.02156972
5692.00   0.64084625   0.02049470
5693.00   0.64510351   0.01956471
5694.00   0.69160652   0.01840955
5695.00   0.71041828   0.01780033
5696.00   0.73173195   0.01779251
5697.00   0.73214597   0.01769545
5698.00   0.69714135   0.01745816
5699.00   0.65047050   0.01716062
5700.00   0.63946092   0.01676502
5701.00   0.64917636   0.01635949
5702.00   0.66424882   0.01561841
5703.00   0.70222598   0.01411817
5704.00   0.72786933   0.01310517
5705.00   0.73187107   0.01315403
5706.00   0.72593302   0.01370979
5707.00   0.72779965   0.01376780
5708.00   0.73815143   0.01327149
5709.00   0.73032784   0.01380253
5710.00   0.70461065   0.01538452
5711.00   0.68189400   0.01640635
5712.00   0.66260397   0.01670659
5713.00   0.64797205   0.01654325
5714.00   0.65888745   0.01571077
5715.00   0.71042335   0.01309406
5716.00   0.72641677   0.01204592
5717.00   0.72065854   0.01230974
5718.00   0.71520621   0.01260119
5719.00   0.71876240   0.01251613
5720.00   0.72444052   0.01235789
5721.00   0.72025645   0.01227304
5722.00   0.70882821   0.01215887
5723.00   0.69597304   0.01217770
5724.00   0.67586648   0.01240415
5725.00   0.65932280   0.01253609
5726.00   0.65290529   0.01244422
5727.00   0.65226024   0.01221148
5728.00   0.64245605   0.01194126
5729.00   0.62132049   0.01138623
5730.00   0.61304289   0.01119517
5731.00   0.61578864   0.01137849
5732.00   0.61977190   0.01155914
5733.00   0.62006247   0.01154454
5734.00   0.61944312   0.01144376
5735.00   0.62028432   0.01139796
5736.00   0.62046421   0.01121635
5737.00   0.62406713   0.01134622
5738.00   0.63318455   0.01177923
5739.00   0.64081687   0.01227427
5740.00   0.64103460   0.01277376
5741.00   0.63601428   0.01334300
5742.00   0.64068317   0.01338352
5743.00   0.65444207   0.01288233
5744.00   0.66323423   0.01253777
5745.00   0.66962284   0.01216171
5746.00   0.67362511   0.01189740
5747.00   0.67246377   0.01195635
5748.00   0.66499108   0.01229983
5749.00   0.67589754   0.01229730
5750.00   0.70182264   0.01196295
5751.00   0.72767371   0.01190090
5752.00   0.76528192   0.01217903
5753.00   0.79394251   0.01245167
5754.00   0.78915483   0.01240610
5755.00   0.75556213   0.01211574
5756.00   0.74343014   0.01212961
5757.00   0.73516762   0.01237638
5758.00   0.73379046   0.01252473
5759.00   0.74404043   0.01261370
5760.00   0.75544494   0.01264854
5761.00   0.75590402   0.01256786
5762.00   0.75063843   0.01229224
5763.00   0.74087310   0.01243947
5764.00   0.70992815   0.01273876
5765.00   0.70566946   0.01336120
5766.00   0.74428862   0.01448639
5767.00   0.78699708   0.01559496
5768.00   0.78259313   0.01613949
5769.00   0.74433982   0.01643954
5770.00   0.71583384   0.01638884
5771.00   0.67260218   0.01574408
5772.00   0.64514500   0.01528522
5773.00   0.63489997   0.01519560
5774.00   0.63689965   0.01512179
5775.00   0.64977747   0.01454090
5776.00   0.68169427   0.01331409
5777.00   0.69954997   0.01275055
5778.00   0.71378374   0.01262548
5779.00   0.72418213   0.01257239
5780.00   0.73214400   0.01252421
5781.00   0.73538095   0.01259565
5782.00   0.72752863   0.01291991
5783.00   0.69639486   0.01344049
5784.00   0.69943142   0.01408594
5785.00   0.73199099   0.01501794
5786.00   0.75815463   0.01576661
5787.00   0.77382070   0.01628696
5788.00   0.78324193   0.01668145
5789.00   0.78133142   0.01700896
5790.00   0.75767231   0.01750097
5791.00   0.75620395   0.01728556
5792.00   0.77299464   0.01628578
5793.00   0.78283936   0.01531786
5794.00   0.77463377   0.01452866
5795.00   0.76021099   0.01385226
5796.00   0.76734602   0.01371703
5797.00   0.80624270   0.01439001
5798.00   0.80818880   0.01452124
5799.00   0.78617793   0.01449362
5800.00   0.75892717   0.01435660
5801.00   0.72517139   0.01405008
5802.00   0.68776327   0.01362651
5803.00   0.68554211   0.01350447
5804.00   0.72481614   0.01356884
5805.00   0.73826724   0.01371707
5806.00   0.74214900   0.01422226
5807.00   0.74110091   0.01444383
5808.00   0.73316032   0.01395541
5809.00   0.71988302   0.01300509
5810.00   0.72395378   0.01295877
5811.00   0.74835777   0.01389038
5812.00   0.75729471   0.01402234
5813.00   0.75716066   0.01351194
5814.00   0.75355226   0.01304812
5815.00   0.74468279   0.01304141
5816.00   0.73076588   0.01327636
5817.00   0.74385560   0.01337051
5818.00   0.79947722   0.01354831
5819.00   0.81289196   0.01352474
5820.00   0.78609163   0.01309699
5821.00   0.75738519   0.01288104
5822.00   0.74914140   0.01344626
5823.00   0.74966371   0.01452550
5824.00   0.75466800   0.01464279
5825.00   0.76814520   0.01392973
5826.00   0.78225452   0.01362285
5827.00   0.80719483   0.01362062
5828.00   0.82305235   0.01367038
5829.00   0.80967110   0.01362289
5830.00   0.77216357   0.01354797
5831.00   0.75990248   0.01349033
5832.00   0.76275218   0.01323314
5833.00   0.76089174   0.01339332
5834.00   0.75565624   0.01420614
5835.00   0.75072569   0.01488874
5836.00   0.74848157   0.01475023
5837.00   0.74804449   0.01394881
5838.00   0.74760014   0.01377860
5839.00   0.73804170   0.01363278
5840.00   0.74849308   0.01408619
5841.00   0.79177088   0.01560503
5842.00   0.83430493   0.01686249
5843.00   0.83645505   0.01655417
5844.00   0.80649453   0.01476020
5845.00   0.80121303   0.01448576
5846.00   0.81326962   0.01538901
5847.00   0.81006670   0.01574003
5848.00   0.78537887   0.01550490
5849.00   0.75653398   0.01507709
5850.00   0.74452049   0.01479715
5851.00   0.74378771   0.01448103
5852.00   0.73679763   0.01432193
5853.00   0.72347736   0.01419988
5854.00   0.72015119   0.01429822
5855.00   0.73207247   0.01473653
5856.00   0.74843675   0.01525885
5857.00   0.75331569   0.01549926
5858.00   0.75238425   0.01564950
5859.00   0.74972159   0.01558492
5860.00   0.73725325   0.01482704
5861.00   0.73415041   0.01482292
5862.00   0.74690664   0.01606491
5863.00   0.76461118   0.01757301
5864.00   0.76818526   0.01807384
5865.00   0.75768572   0.01802521
5866.00   0.76285595   0.01796111
5867.00   0.78269053   0.01751535
5868.00   0.79468822   0.01723320
5869.00   0.79514176   0.01738023
5870.00   0.78847057   0.01760376
5871.00   0.77657020   0.01714493
5872.00   0.74749500   0.01576765
5873.00   0.74118274   0.01518580
5874.00   0.75242716   0.01513323
5875.00   0.76264876   0.01506306
5876.00   0.76935220   0.01482310
5877.00   0.77417225   0.01455482
5878.00   0.76992548   0.01441299
5879.00   0.74631846   0.01443129
5880.00   0.74660575   0.01431516
5881.00   0.76896620   0.01361490
5882.00   0.78481621   0.01372850
5883.00   0.77837837   0.01332996
5884.00   0.76343483   0.01392613
5885.00   0.78185087   0.02256228
5886.00   0.87322628   0.03488543
5887.00   0.85749149   0.04102116
5888.00   0.74807799   0.04625404
5889.00   0.63438457   0.04929761
5890.00   0.53019297   0.04944516
5891.00   0.42856896   0.04752955
5892.00   0.46037507   0.04667704
5893.00   0.70590585   0.04613842
5894.00   0.75508535   0.04469119
5895.00   0.62933612   0.04226371
5896.00   0.52188724   0.03947211
5897.00   0.53615063   0.03665675
5898.00   0.61419153   0.03354772
5899.00   0.65493226   0.02986652
5900.00   0.70696455   0.02432470
5901.00   0.72879106   0.02002050
5902.00   0.70580131   0.01719081
5903.00   0.69394368   0.01556016
5904.00   0.73952401   0.01533868
5905.00   0.82484686   0.01686065
5906.00   0.83394629   0.01689401
5907.00   0.76787341   0.01624730
5908.00   0.74753106   0.01588049
5909.00   0.76474428   0.01565989
5910.00   0.78682816   0.01550557
5911.00   0.79332495   0.01536836
5912.00   0.79428577   0.01524714
5913.00   0.79190189   0.01542019
5914.00   0.78122646   0.01613693
5915.00   0.77513671   0.01631558
5916.00   0.76999807   0.01590339
5917.00   0.76939458   0.01539384
5918.00   0.77658963   0.01523315
5919.00   0.78845733   0.01524346
5920.00   0.81681567   0.01525431
5921.00   0.88691187   0.01537042
5922.00   0.91117680   0.01544589
5923.00   0.87977040   0.01547040
5924.00   0.83492869   0.01550276
5925.00   0.81603891   0.01560819
5926.00   0.80238456   0.01578828
5927.00   0.81172454   0.01584985
5928.00   0.87233686   0.01575484
5929.00   0.88393497   0.01580324
5930.00   0.82886600   0.01611585
5931.00   0.75809228   0.01639975
5932.00   0.73188287   0.01626424
5933.00   0.73289925   0.01571128
5934.00   0.71717697   0.01555950
5935.00   0.68744916   0.01569330
5936.00   0.67630452   0.01571120
5937.00   0.68536580   0.01538047
5938.00   0.70888299   0.01515198
5939.00   0.74438339   0.01585283
5940.00   0.79936469   0.01768329
5941.00   0.84525812   0.01785488
5942.00   0.89972091   0.01672389
5943.00   0.93819100   0.01584312
5944.00   0.95118713   0.01537439
5945.00   0.95476854   0.01513102
5946.00   0.97780573   0.01520490
5947.00   1.01881385   0.01581104
5948.00   1.03796995   0.01594658
5949.00   1.04136491   0.01584767
5950.00   1.04609883   0.01573374
5951.00   1.05300009   0.01556940
5952.00   1.06158006   0.01541538
5953.00   1.07866228   0.01556041
5954.00   1.11331928   0.01609850
5955.00   1.12356901   0.01626706
5956.00   1.12844586   0.01616351
5957.00   1.11102724   0.01616662
5958.00   1.05378711   0.01647395
5959.00   0.97775322   0.01685453
5960.00   0.95091182   0.01674613
5961.00   0.98407912   0.01612099
5962.00   0.95567054   0.01575598
5963.00   0.89291191   0.01545691
5964.00   0.81873715   0.01513895
5965.00   0.73627818   0.01476386
5966.00   0.64424062   0.01435891
5967.00   0.56204110   0.01398713
5968.00   0.47334298   0.01355825
5969.00   0.40823275   0.01329721
5970.00   0.35800517   0.01298747
5971.00   0.32404065   0.01305027
5972.00   0.30532205   0.01392229
5973.00   0.30269888   0.01518161
5974.00   0.32718998   0.01511886
5975.00   0.39439452   0.01363106
5976.00   0.44124129   0.01302177
5977.00   0.47501135   0.01290840
5978.00   0.51587546   0.01299504
5979.00   0.57451510   0.01319024
5980.00   0.64493209   0.01354464
5981.00   0.71492732   0.01381524
5982.00   0.81615704   0.01426129
5983.00   0.86183131   0.01433168
5984.00   0.84992671   0.01397702
5985.00   0.83013541   0.01360202
5986.00   0.83234262   0.01347374
5987.00   0.84124678   0.01346329
5988.00   0.84319067   0.01345301
5989.00   0.84002006   0.01347248
5990.00   0.84063441   0.01355621
5991.00   0.85099864   0.01380198
5992.00   0.85365927   0.01396621
5993.00   0.83092320   0.01380802
5994.00   0.78661799   0.01337243
5995.00   0.77321881   0.01338928
5996.00   0.77894586   0.01391981
5997.00   0.78566438   0.01401948
5998.00   0.80153972   0.01361883
5999.00   0.81492406   0.01319223
6000.00   0.81137222   0.01318632
6001.00   0.79330778   0.01343991
6002.00   0.79440069   0.01361954
6003.00   0.81244051   0.01387264
6004.00   0.82057184   0.01408079
6005.00   0.81797659   0.01436977
6006.00   0.81318682   0.01451174
6007.00   0.81527388   0.01415250
6008.00   0.82506537   0.01316407
6009.00   0.81267267   0.01310528
6010.00   0.76811182   0.01402421
6011.00   0.74946606   0.01430667
6012.00   0.76321906   0.01384007
6013.00   0.78683150   0.01314827
6014.00   0.79633033   0.01282840
6015.00   0.80079806   0.01263149
6016.00   0.80682033   0.01260114
6017.00   0.80960852   0.01290534
6018.00   0.81692332   0.01302287
6019.00   0.83268934   0.01285551
6020.00   0.84907705   0.01263308
6021.00   0.85404205   0.01268558
6022.00   0.85260230   0.01300859
6023.00   0.84473908   0.01300747
6024.00   0.82499743   0.01272008
6025.00   0.80881870   0.01256569
6026.00   0.79474235   0.01265853
6027.00   0.78491008   0.01280781
6028.00   0.78919727   0.01272130
6029.00   0.81060135   0.01239441
6030.00   0.82150477   0.01229964
6031.00   0.83367604   0.01232012
6032.00   0.83816260   0.01238401
6033.00   0.82741320   0.01254323
6034.00   0.81231338   0.01271457
6035.00   0.81995821   0.01263738
6036.00   0.85484225   0.01224876
6037.00   0.86281735   0.01212860
6038.00   0.85654366   0.01209289
6039.00   0.84625500   0.01217391
6040.00   0.83252668   0.01244483
6041.00   0.81543076   0.01280211
6042.00   0.80232227   0.01292255
6043.00   0.78710896   0.01286663
6044.00   0.78080505   0.01286088
6045.00   0.78019303   0.01284040
6046.00   0.78512728   0.01279885
6047.00   0.80190676   0.01268307
6048.00   0.82387078   0.01254721
6049.00   0.81568539   0.01268015
6050.00   0.76482064   0.01320078
6051.00   0.75511533   0.01334627
6052.00   0.77660668   0.01335734
6053.00   0.79641598   0.01317009
6054.00   0.80016643   0.01262428
6055.00   0.79755729   0.01179346
6056.00   0.80399227   0.01152394
6057.00   0.82487172   0.01168056
6058.00   0.82487041   0.01181874
6059.00   0.80280006   0.01221188
6060.00   0.78310692   0.01244136
6061.00   0.77815402   0.01223387
6062.00   0.78080624   0.01172953
6063.00   0.78348726   0.01158261
6064.00   0.78937745   0.01160786
6065.00   0.79684657   0.01168930
6066.00   0.81058967   0.01193484
6067.00   0.82026726   0.01213982
6068.00   0.81865740   0.01216560
6069.00   0.80917811   0.01207978
6070.00   0.80034518   0.01206985
6071.00   0.78006119   0.01177413
6072.00   0.77691972   0.01211926
6073.00   0.79658574   0.01349200
6074.00   0.81367517   0.01441889
6075.00   0.80714530   0.01387002
6076.00   0.78442961   0.01206974
6077.00   0.77922231   0.01144538
6078.00   0.78517431   0.01147049
6079.00   0.78686982   0.01154870
6080.00   0.78662348   0.01191782
6081.00   0.78469998   0.01225023
6082.00   0.77963489   0.01220779
6083.00   0.77075911   0.01190270
6084.00   0.76858330   0.01173726
6085.00   0.77171814   0.01153250
6086.00   0.77386588   0.01142734
6087.00   0.77597147   0.01142106
6088.00   0.77770066   0.01148491
6089.00   0.77793980   0.01162158
6090.00   0.77672887   0.01188871
6091.00   0.77691567   0.01190594
6092.00   0.77714014   0.01166473
6093.00   0.77868301   0.01155786
6094.00   0.78331202   0.01161099
6095.00   0.78734094   0.01171064
6096.00   0.78457940   0.01175248
6097.00   0.77254266   0.01177376
6098.00   0.77783763   0.01181707
6099.00   0.79964143   0.01183828
6100.00   0.81573832   0.01192526
6101.00   0.82842797   0.01211059
6102.00   0.83561635   0.01232121
6103.00   0.82821274   0.01245168
6104.00   0.80272841   0.01252074
6105.00   0.79173976   0.01265030
6106.00   0.78094536   0.01271360
6107.00   0.78185552   0.01295820
6108.00   0.80509990   0.01342313
6109.00   0.83265120   0.01400348
6110.00   0.82740057   0.01460017
6111.00   0.78614962   0.01550394
6112.00   0.78122175   0.01568147
6113.00   0.81011701   0.01522166
6114.00   0.81790596   0.01481956
6115.00   0.78517395   0.01462960
6116.00   0.73895788   0.01446415
6117.00   0.73068851   0.01409840
6118.00   0.75671226   0.01340864
6119.00   0.75767636   0.01310715
6120.00   0.74217004   0.01308247
6121.00   0.73574096   0.01310109
6122.00   0.74737054   0.01319239
6123.00   0.76737112   0.01329863
6124.00   0.77735168   0.01305229
6125.00   0.78958690   0.01229752
6126.00   0.78641182   0.01195273
6127.00   0.75943059   0.01180651
6128.00   0.74456912   0.01174347
6129.00   0.75909913   0.01174134
6130.00   0.78771728   0.01181453
6131.00   0.79064864   0.01190277
6132.00   0.76778299   0.01210989
6133.00   0.76771009   0.01216402
6134.00   0.78843582   0.01212757
6135.00   0.80105549   0.01203498
6136.00   0.78882641   0.01185298
6137.00   0.76361418   0.01160502
6138.00   0.76535434   0.01158025
6139.00   0.79674953   0.01178032
6140.00   0.80256933   0.01186863
6141.00   0.79017806   0.01193504
6142.00   0.77524745   0.01196601
6143.00   0.76228720   0.01192042
6144.00   0.74832159   0.01181804
6145.00   0.75088859   0.01189493
6146.00   0.77285516   0.01226179
6147.00   0.78547829   0.01229387
6148.00   0.79784316   0.01191968
6149.00   0.80338418   0.01163451
6150.00   0.79266888   0.01172330
6151.00   0.76839232   0.01202278
6152.00   0.77409428   0.01269362
6153.00   0.81915414   0.01428903
6154.00   0.82737046   0.01469100
6155.00   0.80026811   0.01379631
6156.00   0.76776683   0.01289440
6157.00   0.74667972   0.01318950
6158.00   0.72598416   0.01421117
6159.00   0.73254734   0.01442710
6160.00   0.78103876   0.01436509
6161.00   0.79857409   0.01406430
6162.00   0.78504586   0.01331493
6163.00   0.76624960   0.01248201
6164.00   0.76302594   0.01193015
6165.00   0.76803923   0.01143747
6166.00   0.76082796   0.01161901
6167.00   0.73718923   0.01287303
6168.00   0.73022604   0.01328928
6169.00   0.74339283   0.01292192
6170.00   0.76075429   0.01226787
6171.00   0.76678151   0.01172530
6172.00   0.76678574   0.01099834
6173.00   0.77156150   0.01072626
6174.00   0.78151637   0.01094457
6175.00   0.78506070   0.01102190
6176.00   0.78168553   0.01088210
6177.00   0.77446538   0.01079081
6178.00   0.76532966   0.01109113
6179.00   0.75034004   0.01182824
6180.00   0.74558568   0.01187788
6181.00   0.74876767   0.01123577
6182.00   0.75163996   0.01097154
6183.00   0.75460064   0.01134250
6184.00   0.75773394   0.01179573
6185.00   0.75924283   0.01163779
6186.00   0.75766611   0.01087189
6187.00   0.76296961   0.01074081
6188.00   0.77940190   0.01096659
6189.00   0.78603798   0.01126523
6190.00   0.77710909   0.01178448
6191.00   0.76284868   0.01225937
6192.00   0.75904489   0.01209298
6193.00   0.75898081   0.01119034
6194.00   0.76404291   0.01083340
6195.00   0.78079146   0.01067765
6196.00   0.78986526   0.01064466
6197.00   0.78653240   0.01079476
6198.00   0.77725708   0.01103077
6199.00   0.77130431   0.01106679
6200.00   0.76268774   0.01095389
6201.00   0.75999242   0.01092024
6202.00   0.76464176   0.01092881
6203.00   0.76572365   0.01089237
6204.00   0.75984997   0.01074514
6205.00   0.75063044   0.01056329
6206.00   0.74393690   0.01057926
6207.00   0.72990811   0.01070313
6208.00   0.73400491   0.01093913
6209.00   0.75898451   0.01149290
6210.00   0.77750272   0.01178719
6211.00   0.77982706   0.01154380
6212.00   0.77407193   0.01102009
6213.00   0.77220052   0.01105198
6214.00   0.76691896   0.01173942
6215.00   0.76764852   0.01173656
6216.00   0.77924651   0.01117718
6217.00   0.78265512   0.01064640
6218.00   0.76622123   0.01035068
6219.00   0.73836035   0.01018256
6220.00   0.72910172   0.01041421
6221.00   0.72431415   0.01140726
6222.00   0.73463720   0.01158763
6223.00   0.77008593   0.01106496
6224.00   0.79926521   0.01058682
6225.00   0.80494207   0.01061898
6226.00   0.79707158   0.01090843
6227.00   0.79509157   0.01086607
6228.00   0.78920978   0.01048556
6229.00   0.78875685   0.01044156
6230.00   0.79805410   0.01072902
6231.00   0.80180603   0.01100113
6232.00   0.78737444   0.01105353
6233.00   0.75985396   0.01098975
6234.00   0.75276029   0.01106831
6235.00   0.75525290   0.01124881
6236.00   0.76504093   0.01137287
6237.00   0.79347700   0.01151320
6238.00   0.81545401   0.01157525
6239.00   0.80866539   0.01147009
6240.00   0.78073227   0.01122475
6241.00   0.77257299   0.01100314
6242.00   0.77706116   0.01068231
6243.00   0.77355748   0.01045945
6244.00   0.75899816   0.01029589
6245.00   0.74746168   0.01022020
6246.00   0.75280881   0.01029374
6247.00   0.77221793   0.01052468
6248.00   0.77545750   0.01060048
6249.00   0.77026200   0.01064314
6250.00   0.76356763   0.01060307
6251.00   0.74905705   0.01037539
6252.00   0.73808825   0.01018664
6253.00   0.74488556   0.01029354
6254.00   0.76580518   0.01057092
6255.00   0.78310621   0.01103880
6256.00   0.81237447   0.01201913
6257.00   0.82460487   0.01243740
6258.00   0.81262046   0.01228340
6259.00   0.79589558   0.01186910
6260.00   0.79961675   0.01146858
6261.00   0.82268381   0.01084332
6262.00   0.81343907   0.01053253
6263.00   0.77171302   0.01041866
6264.00   0.74594510   0.01040221
6265.00   0.73759520   0.01056536
6266.00   0.73900217   0.01076455
6267.00   0.74759686   0.01074231
6268.00   0.77138782   0.01054616
6269.00   0.77892816   0.01045122
6270.00   0.78074211   0.01023899
6271.00   0.77505362   0.01028557
6272.00   0.75724190   0.01079309
6273.00   0.73516369   0.01137016
6274.00   0.72444862   0.01139274
6275.00   0.71433163   0.01091276
6276.00   0.72273827   0.01078516
6277.00   0.75820625   0.01084609
6278.00   0.78166068   0.01082919
6279.00   0.78417391   0.01062791
6280.00   0.77805007   0.01038946
6281.00   0.78021234   0.01042494
6282.00   0.78802359   0.01070312
6283.00   0.78692299   0.01089022
6284.00   0.78290898   0.01121838
6285.00   0.77175373   0.01133135
6286.00   0.74513108   0.01106270
6287.00   0.71374232   0.01059773
6288.00   0.71302944   0.01044750
6289.00   0.74819213   0.01056060
6290.00   0.75663102   0.01049099
6291.00   0.75129074   0.01031156
6292.00   0.74754536   0.01017816
6293.00   0.74613243   0.01004844
6294.00   0.74760991   0.00998608
6295.00   0.77071995   0.01046556
6296.00   0.84270686   0.01121339
6297.00   0.85117769   0.01232289
6298.00   0.81084287   0.01430237
6299.00   0.76367718   0.01544737
6300.00   0.71779174   0.01522133
6301.00   0.66883028   0.01412897
6302.00   0.65868217   0.01343893
6303.00   0.68781602   0.01241014
6304.00   0.70573169   0.01191189
6305.00   0.72989190   0.01208045
6306.00   0.74839854   0.01217475
6307.00   0.75041085   0.01172750
6308.00   0.74193895   0.01096673
6309.00   0.75856233   0.01093536
6310.00   0.81246638   0.01173974
6311.00   0.82487190   0.01189473
6312.00   0.79963493   0.01163700
6313.00   0.76971579   0.01122281
6314.00   0.75078601   0.01069819
6315.00   0.73336804   0.00997112
6316.00   0.73452818   0.00975754
6317.00   0.76201087   0.01007037
6318.00   0.77312243   0.01018642
6319.00   0.77083993   0.01024920
6320.00   0.76742256   0.01025832
6321.00   0.77163851   0.01016091
6322.00   0.78028089   0.00995482
6323.00   0.77911347   0.00993803
6324.00   0.77012092   0.01008293
6325.00   0.76202756   0.01016657
6326.00   0.74927264   0.01019485
6327.00   0.74098712   0.01023696
6328.00   0.74885541   0.01032514
6329.00   0.77213103   0.01041758
6330.00   0.77172208   0.01071351
6331.00   0.75162870   0.01146509
6332.00   0.73898423   0.01165913
6333.00   0.73124850   0.01123796
6334.00   0.72634870   0.01061945
6335.00   0.72502482   0.01021917
6336.00   0.72874987   0.00982606
6337.00   0.72606421   0.00963445
6338.00   0.71538866   0.00970916
6339.00   0.71246958   0.00971051
6340.00   0.71931487   0.00963541
6341.00   0.72899359   0.00955335
6342.00   0.73443711   0.00949241
6343.00   0.73967928   0.00934700
6344.00   0.73971438   0.00960902
6345.00   0.72979176   0.01036289
6346.00   0.72835487   0.01081583
6347.00   0.73982388   0.01097503
6348.00   0.75406653   0.01098534
6349.00   0.75780278   0.01092526
6350.00   0.75724465   0.01070589
6351.00   0.74946773   0.01057348
6352.00   0.72692889   0.01049515
6353.00   0.71367562   0.01034561
6354.00   0.71148151   0.01002591
6355.00   0.71654141   0.00969396
6356.00   0.72835559   0.00969028
6357.00   0.75557977   0.01000849
6358.00   0.76394051   0.01013109
6359.00   0.76498789   0.00998043
6360.00   0.75614065   0.01022378
6361.00   0.72981656   0.01116520
6362.00   0.69752955   0.01221861
6363.00   0.68916529   0.01246424
6364.00   0.70090652   0.01224136
6365.00   0.70376343   0.01184407
6366.00   0.70738155   0.01079637
6367.00   0.70957810   0.00999148
6368.00   0.70626938   0.00983902
6369.00   0.70274496   0.01000372
6370.00   0.71622515   0.00984430
6371.00   0.75191361   0.00944229
6372.00   0.77022427   0.00932333
6373.00   0.78360474   0.00941555
6374.00   0.79056561   0.00951042
6375.00   0.79026991   0.00950260
6376.00   0.78351289   0.00949156
6377.00   0.77266699   0.00975025
6378.00   0.74368411   0.01034681
6379.00   0.73989153   0.01066067
6380.00   0.74998623   0.01081707
6381.00   0.77206451   0.01097440
6382.00   0.81489217   0.01121065
6383.00   0.87100428   0.01146554
6384.00   0.88212717   0.01157380
6385.00   0.85825926   0.01172761
6386.00   0.83531255   0.01151190
6387.00   0.79431742   0.01075769
6388.00   0.75991565   0.01005731
6389.00   0.74502200   0.00978122
6390.00   0.74197918   0.00975731
6391.00   0.74131256   0.00977587
6392.00   0.75050813   0.00996978
6393.00   0.75639325   0.01014899
6394.00   0.76186621   0.01043396
6395.00   0.76708317   0.01063116
6396.00   0.77172983   0.01057619
6397.00   0.77591377   0.01033532
6398.00   0.78094840   0.01042647
6399.00   0.79263532   0.01094395
6400.00   0.79138070   0.01101285
6401.00   0.77175486   0.01058968
6402.00   0.75517505   0.01016745
6403.00   0.75743544   0.01014180
6404.00   0.77148294   0.01034877
6405.00   0.78541833   0.01047926
6406.00   0.81531167   0.01075974
6407.00   0.82412511   0.01081071
6408.00   0.80940545   0.01055878
6409.00   0.79008734   0.01030390
6410.00   0.78015304   0.01032805
6411.00   0.77181911   0.01052917
6412.00   0.77357727   0.01065070
6413.00   0.79054195   0.01091180
6414.00   0.79872471   0.01090716
6415.00   0.80454457   0.01046920
6416.00   0.80114841   0.01004229
6417.00   0.77472150   0.01019235
6418.00   0.72076845   0.01080139
6419.00   0.70851260   0.01093232
6420.00   0.72689527   0.01089466
6421.00   0.74169874   0.01070823
6422.00   0.75766605   0.01022968
6423.00   0.77195722   0.00969946
6424.00   0.77600586   0.00951016
6425.00   0.77129757   0.00955146
6426.00   0.76987714   0.00961107
6427.00   0.76416039   0.00992454
6428.00   0.76495785   0.00999757
6429.00   0.77468270   0.00972379
6430.00   0.78766096   0.00934991
6431.00   0.79679090   0.00923259
6432.00   0.80646789   0.00924290
6433.00   0.81020749   0.00932410
6434.00   0.80824912   0.00950201
6435.00   0.80572754   0.00974329
6436.00   0.80153787   0.01015987
6437.00   0.79737628   0.01054359
6438.00   0.79856920   0.01048929
6439.00   0.80765611   0.00996844
6440.00   0.80546862   0.00976732
6441.00   0.79011792   0.00969549
6442.00   0.78338706   0.00962534
6443.00   0.79213673   0.00951910
6444.00   0.80638838   0.00943101
6445.00   0.80869919   0.00945825
6446.00   0.80516666   0.00967563
6447.00   0.79857469   0.00966458
6448.00   0.78215444   0.00945010
6449.00   0.77197057   0.00930797
6450.00   0.77082402   0.00930155
6451.00   0.77609646   0.00937175
6452.00   0.78870529   0.00948665
6453.00   0.82363218   0.00975108
6454.00   0.82906699   0.00984153
6455.00   0.80908936   0.00984315
6456.00   0.79406834   0.00979637
6457.00   0.79441130   0.00968221
6458.00   0.80115378   0.00952285
6459.00   0.80130720   0.00947639
6460.00   0.80133241   0.00949146
6461.00   0.79584128   0.00954876
6462.00   0.77995527   0.00967914
6463.00   0.77007931   0.00981326
6464.00   0.77319753   0.00988339
6465.00   0.78436500   0.00994459
6466.00   0.79584336   0.01026713
6467.00   0.82032597   0.01116978
6468.00   0.82576185   0.01123063
6469.00   0.81480938   0.01044555
6470.00   0.80110258   0.00970408
6471.00   0.79002655   0.00955554
6472.00   0.77829510   0.00972379
6473.00   0.76938564   0.00981471
6474.00   0.75930423   0.01001141
6475.00   0.75685912   0.01016614
6476.00   0.76221460   0.01043563
6477.00   0.77017432   0.01052356
6478.00   0.77970487   0.01017088
6479.00   0.79209572   0.00944666
6480.00   0.79232681   0.00917911
6481.00   0.77701861   0.00914697
6482.00   0.77307874   0.00922442
6483.00   0.77655882   0.00951262
6484.00   0.78429884   0.00981856
6485.00   0.79697901   0.01005135
6486.00   0.81602323   0.01029156
6487.00   0.82062900   0.01018623
6488.00   0.81754065   0.00957614
6489.00   0.80773479   0.00928345
6490.00   0.78262407   0.00929975
6491.00   0.76089317   0.00938740
6492.00   0.76067060   0.00934541
6493.00   0.77593988   0.00921299
6494.00   0.78395700   0.00946330
6495.00   0.79415399   0.01024773
6496.00   0.80090475   0.01055203
6497.00   0.80453104   0.01038590
6498.00   0.80594069   0.01008088
6499.00   0.80485821   0.00991128
6500.00   0.79953134   0.00971616
6501.00   0.80211520   0.00973412
6502.00   0.81525445   0.01005168
6503.00   0.81931227   0.01017683
6504.00   0.81285113   0.01008807
6505.00   0.80259746   0.00993472
6506.00   0.79427081   0.00986100
6507.00   0.78265601   0.00981136
6508.00   0.78229296   0.00974881
6509.00   0.79281777   0.00969744
6510.00   0.80171067   0.00962163
6511.00   0.81417549   0.00948754
6512.00   0.82196939   0.00935996
6513.00   0.80725920   0.00935393
6514.00   0.76457733   0.00949008
6515.00   0.75404489   0.00945253
6516.00   0.76534915   0.00925773
6517.00   0.77382433   0.00913789
6518.00   0.77759379   0.00909312
6519.00   0.78087205   0.00911970
6520.00   0.78594744   0.00928531
6521.00   0.79422075   0.00970472
6522.00   0.79613060   0.00976249
6523.00   0.79293674   0.00953911
6524.00   0.78939527   0.00935404
6525.00   0.78518105   0.00923940
6526.00   0.78090841   0.00915941
6527.00   0.77996665   0.00914323
6528.00   0.77961946   0.00904818
6529.00   0.78506172   0.00936042
6530.00   0.79948276   0.01026331
6531.00   0.80990267   0.01074322
6532.00   0.81518459   0.01058138
6533.00   0.81596470   0.01008024
6534.00   0.80650991   0.00975138
6535.00   0.77492994   0.00921381
6536.00   0.76901394   0.00908717
6537.00   0.78170329   0.00935532
6538.00   0.79364008   0.00960006
6539.00   0.80117053   0.00973773
6540.00   0.80671358   0.00983508
6541.00   0.80307513   0.00981591
6542.00   0.78807825   0.00959445
6543.00   0.77771729   0.00954502
6544.00   0.76495177   0.00960061
6545.00   0.75634980   0.00966678
6546.00   0.75538802   0.00973701
6547.00   0.75947893   0.00981078
6548.00   0.76147896   0.00973748
6549.00   0.76421845   0.00941823
6550.00   0.76692361   0.00934049
6551.00   0.77307820   0.00942681
6552.00   0.77448130   0.00956857
6553.00   0.76419574   0.00977985
6554.00   0.74626869   0.01004942
6555.00   0.74424654   0.00997170
6556.00   0.75556266   0.00916403
6557.00   0.76177186   0.00928363
6558.00   0.76890147   0.01047960
6559.00   0.77255595   0.01133366
6560.00   0.76727778   0.01117324
6561.00   0.75506771   0.01036431
6562.00   0.75842208   0.01005550
6563.00   0.77668697   0.00991546
6564.00   0.78743076   0.00978611
6565.00   0.79463261   0.00974424
6566.00   0.79941940   0.00969166
6567.00   0.80190909   0.00953181
6568.00   0.80206972   0.00929263
6569.00   0.79955399   0.00918686
6570.00   0.79036969   0.00913973
6571.00   0.78718996   0.00916989
6572.00   0.78860462   0.00930954
6573.00   0.79300892   0.00947596
6574.00   0.80072433   0.00961850
6575.00   0.81313294   0.00978470
6576.00   0.81731659   0.00978347
6577.00   0.81641316   0.00959694
6578.00   0.81395662   0.00947191
6579.00   0.81014442   0.00933518
6580.00   0.80354565   0.00927396
6581.00   0.79131824   0.00943564
6582.00   0.77104926   0.00982119
6583.00   0.76708531   0.00992540
6584.00   0.77848667   0.00990763
6585.00   0.78438520   0.00980339
6586.00   0.78470945   0.00951748
6587.00   0.78380018   0.00921842
6588.00   0.78467625   0.00915922
6589.00   0.78546143   0.00925830
6590.00   0.78913337   0.00939126
6591.00   0.79922241   0.00969178
6592.00   0.80266231   0.00987227
6593.00   0.79656684   0.00991219
6594.00   0.78788912   0.00989729
6595.00   0.78552216   0.00991893
6596.00   0.78588355   0.00996897
6597.00   0.78817451   0.00990529
6598.00   0.79600728   0.00968793
6599.00   0.79980290   0.00955182
6600.00   0.79809368   0.00953865
6601.00   0.79383105   0.00957310
6602.00   0.79020458   0.00956598
6603.00   0.78351593   0.00956428
6604.00   0.78366727   0.00952387
6605.00   0.79447454   0.00939826
6606.00   0.79672462   0.00935364
6607.00   0.78333104   0.00947225
6608.00   0.76493675   0.00962853
6609.00   0.76133937   0.00957413
6610.00   0.76544988   0.00932274
6611.00   0.77460855   0.00917972
6612.00   0.79608661   0.00896224
6613.00   0.81231004   0.00891656
6614.00   0.81942600   0.00915948
6615.00   0.82150954   0.00953689
6616.00   0.82186943   0.00973559
6617.00   0.81676841   0.00997514
6618.00   0.81462938   0.00993794
6619.00   0.81109536   0.00954516
6620.00   0.81099802   0.00924443
6621.00   0.81819201   0.00920319
6622.00   0.82868558   0.00929025
6623.00   0.82860917   0.00932774
6624.00   0.81594169   0.00945892
6625.00   0.81439126   0.00942871
6626.00   0.82013476   0.00922885
6627.00   0.82579511   0.00906047
6628.00   0.82346207   0.00893042
6629.00   0.81965834   0.00885054
6630.00   0.84778684   0.00922743
6631.00   0.90905523   0.00989153
6632.00   0.96014780   0.01074367
6633.00   1.03073668   0.01214524
6634.00   1.07442355   0.01306530
6635.00   1.06676030   0.01311238
6636.00   1.02254808   0.01261317
6637.00   0.96784621   0.01232755
6638.00   0.86262643   0.01190320
6639.00   0.80519521   0.01158287
6640.00   0.77745116   0.01145301
6641.00   0.76863325   0.01118697
6642.00   0.75860173   0.01028453
6643.00   0.75276554   0.00874722
6644.00   0.88426733   0.00946565
6645.00   1.07534170   0.00945464
6646.00   1.42501557   0.01391624
6647.00   2.08800936   0.02079614
6648.00   2.65820861   0.02609490
6649.00   2.86386371   0.02978478
6650.00   2.85009575   0.03320900
6651.00   2.56252313   0.03196692
6652.00   1.74784207   0.02359528
6653.00   1.24490166   0.01729129
6654.00   0.95030892   0.01364950
6655.00   0.77682173   0.01155741
6656.00   0.70740306   0.01019162
6657.00   0.77245963   0.01113100
6658.00   0.78327811   0.01091083
6659.00   0.80809528   0.01073150
6660.00   0.83090061   0.01045653
6661.00   0.85550874   0.00997928
6662.00   0.87848711   0.00953744
6663.00   0.88905132   0.00936234
6664.00   0.87867832   0.00926091
6665.00   0.93671751   0.00991429
6666.00   1.03440452   0.01093069
6667.00   1.17027450   0.01240144
6668.00   1.39583778   0.01452154
6669.00   1.60809135   0.01644618
6670.00   1.67538607   0.01763265
6671.00   1.65773141   0.01883723
6672.00   1.54408717   0.01818216
6673.00   1.24242079   0.01458543
6674.00   1.03136253   0.01194127
6675.00   0.91882795   0.01138493
6676.00   0.85552287   0.01177323
6677.00   0.81292421   0.01178798
6678.00   0.81388360   0.01220910
6679.00   0.80771029   0.01197059
6680.00   0.81983727   0.01097630
6681.00   0.82341760   0.01034899
6682.00   0.81136811   0.01045900
6683.00   0.79723507   0.01073763
6684.00   0.80189472   0.01033933
6685.00   0.82471472   0.00918957
6686.00   0.83297098   0.00879034
6687.00   0.83677590   0.00888634
6688.00   0.83630675   0.00905231
6689.00   0.82912606   0.00932360
6690.00   0.81905484   0.00962560
6691.00   0.81582159   0.00963733
6692.00   0.81643397   0.00931375
6693.00   0.81771708   0.00931063
6694.00   0.82163632   0.00950129
6695.00   0.82548344   0.00968296
6696.00   0.83034098   0.00984466
6697.00   0.83453846   0.00999058
6698.00   0.83096415   0.01002421
6699.00   0.81730515   0.00987784
6700.00   0.81081152   0.00991541
6701.00   0.80300027   0.01010709
6702.00   0.80260104   0.01023653
6703.00   0.81602204   0.01024679
6704.00   0.83660614   0.01018896
6705.00   0.84220648   0.01009911
6706.00   0.83566457   0.00974353
6707.00   0.83487153   0.00984286
6708.00   0.83890903   0.01045760
6709.00   0.83706266   0.01086309
6710.00   0.82092917   0.01078600
6711.00   0.79733503   0.01044908
6712.00   0.79570192   0.01033309
6713.00   0.81906599   0.01039425
6714.00   0.82278776   0.01021566
6715.00   0.81325436   0.00966404
6716.00   0.80329984   0.00930401
6717.00   0.79602087   0.00956000
6718.00   0.78947097   0.01016450
6719.00   0.79867375   0.01018603
6720.00   0.83645082   0.00974809
6721.00   0.84474933   0.00953022
6722.00   0.82417423   0.00941868
6723.00   0.80571222   0.00932427
6724.00   0.80909979   0.00916709
6725.00   0.82456690   0.00897553
6726.00   0.82129282   0.00909879
6727.00   0.80214161   0.00963602
6728.00   0.79179078   0.00985867
6729.00   0.78766233   0.00978070
6730.00   0.78413427   0.00974650
6731.00   0.77524221   0.01006462
6732.00   0.76183963   0.01062535
6733.00   0.77221489   0.01052968
6734.00   0.81426334   0.00950442
6735.00   0.83383662   0.00928947
6736.00   0.83748680   0.01005447
6737.00   0.83133531   0.01077412
6738.00   0.81590575   0.01078583
6739.00   0.78817403   0.01038440
6740.00   0.77214283   0.01009172
6741.00   0.76013035   0.00964665
6742.00   0.75112486   0.00928159
6743.00   0.75110668   0.00896895
6744.00   0.74764735   0.00871709
6745.00   0.72471792   0.00855196
6746.00   0.68283999   0.00846300
6747.00   0.66817069   0.00849308
6748.00   0.66622388   0.00876323
6749.00   0.67508715   0.00886587
6750.00   0.70065612   0.00871939
6751.00   0.73147047   0.00858038
6752.00   0.75153363   0.00872161
6753.00   0.76363415   0.00895707
6754.00   0.79135048   0.00959068
6755.00   0.83584148   0.01094413
6756.00   0.87157291   0.01155118
6757.00   0.89838493   0.01129845
6758.00   0.91984326   0.01078316
6759.00   0.93714792   0.01078219
6760.00   0.94919270   0.01106020
6761.00   0.95880634   0.01119766
6762.00   0.96486306   0.01131773
6763.00   0.96802169   0.01144907
6764.00   0.96692514   0.01159838
6765.00   0.96389908   0.01175143
6766.00   0.96483749   0.01189968
6767.00   0.97794783   0.01214483
6768.00   0.95889407   0.01207751
6769.00   0.89609182   0.01166690
6770.00   0.86047190   0.01133704
6771.00   0.87172621   0.01104931
6772.00   0.89982998   0.01088743
6773.00   0.89583045   0.01125331
6774.00   0.86995339   0.01242734
6775.00   0.85654646   0.01259526
6776.00   0.83640945   0.01214181
6777.00   0.83323020   0.01160370
6778.00   0.85868561   0.01094542
6779.00   0.89807129   0.01022154
6780.00   0.91706502   0.01008431
6781.00   0.93842494   0.01070846
6782.00   0.92919749   0.01073000
6783.00   0.87870795   0.01037188
6784.00   0.84175694   0.01013464
6785.00   0.83520091   0.01021212
6786.00   0.84412497   0.01043346
6787.00   0.85087711   0.01051687
6788.00   0.87286013   0.01068109
6789.00   0.87435776   0.01055579
6790.00   0.85726368   0.01007115
6791.00   0.84296507   0.00964250
6792.00   0.83936596   0.00941605
6793.00   0.84077471   0.00931436
6794.00   0.84177423   0.00944943
6795.00   0.84529138   0.01002913
6796.00   0.84822404   0.01020720
6797.00   0.84846598   0.01015791
6798.00   0.85331798   0.01002698
6799.00   0.85952866   0.00970102
6800.00   0.86906493   0.00923024
6801.00   0.92655903   0.00984531
6802.00   1.05538630   0.01150346
6803.00   1.12995219   0.01246605
6804.00   1.19379032   0.01327501
6805.00   1.21210837   0.01380749
6806.00   1.15049553   0.01396932
6807.00   1.02389622   0.01383723
6808.00   0.94368070   0.01361225
6809.00   0.85929126   0.01325981
6810.00   0.80784428   0.01262321
6811.00   0.79066986   0.01138377
6812.00   0.78699249   0.01014764
6813.00   0.77990317   0.00948605
6814.00   0.77521342   0.00920804
6815.00   0.81175953   0.00959684
6816.00   0.89288294   0.01079998
6817.00   0.96731478   0.01178313
6818.00   1.07243347   0.01304865
6819.00   1.14442635   0.01387873
6820.00   1.11777282   0.01367024
6821.00   1.01107502   0.01258871
6822.00   0.94302988   0.01189709
6823.00   0.85469699   0.01095896
6824.00   0.80457258   0.01039306
6825.00   0.79972535   0.01029602
6826.00   0.80748999   0.01041056
6827.00   0.79748374   0.01051774
6828.00   0.78096902   0.01074507
6829.00   0.77710849   0.01089131
6830.00   0.78383148   0.01093079
6831.00   0.78857410   0.01113965
6832.00   0.79542637   0.01171762
6833.00   0.79882908   0.01216633
6834.00   0.78863090   0.01189974
6835.00   0.76333064   0.01094891
6836.00   0.75629568   0.01042871
6837.00   0.75814992   0.00982837
6838.00   0.76487184   0.00964462
6839.00   0.78190464   0.01016943
6840.00   0.79949015   0.01078542
6841.00   0.80042112   0.01072294
6842.00   0.78446215   0.01017040
6843.00   0.78757954   0.00981406
6844.00   0.80489290   0.00922678
6845.00   0.81777358   0.00899505
6846.00   0.82579195   0.00926893
6847.00   0.83073443   0.00977600
6848.00   0.83184332   0.01021908
6849.00   0.83207786   0.01099168
6850.00   0.82030725   0.01091462
6851.00   0.78887624   0.00988348
6852.00   0.76890367   0.00913789
6853.00   0.76717120   0.00901578
6854.00   0.77327216   0.00915850
6855.00   0.77288502   0.00913486
6856.00   0.77106315   0.00907596
6857.00   0.77014941   0.00913103
6858.00   0.76827538   0.00920045
6859.00   0.76858383   0.00942597
6860.00   0.77243876   0.00988242
6861.00   0.77812552   0.01043526
6862.00   0.78197747   0.01081627
6863.00   0.79143798   0.01114365
6864.00   0.78566658   0.01140806
6865.00   0.76054823   0.01154925
6866.00   0.74378419   0.01175343
6867.00   0.74342299   0.01215087
6868.00   0.75236607   0.01258719
6869.00   0.76358837   0.01261568
6870.00   0.79188490   0.01213717
6871.00   0.79701942   0.01204943
6872.00   0.77927572   0.01225959
6873.00   0.76771122   0.01235274
6874.00   0.77478898   0.01218497
6875.00   0.79107720   0.01185519
6876.00   0.79829174   0.01144341
6877.00   0.80337048   0.01064609
6878.00   0.80543506   0.01028785
6879.00   0.80486244   0.01038113
6880.00   0.80128062   0.01043889
6881.00   0.79212558   0.01016583
6882.00   0.77900845   0.00973111
6883.00   0.77863091   0.00982319
6884.00   0.79220968   0.01042755
6885.00   0.79679728   0.01077405
6886.00   0.79603666   0.01104282
6887.00   0.79411662   0.01125842
6888.00   0.79352307   0.01146306
6889.00   0.79303586   0.01164754
6890.00   0.78774464   0.01149437
6891.00   0.77162713   0.01082381
6892.00   0.76903617   0.01050184
6893.00   0.78449535   0.01051245
6894.00   0.79570884   0.01052643
6895.00   0.78377646   0.01029543
6896.00   0.75514191   0.00990091
6897.00   0.75552386   0.00984941
6898.00   0.78762531   0.00998779
6899.00   0.79479176   0.01026908
6900.00   0.77651256   0.01095590
6901.00   0.75618422   0.01142379
6902.00   0.75019389   0.01112518
6903.00   0.75016588   0.01015661
6904.00   0.75904953   0.00982344
6905.00   0.79048228   0.00987592
6906.00   0.80001074   0.00984839
6907.00   0.77902055   0.00973628
6908.00   0.75951183   0.00969212
6909.00   0.77570623   0.00987958
6910.00   0.82238096   0.01029900
6911.00   0.82621479   0.01035956
6912.00   0.79342067   0.01019264
6913.00   0.77729154   0.00999953
6914.00   0.78166211   0.00970106
6915.00   0.78708947   0.00940154
6916.00   0.77241534   0.00926103
6917.00   0.73787993   0.00918639
6918.00   0.73486954   0.00934595
6919.00   0.75835156   0.00985575
6920.00   0.77456993   0.01017533
6921.00   0.78390092   0.01030469
6922.00   0.79023403   0.01035229
6923.00   0.79355484   0.01040237
6924.00   0.79106236   0.01046086
6925.00   0.79624152   0.01033004
6926.00   0.81281334   0.00990870
6927.00   0.81787634   0.00964043
6928.00   0.80604434   0.00962513
6929.00   0.78813219   0.00968669
6930.00   0.77939123   0.00958765
6931.00   0.77400374   0.00936677
6932.00   0.77011907   0.00926008
6933.00   0.77033842   0.00913191
6934.00   0.76899153   0.00916249
6935.00   0.76465470   0.00944900
6936.00   0.75955343   0.00982118
6937.00   0.75688940   0.00997727
6938.00   0.75246519   0.01005558
6939.00   0.75740302   0.01001806
6940.00   0.77533293   0.00980191
6941.00   0.78699112   0.00960422
6942.00   0.78819418   0.00943577
6943.00   0.78369266   0.00929713
6944.00   0.77805001   0.00930030
6945.00   0.76405573   0.00934043
6946.00   0.76063007   0.00963182
6947.00   0.76537704   0.01038203
6948.00   0.76945150   0.01079094
6949.00   0.77074939   0.01063209
6950.00   0.77101624   0.01014992
6951.00   0.77028382   0.00981579
6952.00   0.76344579   0.00929636
6953.00   0.76736307   0.00909644
6954.00   0.78463548   0.00903336
6955.00   0.79595858   0.00924936
6956.00   0.79233140   0.00997424
6957.00   0.78078085   0.01090768
6958.00   0.77804399   0.01095424
6959.00   0.78084600   0.01018423
6960.00   0.77994543   0.00974123
6961.00   0.77722138   0.00923072
6962.00   0.77403951   0.00890237
6963.00   0.77033150   0.00894984
6964.00   0.76615268   0.00926335
6965.00   0.76547128   0.00946692
6966.00   0.76636964   0.00979073
6967.00   0.77045828   0.00991956
6968.00   0.78356206   0.00992013
6969.00   0.79057813   0.00982619
6970.00   0.77952451   0.00957827
6971.00   0.75604802   0.00917645
6972.00   0.75263977   0.00921202
6973.00   0.76074100   0.00969130
6974.00   0.77160496   0.00993507
6975.00   0.79477799   0.01011427
6976.00   0.81211096   0.01017937
6977.00   0.80890787   0.01003688
6978.00   0.79113227   0.00969819
6979.00   0.78270775   0.00958874
6980.00   0.77652323   0.00958305
6981.00   0.76928872   0.00963468
6982.00   0.75835663   0.00983579
6983.00   0.75099188   0.00999201
6984.00   0.75442231   0.00993619
6985.00   0.76694953   0.00973067
6986.00   0.77160704   0.00955363
6987.00   0.77508676   0.00915034
6988.00   0.77431893   0.00910522
6989.00   0.76539040   0.00955833
6990.00   0.75764918   0.01001213
6991.00   0.76099879   0.01003807
6992.00   0.77242154   0.00977679
6993.00   0.78080970   0.00972918
6994.00   0.79138380   0.00964820
6995.00   0.79945827   0.00978339
6996.00   0.80569065   0.01031206
6997.00   0.80979323   0.01077761
6998.00   0.81137872   0.01067755
6999.00   0.81209040   0.01010313
7000.00   0.80358416   0.00980571
7001.00   0.77441531   0.00924698
7002.00   0.76597750   0.00930806
7003.00   0.78771049   0.01026399
7004.00   0.81581271   0.01132569
7005.00   0.82114685   0.01172375
7006.00   0.81799692   0.01178519
7007.00   0.79736787   0.01185558
7008.00   0.73769051   0.01177933
7009.00   0.70899588   0.01169702
7010.00   0.72522122   0.01173392
7011.00   0.75735772   0.01166080
7012.00   0.76680225   0.01100708
7013.00   0.76780319   0.00937391
7014.00   0.76722914   0.00879370
7015.00   0.75737709   0.00910364
7016.00   0.75383991   0.00933338
7017.00   0.75997156   0.00942276
7018.00   0.77046549   0.00947773
7019.00   0.77820104   0.00941899
7020.00   0.78850651   0.00919883
7021.00   0.79183948   0.00911230
7022.00   0.78904378   0.00900239
7023.00   0.78583288   0.00905641
7024.00   0.78134388   0.00938731
7025.00   0.77713025   0.00982222
7026.00   0.78113103   0.00999709
7027.00   0.79731089   0.01010736
7028.00   0.80118322   0.01000188
7029.00   0.79898667   0.00951039
7030.00   0.79382181   0.00917837
7031.00   0.78498566   0.00924977
7032.00   0.77359706   0.00950445
7033.00   0.76689935   0.00950808
7034.00   0.76483917   0.00937861
7035.00   0.75859368   0.00926733
7036.00   0.74573344   0.00906490
7037.00   0.73918217   0.00893736
7038.00   0.74396765   0.00897080
7039.00   0.75628161   0.00909893
7040.00   0.77055061   0.00915580
7041.00   0.79950231   0.00920414
7042.00   0.80828339   0.00923846
7043.00   0.80296159   0.00925489
7044.00   0.79138649   0.00926743
7045.00   0.77083093   0.00928055
7046.00   0.74321401   0.00929151
7047.00   0.74778968   0.00930892
7048.00   0.79435343   0.00922181
7049.00   0.80651814   0.00937604
7050.00   0.79655331   0.00968892
7051.00   0.77865183   0.01012957
7052.00   0.75388473   0.01083016
7053.00   0.72023267   0.01170426
7054.00   0.71973968   0.01164104
7055.00   0.75134951   0.01052446
7056.00   0.77207255   0.00991053
7057.00   0.79366326   0.00955338
7058.00   0.80955678   0.00938413
7059.00   0.81314903   0.00946729
7060.00   0.80711651   0.00981363
7061.00   0.80273855   0.00978803
7062.00   0.79253250   0.00940639
7063.00   0.78773904   0.00928766
7064.00   0.78700650   0.00938124
7065.00   0.78886360   0.00956527
7066.00   0.79380322   0.00981738
7067.00   0.80304635   0.01019729
7068.00   0.80301404   0.01018084
7069.00   0.79215366   0.00963816
7070.00   0.78906083   0.00949513
7071.00   0.79468477   0.00987928
7072.00   0.80113626   0.01023601
7073.00   0.80156034   0.01006296
7074.00   0.79849899   0.00944499
7075.00   0.79661232   0.00936875
7076.00   0.79439110   0.00969160
7077.00   0.79176337   0.00989377
7078.00   0.78483081   0.00998893
7079.00   0.78155345   0.01007857
7080.00   0.79416764   0.01025550
7081.00   0.82527989   0.01055073
7082.00   0.82873827   0.01053116
7083.00   0.80953425   0.01022515
7084.00   0.79675066   0.00995371
7085.00   0.78986233   0.00965780
7086.00   0.78565764   0.00940482
7087.00   0.78387970   0.00936890
7088.00   0.78498292   0.00952315
7089.00   0.78728634   0.00966027
7090.00   0.79367501   0.00996017
7091.00   0.79739940   0.01008559
7092.00   0.80012351   0.00999719
7093.00   0.79935437   0.00979559
7094.00   0.78778166   0.00958011
7095.00   0.75940794   0.00916381
7096.00   0.75279176   0.00914915
7097.00   0.76192170   0.00950135
7098.00   0.76986170   0.00979033
7099.00   0.77627343   0.01006624
7100.00   0.78168160   0.01025936
7101.00   0.78138036   0.01005880
7102.00   0.77396929   0.00928111
7103.00   0.77202052   0.00902084
7104.00   0.77372408   0.00896045
7105.00   0.77344841   0.00911474
7106.00   0.76649052   0.00963930
7107.00   0.75926995   0.01026019
7108.00   0.76882851   0.01031016
7109.00   0.80249774   0.00983134
7110.00   0.81156784   0.00963144
7111.00   0.80345285   0.00926168
7112.00   0.79772270   0.00927770
7113.00   0.79879957   0.01009343
7114.00   0.80296433   0.01113705
7115.00   0.81049734   0.01109320
7116.00   0.82539874   0.00984679
7117.00   0.83405840   0.00943728
7118.00   0.84112841   0.00937516
7119.00   0.84476560   0.00952061
7120.00   0.84405917   0.00994415
7121.00   0.83974320   0.01052967
7122.00   0.83366770   0.01061227
7123.00   0.81761593   0.01031088
7124.00   0.81619042   0.01007572
7125.00   0.83188295   0.00970431
7126.00   0.84194994   0.00938847
7127.00   0.83393312   0.00923836
7128.00   0.81586832   0.00919565
7129.00   0.81052685   0.00915753
7130.00   0.80992997   0.00912129
7131.00   0.81355721   0.00921630
7132.00   0.82714719   0.00947025
7133.00   0.83698100   0.00972591
7134.00   0.83616686   0.00995677
7135.00   0.82870424   0.01019050
7136.00   0.81296962   0.01007411
7137.00   0.78120494   0.00938965
7138.00   0.75970006   0.00917427
7139.00   0.73476505   0.00941968
7140.00   0.72564203   0.00967546
7141.00   0.75104880   0.00963520
7142.00   0.80477273   0.00942246
7143.00   0.83363891   0.00962852
7144.00   0.85527027   0.01019971
7145.00   0.87147564   0.01061123
7146.00   0.87676352   0.01101478
7147.00   0.88281298   0.01130209
7148.00   0.90116787   0.01138059
7149.00   0.92871702   0.01131026
7150.00   0.94081956   0.01104255
7151.00   0.94319487   0.01036160
7152.00   0.94362080   0.00990176
7153.00   0.93513131   0.00953898
7154.00   0.93027335   0.00939370
7155.00   0.94527745   0.00965484
7156.00   0.97927463   0.01026161
7157.00   0.98428601   0.01083730
7158.00   0.96916503   0.01167930
7159.00   0.95470452   0.01220347
7160.00   0.93388784   0.01242186
7161.00   0.91621953   0.01253219
7162.00   0.91726983   0.01274301
7163.00   0.93635106   0.01309154
7164.00   0.93722391   0.01281710
7165.00   0.92694223   0.01161558
7166.00   0.91920263   0.01095860
7167.00   0.91500282   0.01119528
7168.00   0.91038388   0.01159812
7169.00   0.90120190   0.01133546
7170.00   0.88755929   0.01056266
7171.00   0.87767422   0.01014274
7172.00   0.86955404   0.00980672
7173.00   0.86141741   0.00958696
7174.00   0.85146397   0.00951858
7175.00   0.84302312   0.00955539
7176.00   0.84207731   0.00960710
7177.00   0.84811753   0.00967959
7178.00   0.85270631   0.00990183
7179.00   0.86454916   0.01040910
7180.00   0.86658615   0.01067414
7181.00   0.85325271   0.01060988
7182.00   0.83360583   0.01038752
7183.00   0.82258910   0.01023041
7184.00   0.80748492   0.00987736
7185.00   0.81438297   0.00998698
7186.00   0.85493344   0.01069986
7187.00   0.87510568   0.01103020
7188.00   0.85982102   0.01075946
7189.00   0.82796437   0.01018170
7190.00   0.80924827   0.00979701
7191.00   0.78463197   0.00931132
7192.00   0.78066051   0.00908397
7193.00   0.79968727   0.00898984
7194.00   0.81389242   0.00912033
7195.00   0.81593132   0.00962596
7196.00   0.81249601   0.01027741
7197.00   0.80906379   0.01042069
7198.00   0.79839814   0.01022566
7199.00   0.79767346   0.01001990
7200.00   0.80540276   0.00946737
7201.00   0.81243503   0.00915996
7202.00   0.81577504   0.00942759
7203.00   0.81763691   0.00999589
7204.00   0.81919533   0.01024792
7205.00   0.82220805   0.01053337
7206.00   0.81952769   0.01048728
7207.00   0.80821407   0.01003725
7208.00   0.80051619   0.00958665
7209.00   0.80237430   0.00930198
7210.00   0.80994731   0.00909322
7211.00   0.81607997   0.00910054
7212.00   0.83090729   0.00948811
7213.00   0.83009028   0.00956776
7214.00   0.81122476   0.00936566
7215.00   0.79447865   0.00923006
7216.00   0.79122823   0.00935809
7217.00   0.79525274   0.00963702
7218.00   0.79540908   0.00990562
7219.00   0.79874903   0.01040136
7220.00   0.79531258   0.01053443
7221.00   0.78374147   0.01031372
7222.00   0.77221572   0.01003379
7223.00   0.76562893   0.00988573
7224.00   0.76133651   0.00977589
7225.00   0.75999039   0.00964101
7226.00   0.76007468   0.00943809
7227.00   0.76560456   0.00936740
7228.00   0.77977711   0.00928046
7229.00   0.79369587   0.00943790
7230.00   0.80005300   0.01014683
7231.00   0.80193001   0.01128714
7232.00   0.80463737   0.01164554
7233.00   0.80321556   0.01157197
7234.00   0.80735397   0.01142465
7235.00   0.82133090   0.01090613
7236.00   0.83275539   0.01051614
7237.00   0.82923067   0.01092408
7238.00   0.81458169   0.01196026
7239.00   0.80324864   0.01225095
7240.00   0.78480387   0.01207282
7241.00   0.77622038   0.01205854
7242.00   0.78351241   0.01215887
7243.00   0.79032171   0.01232424
7244.00   0.77677590   0.01261126
7245.00   0.74541026   0.01313867
7246.00   0.73337734   0.01301455
7247.00   0.72701389   0.01227447
7248.00   0.73112011   0.01160174
7249.00   0.75271988   0.01089382
7250.00   0.77754933   0.01024452
7251.00   0.78425068   0.00998077
7252.00   0.77641690   0.01011550
7253.00   0.78164935   0.01008173
7254.00   0.79969239   0.01010606
7255.00   0.80601376   0.01005655
7256.00   0.79374629   0.00985697
7257.00   0.77700448   0.00964706
7258.00   0.77658039   0.00968740
7259.00   0.78751248   0.01001561
7260.00   0.79405892   0.00999978
7261.00   0.80647719   0.00966405
7262.00   0.80975753   0.00949135
7263.00   0.79629087   0.00959512
7264.00   0.77856290   0.00979953
7265.00   0.78107542   0.00987625
7266.00   0.80384654   0.00994845
7267.00   0.80881429   0.00989859
7268.00   0.80491626   0.00970320
7269.00   0.79979193   0.00951935
7270.00   0.79313618   0.00922904
7271.00   0.78577566   0.00901004
7272.00   0.78395450   0.00950105
7273.00   0.78767300   0.01065219
7274.00   0.78838295   0.01145535
7275.00   0.78833449   0.01262030
7276.00   0.78843814   0.01308820
7277.00   0.78961706   0.01245454
7278.00   0.79079831   0.01112164
7279.00   0.78839505   0.01042987
7280.00   0.78435987   0.00984448
7281.00   0.77669561   0.00964948
7282.00   0.76193905   0.01005057
7283.00   0.75065213   0.01035830
7284.00   0.74569881   0.01038567
7285.00   0.74508959   0.01028145
7286.00   0.75072455   0.01006004
7287.00   0.76802832   0.00948156
7288.00   0.77698934   0.00926810
7289.00   0.78408521   0.00936591
7290.00   0.78646839   0.00946317
7291.00   0.78014863   0.00942160
7292.00   0.76788557   0.00933132
7293.00   0.76803708   0.00933491
7294.00   0.77984512   0.00941127
7295.00   0.78458697   0.00946389
7296.00   0.78518164   0.00957039
7297.00   0.78554374   0.00959736
7298.00   0.78721929   0.00940922
7299.00   0.78927517   0.00906010
7300.00   0.79314023   0.00909647
7301.00   0.79813015   0.00950189
7302.00   0.80482578   0.00971419
7303.00   0.81880385   0.00984473
7304.00   0.82658094   0.00992888
7305.00   0.81436557   0.00993289
7306.00   0.78629345   0.00984968
7307.00   0.79153138   0.01007298
7308.00   0.83500743   0.01087439
7309.00   0.84894055   0.01093705
7310.00   0.83611429   0.01007033
7311.00   0.81841272   0.00919864
7312.00   0.81068671   0.00921874
7313.00   0.80616921   0.00976130
7314.00   0.79857141   0.01046045
7315.00   0.79376733   0.01182415
7316.00   0.78027552   0.01244168
7317.00   0.75065237   0.01254343
7318.00   0.72481203   0.01230479
7319.00   0.72097623   0.01168276
7320.00   0.73038560   0.01041845
7321.00   0.75427806   0.00994030
7322.00   0.81232107   0.01001011
7323.00   0.84432250   0.01015145
7324.00   0.84979075   0.01056209
7325.00   0.84428978   0.01092802
7326.00   0.83934617   0.01082331
7327.00   0.82715362   0.01027595
7328.00   0.82323116   0.01023654
7329.00   0.82573467   0.01074296
7330.00   0.82529861   0.01078720
7331.00   0.81886941   0.01019241
7332.00   0.81382799   0.00941140
7333.00   0.82129496   0.00909672
7334.00   0.84462351   0.00901698
7335.00   0.84319961   0.00912620
7336.00   0.81558883   0.00924935
7337.00   0.80317914   0.00990092
7338.00   0.81351084   0.01142966
7339.00   0.82977575   0.01283726
7340.00   0.83036083   0.01297027
7341.00   0.82230735   0.01212055
7342.00   0.81393832   0.01153629
7343.00   0.79238474   0.01056941
7344.00   0.78656906   0.00983560
7345.00   0.80723417   0.00951938
7346.00   0.83651626   0.00944496
7347.00   0.84254295   0.00935686
7348.00   0.83046770   0.00936853
7349.00   0.82995379   0.00945127
7350.00   0.83512175   0.00977241
7351.00   0.83699846   0.00988534
7352.00   0.83218801   0.00960151
7353.00   0.82522535   0.00916779
7354.00   0.82528228   0.00917813
7355.00   0.83555168   0.00939230
7356.00   0.83206671   0.00985075
7357.00   0.81569636   0.01088827
7358.00   0.80362129   0.01143782
7359.00   0.79889637   0.01122769
7360.00   0.79910773   0.01059382
7361.00   0.80752891   0.01021174
7362.00   0.83528781   0.00949192
7363.00   0.84129757   0.00954998
7364.00   0.82924032   0.01037936
7365.00   0.82102340   0.01108215
7366.00   0.82728267   0.01148099
7367.00   0.83904868   0.01174814
7368.00   0.83272815   0.01180262
7369.00   0.80137640   0.01152055
7370.00   0.79608417   0.01142186
7371.00   0.81049627   0.01151436
7372.00   0.82587713   0.01142799
7373.00   0.83674437   0.01088718
7374.00   0.84648311   0.01002328
7375.00   0.84468442   0.00972008
7376.00   0.82610315   0.00989067
7377.00   0.81964761   0.00992298
7378.00   0.82050049   0.01005484
7379.00   0.82326621   0.01006764
7380.00   0.82521051   0.00977255
7381.00   0.82784170   0.00924288
7382.00   0.83434826   0.00905832
7383.00   0.85328412   0.00914787
7384.00   0.85402387   0.00914003
7385.00   0.82962000   0.00905587
7386.00   0.81211871   0.00903467
7387.00   0.82578772   0.00917448
7388.00   0.86056250   0.00942886
7389.00   0.87028253   0.00961769
7390.00   0.86957884   0.00990435
7391.00   0.86226362   0.00997427
7392.00   0.84133786   0.00980802
7393.00   0.82112968   0.00958733
7394.00   0.81379324   0.00941100
7395.00   0.81431800   0.00918936
7396.00   0.81199813   0.00932398
7397.00   0.80653757   0.00985163
7398.00   0.80986202   0.01020306
7399.00   0.83157682   0.01043348
7400.00   0.84682363   0.01063912
7401.00   0.82779944   0.01093352
7402.00   0.77850664   0.01136605
7403.00   0.76660335   0.01114203
7404.00   0.77930844   0.01006042
7405.00   0.78790283   0.00937168
7406.00   0.79582185   0.00906892
7407.00   0.80305296   0.00901728
7408.00   0.80665839   0.00920629
7409.00   0.80740261   0.00974289
7410.00   0.80860597   0.00992851
7411.00   0.80652100   0.00999924
7412.00   0.80900764   0.00996052
7413.00   0.81914133   0.00972324
7414.00   0.82968104   0.00944939
7415.00   0.83077270   0.00941298
7416.00   0.82396138   0.00959107
7417.00   0.82284278   0.00952718
7418.00   0.82051724   0.00916384
7419.00   0.82438368   0.00907581
7420.00   0.84051180   0.00943379
7421.00   0.85734659   0.00987264
7422.00   0.85498011   0.00992529
7423.00   0.83498204   0.00972650
7424.00   0.82673150   0.00957878
7425.00   0.82058150   0.00920535
7426.00   0.81777042   0.00910898
7427.00   0.82245725   0.00951845
7428.00   0.82777399   0.01003387
7429.00   0.81801224   0.01000911
7430.00   0.79008520   0.00943147
7431.00   0.78081405   0.00938632
7432.00   0.78038943   0.00970828
7433.00   0.78455484   0.00993847
7434.00   0.79600787   0.00996764
7435.00   0.81058633   0.00995049
7436.00   0.81413567   0.01012880
7437.00   0.80657893   0.01065476
7438.00   0.80780888   0.01062369
7439.00   0.81864446   0.01001867
7440.00   0.82065034   0.00959939
7441.00   0.80496722   0.00969068
7442.00   0.78132576   0.00998565
7443.00   0.77390301   0.00991384
7444.00   0.77805203   0.00940628
7445.00   0.77884930   0.00939520
7446.00   0.77964574   0.00985172
7447.00   0.78318948   0.01012625
7448.00   0.79340285   0.01000866
7449.00   0.80647475   0.00967429
7450.00   0.80473280   0.00939065
7451.00   0.79018205   0.00893695
7452.00   0.77755505   0.00869011
7453.00   0.75549823   0.00858446
7454.00   0.74275130   0.00856325
7455.00   0.75105429   0.00858477
7456.00   0.77236116   0.00867797
7457.00   0.77752000   0.00897052
7458.00   0.76848340   0.00971920
7459.00   0.77270508   0.00987973
7460.00   0.79001355   0.00947767
7461.00   0.80434000   0.00911790
7462.00   0.80749744   0.00917743
7463.00   0.80415666   0.00945356
7464.00   0.79904538   0.00952854
7465.00   0.78202510   0.00939337
7466.00   0.77996266   0.00954860
7467.00   0.80098146   0.00976485
7468.00   0.81199622   0.01029660
7469.00   0.78587520   0.01149209
7470.00   0.73308116   0.01310564
7471.00   0.72067004   0.01325411
7472.00   0.73315692   0.01198277
7473.00   0.74694812   0.01136374
7474.00   0.77035856   0.01126775
7475.00   0.79445630   0.01124552
7476.00   0.81252044   0.01100468
7477.00   0.82898498   0.01065871
7478.00   0.83308941   0.01047111
7479.00   0.82551795   0.01037730
7480.00   0.81527597   0.01032258
7481.00   0.79660088   0.01032681
7482.00   0.77901536   0.01036747
7483.00   0.77313066   0.01044758
7484.00   0.77595711   0.01061318
7485.00   0.77218556   0.01049914
7486.00   0.76219577   0.01006071
7487.00   0.76005542   0.00976720
7488.00   0.76716846   0.00958998
7489.00   0.77710068   0.00949384
7490.00   0.78414357   0.00947562
7491.00   0.79191124   0.00952271
7492.00   0.79415315   0.00972636
7493.00   0.78466386   0.01018568
7494.00   0.78770787   0.01048467
7495.00   0.81038398   0.01066024
7496.00   0.83482969   0.01073689
7497.00   0.83779377   0.01065146
7498.00   0.82347065   0.01025854
7499.00   0.82152587   0.01041672
7500.00   0.82857513   0.01124886
7501.00   0.82706469   0.01155051
7502.00   0.81224215   0.01118754
7503.00   0.79424071   0.01054703
7504.00   0.78800929   0.01013913
7505.00   0.79265124   0.00970823
7506.00   0.78466034   0.00947843
7507.00   0.76057333   0.00946906
7508.00   0.75100487   0.00947069
7509.00   0.76557398   0.00941690
7510.00   0.78786278   0.00942114
7511.00   0.79001212   0.00967007
7512.00   0.77199382   0.01011694
7513.00   0.77806002   0.01057906
7514.00   0.79691607   0.01103185
7515.00   0.82204276   0.01166016
7516.00   0.86307484   0.01229712
7517.00   0.90545964   0.01314547
7518.00   0.90406436   0.01479730
7519.00   0.85197389   0.01785457
7520.00   0.83691609   0.01850860
7521.00   0.84539819   0.01769995
7522.00   0.84200633   0.01658754
7523.00   0.81194937   0.01525937
7524.00   0.77130991   0.01356214
7525.00   0.75606126   0.01225801
7526.00   0.75329632   0.01101598
7527.00   0.76067626   0.01022535
7528.00   0.79295594   0.01007730
7529.00   0.81327057   0.01011130
7530.00   0.80675590   0.01028166
7531.00   0.78574228   0.01058508
7532.00   0.77387559   0.01048630
7533.00   0.75726622   0.00995776
7534.00   0.75287265   0.00970870
7535.00   0.76079631   0.00955039
7536.00   0.76905203   0.00949868
7537.00   0.77327728   0.00959589
7538.00   0.77629834   0.00980820
7539.00   0.77734727   0.00992488
7540.00   0.77487439   0.01009407
7541.00   0.77476794   0.01008651
7542.00   0.77560383   0.00985359
7543.00   0.77732933   0.00964905
7544.00   0.77844721   0.00955504
7545.00   0.77958781   0.00952008
7546.00   0.79249185   0.00990490
7547.00   0.82732272   0.01106353
7548.00   0.83874762   0.01132164
7549.00   0.83022660   0.01075293
7550.00   0.81701082   0.01012945
7551.00   0.80593055   0.00998313
7552.00   0.79252499   0.01006724
7553.00   0.78979099   0.01017695
7554.00   0.79821712   0.01050129
7555.00   0.80232906   0.01065575
7556.00   0.80730426   0.01072341
7557.00   0.80796021   0.01069240
7558.00   0.79681504   0.01048228
7559.00   0.77452093   0.01006394
7560.00   0.77340454   0.01005159
7561.00   0.79656482   0.01042830
7562.00   0.80109721   0.01061560
7563.00   0.78229284   0.01071736
7564.00   0.76513147   0.01071921
7565.00   0.77261388   0.01052692
7566.00   0.79801291   0.01009413
7567.00   0.80932754   0.01003815
7568.00   0.82300341   0.01027822
7569.00   0.82143754   0.01045647
7570.00   0.79483151   0.01064720
7571.00   0.76801693   0.01078972
7572.00   0.77025580   0.01078326
7573.00   0.79550546   0.01066272
7574.00   0.80006266   0.01049893
7575.00   0.78962153   0.01017263
7576.00   0.78928185   0.00995145
7577.00   0.80205584   0.00979943
7578.00   0.81776589   0.00975569
7579.00   0.82600439   0.00993642
7580.00   0.83302283   0.01039067
7581.00   0.82989037   0.01055506
7582.00   0.81327575   0.01055107
7583.00   0.80104911   0.01057141
7584.00   0.79523182   0.01068044
7585.00   0.79051852   0.01074293
7586.00   0.78073394   0.01053886
7587.00   0.76464677   0.00996631
7588.00   0.75918287   0.00982565
7589.00   0.76216447   0.00986536
7590.00   0.76472026   0.01011910
7591.00   0.76683086   0.01029870
7592.00   0.76870042   0.01085316
7593.00   0.76722080   0.01260231
7594.00   0.75273389   0.01500735
7595.00   0.76852143   0.01728208
7596.00   0.81679362   0.01970150
7597.00   0.85449278   0.02201084
7598.00   0.87320012   0.02429315
7599.00   0.88375473   0.02647811
7600.00   0.89687115   0.02830638
7601.00   0.89575112   0.02973329
7602.00   0.92583525   0.03155465
7603.00   1.01839423   0.03430879
7604.00   1.05186236   0.03577687
7605.00   0.97271800   0.03549293
7606.00   0.84046447   0.03409217
7607.00   0.79323483   0.03250456
7608.00   0.80443364   0.02968340
7609.00   0.78830302   0.02745228
7610.00   0.76306212   0.02540829
7611.00   0.74784356   0.02323774
7612.00   0.75336254   0.02055157
7613.00   0.76994562   0.01750915
7614.00   0.76808786   0.01570417
7615.00   0.74793130   0.01590066
7616.00   0.74472326   0.01503305
7617.00   0.75148761   0.01333981
7618.00   0.76148123   0.01214710
7619.00   0.77422130   0.01240434
7620.00   0.78978544   0.01355668
7621.00   0.79594654   0.01433267
7622.00   0.80053860   0.01531796
7623.00   0.79249007   0.01604164
7624.00   0.75639993   0.01648951
7625.00   0.73706406   0.01705601
7626.00   0.76796854   0.01812488
7627.00   0.83111382   0.01943086
7628.00   0.83496356   0.01937355
7629.00   0.78019357   0.01779248
7630.00   0.76696950   0.01697324
7631.00   0.78370595   0.01648079
7632.00   0.80566812   0.01628923
7633.00   0.82086688   0.01657352
7634.00   0.83617604   0.01729411
7635.00   0.84506804   0.01723786
7636.00   0.85356134   0.01640131
7637.00   0.84989315   0.01608539
7638.00   0.83244973   0.01648298
7639.00   0.81004488   0.01662699
7640.00   0.78660774   0.01565265
7641.00   0.75792938   0.01360805
7642.00   0.74751836   0.01280492
7643.00   0.74598902   0.01301653
7644.00   0.75777483   0.01299216
7645.00   0.79149914   0.01287789
7646.00   0.82672656   0.01279296
7647.00   0.84518903   0.01278556
7648.00   0.85590768   0.01285196
7649.00   0.85648453   0.01284782
7650.00   0.85060787   0.01288546
7651.00   0.82956672   0.01277060
7652.00   0.77733344   0.01247509
7653.00   0.72953427   0.01209116
7654.00   0.72873670   0.01166446
7655.00   0.76440561   0.01102770
7656.00   0.78272176   0.01102185
7657.00   0.80791330   0.01174667
7658.00   0.82013720   0.01209943
7659.00   0.81604034   0.01197656
7660.00   0.80567712   0.01182689
7661.00   0.80128992   0.01217324
7662.00   0.80158633   0.01290662
7663.00   0.78584653   0.01328124
7664.00   0.74808717   0.01351671
7665.00   0.72478205   0.01371375
7666.00   0.71719623   0.01406030
7667.00   0.71954232   0.01420682
7668.00   0.72975588   0.01350607
7669.00   0.75315362   0.01160316
7670.00   0.76977175   0.01066755
7671.00   0.79350042   0.01029628
7672.00   0.80277270   0.01006985
7673.00   0.79126549   0.00989339
7674.00   0.77005601   0.00995780
7675.00   0.75622785   0.01056037
7676.00   0.73732984   0.01207942
7677.00   0.73557538   0.01218874
7678.00   0.75557411   0.01106104
7679.00   0.76556551   0.01026255
7680.00   0.75194913   0.01028425
7681.00   0.73396397   0.01061448
7682.00   0.75190675   0.01058908
7683.00   0.81707394   0.01037274
7684.00   0.83167404   0.01030697
7685.00   0.81520832   0.01023993
7686.00   0.79535139   0.01030484
7687.00   0.77221423   0.01061513
7688.00   0.74780536   0.01101607
7689.00   0.74810213   0.01109625
7690.00   0.78359348   0.01089015
7691.00   0.78643811   0.01082882
7692.00   0.76286274   0.01080502
7693.00   0.74977458   0.01076343
7694.00   0.76489729   0.01058839
7695.00   0.79248434   0.01039546
7696.00   0.79162866   0.01074420
7697.00   0.76467782   0.01174087
7698.00   0.75354874   0.01221438
7699.00   0.74604207   0.01268180
7700.00   0.74395257   0.01272904
7701.00   0.75036633   0.01199874
7702.00   0.76293874   0.01063591
7703.00   0.76725954   0.00999464
7704.00   0.76512718   0.00971176
7705.00   0.76751888   0.00965195
7706.00   0.77008492   0.00995874
7707.00   0.77684313   0.01036981
7708.00   0.79325211   0.01069940
7709.00   0.81651491   0.01104767
7710.00   0.82088536   0.01187198
7711.00   0.81262720   0.01351508
7712.00   0.80067354   0.01409510
7713.00   0.77963102   0.01383424
7714.00   0.75767368   0.01344089
7715.00   0.73962039   0.01336295
7716.00   0.72273719   0.01338565
7717.00   0.70903182   0.01307978
7718.00   0.68872297   0.01240174
7719.00   0.69020289   0.01187975
7720.00   0.72236341   0.01138866
7721.00   0.75230092   0.01100773
7722.00   0.75303996   0.01085954
7723.00   0.73458713   0.01092892
7724.00   0.73666799   0.01088134
7725.00   0.75275475   0.01085187
7726.00   0.76165956   0.01077276
7727.00   0.76669890   0.01065715
7728.00   0.76803726   0.01049667
7729.00   0.76315284   0.01025149
7730.00   0.75083894   0.00988796
7731.00   0.74996424   0.00976492
7732.00   0.75925452   0.00984760
7733.00   0.76369232   0.00990483
7734.00   0.75991327   0.00993621
7735.00   0.75891465   0.01000386
7736.00   0.77446634   0.01018929
7737.00   0.80769318   0.01053517
7738.00   0.81276685   0.01051135
7739.00   0.79342234   0.01011065
7740.00   0.78272879   0.00985648
7741.00   0.78010327   0.00974880
7742.00   0.78074455   0.00971407
7743.00   0.78300315   0.00969439
7744.00   0.79004413   0.00961663
7745.00   0.78913999   0.00998945
7746.00   0.77323169   0.01042464
7747.00   0.77456039   0.01144070
7748.00   0.81126857   0.01345593
7749.00   0.84689647   0.01520583
7750.00   0.82094771   0.01531172
7751.00   0.72712052   0.01410531
7752.00   0.70794368   0.01327436
7753.00   0.74422431   0.01191124
7754.00   0.76327842   0.01090971
7755.00   0.75506723   0.01050712
7756.00   0.73840541   0.01052422
7757.00   0.73290926   0.01077624
7758.00   0.73450255   0.01161810
7759.00   0.72776669   0.01182123
7760.00   0.71118456   0.01177349
7761.00   0.70217884   0.01151133
7762.00   0.70762938   0.01087070
7763.00   0.71773887   0.01002752
7764.00   0.71286148   0.00967292
7765.00   0.69074857   0.00962946
7766.00   0.68750596   0.00972437
7767.00   0.69596171   0.01023595
7768.00   0.70578289   0.01052661
7769.00   0.71707052   0.01034097
7770.00   0.72890347   0.00998649
7771.00   0.73117203   0.01023191
7772.00   0.72456414   0.01110756
7773.00   0.71961117   0.01144216
7774.00   0.70866001   0.01167371
7775.00   0.70355052   0.01164042
7776.00   0.70937675   0.01112081
7777.00   0.72166008   0.01028528
7778.00   0.73034734   0.01014297
7779.00   0.74288595   0.01071473
7780.00   0.74703020   0.01079198
7781.00   0.74331135   0.01054806
7782.00   0.73900515   0.01040163
7783.00   0.73740983   0.01059796
7784.00   0.73623395   0.01095438
7785.00   0.73109025   0.01092636
7786.00   0.71543723   0.01052359
7787.00   0.71554631   0.01034647
7788.00   0.72950035   0.01010777
7789.00   0.74578601   0.01016183
7790.00   0.75986516   0.01076058
7791.00   0.77450514   0.01169269
7792.00   0.78540754   0.01230614
7793.00   0.80105877   0.01314508
7794.00   0.79929304   0.01327949
7795.00   0.77757698   0.01268515
7796.00   0.75376809   0.01193015
7797.00   0.73735553   0.01135719
7798.00   0.72289360   0.01077515
7799.00   0.71524811   0.01035884
7800.00   0.71374547   0.00998486
7801.00   0.71523696   0.00992044
7802.00   0.72452176   0.01022114
7803.00   0.73195064   0.01064208
7804.00   0.72768378   0.01105293
7805.00   0.71416485   0.01153644
7806.00   0.71968687   0.01182704
7807.00   0.74998981   0.01220510
7808.00   0.75802028   0.01212357
7809.00   0.74136686   0.01134388
7810.00   0.72210616   0.01050648
7811.00   0.71820933   0.01032849
7812.00   0.72234935   0.01056941
7813.00   0.72427964   0.01078716
7814.00   0.73040640   0.01131511
7815.00   0.73166704   0.01155550
7816.00   0.72578400   0.01133206
7817.00   0.71996552   0.01120440
7818.00   0.72230595   0.01183502
7819.00   0.73149502   0.01305993
7820.00   0.73261386   0.01351658
7821.00   0.72921073   0.01378839
7822.00   0.72517443   0.01362199
7823.00   0.71736193   0.01270084
7824.00   0.71126020   0.01157243
7825.00   0.71584719   0.01122744
7826.00   0.73137587   0.01151668
7827.00   0.73600852   0.01133607
7828.00   0.73369372   0.01093003
7829.00   0.73325956   0.01058623
7830.00   0.73558849   0.01028587
7831.00   0.73814189   0.01004629
7832.00   0.73785025   0.00995717
7833.00   0.73298222   0.00998739
7834.00   0.73724258   0.01013479
7835.00   0.75331694   0.01048195
7836.00   0.76133645   0.01077274
7837.00   0.75666535   0.01097667
7838.00   0.74774033   0.01116389
7839.00   0.74713868   0.01142006
7840.00   0.75421554   0.01185288
7841.00   0.75104624   0.01187503
7842.00   0.74000531   0.01153138
7843.00   0.72990465   0.01120408
7844.00   0.71916592   0.01088465
7845.00   0.71046764   0.01060304
7846.00   0.71491390   0.01062277
7847.00   0.73357254   0.01081244
7848.00   0.74665302   0.01127443
7849.00   0.76809132   0.01199490
7850.00   0.77648485   0.01280635
7851.00   0.76292616   0.01390036
7852.00   0.73762488   0.01495634
7853.00   0.72309625   0.01501649
7854.00   0.69943410   0.01390333
7855.00   0.70466113   0.01353384
7856.00   0.74558920   0.01349561
7857.00   0.77417517   0.01341685
7858.00   0.77479374   0.01320147
7859.00   0.76033419   0.01291517
7860.00   0.74500316   0.01250248
7861.00   0.70997661   0.01172051
7862.00   0.69984114   0.01137575
7863.00   0.70348364   0.01140876
7864.00   0.71773964   0.01147340
7865.00   0.74768579   0.01131165
7866.00   0.78895634   0.01111464
7867.00   0.80335170   0.01174126
7868.00   0.80014068   0.01347376
7869.00   0.79401869   0.01405114
7870.00   0.77523679   0.01404464
7871.00   0.75883824   0.01369473
7872.00   0.75100255   0.01288905
7873.00   0.74794286   0.01157007
7874.00   0.75643057   0.01118050
7875.00   0.78768855   0.01162639
7876.00   0.79837644   0.01182212
7877.00   0.79808146   0.01186149
7878.00   0.78706956   0.01210653
7879.00   0.75942725   0.01287739
7880.00   0.71606910   0.01398554
7881.00   0.70229447   0.01420269
7882.00   0.70982498   0.01385817
7883.00   0.71554774   0.01337763
7884.00   0.72305620   0.01229037
7885.00   0.73443550   0.01136104
7886.00   0.75451964   0.01145100
7887.00   0.78462094   0.01226728
7888.00   0.78212464   0.01259783
7889.00   0.74341625   0.01302845
7890.00   0.72401017   0.01305034
7891.00   0.71334380   0.01255888
7892.00   0.71470016   0.01194660
7893.00   0.73847193   0.01157186
7894.00   0.78665382   0.01126300
7895.00   0.80294085   0.01113067
7896.00   0.80182296   0.01124774
7897.00   0.79604620   0.01130786
7898.00   0.78160471   0.01133359
7899.00   0.76341975   0.01136243
7900.00   0.74658084   0.01141123
7901.00   0.72549421   0.01147588
7902.00   0.72089386   0.01153206
7903.00   0.73113990   0.01168614
7904.00   0.74105310   0.01164661
7905.00   0.75290614   0.01117645
7906.00   0.76506275   0.01077811
7907.00   0.77392519   0.01118750
7908.00   0.78292048   0.01217338
7909.00   0.78223479   0.01297868
7910.00   0.76982528   0.01407584
7911.00   0.76075363   0.01474645
7912.00   0.75525236   0.01507556
7913.00   0.75126928   0.01510466
7914.00   0.74804223   0.01468245
7915.00   0.74498093   0.01343196
7916.00   0.74624825   0.01315653
7917.00   0.75227666   0.01353617
7918.00   0.75810987   0.01397016
7919.00   0.76081860   0.01464623
7920.00   0.76554775   0.01524048
7921.00   0.78265643   0.01498730
7922.00   0.81884879   0.01385296
7923.00   0.82987577   0.01311036
7924.00   0.82755029   0.01218802
7925.00   0.81715447   0.01156943
7926.00   0.79331732   0.01136261
7927.00   0.76441038   0.01151733
7928.00   0.75485951   0.01206393
7929.00   0.75694662   0.01345930
7930.00   0.76382208   0.01374242
7931.00   0.78579265   0.01329195
7932.00   0.80057931   0.01283390
7933.00   0.80246425   0.01248812
7934.00   0.79746431   0.01215998
7935.00   0.79265952   0.01200625
7936.00   0.78402078   0.01216392
7937.00   0.77603024   0.01199681
7938.00   0.75952572   0.01141203
7939.00   0.75514966   0.01112863
7940.00   0.77580041   0.01156951
7941.00   0.80898339   0.01231503
7942.00   0.81477523   0.01235177
7943.00   0.80199790   0.01173342
7944.00   0.79036957   0.01155500
7945.00   0.76795137   0.01154371
7946.00   0.75130284   0.01164058
7947.00   0.74929959   0.01190807
7948.00   0.75547016   0.01227921
7949.00   0.75146097   0.01225694
7950.00   0.73701650   0.01184278
