# File created by shivutils (I.Shivvers)
# 
# wl(A)   flm    er(optional)
3450.00   0.20745026   0.04727412
3452.00   0.15542518   0.04574492
3454.00   0.10319713   0.04588802
3456.00   0.12945722   0.04519149
3458.00   0.18061268   0.04505261
3460.00   0.18631250   0.04472468
3462.00   0.20636536   0.04702383
3464.00   0.13877627   0.04763860
3466.00   0.12008315   0.04935832
3468.00   0.00541689   0.04607673
3470.00   0.17990202   0.04635011
3472.00   0.11985853   0.04475919
3474.00   0.13117088   0.04493628
3476.00   0.18835667   0.04600586
3478.00   0.08290288   0.04819746
3480.00   0.02121578   0.04804231
3482.00   0.11448622   0.04818488
3484.00   0.15574047   0.04845790
3486.00   0.22009769   0.04829034
3488.00   0.19438240   0.04717961
3490.00   0.19632149   0.04799711
3492.00   0.15745659   0.04650757
3494.00   0.18617098   0.04697489
3496.00   0.12473156   0.04581713
3498.00   0.13865344   0.04641071
3500.00   0.20660505   0.04819888
3502.00   0.21863402   0.04858487
3504.00   0.19634522   0.04768448
3506.00   0.18080121   0.04698731
3508.00   0.17811151   0.04688754
3510.00   0.22447638   0.04715207
3512.00   0.13613886   0.04549688
3514.00   0.16570508   0.04623078
3516.00   0.17379235   0.04636937
3518.00   0.16811106   0.04632058
3520.00   0.05541077   0.04390985
3522.00   0.23226735   0.04581695
3524.00   0.24761383   0.04557819
3526.00   0.10731239   0.04415464
3528.00   0.16526787   0.04578477
3530.00   0.14867800   0.04586697
3532.00   0.16519833   0.04595551
3534.00   0.17327535   0.04614340
3536.00   0.20722987   0.04810962
3538.00   0.24591337   0.04758965
3540.00   0.27368179   0.04840636
3542.00   0.10036442   0.04735562
3544.00   0.09036881   0.04640089
3546.00   0.05383588   0.04728976
3548.00   0.21029982   0.04854415
3550.00   0.10564993   0.04536136
3552.00   0.08298591   0.04501750
3554.00   0.05970935   0.04369409
3556.00   0.07762045   0.04504665
3558.00   0.18560658   0.04427179
3560.00   0.16531198   0.04551382
3562.00   0.28246957   0.04934089
3564.00   0.23251484   0.04584868
3566.00   0.11895423   0.04170789
3568.00   0.17378794   0.04137237
3570.00   0.21090890   0.04178381
3572.00   0.19357339   0.04125993
3574.00   0.19333073   0.04221601
3576.00   0.15287054   0.04145530
3578.00   0.16089144   0.04167475
3580.00   0.09244005   0.04253830
3582.00   0.15585673   0.03974769
3584.00   0.20293342   0.03622589
3586.00   0.24383630   0.03607080
3588.00   0.16767900   0.03560451
3590.00   0.21608731   0.03668409
3592.00   0.19232541   0.03543834
3594.00   0.20975243   0.03542231
3596.00   0.24602404   0.03524992
3598.00   0.21915995   0.03480235
3600.00   0.21927075   0.03425949
3602.00   0.19192144   0.03311386
3604.00   0.17556691   0.03214165
3606.00   0.19240499   0.03239541
3608.00   0.19438459   0.03256804
3610.00   0.13711479   0.03159555
3612.00   0.23077157   0.03446505
3614.00   0.28912339   0.03571030
3616.00   0.18310837   0.03252386
3618.00   0.15828831   0.03155028
3620.00   0.22406556   0.03265233
3622.00   0.18671294   0.03216343
3624.00   0.28716975   0.03410092
3626.00   0.27992618   0.03357602
3628.00   0.18503682   0.03284595
3630.00   0.24784733   0.03346168
3632.00   0.27133340   0.03304786
3634.00   0.18362877   0.03150778
3636.00   0.15472420   0.03095132
3638.00   0.18432190   0.03145750
3640.00   0.17512721   0.03269015
3642.00   0.26356134   0.03461553
3644.00   0.22516976   0.03318343
3646.00   0.20884292   0.03522242
3648.00   0.24632032   0.04503049
3650.00   0.20663126   0.04692763
3652.00   0.18920958   0.04142775
3654.00   0.23822920   0.03984074
3656.00   0.17739958   0.03468372
3658.00   0.25419718   0.03321104
3660.00   0.21933021   0.03417531
3662.00   0.24383074   0.03730403
3664.00   0.16800049   0.03330450
3666.00   0.24102806   0.02994610
3668.00   0.16640359   0.02814662
3670.00   0.17095768   0.02831263
3672.00   0.18914364   0.02838843
3674.00   0.20700815   0.02794359
3676.00   0.21132810   0.02770475
3678.00   0.19176279   0.02670418
3680.00   0.16205075   0.02602168
3682.00   0.19631755   0.02659193
3684.00   0.20248233   0.02630226
3686.00   0.22197859   0.02631951
3688.00   0.13666242   0.02481939
3690.00   0.14243636   0.02581845
3692.00   0.12815873   0.02580990
3694.00   0.20407550   0.02642265
3696.00   0.18259349   0.02634081
3698.00   0.17262365   0.02649355
3700.00   0.15963964   0.02607859
3702.00   0.21164422   0.02622185
3704.00   0.18089226   0.02553021
3706.00   0.17122070   0.02480557
3708.00   0.18004659   0.02451792
3710.00   0.17797288   0.02440704
3712.00   0.21926653   0.02557127
3714.00   0.13510066   0.02425614
3716.00   0.18846746   0.02494307
3718.00   0.13759911   0.02335176
3720.00   0.14361200   0.02323637
3722.00   0.12216181   0.02289381
3724.00   0.18761750   0.02458966
3726.00   0.18201765   0.02509802
3728.00   0.19954230   0.02490893
3730.00   0.17534721   0.02412440
3732.00   0.17433624   0.02353170
3734.00   0.14413515   0.02226141
3736.00   0.09163298   0.02156049
3738.00   0.15360282   0.02316441
3740.00   0.16989848   0.02391504
3742.00   0.17789137   0.02343796
3744.00   0.13036688   0.02164895
3746.00   0.14755327   0.02161047
3748.00   0.12342025   0.02096140
3750.00   0.11270764   0.02137258
3752.00   0.04884567   0.02163397
3754.00   -0.00588427   0.02461311
3756.00   -0.21132146   0.02784225
3758.00   -0.10679808   0.02661888
3760.00   0.07749309   0.02203542
3762.00   0.14160384   0.02128064
3764.00   0.16192143   0.02145426
3766.00   0.17081927   0.02125003
3768.00   0.15845792   0.02152124
3770.00   0.11790654   0.02136881
3772.00   0.11076627   0.02095606
3774.00   0.17860682   0.02204928
3776.00   0.11118319   0.02077118
3778.00   0.13877727   0.02062346
3780.00   0.10128283   0.02091488
3782.00   0.15054508   0.02156472
3784.00   0.15001997   0.02128729
3786.00   0.14771873   0.02048492
3788.00   0.15722013   0.02087309
3790.00   0.17420079   0.02152044
3792.00   0.13457498   0.02065236
3794.00   0.13074376   0.02010208
3796.00   0.16949427   0.02028257
3798.00   0.10614602   0.01962474
3800.00   0.14256997   0.02042609
3802.00   0.13039728   0.02066265
3804.00   0.13627477   0.02025047
3806.00   0.12770306   0.01947816
3808.00   0.15145625   0.02013255
3810.00   0.14294390   0.02044379
3812.00   0.12547223   0.01980365
3814.00   0.15367599   0.01985540
3816.00   0.13199092   0.01977301
3818.00   0.14082496   0.01963141
3820.00   0.16844723   0.01983142
3822.00   0.15941581   0.01952603
3824.00   0.18766567   0.01947465
3826.00   0.09458460   0.01844038
3828.00   0.06565677   0.01813700
3830.00   0.16469687   0.01977734
3832.00   0.14459038   0.01904256
3834.00   0.10534269   0.01895230
3836.00   0.15355529   0.01954951
3838.00   0.16439368   0.01948687
3840.00   0.13109939   0.01939085
3842.00   0.14301415   0.01959931
3844.00   0.19831574   0.02044408
3846.00   0.20763357   0.02023608
3848.00   0.13196304   0.01931679
3850.00   0.16954565   0.01968856
3852.00   0.15085922   0.01972121
3854.00   0.18914258   0.01984226
3856.00   0.20778948   0.02001405
3858.00   0.20088528   0.01968228
3860.00   0.23427115   0.01991580
3862.00   0.21946624   0.02025297
3864.00   0.22172004   0.02048957
3866.00   0.20762831   0.01989038
3868.00   0.20330283   0.01988828
3870.00   0.24126357   0.02024632
3872.00   0.27722704   0.02165400
3874.00   0.26876655   0.02250559
3876.00   0.23540483   0.02184591
3878.00   0.23261692   0.02187715
3880.00   0.26571259   0.02175377
3882.00   0.24050428   0.02251727
3884.00   0.26162887   0.02270473
3886.00   0.28400040   0.02233025
3888.00   0.26676756   0.02192846
3890.00   0.25981563   0.02181043
3892.00   0.31950533   0.02264943
3894.00   0.31126207   0.02337656
3896.00   0.27133077   0.02280629
3898.00   0.29006138   0.02282791
3900.00   0.33506006   0.02385806
3902.00   0.26681799   0.02331498
3904.00   0.36606431   0.02504888
3906.00   0.37882197   0.02673781
3908.00   0.34271100   0.02725639
3910.00   0.36591622   0.02917522
3912.00   0.41866663   0.03354561
3914.00   0.34864226   0.03010807
3916.00   0.32130772   0.02286922
3918.00   0.36177018   0.02155230
3920.00   0.35815763   0.02096345
3922.00   0.37354535   0.02051788
3924.00   0.37088031   0.02043883
3926.00   0.36569464   0.02014475
3928.00   0.37667152   0.02020077
3930.00   0.37088457   0.02065070
3932.00   0.42886823   0.02479211
3934.00   0.35284460   0.02331566
3936.00   0.39210853   0.02032223
3938.00   0.41242760   0.02018994
3940.00   0.43857712   0.02099937
3942.00   0.44241211   0.02156973
3944.00   0.45564696   0.02212141
3946.00   0.47435030   0.02191600
3948.00   0.46513575   0.02133443
3950.00   0.42913255   0.02105998
3952.00   0.44919172   0.02119382
3954.00   0.46989468   0.02124592
3956.00   0.43708429   0.02078700
3958.00   0.49924806   0.02125481
3960.00   0.51395708   0.02216348
3962.00   0.45670649   0.02101419
3964.00   0.40817347   0.01931480
3966.00   0.43414050   0.02061512
3968.00   0.48359582   0.02191810
3970.00   0.44798097   0.02048346
3972.00   0.48946232   0.02063894
3974.00   0.51885855   0.02091345
3976.00   0.51407707   0.02078703
3978.00   0.53457248   0.02137453
3980.00   0.51008105   0.02142602
3982.00   0.50525868   0.02095564
3984.00   0.48581120   0.02086170
3986.00   0.49844414   0.02105590
3988.00   0.52590817   0.02164529
3990.00   0.48999411   0.02103626
3992.00   0.52679276   0.02104541
3994.00   0.47752115   0.02133727
3996.00   0.47368714   0.02188244
3998.00   0.42053163   0.02038303
4000.00   0.39768353   0.02018273
4002.00   0.41573793   0.02012009
4004.00   0.47757536   0.02031213
4006.00   0.50276500   0.02086532
4008.00   0.45421600   0.02072954
4010.00   0.48756394   0.02115336
4012.00   0.51781535   0.02141367
4014.00   0.51780111   0.02124438
4016.00   0.51599503   0.02124630
4018.00   0.47831798   0.02258324
4020.00   0.49347618   0.02403141
4022.00   0.50008005   0.02411947
4024.00   0.49862301   0.02357014
4026.00   0.46610236   0.02202974
4028.00   0.49936593   0.02173884
4030.00   0.48177320   0.02163470
4032.00   0.45557037   0.02117805
4034.00   0.46504369   0.02088749
4036.00   0.46297574   0.02096525
4038.00   0.44653150   0.02071122
4040.00   0.44455275   0.02062942
4042.00   0.44140261   0.02115963
4044.00   0.49488449   0.02959828
4046.00   0.38339761   0.03602204
4048.00   0.34884402   0.02781821
4050.00   0.41708472   0.02145110
4052.00   0.39018551   0.02088863
4054.00   0.39802554   0.02112001
4056.00   0.44895160   0.02085791
4058.00   0.41988167   0.02006869
4060.00   0.40663743   0.01961763
4062.00   0.41221052   0.01936836
4064.00   0.41042829   0.01932833
4066.00   0.37894419   0.01916843
4068.00   0.42618120   0.01987664
4070.00   0.35908037   0.01885409
4072.00   0.34897864   0.01844282
4074.00   0.35823873   0.01920391
4076.00   0.38503715   0.02112448
4078.00   0.35059682   0.02125498
4080.00   0.34746984   0.01999734
4082.00   0.31610483   0.01979004
4084.00   0.28173605   0.01908893
4086.00   0.30084586   0.01960657
4088.00   0.31505343   0.01875342
4090.00   0.29531398   0.01776790
4092.00   0.34779596   0.01804240
4094.00   0.33186537   0.01800375
4096.00   0.31166893   0.01771898
4098.00   0.27300319   0.01739306
4100.00   0.28195450   0.01704744
4102.00   0.30887428   0.01706510
4104.00   0.29611349   0.01704252
4106.00   0.31741557   0.01740009
4108.00   0.31060526   0.01748871
4110.00   0.29311451   0.01711690
4112.00   0.31818417   0.01750192
4114.00   0.28086087   0.01718912
4116.00   0.34183264   0.01777884
4118.00   0.27939871   0.01695563
4120.00   0.33363774   0.01713324
4122.00   0.30836940   0.01698064
4124.00   0.33030185   0.01723810
4126.00   0.29827005   0.01705953
4128.00   0.29862428   0.01679094
4130.00   0.26887074   0.01677451
4132.00   0.23718356   0.01735638
4134.00   0.24226746   0.01755123
4136.00   0.27349010   0.01700026
4138.00   0.28885376   0.01739256
4140.00   0.31270450   0.01801515
4142.00   0.25285462   0.01660869
4144.00   0.28598469   0.01644876
4146.00   0.28070408   0.01658812
4148.00   0.29526401   0.01680800
4150.00   0.28417951   0.01720980
4152.00   0.25787324   0.01758572
4154.00   0.26725024   0.01691679
4156.00   0.26800537   0.01666906
4158.00   0.26616824   0.01663289
4160.00   0.27192411   0.01679694
4162.00   0.27473837   0.01741935
4164.00   0.27708033   0.01849149
4166.00   0.28400433   0.01796371
4168.00   0.28186265   0.01706337
4170.00   0.30257285   0.01688527
4172.00   0.34377417   0.01704711
4174.00   0.27042121   0.01629978
4176.00   0.29353502   0.01671243
4178.00   0.27169055   0.01663329
4180.00   0.27572238   0.01645403
4182.00   0.33382452   0.01682349
4184.00   0.28607535   0.01623811
4186.00   0.27826664   0.01628807
4188.00   0.30635720   0.01641472
4190.00   0.32103923   0.01655297
4192.00   0.22137783   0.01609604
4194.00   0.25118995   0.01591836
4196.00   0.30623996   0.01635907
4198.00   0.27872282   0.01619194
4200.00   0.28263369   0.01610474
4202.00   0.30659387   0.01603653
4204.00   0.29031485   0.01616689
4206.00   0.28941524   0.01618145
4208.00   0.31214482   0.01669229
4210.00   0.30901209   0.01685612
4212.00   0.27603272   0.01651592
4214.00   0.28708076   0.01627909
4216.00   0.28555122   0.01619349
4218.00   0.31636429   0.01643553
4220.00   0.29676995   0.01615254
4222.00   0.30458647   0.01621060
4224.00   0.29646704   0.01604401
4226.00   0.28155252   0.01582340
4228.00   0.29885185   0.01606588
4230.00   0.30163768   0.01654965
4232.00   0.30628908   0.01680102
4234.00   0.28939369   0.01674451
4236.00   0.30314970   0.01688571
4238.00   0.31664899   0.01680849
4240.00   0.31825796   0.01623921
4242.00   0.28320846   0.01573376
4244.00   0.27365416   0.01687171
4246.00   0.32373339   0.01886730
4248.00   0.28291455   0.01716270
4250.00   0.30437580   0.01590876
4252.00   0.28268889   0.01584317
4254.00   0.26028740   0.01570016
4256.00   0.28254926   0.01611387
4258.00   0.27567673   0.01566663
4260.00   0.29727525   0.01558618
4262.00   0.27190459   0.01541273
4264.00   0.25736865   0.01527771
4266.00   0.27090585   0.01557633
4268.00   0.28251195   0.01564490
4270.00   0.27527744   0.01559827
4272.00   0.25143033   0.01540369
4274.00   0.28131112   0.01595071
4276.00   0.29736045   0.01702889
4278.00   0.31706381   0.01679135
4280.00   0.27963704   0.01530631
4282.00   0.28565720   0.01518695
4284.00   0.27700981   0.01502826
4286.00   0.28009704   0.01483375
4288.00   0.27432582   0.01480790
4290.00   0.29951218   0.01502491
4292.00   0.29435298   0.01499514
4294.00   0.27052492   0.01499820
4296.00   0.26238963   0.01473867
4298.00   0.26719654   0.01446838
4300.00   0.26881945   0.01454748
4302.00   0.27788070   0.01453322
4304.00   0.28771958   0.01483353
4306.00   0.30003551   0.01485459
4308.00   0.27283737   0.01453673
4310.00   0.29608095   0.01479856
4312.00   0.25669342   0.01595243
4314.00   0.26217967   0.01666652
4316.00   0.29492620   0.01586129
4318.00   0.26926115   0.01579643
4320.00   0.28619397   0.01652467
4322.00   0.23725086   0.01544964
4324.00   0.27639776   0.01568420
4326.00   0.26838416   0.01530807
4328.00   0.25386515   0.01481824
4330.00   0.25634876   0.01470174
4332.00   0.28598002   0.01480504
4334.00   0.28742135   0.01499297
4336.00   0.26758417   0.01482834
4338.00   0.28688857   0.01517663
4340.00   0.29297981   0.01524311
4342.00   0.27531993   0.01509502
4344.00   0.29934648   0.01575158
4346.00   0.27154180   0.01624430
4348.00   0.26971149   0.01635698
4350.00   0.28162098   0.01584132
4352.00   0.29149505   0.01554282
4354.00   0.24398093   0.01642344
4356.00   0.32569054   0.02920832
4358.00   0.44426420   0.03710289
4360.00   0.21786156   0.02663894
4362.00   0.26434967   0.01808905
4364.00   0.28050438   0.01661245
4366.00   0.29401577   0.01630189
4368.00   0.29811344   0.01605706
4370.00   0.32942513   0.01605625
4372.00   0.26614001   0.01630494
4374.00   0.15919054   0.01683233
4376.00   0.24015160   0.01627886
4378.00   0.28886706   0.01559933
4380.00   0.31461316   0.01547536
4382.00   0.30764973   0.01508199
4384.00   0.27787566   0.01474918
4386.00   0.30684650   0.01512156
4388.00   0.31080335   0.01513340
4390.00   0.28885445   0.01527141
4392.00   0.29514009   0.01527464
4394.00   0.29484165   0.01519322
4396.00   0.30492428   0.01524235
4398.00   0.33272940   0.01580269
4400.00   0.34911832   0.01642936
4402.00   0.27169916   0.01538467
4404.00   0.31282401   0.01515430
4406.00   0.31311998   0.01520464
4408.00   0.28781098   0.01516341
4410.00   0.28806359   0.01521304
4412.00   0.32592443   0.01551056
4414.00   0.33542725   0.01604458
4416.00   0.33076179   0.01599515
4418.00   0.33826110   0.01553253
4420.00   0.36129683   0.01565925
4422.00   0.30539832   0.01533382
4424.00   0.31783471   0.01533760
4426.00   0.32587603   0.01529781
4428.00   0.36565095   0.01570592
4430.00   0.30903298   0.01536389
4432.00   0.37119660   0.01561337
4434.00   0.35735038   0.01553914
4436.00   0.33333802   0.01544746
4438.00   0.35445833   0.01557954
4440.00   0.34914571   0.01551849
4442.00   0.34927064   0.01541353
4444.00   0.35807538   0.01546001
4446.00   0.35220727   0.01555649
4448.00   0.36106256   0.01542904
4450.00   0.35233343   0.01541973
4452.00   0.36815473   0.01543621
4454.00   0.33640262   0.01520027
4456.00   0.37262538   0.01541874
4458.00   0.38585138   0.01553903
4460.00   0.36157969   0.01530644
4462.00   0.35361072   0.01538252
4464.00   0.38809818   0.01556229
4466.00   0.36273691   0.01541018
4468.00   0.36428121   0.01525034
4470.00   0.35375038   0.01522409
4472.00   0.37856314   0.01551756
4474.00   0.41104832   0.01586638
4476.00   0.40933844   0.01570206
4478.00   0.42062986   0.01576647
4480.00   0.38479558   0.01555106
4482.00   0.40849474   0.01575419
4484.00   0.40563279   0.01575526
4486.00   0.43715942   0.01602647
4488.00   0.39800295   0.01577510
4490.00   0.40678197   0.01571323
4492.00   0.43916276   0.01614509
4494.00   0.41830930   0.01598745
4496.00   0.43925473   0.01598733
4498.00   0.51404846   0.01661636
4500.00   0.48584822   0.01637772
4502.00   0.48170221   0.01630274
4504.00   0.45987180   0.01617084
4506.00   0.41696313   0.01590626
4508.00   0.51577640   0.01649841
4510.00   0.45446780   0.01604769
4512.00   0.48184702   0.01610195
4514.00   0.48863798   0.01616585
4516.00   0.48358414   0.01609848
4518.00   0.45230278   0.01580361
4520.00   0.48700750   0.01618372
4522.00   0.49746835   0.01617641
4524.00   0.46328783   0.01578613
4526.00   0.47264242   0.01579097
4528.00   0.51125246   0.01602007
4530.00   0.50027323   0.01593126
4532.00   0.46973133   0.01593372
4534.00   0.51812309   0.01605887
4536.00   0.46008945   0.01574134
4538.00   0.50704306   0.01610550
4540.00   0.53784060   0.01628146
4542.00   0.54529488   0.01657060
4544.00   0.52085006   0.01642389
4546.00   0.50545692   0.01626757
4548.00   0.52683353   0.01615736
4550.00   0.54528314   0.01608461
4552.00   0.55087626   0.01630485
4554.00   0.53727347   0.01615604
4556.00   0.51857972   0.01613067
4558.00   0.56257093   0.01631612
4560.00   0.56995344   0.01627184
4562.00   0.56265515   0.01631280
4564.00   0.60260969   0.01638159
4566.00   0.57225728   0.01614698
4568.00   0.56557840   0.01616334
4570.00   0.58337170   0.01623601
4572.00   0.58689040   0.01641516
4574.00   0.59777081   0.01653865
4576.00   0.57621753   0.01629242
4578.00   0.57612932   0.01600021
4580.00   0.59555775   0.01620105
4582.00   0.59835869   0.01605459
4584.00   0.56907642   0.01575663
4586.00   0.55355603   0.01584155
4588.00   0.57811290   0.01601133
4590.00   0.54841864   0.01582954
4592.00   0.56570351   0.01592210
4594.00   0.55629516   0.01595906
4596.00   0.56397378   0.01603570
4598.00   0.59129918   0.01608532
4600.00   0.56879473   0.01594545
4602.00   0.55629826   0.01567647
4604.00   0.58655214   0.01592766
4606.00   0.59436792   0.01594735
4608.00   0.59587580   0.01605093
4610.00   0.57231313   0.01588860
4612.00   0.55304044   0.01557116
4614.00   0.57173038   0.01567434
4616.00   0.57021415   0.01565275
4618.00   0.58772510   0.01569894
4620.00   0.58549291   0.01566086
4622.00   0.55430460   0.01561301
4624.00   0.56203163   0.01557249
4626.00   0.57963389   0.01569967
4628.00   0.55197573   0.01556722
4630.00   0.61129397   0.01585578
4632.00   0.59358561   0.01564015
4634.00   0.58102340   0.01566216
4636.00   0.58927065   0.01561704
4638.00   0.56005353   0.01551072
4640.00   0.57548302   0.01558403
4642.00   0.58057314   0.01567132
4644.00   0.57236260   0.01554367
4646.00   0.56747115   0.01530969
4648.00   0.55284339   0.01540107
4650.00   0.55274403   0.01559160
4652.00   0.55710852   0.01555503
4654.00   0.53305286   0.01527976
4656.00   0.52575004   0.01514346
4658.00   0.52795857   0.01533048
4660.00   0.53406912   0.01552651
4662.00   0.56152457   0.01576561
4664.00   0.54886365   0.01585188
4666.00   0.54413015   0.01584546
4668.00   0.55052191   0.01612769
4670.00   0.51962638   0.01598049
4672.00   0.56026012   0.01602795
4674.00   0.58685088   0.01612766
4676.00   0.53078091   0.01560454
4678.00   0.51479548   0.01525949
4680.00   0.54208267   0.01532616
4682.00   0.55758256   0.01532706
4684.00   0.56947720   0.01530642
4686.00   0.55468410   0.01517217
4688.00   0.53335530   0.01506959
4690.00   0.56413066   0.01521139
4692.00   0.51310778   0.01490672
4694.00   0.52635568   0.01507922
4696.00   0.51575249   0.01491097
4698.00   0.53117561   0.01492088
4700.00   0.50124115   0.01468206
4702.00   0.50683194   0.01463922
4704.00   0.48562399   0.01465081
4706.00   0.52436525   0.01498623
4708.00   0.53778541   0.01528688
4710.00   0.54391277   0.01526886
4712.00   0.51806825   0.01493415
4714.00   0.54104275   0.01495549
4716.00   0.54429090   0.01486578
4718.00   0.54905093   0.01486810
4720.00   0.52425081   0.01491112
4722.00   0.55352247   0.01498740
4724.00   0.50301683   0.01461176
4726.00   0.54769617   0.01501544
4728.00   0.51251489   0.01549171
4730.00   0.49973318   0.01534308
4732.00   0.54090309   0.01552057
4734.00   0.53283393   0.01566952
4736.00   0.49741361   0.01562718
4738.00   0.45445728   0.01552510
4740.00   0.46004918   0.01583510
4742.00   0.45280689   0.01610222
4744.00   0.42346445   0.01554867
4746.00   0.47077492   0.01494599
4748.00   0.46113509   0.01428058
4750.00   0.46146047   0.01431818
4752.00   0.45370421   0.01455191
4754.00   0.47329742   0.01456874
4756.00   0.48571849   0.01423176
4758.00   0.46710891   0.01399757
4760.00   0.49299702   0.01402727
4762.00   0.46320385   0.01378043
4764.00   0.43602276   0.01352903
4766.00   0.43467978   0.01337917
4768.00   0.43321404   0.01325220
4770.00   0.43035716   0.01323094
4772.00   0.44866812   0.01356578
4774.00   0.42085165   0.01319360
4776.00   0.41648832   0.01330516
4778.00   0.45476553   0.01413997
4780.00   0.44901520   0.01398254
4782.00   0.43604362   0.01354533
4784.00   0.42142847   0.01337479
4786.00   0.43140477   0.01324276
4788.00   0.41839471   0.01326264
4790.00   0.38242233   0.01307499
4792.00   0.44992226   0.01360415
4794.00   0.44371364   0.01340864
4796.00   0.42914110   0.01327118
4798.00   0.41728368   0.01305613
4800.00   0.40094933   0.01288733
4802.00   0.39609292   0.01285583
4804.00   0.40868825   0.01299670
4806.00   0.41859758   0.01311469
4808.00   0.39868623   0.01292368
4810.00   0.41403675   0.01318532
4812.00   0.42028221   0.01323991
4814.00   0.44968286   0.01341826
4816.00   0.41540089   0.01317233
4818.00   0.42925733   0.01316559
4820.00   0.40657645   0.01313147
4822.00   0.44443756   0.01341148
4824.00   0.43581480   0.01328624
4826.00   0.42134428   0.01333348
4828.00   0.41985267   0.01334419
4830.00   0.41293624   0.01324606
4832.00   0.40437171   0.01331742
4834.00   0.41179496   0.01332307
4836.00   0.40465951   0.01309256
4838.00   0.41097862   0.01345845
4840.00   0.43447977   0.01380693
4842.00   0.41113991   0.01329489
4844.00   0.39502320   0.01298769
4846.00   0.39356098   0.01308169
4848.00   0.41173023   0.01318801
4850.00   0.41128218   0.01324381
4852.00   0.42501780   0.01328958
4854.00   0.42058858   0.01313215
4856.00   0.42008391   0.01302474
4858.00   0.40530765   0.01293478
4860.00   0.41615459   0.01299583
4862.00   0.41179436   0.01291984
4864.00   0.38058862   0.01273853
4866.00   0.41480148   0.01299437
4868.00   0.40068698   0.01293410
4870.00   0.42863458   0.01297980
4872.00   0.40123680   0.01277424
4874.00   0.40729827   0.01291903
4876.00   0.38805276   0.01286285
4878.00   0.37293702   0.01280049
4880.00   0.39709958   0.01297308
4882.00   0.35155138   0.01251837
4884.00   0.33547917   0.01226409
4886.00   0.36916026   0.01240119
4888.00   0.35877204   0.01225786
4890.00   0.36512265   0.01226317
4892.00   0.38007030   0.01242553
4894.00   0.37402049   0.01248070
4896.00   0.37879568   0.01256063
4898.00   0.21803898   0.01276648
4900.00   0.11696975   0.01323613
4902.00   0.27988347   0.01280647
4904.00   0.34994853   0.01242525
4906.00   0.35115013   0.01216778
4908.00   0.34912288   0.01225330
4910.00   0.35232982   0.01228068
4912.00   0.39113030   0.01244967
4914.00   0.38098973   0.01241442
4916.00   0.34578052   0.01220210
4918.00   0.38849017   0.01241264
4920.00   0.38353997   0.01237214
4922.00   0.37933588   0.01242583
4924.00   0.38536376   0.01244641
4926.00   0.38264364   0.01237929
4928.00   0.37658319   0.01230006
4930.00   0.37400389   0.01223293
4932.00   0.38074645   0.01224991
4934.00   0.37593591   0.01231544
4936.00   0.36930656   0.01226361
4938.00   0.37657845   0.01232523
4940.00   0.36716607   0.01235253
4942.00   0.37997186   0.01235349
4944.00   0.39210120   0.01243299
4946.00   0.39433762   0.01237462
4948.00   0.41330519   0.01251332
4950.00   0.39398828   0.01228780
4952.00   0.41431108   0.01265064
4954.00   0.40654859   0.01279174
4956.00   0.40076131   0.01253880
4958.00   0.41114223   0.01246112
4960.00   0.39277098   0.01237122
4962.00   0.42721143   0.01273768
4964.00   0.41626066   0.01270422
4966.00   0.40385184   0.01270912
4968.00   0.40467724   0.01271298
4970.00   0.40447295   0.01289736
4972.00   0.41246271   0.01313976
4974.00   0.39925930   0.01348682
4976.00   0.39283085   0.01352476
4978.00   0.43475920   0.01419455
4980.00   0.40521786   0.01459339
4982.00   0.43822631   0.01504618
4984.00   0.41470671   0.01494453
4986.00   0.42054853   0.01459504
4988.00   0.40961695   0.01404717
4990.00   0.42950571   0.01405251
4992.00   0.46824688   0.01401199
4994.00   0.46351755   0.01359930
4996.00   0.38205156   0.01297884
4998.00   0.35801315   0.01291117
5000.00   0.37194452   0.01290599
5002.00   0.43370056   0.01291077
5004.00   0.43839657   0.01286256
5006.00   0.44416603   0.01279689
5008.00   0.44683120   0.01273375
5010.00   0.43598676   0.01254272
5012.00   0.42508152   0.01242398
5014.00   0.45557535   0.01265787
5016.00   0.44942072   0.01273776
5018.00   0.43112671   0.01273572
5020.00   0.43598491   0.01266935
5022.00   0.44042853   0.01261517
5024.00   0.42521369   0.01239359
5026.00   0.43390557   0.01251000
5028.00   0.45284662   0.01268482
5030.00   0.44879594   0.01278121
5032.00   0.44001985   0.01273236
5034.00   0.40422812   0.01240438
5036.00   0.40970138   0.01225856
5038.00   0.40713570   0.01219380
5040.00   0.44519010   0.01244294
5042.00   0.40663183   0.01215845
5044.00   0.36983064   0.01236136
5046.00   0.23146723   0.01258720
5048.00   0.28130099   0.01249493
5050.00   0.34400094   0.01220690
5052.00   0.39906338   0.01223696
5054.00   0.41685799   0.01238414
5056.00   0.38774902   0.01208182
5058.00   0.39510658   0.01213483
5060.00   0.40044042   0.01221433
5062.00   0.42362860   0.01254424
5064.00   0.43644771   0.01297502
5066.00   0.40295222   0.01268133
5068.00   0.45172006   0.01322846
5070.00   0.44945446   0.01355052
5072.00   0.44996968   0.01332075
5074.00   0.43116134   0.01304068
5076.00   0.41874132   0.01284448
5078.00   0.43458301   0.01295434
5080.00   0.43117902   0.01363838
5082.00   0.41474658   0.01462632
5084.00   0.44440404   0.01537291
5086.00   0.40259916   0.01536529
5088.00   0.42555141   0.01479600
5090.00   0.45260677   0.01405406
5092.00   0.42544231   0.01320353
5094.00   0.43292207   0.01305252
5096.00   0.44976574   0.01340664
5098.00   0.43307838   0.01371344
5100.00   0.45815459   0.01410693
5102.00   0.46819559   0.01377128
5104.00   0.45994833   0.01319395
5106.00   0.47464886   0.01310403
5108.00   0.45652702   0.01316429
5110.00   0.42660424   0.01298916
5112.00   0.42045730   0.01287035
5114.00   0.44537231   0.01330133
5116.00   0.46479940   0.01348929
5118.00   0.47401452   0.01342078
5120.00   0.46017358   0.01313732
5122.00   0.45375678   0.01315649
5124.00   0.44061098   0.01289561
5126.00   0.45717052   0.01305970
5128.00   0.48896906   0.01326316
5130.00   0.47452226   0.01319478
5132.00   0.47582182   0.01334339
5134.00   0.48253956   0.01340267
5136.00   0.46255982   0.01326020
5138.00   0.47366002   0.01326258
5140.00   0.51053566   0.01358616
5142.00   0.50694084   0.01359939
5144.00   0.48577657   0.01349865
5146.00   0.46560955   0.01343138
5148.00   0.49125490   0.01383643
5150.00   0.47477034   0.01396431
5152.00   0.47724473   0.01423664
5154.00   0.53841281   0.01486484
5156.00   0.50544113   0.01458559
5158.00   0.51552588   0.01439019
5160.00   0.50459057   0.01415885
5162.00   0.50724870   0.01409605
5164.00   0.53563851   0.01412995
5166.00   0.51989508   0.01391718
5168.00   0.52926260   0.01392739
5170.00   0.52070528   0.01385494
5172.00   0.53686869   0.01394576
5174.00   0.56705332   0.01429600
5176.00   0.53765279   0.01422545
5178.00   0.50221086   0.01403002
5180.00   0.52899647   0.01421398
5182.00   0.52206409   0.01401819
5184.00   0.51587522   0.01399421
5186.00   0.52991492   0.01414641
5188.00   0.52986568   0.01422277
5190.00   0.55046928   0.01445440
5192.00   0.54046416   0.01438972
5194.00   0.55217224   0.01460718
5196.00   0.54840904   0.01521482
5198.00   0.57239515   0.01632235
5200.00   0.57492894   0.01633864
5202.00   0.59128314   0.01587227
5204.00   0.59643489   0.01541022
5206.00   0.56881094   0.01498909
5208.00   0.56960541   0.01503164
5210.00   0.57337540   0.01525074
5212.00   0.59852886   0.01541484
5214.00   0.60134572   0.01527088
5216.00   0.58821088   0.01510955
5218.00   0.60570842   0.01549131
5220.00   0.57898062   0.01539243
5222.00   0.54801011   0.01505287
5224.00   0.57143873   0.01517264
5226.00   0.59663218   0.01521682
5228.00   0.58587021   0.01516706
5230.00   0.62581205   0.01567662
5232.00   0.62176174   0.01563666
5234.00   0.62941146   0.01567022
5236.00   0.59518450   0.01548265
5238.00   0.59349191   0.01561244
5240.00   0.61115664   0.01593052
5242.00   0.63433701   0.01602584
5244.00   0.60277945   0.01579308
5246.00   0.64050263   0.01607247
5248.00   0.64765769   0.01611732
5250.00   0.65026534   0.01620729
5252.00   0.66509181   0.01631636
5254.00   0.68026865   0.01652222
5256.00   0.62819821   0.01633175
5258.00   0.67277133   0.01687347
5260.00   0.69554824   0.01696612
5262.00   0.67335302   0.01677742
5264.00   0.68757635   0.01687063
5266.00   0.68213367   0.01663163
5268.00   0.65845007   0.01646774
5270.00   0.66144896   0.01669504
5272.00   0.68440604   0.01677450
5274.00   0.65964705   0.01675348
5276.00   0.70583093   0.01715024
5278.00   0.66175812   0.01691006
5280.00   0.69919896   0.01716530
5282.00   0.69241202   0.01719335
5284.00   0.69183654   0.01737439
5286.00   0.72049624   0.01789188
5288.00   0.71933258   0.01786048
5290.00   0.73412985   0.01775843
5292.00   0.72525483   0.01776147
5294.00   0.73938000   0.01785839
5296.00   0.73976350   0.01793753
5298.00   0.73793435   0.01798940
5300.00   0.72958243   0.01807187
5302.00   0.78938842   0.01858113
5304.00   0.74878323   0.01831795
5306.00   0.71868777   0.01797199
5308.00   0.74509120   0.01825113
5310.00   0.74005020   0.01833838
5312.00   0.73605448   0.01844162
5314.00   0.79626310   0.01887017
5316.00   0.74589813   0.01844645
5318.00   0.76258796   0.01865816
5320.00   0.78244209   0.01893575
5322.00   0.80348718   0.01913320
5324.00   0.74484521   0.01870718
5326.00   0.77952170   0.01897999
5328.00   0.77903658   0.01910410
5330.00   0.73062259   0.01897316
5332.00   0.78141302   0.01935182
5334.00   0.81132984   0.01960302
5336.00   0.82854736   0.01974790
5338.00   0.80602121   0.01969150
5340.00   0.77541226   0.01965381
5342.00   0.79262340   0.02018244
5344.00   0.82210892   0.02024002
5346.00   0.86698979   0.02051393
5348.00   0.84059024   0.02069251
5350.00   0.83319497   0.02105421
5352.00   0.80684084   0.02057281
5354.00   0.86112070   0.02122193
5356.00   0.82182044   0.02127697
5358.00   0.86769956   0.02131522
5360.00   0.81040341   0.02076822
5362.00   0.86092037   0.02104485
5364.00   0.85340714   0.02079835
5366.00   0.83153397   0.02063887
5368.00   0.83381087   0.02065574
5370.00   0.83976591   0.02065801
5372.00   0.84652442   0.02089276
5374.00   0.87981063   0.02149619
5376.00   0.83165056   0.02141221
5378.00   0.86819297   0.02159226
5380.00   0.84971142   0.02130358
5382.00   0.88451034   0.02158668
5384.00   0.87795305   0.02168200
5386.00   0.84799278   0.02140470
5388.00   0.82541311   0.02126984
5390.00   0.82645398   0.02176702
5392.00   0.80172944   0.02199379
5394.00   0.83667612   0.02217986
5396.00   0.86926687   0.02222698
5398.00   0.82238442   0.02195398
5400.00   0.83271939   0.02191116
5402.00   0.83043665   0.02190928
5404.00   0.78323638   0.02168298
5406.00   0.81836599   0.02197409
5408.00   0.87372452   0.02259362
5410.00   0.90637189   0.02299604
5412.00   0.86281824   0.02297748
5414.00   0.88857025   0.02321767
5416.00   0.85554683   0.02339517
5418.00   0.83526725   0.02345699
5420.00   0.84304088   0.02356150
5422.00   0.87117600   0.02369191
5424.00   0.86826593   0.02385481
5426.00   0.86675632   0.02380137
5428.00   0.84670204   0.02353193
5430.00   0.83388299   0.02362506
5432.00   0.89056605   0.02412369
5434.00   0.83949089   0.00847428
5436.00   0.85997546   0.00848664
5438.00   0.86891288   0.00879374
5440.00   0.87438446   0.00934586
5442.00   0.87137496   0.00977325
5444.00   0.85674852   0.01028993
5446.00   0.84476393   0.01060576
5448.00   0.83134842   0.01074005
5450.00   0.82248229   0.01075447
5452.00   0.82770467   0.01061783
5454.00   0.84486109   0.01028331
5456.00   0.84672654   0.01042270
5458.00   0.83912158   0.01118831
5460.00   0.83239955   0.01133612
5462.00   0.82089508   0.01097007
5464.00   0.81368172   0.01045833
5466.00   0.81837749   0.00992825
5468.00   0.83001423   0.00930140
5470.00   0.83117509   0.00891377
5472.00   0.82508010   0.00872467
5474.00   0.82163405   0.00856405
5476.00   0.81773281   0.00852592
5478.00   0.81438953   0.00850196
5480.00   0.81218469   0.00843712
5482.00   0.81042141   0.00839602
5484.00   0.80777377   0.00850360
5486.00   0.80514681   0.00873860
5488.00   0.80088401   0.00896876
5490.00   0.79157478   0.00946355
5492.00   0.78860539   0.00954400
5494.00   0.79814410   0.00895891
5496.00   0.80754721   0.00818510
5498.00   0.79963559   0.00799559
5500.00   0.77898133   0.00820977
5502.00   0.76355022   0.00813458
5504.00   0.74365181   0.00789576
5506.00   0.73136622   0.00778259
5508.00   0.72583514   0.00779668
5510.00   0.72534484   0.00785599
5512.00   0.72985506   0.00792765
5514.00   0.73961872   0.00803232
5516.00   0.74904621   0.00803673
5518.00   0.76848257   0.00772272
5520.00   0.77051866   0.00794572
5522.00   0.75322318   0.00886793
5524.00   0.73738396   0.00944545
5526.00   0.72806048   0.00912349
5528.00   0.72363091   0.00838415
5530.00   0.74153441   0.00882835
5532.00   0.79672027   0.01052311
5534.00   0.81546897   0.01087154
5536.00   0.81670254   0.01061054
5538.00   0.80851519   0.01006738
5540.00   0.78459907   0.00894160
5542.00   0.75657296   0.00754518
5544.00   0.75358057   0.00740244
5546.00   0.76981866   0.00848256
5548.00   0.77805048   0.00858135
5550.00   0.79074335   0.00821917
5552.00   0.79599947   0.00793149
5554.00   0.79169190   0.00769360
5556.00   0.78385210   0.00750159
5558.00   0.77806538   0.00743341
5560.00   0.77192706   0.00747502
5562.00   0.76484269   0.00749414
5564.00   0.75695640   0.00727429
5566.00   0.74842709   0.00762974
5568.00   0.73444659   0.00860816
5570.00   0.72652590   0.00952856
5572.00   0.73687381   0.01015661
5574.00   0.75902951   0.01067099
5576.00   0.75585991   0.01088245
5578.00   0.73193133   0.01101621
5580.00   0.71480834   0.01062463
5582.00   0.69097215   0.00932792
5584.00   0.67773712   0.00813472
5586.00   0.68654484   0.00769513
5588.00   0.70553339   0.00765951
5590.00   0.70569998   0.00742561
5592.00   0.69026202   0.00719840
5594.00   0.68823242   0.00706633
5596.00   0.69638711   0.00704517
5598.00   0.69900817   0.00703166
5600.00   0.69329876   0.00702144
5602.00   0.68394256   0.00701925
5604.00   0.67472690   0.00700971
5606.00   0.66253489   0.00700651
5608.00   0.65612209   0.00696822
5610.00   0.65388048   0.00687863
5612.00   0.65228760   0.00682478
5614.00   0.65106392   0.00680572
5616.00   0.65162438   0.00680572
5618.00   0.65641612   0.00682139
5620.00   0.66540688   0.00685773
5622.00   0.66404480   0.00686820
5624.00   0.65456200   0.00688056
5626.00   0.64537257   0.00685597
5628.00   0.63169819   0.00672666
5630.00   0.62128246   0.00667939
5632.00   0.61947608   0.00686105
5634.00   0.62284023   0.00716170
5636.00   0.62308985   0.00726192
5638.00   0.62575561   0.00732120
5640.00   0.62217438   0.00720732
5642.00   0.61078387   0.00679268
5644.00   0.60244465   0.00648893
5646.00   0.60340059   0.00647799
5648.00   0.60570192   0.00658594
5650.00   0.59270597   0.00655632
5652.00   0.56423748   0.00645637
5654.00   0.54831731   0.00641757
5656.00   0.53630644   0.00639540
5658.00   0.52837545   0.00640397
5660.00   0.52532387   0.00644199
5662.00   0.52554363   0.00651048
5664.00   0.52719337   0.00661880
5666.00   0.53182358   0.00677374
5668.00   0.53415233   0.00688445
5670.00   0.54034162   0.00699013
5672.00   0.53660035   0.00706366
5674.00   0.51683122   0.00704527
5676.00   0.49965504   0.00708576
5678.00   0.50174975   0.00731443
5680.00   0.51587325   0.00765980
5682.00   0.51332080   0.00794312
5684.00   0.50074577   0.00834153
5686.00   0.48838368   0.00847844
5688.00   0.46834722   0.00840676
5690.00   0.45493430   0.00824148
5692.00   0.45702896   0.00799466
5694.00   0.46737251   0.00766081
5696.00   0.46848616   0.00738305
5698.00   0.46403188   0.00707422
5700.00   0.46357709   0.00686086
5702.00   0.46613577   0.00674273
5704.00   0.46652377   0.00664070
5706.00   0.46184924   0.00653588
5708.00   0.45660433   0.00645413
5710.00   0.45894587   0.00642916
5712.00   0.46840325   0.00648966
5714.00   0.47145680   0.00643545
5716.00   0.47130412   0.00625566
5718.00   0.47097173   0.00616175
5720.00   0.46846381   0.00613497
5722.00   0.46758047   0.00619230
5724.00   0.47415563   0.00640581
5726.00   0.48726556   0.00677122
5728.00   0.49143621   0.00689833
5730.00   0.48934609   0.00690413
5732.00   0.48857442   0.00685575
5734.00   0.48476768   0.00672882
5736.00   0.48530343   0.00654754
5738.00   0.49813592   0.00625888
5740.00   0.51883060   0.00587943
5742.00   0.52382010   0.00594662
5744.00   0.51431936   0.00644751
5746.00   0.51354742   0.00677169
5748.00   0.51799333   0.00720791
5750.00   0.52107310   0.00741325
5752.00   0.52153814   0.00715243
5754.00   0.51989913   0.00668577
5756.00   0.51280099   0.00680926
5758.00   0.49180654   0.00755971
5760.00   0.49445313   0.00758499
5762.00   0.52088165   0.00697595
5764.00   0.53824216   0.00664260
5766.00   0.54010659   0.00686914
5768.00   0.53795093   0.00720725
5770.00   0.54373163   0.00717659
5772.00   0.55396324   0.00692690
5774.00   0.56030267   0.00675016
5776.00   0.56504416   0.00639273
5778.00   0.56926113   0.00633618
5780.00   0.56916285   0.00666316
5782.00   0.57297730   0.00706304
5784.00   0.59119165   0.00736635
5786.00   0.62096053   0.00768231
5788.00   0.63231629   0.00765528
5790.00   0.63142711   0.00699765
5792.00   0.63073957   0.00700539
5794.00   0.62538570   0.00780859
5796.00   0.62119848   0.00835337
5798.00   0.62303096   0.00818041
5800.00   0.62745571   0.00761263
5802.00   0.62321806   0.00733749
5804.00   0.60537720   0.00711958
5806.00   0.60411710   0.00695731
5808.00   0.61591876   0.00683583
5810.00   0.62694627   0.00681478
5812.00   0.63494921   0.00698181
5814.00   0.64140487   0.00720108
5816.00   0.64308840   0.00716143
5818.00   0.63659489   0.00683306
5820.00   0.64213657   0.00686400
5822.00   0.66011226   0.00725506
5824.00   0.67117786   0.00740882
5826.00   0.67026204   0.00723555
5828.00   0.66894013   0.00697712
5830.00   0.68087953   0.00688980
5832.00   0.70279318   0.00687262
5834.00   0.71610582   0.00689628
5836.00   0.73041612   0.00703576
5838.00   0.73457551   0.00708535
5840.00   0.72247225   0.00703531
5842.00   0.71218669   0.00698085
5844.00   0.71875125   0.00698771
5846.00   0.73521376   0.00702437
5848.00   0.74157327   0.00704960
5850.00   0.74113220   0.00707761
5852.00   0.74547654   0.00710794
5854.00   0.75598156   0.00712420
5856.00   0.76203102   0.00716913
5858.00   0.75692701   0.00723980
5860.00   0.74653447   0.00734682
5862.00   0.74612838   0.00758770
5864.00   0.75489306   0.00816470
5866.00   0.75575304   0.00818347
5868.00   0.75347960   0.00766631
5870.00   0.74894953   0.00729499
5872.00   0.74127722   0.00719730
5874.00   0.73209274   0.00726987
5876.00   0.72379911   0.00753037
5878.00   0.70986915   0.00800759
5880.00   0.71811634   0.00840529
5882.00   0.75221580   0.00843808
5884.00   0.77517349   0.00922788
5886.00   0.79451233   0.01109756
5888.00   0.80007011   0.01261907
5890.00   0.77100897   0.01287140
5892.00   0.70938647   0.01235790
5894.00   0.68669736   0.01191529
5896.00   0.68524754   0.01112421
5898.00   0.68647856   0.01030415
5900.00   0.69693303   0.00920843
5902.00   0.70871484   0.00818244
5904.00   0.71745968   0.00761965
5906.00   0.72541457   0.00742336
5908.00   0.72684991   0.00720393
5910.00   0.71911830   0.00719288
5912.00   0.71767688   0.00713148
5914.00   0.72106868   0.00709029
5916.00   0.72235280   0.00706486
5918.00   0.71690345   0.00703165
5920.00   0.70999998   0.00702272
5922.00   0.71470487   0.00713641
5924.00   0.73264349   0.00734309
5926.00   0.73799562   0.00759044
5928.00   0.73914057   0.00804912
5930.00   0.73446149   0.00824921
5932.00   0.72208232   0.00813222
5934.00   0.70557266   0.00783662
5936.00   0.68930334   0.00745672
5938.00   0.66848820   0.00681863
5940.00   0.66083294   0.00655820
5942.00   0.66197950   0.00663080
5944.00   0.66803211   0.00665675
5946.00   0.68193698   0.00667553
5948.00   0.69804716   0.00669688
5950.00   0.71142727   0.00668459
5952.00   0.72457451   0.00664434
5954.00   0.73500580   0.00675716
5956.00   0.74759907   0.00710712
5958.00   0.74934852   0.00720606
5960.00   0.73800790   0.00704032
5962.00   0.72613710   0.00691938
5964.00   0.71825808   0.00703303
5966.00   0.71212894   0.00724879
5968.00   0.71422541   0.00728931
5970.00   0.72905320   0.00722299
5972.00   0.73355216   0.00716345
5974.00   0.73379135   0.00706114
5976.00   0.73136306   0.00695910
5978.00   0.72589684   0.00687914
5980.00   0.71820784   0.00679314
5982.00   0.71061581   0.00664089
5984.00   0.69949681   0.00638020
5986.00   0.69692439   0.00628268
5988.00   0.70309436   0.00632785
5990.00   0.70650405   0.00634691
5992.00   0.70818549   0.00633851
5994.00   0.70699060   0.00631988
5996.00   0.69835860   0.00628384
5998.00   0.68158984   0.00622388
6000.00   0.67674547   0.00620965
6002.00   0.68156135   0.00625012
6004.00   0.68284065   0.00624794
6006.00   0.68145967   0.00619620
6008.00   0.68001562   0.00614506
6010.00   0.67996556   0.00612812
6012.00   0.68061036   0.00612909
6014.00   0.68017727   0.00613342
6016.00   0.68047309   0.00617691
6018.00   0.67757821   0.00615867
6020.00   0.66972136   0.00607214
6022.00   0.66396719   0.00599537
6024.00   0.66378349   0.00596197
6026.00   0.66633528   0.00594801
6028.00   0.66657519   0.00592697
6030.00   0.66722298   0.00590586
6032.00   0.66516727   0.00589483
6034.00   0.66058034   0.00585027
6036.00   0.65559387   0.00588671
6038.00   0.64925516   0.00609930
6040.00   0.64341825   0.00631545
6042.00   0.64288032   0.00624809
6044.00   0.64834863   0.00592450
6046.00   0.64629596   0.00577835
6048.00   0.63804805   0.00565511
6050.00   0.63235128   0.00562597
6052.00   0.62933671   0.00564079
6054.00   0.62717283   0.00579728
6056.00   0.62517440   0.00629769
6058.00   0.62405181   0.00709273
6060.00   0.61964470   0.00704513
6062.00   0.60828763   0.00606933
6064.00   0.60595948   0.00558096
6066.00   0.61534625   0.00551275
6068.00   0.62267482   0.00559035
6070.00   0.61905688   0.00574885
6072.00   0.60959017   0.00600357
6074.00   0.60508615   0.00597243
6076.00   0.59974289   0.00561968
6078.00   0.60021424   0.00550310
6080.00   0.61023045   0.00554770
6082.00   0.61500698   0.00557604
6084.00   0.60886824   0.00552888
6086.00   0.59734029   0.00546055
6088.00   0.58797294   0.00543680
6090.00   0.57373756   0.00544442
6092.00   0.57134420   0.00543835
6094.00   0.58285564   0.00538581
6096.00   0.58768708   0.00542085
6098.00   0.58239150   0.00554262
6100.00   0.57380342   0.00574301
6102.00   0.56857812   0.00607836
6104.00   0.56468499   0.00661675
6106.00   0.55750644   0.00665554
6108.00   0.54470426   0.00617536
6110.00   0.53795135   0.00594730
6112.00   0.53787625   0.00602876
6114.00   0.53986555   0.00612638
6116.00   0.54174006   0.00603567
6118.00   0.54504776   0.00584278
6120.00   0.54080248   0.00568910
6122.00   0.52410513   0.00542468
6124.00   0.52055222   0.00537597
6126.00   0.52977151   0.00555266
6128.00   0.53875935   0.00575818
6130.00   0.54276538   0.00597865
6132.00   0.54435575   0.00619397
6134.00   0.53978622   0.00605778
6136.00   0.52698272   0.00538956
6138.00   0.51753539   0.00513984
6140.00   0.50590318   0.00513087
6142.00   0.49802333   0.00517153
6144.00   0.49567840   0.00523706
6146.00   0.49672928   0.00533969
6148.00   0.49899477   0.00543835
6150.00   0.50623220   0.00559394
6152.00   0.50527412   0.00559951
6154.00   0.49681181   0.00544151
6156.00   0.49080023   0.00534889
6158.00   0.48740259   0.00536190
6160.00   0.48530126   0.00538188
6162.00   0.48460272   0.00530412
6164.00   0.48593000   0.00514639
6166.00   0.48402464   0.00510532
6168.00   0.47898877   0.00518207
6170.00   0.47584283   0.00517978
6172.00   0.47511500   0.00502056
6174.00   0.47369730   0.00495966
6176.00   0.46894738   0.00523422
6178.00   0.46213576   0.00569704
6180.00   0.45912614   0.00585203
6182.00   0.45514318   0.00595093
6184.00   0.45922109   0.00579088
6186.00   0.47654578   0.00513836
6188.00   0.48775017   0.00462061
6190.00   0.48323807   0.00468111
6192.00   0.47126356   0.00500929
6194.00   0.46731243   0.00505512
6196.00   0.46647811   0.00499502
6198.00   0.46572080   0.00494621
6200.00   0.46591258   0.00483379
6202.00   0.46716058   0.00476685
6204.00   0.46988985   0.00476070
6206.00   0.47333863   0.00479841
6208.00   0.47664788   0.00489099
6210.00   0.48235452   0.00508292
6212.00   0.47892320   0.00509739
6214.00   0.46484631   0.00495416
6216.00   0.45558420   0.00485906
6218.00   0.45065090   0.00481088
6220.00   0.44812956   0.00477785
6222.00   0.44782206   0.00474899
6224.00   0.45013011   0.00473180
6226.00   0.45158461   0.00470152
6228.00   0.45567834   0.00461923
6230.00   0.45496708   0.00463430
6232.00   0.44833034   0.00478525
6234.00   0.44199717   0.00490199
6236.00   0.43893746   0.00484992
6238.00   0.43756133   0.00471509
6240.00   0.43937957   0.00487033
6242.00   0.44791451   0.00542215
6244.00   0.44962519   0.00550943
6246.00   0.44640508   0.00525735
6248.00   0.44304514   0.00499236
6250.00   0.43986547   0.00478269
6252.00   0.43721840   0.00459718
6254.00   0.43881652   0.00454825
6256.00   0.44274148   0.00453950
6258.00   0.45105183   0.00481075
6260.00   0.47035307   0.00555897
6262.00   0.47970402   0.00586121
6264.00   0.47479352   0.00560854
6266.00   0.46452537   0.00513975
6268.00   0.45775402   0.00485188
6270.00   0.44966203   0.00454139
6272.00   0.44722882   0.00449170
6274.00   0.44818261   0.00476005
6276.00   0.45263764   0.00491738
6278.00   0.46340048   0.00503814
6280.00   0.47400841   0.00509137
6282.00   0.48011026   0.00499314
6284.00   0.48421547   0.00476130
6286.00   0.47810605   0.00473151
6288.00   0.45373595   0.00436610
6290.00   0.44615048   0.00503780
6292.00   0.44886535   0.00675356
6294.00   0.45879841   0.00785713
6296.00   0.48155427   0.00807525
6298.00   0.51080757   0.00785401
6300.00   0.50943416   0.00755599
6302.00   0.47210339   0.00681465
6304.00   0.46280548   0.00627882
6306.00   0.46646726   0.00568916
6308.00   0.47250432   0.00524666
6310.00   0.48190686   0.00501195
6312.00   0.49173173   0.00500616
6314.00   0.49040580   0.00535240
6316.00   0.47743660   0.00626001
6318.00   0.47620931   0.00624331
6320.00   0.47943547   0.00536168
6322.00   0.48724967   0.00475093
6324.00   0.50518870   0.00459545
6326.00   0.52170098   0.00462545
6328.00   0.52083993   0.00466959
6330.00   0.50620496   0.00483286
6332.00   0.50583476   0.00484987
6334.00   0.51201046   0.00461809
6336.00   0.52025110   0.00473287
6338.00   0.53495526   0.00534007
6340.00   0.54733443   0.00576764
6342.00   0.55060440   0.00564023
6344.00   0.54822916   0.00515885
6346.00   0.54681045   0.00492389
6348.00   0.54109424   0.00470260
6350.00   0.54084980   0.00461033
6352.00   0.54570901   0.00464655
6354.00   0.55025136   0.00475882
6356.00   0.55272371   0.00495953
6358.00   0.55435610   0.00520792
6360.00   0.55533046   0.00535263
6362.00   0.55441993   0.00550700
6364.00   0.55595654   0.00548233
6366.00   0.55913556   0.00525137
6368.00   0.56254941   0.00504143
6370.00   0.56759620   0.00484631
6372.00   0.57164681   0.00469762
6374.00   0.56860679   0.00472215
6376.00   0.55702096   0.00486369
6378.00   0.55822241   0.00514440
6380.00   0.56642324   0.00574458
6382.00   0.57878888   0.00600676
6384.00   0.60236496   0.00597240
6386.00   0.62223434   0.00577451
6388.00   0.62112129   0.00542320
6390.00   0.60470498   0.00481449
6392.00   0.60048676   0.00460840
6394.00   0.59890342   0.00479138
6396.00   0.60125387   0.00483201
6398.00   0.61006933   0.00479381
6400.00   0.61844218   0.00477912
6402.00   0.62489712   0.00486971
6404.00   0.62971437   0.00500621
6406.00   0.61908466   0.00493398
6408.00   0.57859117   0.00452475
6410.00   0.57288861   0.00448366
6412.00   0.59556878   0.00468636
6414.00   0.61576253   0.00495303
6416.00   0.62739474   0.00536570
6418.00   0.63451928   0.00574513
6420.00   0.63143432   0.00558555
6422.00   0.61397105   0.00475372
6424.00   0.60858637   0.00446592
6426.00   0.60925919   0.00453394
6428.00   0.61001569   0.00457443
6430.00   0.61128300   0.00456701
6432.00   0.61244160   0.00456802
6434.00   0.61118984   0.00459014
6436.00   0.60763836   0.00462797
6438.00   0.60750258   0.00467970
6440.00   0.60943431   0.00479952
6442.00   0.61193180   0.00481987
6444.00   0.61746651   0.00471245
6446.00   0.62079209   0.00459286
6448.00   0.61640859   0.00455499
6450.00   0.60651237   0.00455760
6452.00   0.60266238   0.00454489
6454.00   0.60187316   0.00451968
6456.00   0.60107940   0.00453451
6458.00   0.60299420   0.00459402
6460.00   0.60241753   0.00465456
6462.00   0.59609199   0.00471157
6464.00   0.58656090   0.00476220
6466.00   0.57994276   0.00474001
6468.00   0.57193321   0.00460065
6470.00   0.56972200   0.00457792
6472.00   0.57398576   0.00467055
6474.00   0.57691920   0.00469195
6476.00   0.57640743   0.00456947
6478.00   0.57517987   0.00440148
6480.00   0.57662040   0.00436023
6482.00   0.58086395   0.00440969
6484.00   0.58092034   0.00441453
6486.00   0.57840127   0.00441520
6488.00   0.57496864   0.00441647
6490.00   0.56918043   0.00441452
6492.00   0.56385559   0.00441678
6494.00   0.56264049   0.00443220
6496.00   0.56419629   0.00445641
6498.00   0.56614316   0.00449165
6500.00   0.56964886   0.00445873
6502.00   0.57349277   0.00460257
6504.00   0.57960957   0.00499364
6506.00   0.58383387   0.00531087
6508.00   0.58395243   0.00542007
6510.00   0.58111846   0.00541239
6512.00   0.57186377   0.00517109
6514.00   0.54850996   0.00431513
6516.00   0.54038495   0.00406797
6518.00   0.54248494   0.00437639
6520.00   0.54842657   0.00472131
6522.00   0.55789763   0.00503997
6524.00   0.57014513   0.00533389
6526.00   0.57786691   0.00530527
6528.00   0.58397698   0.00492273
6530.00   0.58776969   0.00472795
6532.00   0.59010237   0.00454769
6534.00   0.58913606   0.00442494
6536.00   0.58249283   0.00438344
6538.00   0.57452601   0.00439210
6540.00   0.57263243   0.00440649
6542.00   0.57499802   0.00445567
6544.00   0.57483780   0.00447748
6546.00   0.57432234   0.00450016
6548.00   0.57337576   0.00449824
6550.00   0.57133758   0.00445359
6552.00   0.56969047   0.00441162
6554.00   0.56989360   0.00441904
6556.00   0.57132840   0.00445820
6558.00   0.57320672   0.00447720
6560.00   0.57647789   0.00450228
6562.00   0.57894796   0.00450516
6564.00   0.57988232   0.00448136
6566.00   0.58220464   0.00445610
6568.00   0.58827245   0.00443591
6570.00   0.59646577   0.00441888
6572.00   0.60081011   0.00444205
6574.00   0.60356331   0.00452808
6576.00   0.60428578   0.00455459
6578.00   0.60050136   0.00455208
6580.00   0.59928620   0.00453235
6582.00   0.60361254   0.00448496
6584.00   0.61002231   0.00442691
6586.00   0.61315393   0.00441372
6588.00   0.61852688   0.00443756
6590.00   0.61146003   0.00444284
6592.00   0.58702677   0.00438793
6594.00   0.57270694   0.00444396
6596.00   0.57077366   0.00466708
6598.00   0.57525152   0.00491513
6600.00   0.58621675   0.00501675
6602.00   0.61205876   0.00498458
6604.00   0.59486359   0.00528767
6606.00   0.54157001   0.00579284
6608.00   0.48840359   0.00631126
6610.00   0.41099867   0.00699777
6612.00   0.35439152   0.00751458
6614.00   0.36013791   0.00767997
6616.00   0.40942559   0.00762944
6618.00   0.45435026   0.00726813
6620.00   0.53283054   0.00624076
6622.00   0.57465976   0.00553989
6624.00   0.59327108   0.00494624
6626.00   0.59551293   0.00460317
6628.00   0.57831073   0.00473481
6630.00   0.54617679   0.00516098
6632.00   0.52623791   0.00530533
6634.00   0.49682108   0.00542310
6636.00   0.49920142   0.00539392
6638.00   0.53228575   0.00519072
6640.00   0.56489611   0.00497770
6642.00   0.59536147   0.00475637
6644.00   0.62347978   0.00454025
6646.00   0.63753128   0.00443682
6648.00   0.63827574   0.00443524
6650.00   0.64467251   0.00442400
6652.00   0.65258473   0.00446163
6654.00   0.65673971   0.00447823
6656.00   0.65629083   0.00444412
6658.00   0.65379751   0.00443271
6660.00   0.65081269   0.00453952
6662.00   0.64568639   0.00474367
6664.00   0.64719301   0.00479165
6666.00   0.65751749   0.00474706
6668.00   0.66070026   0.00468354
6670.00   0.65736562   0.00453628
6672.00   0.65265143   0.00442521
6674.00   0.64820647   0.00445853
6676.00   0.64321804   0.00457822
6678.00   0.64471459   0.00460417
6680.00   0.65589947   0.00459471
6682.00   0.65804970   0.00456794
6684.00   0.65447021   0.00449990
6686.00   0.64918548   0.00443999
6688.00   0.64264905   0.00437665
6690.00   0.63496560   0.00433671
6692.00   0.62919229   0.00445813
6694.00   0.62389773   0.00480962
6696.00   0.62017846   0.00488269
6698.00   0.61748773   0.00477821
6700.00   0.61644328   0.00467088
6702.00   0.61803240   0.00455069
6704.00   0.62041026   0.00443953
6706.00   0.62057132   0.00441867
6708.00   0.61948347   0.00444788
6710.00   0.61870527   0.00457666
6712.00   0.61680281   0.00492793
6714.00   0.61663383   0.00504816
6716.00   0.61961299   0.00492496
6718.00   0.62189072   0.00472007
6720.00   0.61972332   0.00453821
6722.00   0.61453497   0.00431311
6724.00   0.61108232   0.00423192
6726.00   0.60991699   0.00431298
6728.00   0.60415679   0.00432107
6730.00   0.59156936   0.00428366
6732.00   0.58128530   0.00425269
6734.00   0.57831186   0.00425757
6736.00   0.57951486   0.00427872
6738.00   0.58037394   0.00426533
6740.00   0.58573484   0.00404491
6742.00   0.58472586   0.00425700
6744.00   0.57798624   0.00497563
6746.00   0.57220286   0.00535176
6748.00   0.56854409   0.00521494
6750.00   0.56617981   0.00483030
6752.00   0.56628984   0.00457095
6754.00   0.56986690   0.00421652
6756.00   0.57062894   0.00408104
6758.00   0.57130253   0.00411950
6760.00   0.56955147   0.00423573
6762.00   0.56656247   0.00437347
6764.00   0.56009597   0.00463368
6766.00   0.54449999   0.00519854
6768.00   0.51746678   0.00606566
6770.00   0.51289463   0.00610572
6772.00   0.53009701   0.00539413
6774.00   0.53723252   0.00488632
6776.00   0.53780878   0.00446511
6778.00   0.53431588   0.00415998
6780.00   0.52441925   0.00411924
6782.00   0.50865787   0.00430463
6784.00   0.50904709   0.00430988
6786.00   0.52392370   0.00423428
6788.00   0.53411204   0.00420900
6790.00   0.54612613   0.00422096
6792.00   0.55470204   0.00422570
6794.00   0.55664015   0.00420346
6796.00   0.55455679   0.00416908
6798.00   0.55398023   0.00414608
6800.00   0.55310166   0.00412345
6802.00   0.55114204   0.00411001
6804.00   0.54634523   0.00410502
6806.00   0.54428810   0.00410345
6808.00   0.54687196   0.00410616
6810.00   0.55124891   0.00411118
6812.00   0.55354089   0.00411257
6814.00   0.55573076   0.00411104
6816.00   0.55566353   0.00411488
6818.00   0.55328518   0.00411396
6820.00   0.55077052   0.00413079
6822.00   0.54751712   0.00416906
6824.00   0.54446816   0.00421638
6826.00   0.54313529   0.00426794
6828.00   0.54316306   0.00433262
6830.00   0.54140431   0.00434240
6832.00   0.53800541   0.00429885
6834.00   0.53578001   0.00426906
6836.00   0.53325713   0.00424083
6838.00   0.53280383   0.00421496
6840.00   0.53738838   0.00419610
6842.00   0.54524893   0.00418162
6844.00   0.54574805   0.00415643
6846.00   0.53898203   0.00411421
6848.00   0.53700072   0.00409293
6850.00   0.53701055   0.00408039
6852.00   0.53804731   0.00408331
6854.00   0.54190731   0.00409980
6856.00   0.54589671   0.00413365
6858.00   0.54028296   0.00419731
6860.00   0.52276897   0.00421931
6862.00   0.51682389   0.00445303
6864.00   0.51706290   0.00498528
6866.00   0.51854992   0.00525866
6868.00   0.52193487   0.00522809
6870.00   0.52594620   0.00505637
6872.00   0.52735215   0.00487628
6874.00   0.52708352   0.00457759
6876.00   0.52757359   0.00442748
6878.00   0.52921605   0.00437908
6880.00   0.52844757   0.00434852
6882.00   0.52445596   0.00435867
6884.00   0.51998276   0.00438137
6886.00   0.51671225   0.00438657
6888.00   0.51355797   0.00438890
6890.00   0.51505852   0.00438293
6892.00   0.52433610   0.00436779
6894.00   0.52643883   0.00435201
6896.00   0.52122837   0.00433121
6898.00   0.51694703   0.00431184
6900.00   0.51832598   0.00429472
6902.00   0.52215308   0.00428031
6904.00   0.52137363   0.00428326
6906.00   0.51768512   0.00432410
6908.00   0.51390404   0.00431570
6910.00   0.50858116   0.00427179
6912.00   0.50346959   0.00422271
6914.00   0.49901924   0.00416298
6916.00   0.49475881   0.00410541
6918.00   0.48996806   0.00409976
6920.00   0.48239830   0.00414368
6922.00   0.48324466   0.00416387
6924.00   0.49375692   0.00419636
6926.00   0.50013745   0.00420167
6928.00   0.50160569   0.00416447
6930.00   0.50088519   0.00411894
6932.00   0.49895310   0.00410454
6934.00   0.49440300   0.00410442
6936.00   0.49458855   0.00411949
6938.00   0.50026160   0.00416389
6940.00   0.50166804   0.00419194
6942.00   0.49845979   0.00420245
6944.00   0.49488971   0.00421490
6946.00   0.49286395   0.00423155
6948.00   0.49130622   0.00424959
6950.00   0.49561071   0.00434375
6952.00   0.50862449   0.00460283
6954.00   0.51496255   0.00463662
6956.00   0.51655900   0.00445738
6958.00   0.51794147   0.00427982
6960.00   0.52111405   0.00419106
6962.00   0.52447170   0.00413840
6964.00   0.52532387   0.00410604
6966.00   0.52400976   0.00405757
6968.00   0.52288622   0.00414905
6970.00   0.52140576   0.00446196
6972.00   0.51912916   0.00460755
6974.00   0.51441807   0.00449327
6976.00   0.51015478   0.00427743
6978.00   0.51223838   0.00417876
6980.00   0.52030712   0.00410097
6982.00   0.52407622   0.00410772
6984.00   0.52742064   0.00424969
6986.00   0.52838296   0.00431322
6988.00   0.52708155   0.00430028
6990.00   0.52360380   0.00425030
6992.00   0.51703286   0.00417253
6994.00   0.50688010   0.00404795
6996.00   0.50250041   0.00400520
6998.00   0.50049913   0.00402881
7000.00   0.50183278   0.00403960
7002.00   0.50789523   0.00404736
7004.00   0.51484108   0.00406358
7006.00   0.52101094   0.00409659
7008.00   0.52722663   0.00414079
7010.00   0.53009576   0.00416769
7012.00   0.52953637   0.00418915
7014.00   0.52979231   0.00419983
7016.00   0.52878022   0.00419202
7018.00   0.52906078   0.00419057
7020.00   0.53208303   0.00420883
7022.00   0.53623164   0.00423191
7024.00   0.53819472   0.00422971
7026.00   0.53998744   0.00421286
7028.00   0.53856665   0.00418443
7030.00   0.53286648   0.00412445
7032.00   0.52862382   0.00408654
7034.00   0.52600521   0.00407834
7036.00   0.52464730   0.00408615
7038.00   0.52546149   0.00410207
7040.00   0.52895743   0.00413647
7042.00   0.52967036   0.00414493
7044.00   0.52970368   0.00413337
7046.00   0.52795684   0.00412745
7048.00   0.52298754   0.00412212
7050.00   0.51837158   0.00412194
7052.00   0.51701224   0.00413252
7054.00   0.51749617   0.00415118
7056.00   0.52025181   0.00417659
7058.00   0.53034270   0.00423935
7060.00   0.53096914   0.00424152
7062.00   0.52242345   0.00418027
7064.00   0.51309311   0.00411530
7066.00   0.50532031   0.00399330
7068.00   0.49818537   0.00387676
7070.00   0.49843353   0.00424172
7072.00   0.50974905   0.00529698
7074.00   0.51143765   0.00544759
7076.00   0.50674540   0.00498442
7078.00   0.50338787   0.00453638
7080.00   0.50345123   0.00425237
7082.00   0.50454187   0.00403945
7084.00   0.50395149   0.00396858
7086.00   0.50124460   0.00404978
7088.00   0.50318086   0.00416540
7090.00   0.51156533   0.00447097
7092.00   0.51492327   0.00458867
7094.00   0.51226795   0.00447049
7096.00   0.50674695   0.00427290
7098.00   0.49967897   0.00414994
7100.00   0.48869431   0.00402631
7102.00   0.48783210   0.00398106
7104.00   0.49504766   0.00402867
7106.00   0.50247532   0.00405283
7108.00   0.51466054   0.00403589
7110.00   0.52370906   0.00406302
7112.00   0.52302188   0.00417086
7114.00   0.51586449   0.00433359
7116.00   0.50933367   0.00464852
7118.00   0.49449402   0.00534597
7120.00   0.49263695   0.00545584
7122.00   0.50382805   0.00504755
7124.00   0.51432490   0.00460779
7126.00   0.52054018   0.00431178
7128.00   0.52429086   0.00408228
7130.00   0.52038240   0.00410121
7132.00   0.50386554   0.00450399
7134.00   0.49997109   0.00454853
7136.00   0.50286615   0.00436925
7138.00   0.50769311   0.00422894
7140.00   0.51604044   0.00417003
7142.00   0.52474028   0.00414464
7144.00   0.52620149   0.00414256
7146.00   0.52213007   0.00418817
7148.00   0.51969683   0.00417618
7150.00   0.51524138   0.00405775
7152.00   0.51299906   0.00407842
7154.00   0.51428598   0.00431875
7156.00   0.51542288   0.00453796
7158.00   0.51258749   0.00452873
7160.00   0.50701946   0.00437006
7162.00   0.50433242   0.00430128
7164.00   0.50147974   0.00420410
7166.00   0.50222617   0.00420492
7168.00   0.50706536   0.00433082
7170.00   0.51303369   0.00445280
7172.00   0.51962245   0.00450765
7174.00   0.52689952   0.00453347
7176.00   0.52804005   0.00454583
7178.00   0.52171487   0.00451856
7180.00   0.52040207   0.00452159
7182.00   0.52160776   0.00452688
7184.00   0.52295351   0.00455892
7186.00   0.52438599   0.00464975
7188.00   0.52558291   0.00475344
7190.00   0.52408010   0.00475459
7192.00   0.51869249   0.00465982
7194.00   0.51808155   0.00462413
7196.00   0.52011663   0.00454360
7198.00   0.52333498   0.00458377
7200.00   0.52885830   0.00484750
7202.00   0.53452981   0.00510801
7204.00   0.53679520   0.00509226
7206.00   0.53697938   0.00488226
7208.00   0.53615433   0.00471540
7210.00   0.53491288   0.00444479
7212.00   0.53038096   0.00426887
7214.00   0.52015585   0.00420469
7216.00   0.51056308   0.00418360
7218.00   0.50678003   0.00415750
7220.00   0.50639325   0.00414952
7222.00   0.50764233   0.00417147
7224.00   0.51184672   0.00421839
7226.00   0.51666671   0.00429128
7228.00   0.52366054   0.00439062
7230.00   0.53015870   0.00450927
7232.00   0.53563857   0.00464547
7234.00   0.54012120   0.00479705
7236.00   0.53982323   0.00495220
7238.00   0.53431362   0.00518165
7240.00   0.52972114   0.00525592
7242.00   0.52256340   0.00522833
7244.00   0.51747531   0.00515442
7246.00   0.51518953   0.00501691
7248.00   0.51505327   0.00484425
7250.00   0.51761389   0.00473666
7252.00   0.52414000   0.00465918
7254.00   0.52776676   0.00460602
7256.00   0.53336239   0.00460732
7258.00   0.53281242   0.00458365
7260.00   0.52186090   0.00451365
7262.00   0.51027793   0.00444906
7264.00   0.50997782   0.00443846
7266.00   0.51769269   0.00445179
7268.00   0.51735234   0.00456548
7270.00   0.51327097   0.00482529
7272.00   0.50835466   0.00498396
7274.00   0.49843848   0.00509799
7276.00   0.49235711   0.00514541
7278.00   0.49843761   0.00508610
7280.00   0.51251137   0.00493773
7282.00   0.51594895   0.00483070
7284.00   0.51438123   0.00470132
7286.00   0.51050401   0.00460940
7288.00   0.49882838   0.00453707
7290.00   0.49204871   0.00449793
7292.00   0.49678433   0.00450880
7294.00   0.50699842   0.00455159
7296.00   0.51054698   0.00456973
7298.00   0.51132607   0.00458001
7300.00   0.51164299   0.00459849
7302.00   0.51084977   0.00462880
7304.00   0.50882030   0.00464679
7306.00   0.50455987   0.00462927
7308.00   0.49988276   0.00461775
7310.00   0.49818024   0.00468955
7312.00   0.49871561   0.00484464
7314.00   0.49801263   0.00489762
7316.00   0.49783593   0.00492808
7318.00   0.49616513   0.00487894
7320.00   0.49229592   0.00469199
7322.00   0.48819494   0.00449354
7324.00   0.48523667   0.00442670
7326.00   0.48245794   0.00443930
7328.00   0.48378959   0.00444815
7330.00   0.49031892   0.00448431
7332.00   0.49441028   0.00453636
7334.00   0.49891737   0.00462252
7336.00   0.50042272   0.00470042
7338.00   0.49566671   0.00474353
7340.00   0.48679918   0.00476927
7342.00   0.48231444   0.00481470
7344.00   0.47779033   0.00492217
7346.00   0.47795075   0.00490503
7348.00   0.48351699   0.00477355
7350.00   0.48901725   0.00463354
7352.00   0.49314514   0.00448741
7354.00   0.49694976   0.00435009
7356.00   0.50046718   0.00433888
7358.00   0.50409657   0.00445975
7360.00   0.50612122   0.00451017
7362.00   0.50752228   0.00455114
7364.00   0.50697124   0.00458628
7366.00   0.50376320   0.00463265
7368.00   0.49933732   0.00465677
7370.00   0.49537760   0.00460418
7372.00   0.49081114   0.00447780
7374.00   0.48801485   0.00439608
7376.00   0.48729518   0.00431255
7378.00   0.48535708   0.00425508
7380.00   0.48267031   0.00420088
7382.00   0.47914943   0.00419702
7384.00   0.47376490   0.00430478
7386.00   0.46672016   0.00449645
7388.00   0.46495438   0.00456961
7390.00   0.46792132   0.00461078
7392.00   0.46974179   0.00457550
7394.00   0.47251558   0.00439984
7396.00   0.47423160   0.00426396
7398.00   0.47329462   0.00428300
7400.00   0.47102430   0.00437465
7402.00   0.47132865   0.00436457
7404.00   0.47188485   0.00424781
7406.00   0.47580835   0.00425940
7408.00   0.48574632   0.00433576
7410.00   0.49177122   0.00445741
7412.00   0.49264461   0.00468770
7414.00   0.48935795   0.00490348
7416.00   0.47968638   0.00485296
7418.00   0.45995978   0.00455714
7420.00   0.45171970   0.00437413
7422.00   0.44912010   0.00413556
7424.00   0.44965732   0.00401150
7426.00   0.45540965   0.00405894
7428.00   0.46232843   0.00415746
7430.00   0.46523094   0.00418963
7432.00   0.46613768   0.00420536
7434.00   0.46738452   0.00422864
7436.00   0.46882710   0.00426723
7438.00   0.46851853   0.00427218
7440.00   0.46606061   0.00423829
7442.00   0.46318811   0.00419750
7444.00   0.46099627   0.00416692
7446.00   0.45891294   0.00413771
7448.00   0.45645195   0.00412436
7450.00   0.45447588   0.00414622
7452.00   0.45069575   0.00412338
7454.00   0.44429415   0.00400778
7456.00   0.43896261   0.00397766
7458.00   0.43582469   0.00412650
7460.00   0.43410635   0.00435518
7462.00   0.43391889   0.00449750
7464.00   0.43563992   0.00468169
7466.00   0.43767944   0.00467218
7468.00   0.44210029   0.00438430
7470.00   0.44438678   0.00425411
7472.00   0.44395643   0.00441818
7474.00   0.44172913   0.00465378
7476.00   0.43796402   0.00472288
7478.00   0.43175623   0.00472335
7480.00   0.42754999   0.00468870
7482.00   0.42721796   0.00455812
7484.00   0.42082715   0.00447853
7486.00   0.40366548   0.00449292
7488.00   0.38839078   0.00447893
7490.00   0.38765338   0.00428799
7492.00   0.39682046   0.00393318
7494.00   0.39975449   0.00389045
7496.00   0.40212357   0.00413648
7498.00   0.40303537   0.00426437
7500.00   0.40203884   0.00440308
7502.00   0.40070125   0.00444304
7504.00   0.39962214   0.00426764
7506.00   0.39851296   0.00394073
7508.00   0.39848018   0.00383643
7510.00   0.40084061   0.00385869
7512.00   0.39985383   0.00392600
7514.00   0.39543241   0.00407045
7516.00   0.39217448   0.00425155
7518.00   0.39252937   0.00452502
7520.00   0.39345282   0.00478398
7522.00   0.38876149   0.00476045
7524.00   0.37841359   0.00445267
7526.00   0.37267023   0.00431181
7528.00   0.36759204   0.00421319
7530.00   0.36550859   0.00413098
7532.00   0.36701813   0.00406308
7534.00   0.37080860   0.00401800
7536.00   0.37603009   0.00400880
7538.00   0.38435003   0.00404477
7540.00   0.38682604   0.00402811
7542.00   0.38394347   0.00396031
7544.00   0.38310248   0.00393278
7546.00   0.38251662   0.00394564
7548.00   0.38397714   0.00397090
7550.00   0.39039648   0.00398835
7552.00   0.40070313   0.00400672
7554.00   0.40480879   0.00405888
7556.00   0.40286535   0.00415933
7558.00   0.40557376   0.00422005
7560.00   0.41464403   0.00426966
7562.00   0.41935322   0.00428932
7564.00   0.41325516   0.00424933
7566.00   0.40160462   0.00417868
7568.00   0.39730209   0.00419829
7570.00   0.39656043   0.00430608
7572.00   0.39615059   0.00435212
7574.00   0.39855155   0.00434592
7576.00   0.39951608   0.00438757
7578.00   0.39673293   0.00452051
7580.00   0.39376014   0.00467256
7582.00   0.39705452   0.00474068
7584.00   0.40630555   0.00477466
7586.00   0.41057521   0.00474808
7588.00   0.41311967   0.00445642
7590.00   0.41438648   0.00452875
7592.00   0.41416317   0.00490811
7594.00   0.41283652   0.00553476
7596.00   0.41067147   0.00645962
7598.00   0.40725422   0.00760745
7600.00   0.40527982   0.00824873
7602.00   0.40613651   0.00892725
7604.00   0.40266651   0.00898546
7606.00   0.39042795   0.00827941
7608.00   0.38313991   0.00738173
7610.00   0.39062288   0.00668796
7612.00   0.40758890   0.00600223
7614.00   0.42180508   0.00558515
7616.00   0.44450337   0.00549252
7618.00   0.45263496   0.00546907
7620.00   0.44783714   0.00566019
7622.00   0.44149920   0.00585917
7624.00   0.43781918   0.00603279
7626.00   0.43318388   0.00619076
7628.00   0.42286974   0.00622137
7630.00   0.40215570   0.00607290
7632.00   0.39609307   0.00611766
7634.00   0.39996207   0.00617974
7636.00   0.40563986   0.00643271
7638.00   0.41111413   0.00693834
7640.00   0.41998777   0.00750814
7642.00   0.43872395   0.00801870
7644.00   0.47240198   0.00875737
7646.00   0.47662106   0.00838992
7648.00   0.45289165   0.00637177
7650.00   0.43942705   0.00492242
7652.00   0.43482414   0.00466432
7654.00   0.43311924   0.00483001
7656.00   0.43245113   0.00476993
7658.00   0.43418252   0.00478688
7660.00   0.43139935   0.00490713
7662.00   0.42078537   0.00526662
7664.00   0.42040083   0.00536950
7666.00   0.43327308   0.00529684
7668.00   0.44258064   0.00512376
7670.00   0.43846646   0.00481906
7672.00   0.42729425   0.00438786
7674.00   0.42182812   0.00418555
7676.00   0.41464907   0.00416471
7678.00   0.41537553   0.00414539
7680.00   0.42620987   0.00421234
7682.00   0.43368334   0.00427669
7684.00   0.43328866   0.00431723
7686.00   0.43006629   0.00435498
7688.00   0.43069068   0.00440378
7690.00   0.43263531   0.00447306
7692.00   0.43566641   0.00449773
7694.00   0.44268978   0.00448209
7696.00   0.44541198   0.00447387
7698.00   0.44187960   0.00448439
7700.00   0.43657669   0.00448773
7702.00   0.43351546   0.00443300
7704.00   0.42953646   0.00429004
7706.00   0.43489888   0.00441631
7708.00   0.45340574   0.00458788
7710.00   0.46299282   0.00508153
7712.00   0.46779472   0.00617234
7714.00   0.46552044   0.00685177
7716.00   0.45056477   0.00651873
7718.00   0.42502135   0.00540114
7720.00   0.41292179   0.00487159
7722.00   0.40640205   0.00458655
7724.00   0.40427974   0.00437476
7726.00   0.40983728   0.00432351
7728.00   0.41527942   0.00437963
7730.00   0.41733310   0.00458848
7732.00   0.41826773   0.00486431
7734.00   0.41974413   0.00483752
7736.00   0.41839191   0.00448191
7738.00   0.42402810   0.00436779
7740.00   0.43634889   0.00428676
7742.00   0.44801444   0.00437129
7744.00   0.45980206   0.00464829
7746.00   0.46970385   0.00503856
7748.00   0.47075152   0.00550441
7750.00   0.46295112   0.00622250
7752.00   0.46011877   0.00625490
7754.00   0.45775679   0.00562239
7756.00   0.45641038   0.00516187
7758.00   0.45739362   0.00492456
7760.00   0.45780692   0.00476618
7762.00   0.45389992   0.00461432
7764.00   0.44653410   0.00450741
7766.00   0.44365618   0.00444556
7768.00   0.44439894   0.00444070
7770.00   0.44323343   0.00446481
7772.00   0.44004315   0.00455829
7774.00   0.43749392   0.00463206
7776.00   0.43717757   0.00462777
7778.00   0.43822116   0.00457852
7780.00   0.43928090   0.00454330
7782.00   0.44120848   0.00444954
7784.00   0.44273901   0.00446873
7786.00   0.44397742   0.00458149
7788.00   0.44552645   0.00471467
7790.00   0.44846842   0.00485684
7792.00   0.45138732   0.00500894
7794.00   0.44977719   0.00513641
7796.00   0.44143066   0.00527085
7798.00   0.44168210   0.00534513
7800.00   0.44766861   0.00542178
7802.00   0.45428726   0.00538715
7804.00   0.46202758   0.00513244
7806.00   0.46991673   0.00484264
7808.00   0.47525513   0.00486806
7810.00   0.47906408   0.00514464
7812.00   0.48192233   0.00521367
7814.00   0.48661003   0.00520270
7816.00   0.48408535   0.00517958
7818.00   0.47257012   0.00503809
7820.00   0.45836639   0.00499852
7822.00   0.44487226   0.00536296
7824.00   0.42953789   0.00599343
7826.00   0.42702711   0.00597589
7828.00   0.43731758   0.00535626
7830.00   0.44462779   0.00496868
7832.00   0.45296761   0.00462142
7834.00   0.46052557   0.00441019
7836.00   0.46644825   0.00445128
7838.00   0.47113392   0.00467226
7840.00   0.47295415   0.00484816
7842.00   0.46991000   0.00513853
7844.00   0.47071737   0.00525895
7846.00   0.47441000   0.00525353
7848.00   0.47676152   0.00525081
7850.00   0.47764087   0.00528717
7852.00   0.47665188   0.00532211
7854.00   0.47053111   0.00531339
7856.00   0.45748529   0.00528499
7858.00   0.45104033   0.00520275
7860.00   0.44935638   0.00502087
7862.00   0.44561037   0.00489396
7864.00   0.43807292   0.00484103
7866.00   0.43081841   0.00482137
7868.00   0.42797765   0.00480632
7870.00   0.42750913   0.00481346
7872.00   0.43132573   0.00480602
7874.00   0.44198856   0.00476737
7876.00   0.44960561   0.00478621
7878.00   0.45536903   0.00487202
7880.00   0.45993656   0.00496835
7882.00   0.46361354   0.00505090
7884.00   0.46629784   0.00513383
7886.00   0.46564037   0.00514032
7888.00   0.46191528   0.00509217
7890.00   0.45686612   0.00500575
7892.00   0.44661343   0.00483245
7894.00   0.44018519   0.00467789
7896.00   0.44181925   0.00458592
7898.00   0.44819769   0.00453308
7900.00   0.45434031   0.00451997
7902.00   0.46430188   0.00443079
7904.00   0.47006643   0.00468263
7906.00   0.47382635   0.00526333
7908.00   0.47614300   0.00571834
7910.00   0.47785595   0.00609591
7912.00   0.47751617   0.00635062
7914.00   0.47212791   0.00625548
7916.00   0.46132061   0.00576801
7918.00   0.45312837   0.00552736
7920.00   0.44374806   0.00537737
7922.00   0.43703815   0.00521626
7924.00   0.43402815   0.00500908
7926.00   0.43182307   0.00484736
7928.00   0.42731258   0.00485114
7930.00   0.42138606   0.00499701
7932.00   0.41937715   0.00500305
7934.00   0.42018875   0.00493680
7936.00   0.42171213   0.00488044
7938.00   0.42582488   0.00478723
7940.00   0.42886907   0.00473396
7942.00   0.42734581   0.00479940
7944.00   0.42336962   0.00493384
7946.00   0.42642027   0.00492919
7948.00   0.40645453   0.00425645
#7950.00   0.45235744   0.00490850
#7952.00   0.52020401   0.00518607
#7954.00   0.66448247   0.00739046
#7956.00   0.95556861   0.01110941
#7958.00   1.30205011   0.01466995
#7960.00   1.44123220   0.01685194
#7962.00   1.30979514   0.01580929
#7964.00   1.55853295   0.02239941
#7966.00   2.26604414   0.03484636
#7968.00   2.63653064   0.03928658
#7970.00   2.54682112   0.03604350
#7972.00   2.23889899   0.02919835
#7974.00   1.90289676   0.02455749
#7976.00   1.39308345   0.01927334
#7978.00   1.11578882   0.01532659
#7980.00   1.01734352   0.01466581
#7982.00   0.86532104   0.01304948
#7984.00   0.65004349   0.01009027
#7986.00   0.45616853   0.00670290
#7988.00   0.34344733   0.00490413
7990.00   0.28507212   0.00543878
7992.00   0.25051752   0.00504317
7994.00   0.27637345   0.00503481
7996.00   0.27785739   0.00492773
7998.00   0.26915169   0.00486561
8000.00   0.26021698   0.00475419
8002.00   0.25410181   0.00448514
8004.00   0.24902515   0.00411957
8006.00   0.24542886   0.00398549
8008.00   0.24433357   0.00399949
8010.00   0.24174777   0.00411140
8012.00   0.23955236   0.00448366
8014.00   0.23577105   0.00466840
8016.00   0.22889757   0.00448236
8018.00   0.22113033   0.00419146
8020.00   0.21675867   0.00436758
8022.00   0.21323493   0.00498430
8024.00   0.21449482   0.00502769
8026.00   0.22440623   0.00465433
8028.00   0.22798918   0.00435225
8030.00   0.22235940   0.00414757
8032.00   0.21488792   0.00397397
8034.00   0.21334292   0.00381662
8036.00   0.21545611   0.00368279
8038.00   0.21257167   0.00360256
8040.00   0.20322174   0.00358929
8042.00   0.20076266   0.00358590
8044.00   0.20738031   0.00360653
8046.00   0.21300018   0.00363868
8048.00   0.21039295   0.00367527
8050.00   0.20313539   0.00372003
8052.00   0.19840282   0.00374277
8054.00   0.19217892   0.00373414
8056.00   0.18952349   0.00376009
8058.00   0.19225082   0.00384119
8060.00   0.19239174   0.00387981
8062.00   0.18515928   0.00382680
8064.00   0.17498383   0.00372422
8066.00   0.17259286   0.00366482
8068.00   0.17749915   0.00362625
8070.00   0.17694171   0.00356748
8072.00   0.17430794   0.00347747
8074.00   0.17081481   0.00342016
8076.00   0.16598231   0.00338889
8078.00   0.16075249   0.00340356
8080.00   0.15697974   0.00353771
8082.00   0.15285480   0.00383358
8084.00   0.15393101   0.00385169
8086.00   0.16174261   0.00360357
8088.00   0.16642150   0.00347854
8090.00   0.16755222   0.00346471
8092.00   0.16791031   0.00353823
8094.00   0.16928005   0.00374527
8096.00   0.17073804   0.00407998
8098.00   0.17348050   0.00414223
8100.00   0.18133804   0.00398847
8102.00   0.18087985   0.00389737
8104.00   0.16982383   0.00382312
8106.00   0.16000365   0.00375243
8108.00   0.15875605   0.00368374
8110.00   0.16179697   0.00361852
8112.00   0.16093837   0.00356909
8114.00   0.15844348   0.00354066
8116.00   0.15640227   0.00350400
8118.00   0.15391968   0.00345248
8120.00   0.15188682   0.00342523
8122.00   0.15073057   0.00344361
8124.00   0.14998338   0.00348358
8126.00   0.14881219   0.00349685
8128.00   0.14775692   0.00348913
8130.00   0.14591047   0.00351270
8132.00   0.14232282   0.00356352
8134.00   0.14054142   0.00360577
8136.00   0.14178339   0.00363888
8138.00   0.14360486   0.00366546
8140.00   0.14285019   0.00368224
8142.00   0.14037308   0.00368966
8144.00   0.13916057   0.00369492
8146.00   0.13723561   0.00368867
8148.00   0.13773337   0.00369268
8150.00   0.14220135   0.00368108
8152.00   0.14620437   0.00370681
8154.00   0.14647776   0.00383171
8156.00   0.14467876   0.00402662
8158.00   0.13919881   0.00412156
8160.00   0.12378346   0.00414192
8162.00   0.12042117   0.00420717
8164.00   0.13047239   0.00436369
8166.00   0.13820931   0.00442275
8168.00   0.13532756   0.00424182
8170.00   0.12767807   0.00391963
8172.00   0.12599844   0.00387835
8174.00   0.12736759   0.00396615
8176.00   0.12851031   0.00420653
8178.00   0.13132961   0.00470851
8180.00   0.13323259   0.00505177
8182.00   0.13263080   0.00516755
8184.00   0.13184814   0.00519664
8186.00   0.13542292   0.00528623
8188.00   0.14306603   0.00537730
8190.00   0.14788273   0.00547352
8192.00   0.15498504   0.00568073
8194.00   0.15556598   0.00568150
8196.00   0.14710505   0.00540482
8198.00   0.13581945   0.00500729
8200.00   0.12758647   0.00465595
8202.00   0.11905072   0.00424325
8204.00   0.11657000   0.00398714
8206.00   0.11996704   0.00385279
8208.00   0.12330870   0.00381598
8210.00   0.12909576   0.00397298
8212.00   0.13362461   0.00410710
8214.00   0.13317512   0.00406444
8216.00   0.12960304   0.00392348
8218.00   0.13102990   0.00387561
8220.00   0.13817829   0.00385788
8222.00   0.13942243   0.00386513
8224.00   0.13622853   0.00393664
8226.00   0.13230756   0.00397143
8228.00   0.12748401   0.00392497
8230.00   0.12269448   0.00383451
8232.00   0.12474818   0.00376364
8234.00   0.13648506   0.00368541
8236.00   0.13790017   0.00361101
8238.00   0.13207005   0.00353149
8240.00   0.12729576   0.00346281
8242.00   0.12416724   0.00340814
8244.00   0.12202261   0.00336433
8246.00   0.12214698   0.00332922
8248.00   0.12515242   0.00330396
8250.00   0.12492387   0.00328983
8252.00   0.12179922   0.00329147
8254.00   0.12057649   0.00329429
8256.00   0.12155591   0.00330546
8258.00   0.12309328   0.00331221
8260.00   0.12412008   0.00329545
8262.00   0.12523898   0.00325868
8264.00   0.12514074   0.00326158
8266.00   0.12327409   0.00325532
8268.00   0.12278372   0.00333191
8270.00   0.12276142   0.00346776
8272.00   0.12395567   0.00365947
8274.00   0.12756906   0.00392783
8276.00   0.13274652   0.00423755
8278.00   0.13463733   0.00443330
8280.00   0.13455702   0.00457558
8282.00   0.13385430   0.00468829
8284.00   0.12990505   0.00476220
8286.00   0.12881343   0.00481578
8288.00   0.13287809   0.00485159
8290.00   0.13967624   0.00487003
8292.00   0.14596301   0.00487969
8294.00   0.15583695   0.00486942
8296.00   0.15744250   0.00487238
8298.00   0.15053980   0.00493520
8300.00   0.14633046   0.00489309
8302.00   0.14527242   0.00468241
8304.00   0.14607424   0.00441486
8306.00   0.14971547   0.00423423
8308.00   0.15783267   0.00404542
8310.00   0.15695542   0.00411771
8312.00   0.14639972   0.00453259
8314.00   0.14158739   0.00473277
8316.00   0.14151391   0.00481952
8318.00   0.14384735   0.00477750
8320.00   0.14816216   0.00450602
8322.00   0.15487845   0.00399003
8324.00   0.15913735   0.00370668
8326.00   0.16404182   0.00354087
8328.00   0.16488227   0.00343559
8330.00   0.16047445   0.00338113
8332.00   0.15655382   0.00346177
8334.00   0.15464011   0.00365282
8336.00   0.15417682   0.00396795
8338.00   0.15965742   0.00459711
8340.00   0.17602287   0.00565262
8342.00   0.18060991   0.00611090
8344.00   0.17643476   0.00643604
8346.00   0.17375532   0.00645588
8348.00   0.17504656   0.00598816
8350.00   0.17727479   0.00524331
8352.00   0.17733024   0.00484809
8354.00   0.17526734   0.00465354
8356.00   0.17663135   0.00442730
8358.00   0.18164012   0.00425088
8360.00   0.18453790   0.00413026
8362.00   0.18481840   0.00411469
8364.00   0.18427028   0.00411388
8366.00   0.18380743   0.00399798
8368.00   0.18232393   0.00378480
8370.00   0.18585013   0.00375586
8372.00   0.19620258   0.00383568
8374.00   0.20148803   0.00398250
8376.00   0.20173338   0.00429214
8378.00   0.20160495   0.00451832
8380.00   0.20336542   0.00450605
8382.00   0.20583399   0.00434625
8384.00   0.21112566   0.00426015
8386.00   0.22044997   0.00407939
8388.00   0.22739202   0.00410512
8390.00   0.23468925   0.00420478
8392.00   0.23937625   0.00451450
8394.00   0.23978953   0.00521248
8396.00   0.23753375   0.00594516
8398.00   0.23589665   0.00599969
8400.00   0.23192714   0.00549177
8402.00   0.23215325   0.00514856
8404.00   0.23625864   0.00459534
8406.00   0.23954967   0.00421102
8408.00   0.24119312   0.00415241
8410.00   0.24255946   0.00425902
8412.00   0.24525699   0.00434209
8414.00   0.25003448   0.00452424
8416.00   0.24908726   0.00453201
8418.00   0.23513451   0.00422058
8420.00   0.23770642   0.00429230
8422.00   0.25822771   0.00458912
8424.00   0.28701922   0.00522220
8426.00   0.32425109   0.00649828
8428.00   0.37547806   0.00813301
8430.00   0.36848995   0.00809098
8432.00   0.29189184   0.00626792
8434.00   0.25914076   0.00512660
8436.00   0.25582087   0.00449971
8438.00   0.26187214   0.00419052
8440.00   0.27264041   0.00423861
8442.00   0.28985429   0.00462456
8444.00   0.29366693   0.00479275
8446.00   0.28423646   0.00501496
8448.00   0.28471822   0.00505520
8450.00   0.29204398   0.00491963
8452.00   0.29700595   0.00477955
8454.00   0.29457191   0.00458775
8456.00   0.29102588   0.00444556
8458.00   0.29976493   0.00477236
8460.00   0.32444653   0.00560865
8462.00   0.32779941   0.00581754
8464.00   0.31356421   0.00572791
8466.00   0.30407739   0.00553607
8468.00   0.30024126   0.00514941
8470.00   0.29915521   0.00468874
8472.00   0.30057132   0.00443534
8474.00   0.30468622   0.00431015
8476.00   0.31087819   0.00423454
8478.00   0.32288626   0.00423608
8480.00   0.32977727   0.00432795
8482.00   0.33069417   0.00459305
8484.00   0.33109388   0.00480994
8486.00   0.33518562   0.00481145
8488.00   0.34109536   0.00467928
8490.00   0.34340924   0.00464457
8492.00   0.34089768   0.00461624
8494.00   0.34356391   0.00463650
8496.00   0.35123959   0.00470209
8498.00   0.35847336   0.00479402
8500.00   0.36346099   0.00493513
8502.00   0.36721152   0.00509161
8504.00   0.36840549   0.00510201
8506.00   0.36681658   0.00499400
8508.00   0.36492035   0.00488246
8510.00   0.36013892   0.00467627
8512.00   0.35761860   0.00452119
8514.00   0.35812163   0.00443040
8516.00   0.36085749   0.00441064
8518.00   0.36652291   0.00454388
8520.00   0.37808150   0.00489496
8522.00   0.37985432   0.00493456
8524.00   0.37338424   0.00465646
8526.00   0.36861429   0.00458585
8528.00   0.36484766   0.00479446
8530.00   0.36215499   0.00505717
8532.00   0.36166584   0.00523039
8534.00   0.36277077   0.00540943
8536.00   0.36643609   0.00535441
8538.00   0.37481701   0.00498093
8540.00   0.38013080   0.00477654
8542.00   0.38301760   0.00465898
8544.00   0.38514808   0.00466157
8546.00   0.38715968   0.00488438
8548.00   0.38872257   0.00524797
8550.00   0.39079264   0.00529404
8552.00   0.39373714   0.00510776
8554.00   0.39523831   0.00496489
8556.00   0.39554393   0.00473798
8558.00   0.39557517   0.00456555
8560.00   0.39585280   0.00452043
8562.00   0.39583567   0.00454717
8564.00   0.39426139   0.00455487
8566.00   0.39084011   0.00458804
8568.00   0.38851172   0.00460612
8570.00   0.38582298   0.00462456
8572.00   0.38439375   0.00463433
8574.00   0.38436338   0.00462627
8576.00   0.38550815   0.00461745
8578.00   0.38801393   0.00463700
8580.00   0.39242136   0.00468113
8582.00   0.39520168   0.00470159
8584.00   0.39829761   0.00471355
8586.00   0.39920422   0.00471792
8588.00   0.39726534   0.00470771
8590.00   0.39453945   0.00469833
8592.00   0.39249942   0.00470653
8594.00   0.39030024   0.00472625
8596.00   0.39010587   0.00473167
8598.00   0.39094031   0.00472855
8600.00   0.39360857   0.00472623
8602.00   0.39921099   0.00472898
8604.00   0.40457809   0.00472134
8606.00   0.40754387   0.00462224
8608.00   0.40956631   0.00449991
8610.00   0.41464201   0.00482133
8612.00   0.42382470   0.00559656
8614.00   0.42876750   0.00600430
8616.00   0.43363634   0.00644381
8618.00   0.43350101   0.00656362
8620.00   0.42467141   0.00611324
8622.00   0.41218519   0.00538029
8624.00   0.40699539   0.00525868
8626.00   0.40668017   0.00562847
8628.00   0.40342087   0.00569349
8630.00   0.39838403   0.00568652
8632.00   0.39517513   0.00565076
8634.00   0.39490503   0.00558093
8636.00   0.39510408   0.00548260
8638.00   0.39274192   0.00535320
8640.00   0.38853201   0.00515261
8642.00   0.38663289   0.00515236
8644.00   0.38419375   0.00529655
8646.00   0.38588727   0.00548657
8648.00   0.39189911   0.00581905
8650.00   0.40023938   0.00607642
8652.00   0.41130275   0.00608770
8654.00   0.42530409   0.00593963
8656.00   0.42843893   0.00591729
8658.00   0.42094046   0.00597410
8660.00   0.41745597   0.00594561
8662.00   0.41504833   0.00583689
8664.00   0.41248620   0.00573034
8666.00   0.40836042   0.00566095
8668.00   0.40416223   0.00560587
8670.00   0.40584072   0.00554704
8672.00   0.41505930   0.00549715
8674.00   0.41817418   0.00543511
8676.00   0.41892427   0.00535973
8678.00   0.41820642   0.00529098
8680.00   0.41680413   0.00523987
8682.00   0.41342816   0.00518989
8684.00   0.40465441   0.00510810
8686.00   0.38639957   0.00498227
8688.00   0.38570070   0.00493185
8690.00   0.39921200   0.00492823
8692.00   0.41170344   0.00495093
8694.00   0.42641369   0.00501362
8696.00   0.43880442   0.00508853
8698.00   0.44204581   0.00515229
8700.00   0.43885502   0.00522467
8702.00   0.43256962   0.00521765
8704.00   0.41645578   0.00510238
8706.00   0.40830448   0.00506056
8708.00   0.40796354   0.00500817
8710.00   0.40816507   0.00507486
8712.00   0.40404716   0.00541432
8714.00   0.39832526   0.00589671
8716.00   0.39891800   0.00599691
8718.00   0.40629023   0.00586066
8720.00   0.40970364   0.00567832
8722.00   0.41043556   0.00524053
8724.00   0.41255629   0.00492270
8726.00   0.41745514   0.00489651
8728.00   0.42392814   0.00505047
8730.00   0.43090928   0.00529385
8732.00   0.44182575   0.00585236
8734.00   0.44482031   0.00589088
8736.00   0.43990877   0.00546169
8738.00   0.43734261   0.00515552
8740.00   0.43851051   0.00507679
8742.00   0.44087034   0.00509059
8744.00   0.44318795   0.00511645
8746.00   0.44794062   0.00521204
8748.00   0.44352654   0.00522943
8750.00   0.42728606   0.00511617
8752.00   0.41857767   0.00517710
8754.00   0.41838062   0.00542382
8756.00   0.41960481   0.00572710
8758.00   0.41673890   0.00602190
8760.00   0.41198465   0.00634347
8762.00   0.41159701   0.00656321
8764.00   0.41632223   0.00672267
8766.00   0.41700318   0.00685733
8768.00   0.41317704   0.00692766
8770.00   0.41081721   0.00702237
8772.00   0.41473499   0.00724815
8774.00   0.42130962   0.00750936
8776.00   0.41724831   0.00741104
8778.00   0.39918938   0.00694058
8780.00   0.39455253   0.00657369
8782.00   0.39666322   0.00604514
8784.00   0.40223542   0.00567489
8786.00   0.41307822   0.00565369
8788.00   0.42582497   0.00579459
8790.00   0.43041405   0.00576628
8792.00   0.42908332   0.00568793
8794.00   0.42919770   0.00559827
8796.00   0.42830300   0.00545309
8798.00   0.42695114   0.00534144
8800.00   0.42527485   0.00527222
8802.00   0.42296016   0.00522573
8804.00   0.41966349   0.00519136
8806.00   0.41549891   0.00517930
8808.00   0.41072026   0.00515196
8810.00   0.40173188   0.00504315
8812.00   0.39945608   0.00509625
8814.00   0.40469515   0.00526380
8816.00   0.41175073   0.00555320
8818.00   0.41713777   0.00588862
8820.00   0.42262313   0.00627624
8822.00   0.42763215   0.00726076
8824.00   0.43963224   0.00912983
8826.00   0.43484342   0.00970386
8828.00   0.40678129   0.00949231
8830.00   0.38705796   0.00901441
8832.00   0.39040726   0.00827651
8834.00   0.40524369   0.00725647
8836.00   0.41338688   0.00683571
8838.00   0.42561698   0.00708387
8840.00   0.42719996   0.00690567
8842.00   0.41612244   0.00648772
8844.00   0.41042075   0.00618542
8846.00   0.41582549   0.00613109
8848.00   0.42355978   0.00616308
8850.00   0.42129290   0.00606271
8852.00   0.41108182   0.00589460
8854.00   0.40766573   0.00575990
8856.00   0.40464279   0.00549667
8858.00   0.40736842   0.00549602
8860.00   0.42095959   0.00587975
8862.00   0.43344951   0.00628508
8864.00   0.43186688   0.00644707
8866.00   0.42101389   0.00651603
8868.00   0.41178092   0.00637892
8870.00   0.39787278   0.00584080
8872.00   0.38783067   0.00557575
8874.00   0.37963632   0.00546071
8876.00   0.37442991   0.00556572
8878.00   0.37400666   0.00597340
8880.00   0.37725449   0.00657638
8882.00   0.37785891   0.00708381
8884.00   0.38176060   0.00791101
8886.00   0.37657809   0.00801440
8888.00   0.36044049   0.00745466
8890.00   0.34717828   0.00685176
8892.00   0.33989701   0.00634014
8894.00   0.33666876   0.00587853
8896.00   0.34082285   0.00586345
8898.00   0.35926571   0.00644937
8900.00   0.35941350   0.00647528
8902.00   0.34595665   0.00617015
8904.00   0.33386043   0.00589511
8906.00   0.32065213   0.00560916
8908.00   0.31102023   0.00540036
8910.00   0.31742352   0.00550683
8912.00   0.34072825   0.00582514
8914.00   0.34396979   0.00631603
8916.00   0.33557385   0.00728140
8918.00   0.32582766   0.00766006
8920.00   0.31023917   0.00753330
8922.00   0.29624128   0.00717117
8924.00   0.29114187   0.00666444
8926.00   0.29162270   0.00586614
8928.00   0.29472879   0.00546070
8930.00   0.30346474   0.00536859
8932.00   0.31135705   0.00530442
8934.00   0.32335681   0.00534891
8936.00   0.33040661   0.00546546
8938.00   0.32787478   0.00568019
8940.00   0.31869587   0.00594583
8942.00   0.30557594   0.00598019
8944.00   0.27487534   0.00576895
8946.00   0.26943114   0.00572161
8948.00   0.28548661   0.00560795
8950.00   0.29901382   0.00573860
8952.00   0.30643839   0.00625635
8954.00   0.31035361   0.00688178
8956.00   0.30643332   0.00726384
8958.00   0.29316023   0.00766559
8960.00   0.28497964   0.00764772
8962.00   0.27508989   0.00720164
8964.00   0.27039737   0.00673521
8966.00   0.27384311   0.00614556
8968.00   0.27872705   0.00556550
8970.00   0.27693635   0.00533701
8972.00   0.27079341   0.00540136
8974.00   0.26963863   0.00547097
8976.00   0.26999950   0.00574960
8978.00   0.27323830   0.00587611
8980.00   0.28256387   0.00578637
8982.00   0.28987473   0.00578168
8984.00   0.28906748   0.00613638
8986.00   0.28317350   0.00667988
8988.00   0.27700150   0.00677634
8990.00   0.26227626   0.00647313
8992.00   0.26070467   0.00639667
8994.00   0.26958945   0.00633854
8996.00   0.28222087   0.00645654
8998.00   0.29977858   0.00692871
9000.00   0.31949788   0.00750769
9002.00   0.32417107   0.00758066
9004.00   0.31631425   0.00723263
9006.00   0.31000611   0.00705797
9008.00   0.29646271   0.00685947
9010.00   0.28860566   0.00668996
9012.00   0.28934950   0.00657892
9014.00   0.29428053   0.00648348
9016.00   0.29944038   0.00632024
9018.00   0.30932996   0.00606475
9020.00   0.30878219   0.00600067
9022.00   0.29719797   0.00618756
9024.00   0.29071161   0.00619312
9026.00   0.29111019   0.00593033
9028.00   0.29146990   0.00565633
9030.00   0.28475073   0.00566282
9032.00   0.27260754   0.00585981
9034.00   0.27204424   0.00584495
9036.00   0.28115568   0.00566793
9038.00   0.28808969   0.00559179
9040.00   0.29701987   0.00557664
9042.00   0.30312729   0.00560611
9044.00   0.30212355   0.00569679
9046.00   0.29663351   0.00583276
9048.00   0.29574722   0.00588398
9050.00   0.29832256   0.00593272
9052.00   0.29747233   0.00586341
9054.00   0.29386231   0.00561105
9056.00   0.29070351   0.00541755
9058.00   0.28950921   0.00537874
9060.00   0.28861061   0.00541559
9062.00   0.28471428   0.00543588
9064.00   0.27712521   0.00548530
9066.00   0.27376011   0.00551951
9068.00   0.27426514   0.00556993
9070.00   0.27269858   0.00558483
9072.00   0.26646587   0.00553731
9074.00   0.26072973   0.00548055
9076.00   0.26245672   0.00548753
9078.00   0.26968515   0.00553069
9080.00   0.27634162   0.00559091
9082.00   0.28983104   0.00546277
9084.00   0.29339013   0.00579128
9086.00   0.28208932   0.00681396
9088.00   0.27195734   0.00755926
9090.00   0.27842057   0.00741039
9092.00   0.29560307   0.00663697
9094.00   0.29304427   0.00646481
9096.00   0.27018452   0.00668008
9098.00   0.26216507   0.00671272
9100.00   0.26330599   0.00670173
9102.00   0.26855376   0.00661274
9104.00   0.27762792   0.00637129
9106.00   0.29007635   0.00602745
9108.00   0.29779136   0.00587182
9110.00   0.30615467   0.00588560
9112.00   0.30684927   0.00581551
9114.00   0.29971045   0.00572583
9116.00   0.29198468   0.00564432
9118.00   0.28378311   0.00555956
9120.00   0.27582633   0.00549496
9122.00   0.27247742   0.00551566
9124.00   0.27108762   0.00558813
9126.00   0.27596757   0.00574579
9128.00   0.29509631   0.00606026
9130.00   0.30093911   0.00626137
9132.00   0.28802544   0.00631830
9134.00   0.27073011   0.00634947
9136.00   0.26312464   0.00644078
9138.00   0.25947398   0.00652365
9140.00   0.25629061   0.00683266
9142.00   0.25260288   0.00754171
9144.00   0.25500673   0.00777845
9146.00   0.26316896   0.00752526
9148.00   0.27537519   0.00723135
9150.00   0.29228401   0.00718822
9152.00   0.31365556   0.00725353
9154.00   0.32753795   0.00741888
9156.00   0.33838052   0.00786619
9158.00   0.34514949   0.00797413
9160.00   0.34667170   0.00783640
9162.00   0.34670511   0.00763406
9164.00   0.34683484   0.00740260
9166.00   0.34576777   0.00712356
9168.00   0.34169722   0.00690022
9170.00   0.33367643   0.00665447
9172.00   0.32772252   0.00654632
9174.00   0.32147828   0.00664691
9176.00   0.31651112   0.00663769
9178.00   0.31313092   0.00643341
9180.00   0.31085274   0.00616105
9182.00   0.30916312   0.00598520
9184.00   0.30806768   0.00582176
9186.00   0.30865797   0.00579051
9188.00   0.31352222   0.00595366
9190.00   0.31380963   0.00601642
9192.00   0.30701101   0.00594517
9194.00   0.30043796   0.00587823
9196.00   0.30098411   0.00594563
9198.00   0.30593997   0.00610039
9200.00   0.30987671   0.00616536
9202.00   0.31705770   0.00618067
9204.00   0.31965345   0.00621124
9206.00   0.31768453   0.00620209
9208.00   0.31483045   0.00625861
9210.00   0.31147361   0.00649907
9212.00   0.30774009   0.00682662
9214.00   0.31273931   0.00683711
9216.00   0.32930863   0.00647474
9218.00   0.33716536   0.00641587
9220.00   0.34284216   0.00657345
9222.00   0.34369943   0.00669124
9224.00   0.33473292   0.00669838
9226.00   0.32300344   0.00666522
9228.00   0.32779574   0.00665809
9230.00   0.34862298   0.00666311
9232.00   0.35696322   0.00663267
9234.00   0.36213699   0.00653322
9236.00   0.36234272   0.00650285
9238.00   0.35471237   0.00655981
9240.00   0.34495354   0.00666399
9242.00   0.34115678   0.00681076
9244.00   0.34028369   0.00706366
9246.00   0.33984870   0.00699538
9248.00   0.34213793   0.00654413
9250.00   0.34256840   0.00629209
9252.00   0.34236470   0.00625562
9254.00   0.34008053   0.00626658
9256.00   0.33377209   0.00622599
9258.00   0.32417256   0.00618292
9260.00   0.31608734   0.00611278
9262.00   0.30664870   0.00598827
9264.00   0.29986298   0.00592158
9266.00   0.29465440   0.00587603
9268.00   0.29149136   0.00588556
9270.00   0.29071209   0.00596593
9272.00   0.29206467   0.00610432
9274.00   0.29504856   0.00629256
9276.00   0.30322522   0.00661587
9278.00   0.30495867   0.00676759
9280.00   0.30085528   0.00675312
9282.00   0.29879570   0.00683289
9284.00   0.29962233   0.00700709
9286.00   0.30280873   0.00729081
9288.00   0.31033850   0.00784158
9290.00   0.32284749   0.00876524
9292.00   0.33364779   0.00902351
9294.00   0.34912246   0.00866407
9296.00   0.35649183   0.00864374
9298.00   0.35389498   0.00885734
9300.00   0.34682757   0.00939078
9302.00   0.33833522   0.01036405
9304.00   0.32434472   0.01154964
9306.00   0.32817081   0.01327936
9308.00   0.35849085   0.01606387
9310.00   0.36415410   0.01731067
9312.00   0.34073350   0.01741398
9314.00   0.31912777   0.01717797
9316.00   0.32189405   0.01696125
9318.00   0.33731553   0.01656861
9320.00   0.32999623   0.01631767
9322.00   0.30116385   0.01636052
9324.00   0.28731316   0.01583834
9326.00   0.28051817   0.01446741
9328.00   0.27746752   0.01337117
9330.00   0.27799761   0.01308628
9332.00   0.28179747   0.01333606
9334.00   0.28579092   0.01398158
9336.00   0.29458210   0.01559585
9338.00   0.29510298   0.01591656
9340.00   0.28995481   0.01557234
9342.00   0.28292224   0.01487277
9344.00   0.27008718   0.01345279
9346.00   0.25884268   0.01174270
9348.00   0.26396826   0.01112472
9350.00   0.28289494   0.01140364
9352.00   0.29640287   0.01148937
9354.00   0.31933203   0.01205213
9356.00   0.32512975   0.01209100
9358.00   0.30367625   0.01126410
9360.00   0.28319967   0.01049154
9362.00   0.29054058   0.01054632
9364.00   0.31512654   0.01094233
9366.00   0.33299235   0.01338663
9368.00   0.36982888   0.01708711
9370.00   0.36910620   0.02010135
9372.00   0.32419908   0.02360920
9374.00   0.27943894   0.02596299
9376.00   0.25443262   0.02685111
9378.00   0.23859410   0.02673254
9380.00   0.24297872   0.02461418
9382.00   0.28152341   0.01751750
9384.00   0.29429701   0.01306849
9386.00   0.29405674   0.01122266
9388.00   0.29146183   0.01000211
9390.00   0.28678161   0.00892978
9392.00   0.28128475   0.00860724
9394.00   0.28391963   0.00847805
9396.00   0.29287389   0.00894366
9398.00   0.30127922   0.00935824
9400.00   0.31526020   0.01013961
9402.00   0.32309285   0.01056166
9404.00   0.32194972   0.01054285
9406.00   0.31802237   0.01037049
9408.00   0.31659946   0.01023219
9410.00   0.31228736   0.00982492
9412.00   0.32645881   0.01062432
9414.00   0.36409831   0.01268133
9416.00   0.38856566   0.01374171
9418.00   0.40302771   0.01379910
9420.00   0.41170239   0.01403320
9422.00   0.41741019   0.01554958
9424.00   0.41926712   0.01767826
9426.00   0.40383765   0.01741549
9428.00   0.35897335   0.01431730
9430.00   0.33906752   0.01282911
9432.00   0.33944499   0.01186963
9434.00   0.34023315   0.01240269
9436.00   0.33383435   0.01542735
9438.00   0.32517132   0.01894852
9440.00   0.31601915   0.01945518
9442.00   0.30063811   0.01781394
9444.00   0.29681444   0.01669448
9446.00   0.30896717   0.01469405
9448.00   0.31004226   0.01318666
9450.00   0.29007113   0.01266488
9452.00   0.26341024   0.01291090
9454.00   0.24993503   0.01389823
9456.00   0.23515278   0.01607514
9458.00   0.25094071   0.01648882
9460.00   0.31649950   0.01584937
9462.00   0.34512699   0.01509329
9464.00   0.32423478   0.01379849
9466.00   0.29261234   0.01258972
9468.00   0.28274989   0.01265564
9470.00   0.27829364   0.01364718
9472.00   0.29637876   0.01437719
9474.00   0.36564294   0.01532552
9476.00   0.37826961   0.01611867
9478.00   0.32806060   0.01724181
9480.00   0.27441809   0.01771171
9482.00   0.24999167   0.01672257
9484.00   0.23757678   0.01452660
9486.00   0.23960212   0.01303009
9488.00   0.27033344   0.01113715
9490.00   0.27978468   0.01038486
9492.00   0.27087936   0.01092109
9494.00   0.26984417   0.01184485
9496.00   0.29186934   0.01319482
9498.00   0.32116196   0.01459080
9500.00   0.32114837   0.01469952
9502.00   0.29454175   0.01377939
9504.00   0.28362647   0.01299563
9506.00   0.27269417   0.01161655
9508.00   0.27019694   0.01049623
9510.00   0.28342372   0.00977945
9512.00   0.29892048   0.00948059
9514.00   0.29411134   0.00983981
9516.00   0.27168566   0.01090531
9518.00   0.26926437   0.01152971
9520.00   0.28079128   0.01233794
9522.00   0.28844300   0.01259146
9524.00   0.29618645   0.01219209
9526.00   0.29935759   0.01157886
9528.00   0.28807700   0.01108787
9530.00   0.26385197   0.01052123
9532.00   0.26994672   0.01038477
9534.00   0.30930480   0.01068298
9536.00   0.32607254   0.01091289
9538.00   0.32800362   0.01119795
9540.00   0.32402265   0.01147549
9542.00   0.31379539   0.01163852
9544.00   0.29870436   0.01177654
9546.00   0.30138826   0.01231872
9548.00   0.31755650   0.01336186
9550.00   0.33445671   0.01391086
9552.00   0.36783475   0.01440564
9554.00   0.38452670   0.01451326
9556.00   0.36968282   0.01390980
9558.00   0.34145367   0.01300811
9560.00   0.33176616   0.01296948
9562.00   0.33265084   0.01363895
9564.00   0.32531044   0.01382950
9566.00   0.31365833   0.01404365
9568.00   0.30311212   0.01389806
9570.00   0.29500696   0.01316610
9572.00   0.28631586   0.01224553
9574.00   0.27131933   0.01175055
9576.00   0.24720651   0.01149423
9578.00   0.25119668   0.01122101
9580.00   0.28985175   0.01079087
9582.00   0.30561194   0.01091875
9584.00   0.29796666   0.01187629
9586.00   0.28718591   0.01268400
9588.00   0.28609031   0.01274279
9590.00   0.28848016   0.01237978
9592.00   0.28859052   0.01211532
9594.00   0.28978428   0.01157020
9596.00   0.28752595   0.01137237
9598.00   0.29114008   0.01151010
9600.00   0.27920508   0.01166942
9602.00   0.23007631   0.01175302
9604.00   0.16479850   0.01181741
9606.00   0.15626162   0.01179746
9608.00   0.19763789   0.01177587
9610.00   0.21848777   0.01154211
9612.00   0.23986691   0.01075726
9614.00   0.26147738   0.01049630
9616.00   0.29007661   0.01124984
9618.00   0.31384471   0.01223274
9620.00   0.30638999   0.01250139
9622.00   0.26716205   0.01250966
9624.00   0.25100911   0.01210260
9626.00   0.23865581   0.01074973
9628.00   0.23653667   0.00995775
9630.00   0.24855228   0.01002191
9632.00   0.26536673   0.01035058
9634.00   0.27932358   0.01048544
9636.00   0.29615489   0.01064878
9638.00   0.29391319   0.01068042
9640.00   0.26997548   0.01046674
9642.00   0.25542745   0.01053662
9644.00   0.24113852   0.01104901
9646.00   0.23601517   0.01136581
9648.00   0.25134420   0.01103514
9650.00   0.28059649   0.01028475
9652.00   0.28756815   0.01008139
9654.00   0.28172821   0.01022913
9656.00   0.27368730   0.01032874
9658.00   0.25150925   0.01046079
9660.00   0.23967311   0.01068150
9662.00   0.24777217   0.01095750
9664.00   0.26708022   0.01133234
9666.00   0.28658903   0.01202154
9668.00   0.32208052   0.01348468
9670.00   0.32803193   0.01340650
9672.00   0.30554590   0.01161497
9674.00   0.29096493   0.01046260
9676.00   0.29087871   0.01074188
9678.00   0.29317215   0.01142842
9680.00   0.28540874   0.01152788
9682.00   0.27027518   0.01144735
9684.00   0.26225677   0.01128829
9686.00   0.25925034   0.01053214
9688.00   0.25363177   0.01063669
9690.00   0.24271449   0.01200327
9692.00   0.23445462   0.01316404
9694.00   0.23576026   0.01310980
9696.00   0.24363895   0.01227678
9698.00   0.25392842   0.01232224
9700.00   0.27768788   0.01326792
9702.00   0.28387120   0.01324232
9704.00   0.26817048   0.01191603
9706.00   0.25769204   0.01098733
9708.00   0.26942047   0.01186851
9710.00   0.29168418   0.01348919
9712.00   0.29511225   0.01371802
9714.00   0.28606206   0.01290080
9716.00   0.27860096   0.01268646
9718.00   0.26353380   0.01275904
9720.00   0.25502020   0.01271582
9722.00   0.26158020   0.01243577
9724.00   0.27165204   0.01204056
9726.00   0.26091218   0.01165586
9728.00   0.22513600   0.01103950
9730.00   0.22445907   0.01102066
9732.00   0.25942814   0.01152013
9734.00   0.27414870   0.01202358
9736.00   0.25542954   0.01270453
9738.00   0.23444079   0.01323471
9740.00   0.24714443   0.01313297
9742.00   0.28522640   0.01252153
9744.00   0.29556185   0.01205265
9746.00   0.29075348   0.01130093
9748.00   0.28510731   0.01088727
9750.00   0.26139855   0.01034493
9752.00   0.25517762   0.01064728
9754.00   0.30827177   0.01290700
9756.00   0.40270400   0.01596245
9758.00   0.40814358   0.01621715
9760.00   0.33551791   0.01421863
9762.00   0.29541117   0.01286400
9764.00   0.25645328   0.01118923
9766.00   0.23201986   0.00979762
9768.00   0.23297073   0.00928817
9770.00   0.24942124   0.00945039
9772.00   0.25515556   0.00966848
9774.00   0.25970477   0.01016169
9776.00   0.26348031   0.01085950
9778.00   0.26235166   0.01198527
9780.00   0.26759419   0.01279406
9782.00   0.28684872   0.01320734
9784.00   0.30746150   0.01345311
9786.00   0.30782625   0.01373029
9788.00   0.29557124   0.01400421
9790.00   0.27600488   0.01406768
9792.00   0.22814785   0.01392063
9794.00   0.20990363   0.01376710
9796.00   0.23416509   0.01361203
9798.00   0.26323533   0.01340745
9800.00   0.25967780   0.01310140
9802.00   0.23638195   0.01268618
9804.00   0.23429421   0.01239797
9806.00   0.25233772   0.01193906
9808.00   0.25110543   0.01202357
9810.00   0.22447844   0.01291616
9812.00   0.20490731   0.01358284
9814.00   0.21267912   0.01347331
9816.00   0.23639119   0.01292131
9818.00   0.25617290   0.01252965
9820.00   0.29349464   0.01187927
9822.00   0.30016208   0.01163406
9824.00   0.27605730   0.01186263
9826.00   0.25572613   0.01196246
9828.00   0.24736322   0.01167726
9830.00   0.24552624   0.01125652
9832.00   0.25622350   0.01115754
9834.00   0.29427800   0.01105589
9836.00   0.29159898   0.01158039
9838.00   0.25097206   0.01296387
9840.00   0.22385310   0.01374098
9842.00   0.21350501   0.01368326
9844.00   0.21349324   0.01345263
9846.00   0.22621320   0.01385658
9848.00   0.25604847   0.01469583
9850.00   0.27028450   0.01495725
9852.00   0.27915388   0.01515098
9854.00   0.28326023   0.01477064
9856.00   0.28272605   0.01333113
9858.00   0.27711257   0.01179652
9860.00   0.26260087   0.01124566
9862.00   0.23905541   0.01128711
9864.00   0.23979214   0.01247435
9866.00   0.27254564   0.01491237
9868.00   0.27618480   0.01662864
9870.00   0.25038403   0.01869263
9872.00   0.22891171   0.01972495
9874.00   0.22788453   0.01895073
9876.00   0.23700175   0.01691214
9878.00   0.24520098   0.01554558
9880.00   0.26472405   0.01377136
9882.00   0.26764128   0.01286725
9884.00   0.25228900   0.01281364
9886.00   0.24562630   0.01309181
9888.00   0.25815696   0.01372129
9890.00   0.27642435   0.01453026
9892.00   0.27856427   0.01501758
9894.00   0.26671091   0.01549247
9896.00   0.26963019   0.01554042
9898.00   0.28957725   0.01519229
9900.00   0.29377398   0.01474505
9902.00   0.27461597   0.01385890
9904.00   0.25076735   0.01315028
9906.00   0.24201722   0.01363691
9908.00   0.24138683   0.01493782
9910.00   0.23637836   0.01610610
9912.00   0.23036572   0.01808584
9914.00   0.22548944   0.01872958
9916.00   0.21399768   0.01798625
9918.00   0.21347243   0.01700534
9920.00   0.24447627   0.01654995
9922.00   0.29764566   0.01625664
9924.00   0.30589622   0.01637866
9926.00   0.28755406   0.01746588
9928.00   0.25832462   0.01739816
9930.00   0.18964592   0.01608543
9932.00   0.14631163   0.01500392
9934.00   0.16033958   0.01470844
9936.00   0.20494454   0.01498440
9938.00   0.23261021   0.01630949
9940.00   0.27221948   0.01904247
9942.00   0.28239113   0.02030792
9944.00   0.26637685   0.02112988
9946.00   0.24994387   0.02152026
9948.00   0.23376264   0.02127750
9950.00   0.21832000   0.02079663
9952.00   0.21197900   0.02086395
9954.00   0.21185382   0.02125583
9956.00   0.21538371   0.02148189
9958.00   0.23100333   0.02200255
9960.00   0.23576316   0.02189780
9962.00   0.22591864   0.02094810
9964.00   0.21389471   0.01971793
9966.00   0.21085842   0.01870690
9968.00   0.21241899   0.01760371
9970.00   0.21099044   0.01736576
9972.00   0.20100544   0.01824465
9974.00   0.20812446   0.01854965
9976.00   0.24225914   0.01868133
9978.00   0.26722527   0.01846960
9980.00   0.25740385   0.01750557
9982.00   0.22809725   0.01595032
9984.00   0.22255483   0.01568188
9986.00   0.22836527   0.01693917
9988.00   0.23605786   0.01691011
9990.00   0.25663820   0.01576987
9992.00   0.26733086   0.01503687
9994.00   0.25855419   0.01545805
9996.00   0.24028322   0.01630028
9998.00   0.22856699   0.01641538
10000.00   0.21481593   0.01545781
10002.00   0.20911521   0.01664002
10004.00   0.21453741   0.01870883
10006.00   0.21333118   0.02154583
10008.00   0.20800672   0.02603859
10010.00   0.19399242   0.02962262
10012.00   0.15617175   0.02956833
10014.00   0.08798843   0.02643502
10016.00   0.07057477   0.02562596
10018.00   0.09136419   0.02645000
10020.00   0.10931014   0.02599910
10022.00   0.13689080   0.02388053
10024.00   0.15719444   0.02146425
10026.00   0.14803839   0.02014584
10028.00   0.11735535   0.01947305
10030.00   0.11812918   0.01864137
10032.00   0.14263716   0.01779328
10034.00   0.15789878   0.01743486
10036.00   0.17124067   0.01754852
10038.00   0.18227629   0.01797496
10040.00   0.18914573   0.01892301
10042.00   0.19350529   0.02007294
10044.00   0.20241673   0.01987391
10046.00   0.22860070   0.01796777
10048.00   0.22027352   0.01737596
10050.00   0.16561429   0.01717475
10052.00   0.13957480   0.01763188
10054.00   0.17545581   0.01914157
10056.00   0.22743274   0.02085320
10058.00   0.21562700   0.02134114
10060.00   0.14631498   0.02082617
10062.00   0.13470453   0.02130251
10064.00   0.16246562   0.02283280
10066.00   0.17842904   0.02329474
10068.00   0.18838003   0.02189401
10070.00   0.18582635   0.02052307
10072.00   0.14982250   0.02192229
10074.00   0.07902867   0.02518406
10076.00   0.05842003   0.02593367
10078.00   0.06695839   0.02510997
10080.00   0.08382363   0.02474614
10082.00   0.12944265   0.02483003
10084.00   0.16300276   0.02464373
10086.00   0.14652546   0.02345231
10088.00   0.09883474   0.02148044
10090.00   0.09828478   0.02143423
10092.00   0.13231371   0.02315529
10094.00   0.15311877   0.02415541
10096.00   0.17502344   0.02507121
10098.00   0.19134822   0.02588462
10100.00   0.20644942   0.02691213
10102.00   0.21312168   0.02773632
10104.00   0.17448711   0.02671262
10106.00   0.04934609   0.02269189
10108.00   0.04153435   0.02135509
10110.00   0.14151086   0.02152129
10112.00   0.20301363   0.02247442
10114.00   0.20207465   0.02447126
10116.00   0.17467245   0.02667883
10118.00   0.14453034   0.02784261
10120.00   0.09177627   0.02851152
10122.00   0.07126711   0.02910673
10124.00   0.06019583   0.02995826
10126.00   0.07525371   0.02973216
10128.00   0.13696712   0.02771851
10130.00   0.19693144   0.02551089
10132.00   0.20307387   0.02520462
10134.00   0.17378964   0.02617824
10136.00   0.17370245   0.02586751
10138.00   0.19846956   0.02457901
10140.00   0.19349241   0.02396863
10142.00   0.15392402   0.02380287
10144.00   0.11769804   0.02396242
10146.00   0.10444038   0.02450534
10148.00   0.10303810   0.02535139
10150.00   0.10814050   0.02591089
10152.00   0.13448888   0.02659421
10154.00   0.13912122   0.02675597
10156.00   0.12583914   0.02627091
10158.00   0.11615922   0.02597705
10160.00   0.11052985   0.02580954
10162.00   0.11193952   0.02602671
10164.00   0.14354151   0.02787577
10166.00   0.22544673   0.03158433
10168.00   0.23794347   0.03311612
10170.00   0.19655716   0.03392059
10172.00   0.16217290   0.03394890
10174.00   0.13566701   0.03279715
10176.00   0.11337591   0.03119120
10178.00   0.10336024   0.03021853
10180.00   0.10806392   0.02916765
10182.00   0.08935417   0.02989949
10184.00   0.04499254   0.03252473
10186.00   0.01951612   0.03448537
10188.00   0.01209564   0.03684257
10190.00   0.01135712   0.03806018
10192.00   0.00841546   0.03640822
10194.00   0.00661907   0.03224386
10196.00   0.02757371   0.03055120
10198.00   0.07494897   0.02952241
10200.00   0.11307117   0.03025408
10202.00   0.15993224   0.03347611
10204.00   0.18976563   0.03618234
10206.00   0.18835802   0.03753761
10208.00   0.16586265   0.03825704
10210.00   0.13945767   0.03825097
10212.00   0.09967114   0.03714065
10214.00   0.05762970   0.03635383
10216.00   -0.02820946   0.03504691
10218.00   -0.05158075   0.03435582
10220.00   0.04561944   0.03486554
10222.00   0.17754006   0.03576969
10224.00   0.18713804   0.03571907
10226.00   0.09875149   0.03482816
10228.00   0.08929320   0.03507625
10230.00   0.10965905   0.03671401
10232.00   0.14268735   0.03712126
10234.00   0.20940998   0.03565810
10236.00   0.26785934   0.03397592
10238.00   0.25788322   0.03409567
10240.00   0.19261511   0.03540045
10242.00   0.18594924   0.03578011
10244.00   0.22840224   0.03572498
10246.00   0.23291101   0.03589928
10248.00   0.20281838   0.03662215
10250.00   0.16446592   0.03685667
10252.00   0.12244687   0.03565018
10254.00   0.07425275   0.03338596
10256.00   0.08910035   0.03263196
10258.00   0.20239419   0.03328763
10260.00   0.21815091   0.03298749
10262.00   0.13600180   0.03149467
10264.00   0.08693293   0.03094948
10266.00   0.13272493   0.03260081
10268.00   0.21685919   0.03509934
10270.00   0.23365627   0.03602890
10272.00   0.20000309   0.03571624
10274.00   0.20093121   0.03668031
10276.00   0.22382173   0.03722765
10278.00   0.23181629   0.03985426
10280.00   0.21750082   0.04560589
10282.00   0.19311903   0.05131564
10284.00   0.16701293   0.05386280
10286.00   0.12166380   0.05507630
10288.00   0.13489911   0.05465057
10290.00   0.23076659   0.05146053
10292.00   0.26203373   0.04899949
10294.00   0.20886528   0.04727067
10296.00   0.14720719   0.04570113
10298.00   0.14683503   0.04396006
10300.00   0.18350118   0.04214717
10302.00   0.15493730   0.04088186
10304.00   0.06350338   0.03909098
10306.00   0.01063555   0.03971488
10308.00   -0.03358354   0.04403782
10310.00   -0.04439861   0.04691504
10312.00   -0.00110847   0.04581924
10314.00   0.08292957   0.04241648
10316.00   0.16981082   0.04085281
10318.00   0.32892150   0.04017321
10320.00   0.37277108   0.03889446
10322.00   0.31865782   0.03704012
10324.00   0.26115865   0.03557724
10326.00   0.20789687   0.03469047
10328.00   0.16257159   0.03439211
10330.00   0.18765308   0.03526472
10332.00   0.29371268   0.03796683
10334.00   0.33505395   0.03843702
10336.00   0.36713219   0.03701266
10338.00   0.35819495   0.03648802
10340.00   0.28165486   0.03673453
10342.00   0.19187236   0.03792992
10344.00   0.16228507   0.04110866
10346.00   0.16774565   0.04629515
10348.00   0.16714264   0.04760037
10350.00   0.17395386   0.04675182
10352.00   0.18740869   0.04513033
10354.00   0.22402212   0.04123433
10356.00   0.24575457   0.03753870
10358.00   0.21016793   0.03708387
10360.00   0.13372226   0.03876757
10362.00   0.13168040   0.03958673
10364.00   0.20259538   0.03961537
10366.00   0.22350204   0.04187974
10368.00   0.20475143   0.04741545
10370.00   0.19165897   0.05080325
10372.00   0.21431011   0.04990759
10374.00   0.24710782   0.04668453
10376.00   0.21502781   0.04550309
10378.00   0.10336686   0.04587390
10380.00   0.05880219   0.04416430
10382.00   0.04320401   0.03983225
10384.00   0.04160896   0.03671512
10386.00   0.06238775   0.03630135
10388.00   0.08963028   0.03725708
10390.00   0.08255830   0.03813265
10392.00   0.04789976   0.04003421
10394.00   0.03116002   0.04019495
10396.00   0.00014795   0.03817580
10398.00   0.00852755   0.03788909
10400.00   0.07443709   0.04049122
10402.00   0.15207294   0.04286823
10404.00   0.19464490   0.04199468
10406.00   0.22143734   0.03847975
10408.00   0.24602370   0.03848750
10410.00   0.28063822   0.04039409
10412.00   0.27278346   0.04294686
10414.00   0.20954984   0.04791551
10416.00   0.14366589   0.05095122
10418.00   0.10409817   0.04924544
10420.00   0.07566507   0.04421245
10422.00   0.07204411   0.04176901
10424.00   0.08878807   0.04013845
10426.00   0.12484306   0.03894518
10428.00   0.20324638   0.03829770
10430.00   0.26354918   0.03837549
10432.00   0.27330345   0.03954205
10434.00   0.26487324   0.04125538
10436.00   0.30908316   0.04203605
10438.00   0.43641204   0.04275423
10440.00   0.42799175   0.04234025
10442.00   0.29138556   0.04041596
10444.00   0.19355848   0.03884806
10446.00   0.15131567   0.03779361
10448.00   0.13753122   0.03713800
10450.00   0.15228090   0.03715280
10452.00   0.21786359   0.03778261
10454.00   0.20736055   0.03874225
10456.00   0.09378093   0.04086373
10458.00   0.08124492   0.04175006
10460.00   0.21316572   0.04099905
10462.00   0.34505761   0.04020692
10464.00   0.34602615   0.04082229
10466.00   0.26695347   0.04222088
10468.00   0.25028828   0.04330279
10470.00   0.25232175   0.04544280
10472.00   0.26032203   0.04539962
10474.00   0.29084098   0.04237896
10476.00   0.30885908   0.03982266
10478.00   0.28878415   0.04039246
10480.00   0.24794061   0.04244135
10482.00   0.23766190   0.04209007
10484.00   0.25181955   0.03951785
10486.00   0.24942316   0.03866623
10488.00   0.24475935   0.03902082
10490.00   0.23039331   0.03910821
10492.00   0.19314456   0.03833255
10494.00   0.15247962   0.03737792
10496.00   0.15767869   0.03738977
10498.00   0.20555598   0.03756346
10500.00   0.22799535   0.03945737
10502.00   0.25658730   0.04441219
10504.00   0.26004758   0.04636228
10506.00   0.21779531   0.04430874
10508.00   0.17312996   0.04117845
10510.00   0.18393141   0.04071570
10512.00   0.23453464   0.04170793
10514.00   0.26074114   0.04216524
10516.00   0.29418525   0.04255201
10518.00   0.30106643   0.04340175
10520.00   0.26419035   0.04486968
10522.00   0.23484734   0.04632822
10524.00   0.26163605   0.04767052
10526.00   0.32365847   0.04903096
10528.00   0.31686121   0.04809080
10530.00   0.24505951   0.04382195
10532.00   0.21181042   0.04166859
10534.00   0.18074462   0.04053241
10536.00   0.18381058   0.04047968
10538.00   0.25579897   0.04205186
10540.00   0.36304402   0.04451988
10542.00   0.38900140   0.04540574
10544.00   0.35948342   0.04532451
10546.00   0.33416674   0.04556389
10548.00   0.26137376   0.04552457
10550.00   0.23615123   0.04581903
10552.00   0.31141219   0.04697314
10554.00   0.40367100   0.04808585
10556.00   0.36265635   0.04747683
10558.00   0.19547817   0.04500581
10560.00   0.16294616   0.04447835
10562.00   0.22235985   0.04532186
10564.00   0.25817558   0.04581904
10566.00   0.27465528   0.04601553
10568.00   0.28047678   0.04609822
10570.00   0.26893896   0.04602372
10572.00   0.23829497   0.04572875
10574.00   0.23362108   0.04599339
10576.00   0.24048311   0.04662177
10578.00   0.25761691   0.04739588
10580.00   0.29010224   0.04881322
10582.00   0.32613206   0.04971751
10584.00   0.36802179   0.04927232
10586.00   0.41365215   0.04793922
10588.00   0.39548680   0.04713608
10590.00   0.29383105   0.04605537
10592.00   0.25232038   0.04574239
10594.00   0.23846248   0.04626251
10596.00   0.23929460   0.04674995
10598.00   0.26873744   0.04711465
10600.00   0.30518791   0.04732795
10602.00   0.26557976   0.04666306
10604.00   0.12418684   0.04461497
10606.00   0.10361876   0.04408168
10608.00   0.16684015   0.04444684
10610.00   0.22702767   0.04506220
10612.00   0.29060569   0.04620851
10614.00   0.34433666   0.04730656
10616.00   0.34355476   0.04727710
10618.00   0.29407650   0.04633062
10620.00   0.27017340   0.04591340
10622.00   0.23885553   0.04522133
10624.00   0.22873633   0.04531360
10626.00   0.25739908   0.04646549
10628.00   0.27818543   0.04774813
10630.00   0.23917499   0.04866513
10632.00   0.15664104   0.04958626
10634.00   0.15526499   0.04867125
10636.00   0.22619763   0.04479482
10638.00   0.26332331   0.04317826
10640.00   0.29057065   0.04377086
10642.00   0.30302978   0.04439103
10644.00   0.27419671   0.04353666
10646.00   0.22764476   0.04227125
10648.00   0.30016154   0.04430841
10650.00   0.52082378   0.04979457
10652.00   0.62635022   0.05259075
10654.00   0.67731684   0.05489602
10656.00   0.71429276   0.05608188
10658.00   0.71086818   0.05479858
10660.00   0.71508831   0.05316965
10662.00   0.88905758   0.05707263
10664.00   1.35047746   0.06782757
10666.00   1.30637550   0.06647986
10668.00   0.76041615   0.05221306
10670.00   0.41729054   0.04104219
10672.00   0.34086844   0.03876841
10674.00   0.34771368   0.03991320
10676.00   0.30176395   0.03884058
10678.00   0.25790629   0.03794705
10680.00   0.24382666   0.03743229
10682.00   0.26082265   0.03750720
10684.00   0.27701259   0.03738194
10686.00   0.30084729   0.03712051
10688.00   0.32348290   0.03684271
10690.00   0.33934474   0.03659760
10692.00   0.35167706   0.03636060
10694.00   0.34201923   0.03614380
10696.00   0.29694277   0.03605951
10698.00   0.28105968   0.03572836
10700.00   0.28755128   0.03511588
10702.00   0.29435432   0.03452495
10704.00   0.29628688   0.03412960
10706.00   0.29542205   0.03379028
10708.00   0.27901086   0.03318300
10710.00   0.22609784   0.03213586
10712.00   0.22882801   0.03164795
10714.00   0.28900376   0.03157267
10716.00   0.32429847   0.03153783
10718.00   0.31383049   0.03159264
10720.00   0.28799540   0.03162026
10722.00   0.28222364   0.03125802
10724.00   0.28585899   0.03056278
10726.00   0.28087774   0.02992269
10728.00   0.26254007   0.02896609
10730.00   0.26195243   0.02842010
10732.00   0.28342542   0.02846501
10734.00   0.31240317   0.02864150
10736.00   0.34233496   0.02857890
10738.00   0.38273683   0.02849241
10740.00   0.36744809   0.02789092
10742.00   0.28668073   0.02651443
10744.00   0.24055304   0.02557323
10746.00   0.20100297   0.02480293
10748.00   0.19240291   0.02439904
10750.00   0.24687196   0.02475071
10752.00   0.34484714   0.02560384
10754.00   0.37929949   0.02539480
10756.00   0.38548663   0.02405196
10758.00   0.37113354   0.02357927
10760.00   0.31318209   0.02382242
10762.00   0.26795334   0.02385047
10764.00   0.25149140   0.02329093
10766.00   0.25135654   0.02248292
10768.00   0.26596627   0.02201205
10770.00   0.31162828   0.02177374
10772.00   0.32588902   0.02135529
10774.00   0.33365318   0.02063946
10776.00   0.31772706   0.02030797
10778.00   0.25164464   0.02063232
10780.00   0.18623339   0.02111581
10782.00   0.20505697   0.02114253
10784.00   0.29522136   0.02093087
10786.00   0.32401043   0.02073659
10788.00   0.33175525   0.02054180
10790.00   0.32447442   0.02014257
10792.00   0.28127950   0.01904965
10794.00   0.24789564   0.01836607
10796.00   0.26896906   0.01948909
10798.00   0.32612363   0.02177346
10800.00   0.37046641   0.02207584
10802.00   0.45967153   0.02093715
10804.00   0.46100682   0.02026955
10806.00   0.35776985   0.01958159
10808.00   0.26359931   0.01911236
10810.00   0.22489274   0.01920747
10812.00   0.21540274   0.01959909
10814.00   0.25286281   0.01920488
10816.00   0.39998794   0.01788218
10818.00   0.42319942   0.01729558
10820.00   0.34164318   0.01706181
10822.00   0.28939587   0.01701479
10824.00   0.31368470   0.01704543
10826.00   0.35599720   0.01730791
10828.00   0.32797882   0.01816095
10830.00   0.23521423   0.01993651
10832.00   0.20725617   0.02017051
10834.00   0.22097103   0.01904186
10836.00   0.22683278   0.01838339
10838.00   0.22186451   0.01871344
10840.00   0.21669275   0.01889923
10842.00   0.21700628   0.01755688
10844.00   0.21895954   0.01453557
10846.00   0.23311587   0.01321322
10848.00   0.27081099   0.01309298
10850.00   0.28602484   0.01324772
10852.00   0.28255790   0.01418364
10854.00   0.26805323   0.01496557
10856.00   0.24180795   0.01481178
10858.00   0.20363222   0.01410656
10860.00   0.18579705   0.01465087
