# File created by shivutils (I.Shivvers)
# wl(A)   flm    er(optional)
3428.00   -0.11379543   0.19233713
3430.00   -0.09244741   0.18788376
3432.00   0.33244397   0.18834659
3434.00   -0.64280506   0.19638021
3436.00   0.55953682   0.20443245
3438.00   0.64020641   0.19810149
3440.00   0.30621042   0.19477565
3442.00   0.52649456   0.19640014
3444.00   0.44660595   0.19879422
3446.00   0.54919118   0.20606134
3448.00   -0.08242586   0.20513967
3450.00   -0.08094239   0.21123878
3452.00   0.01570808   0.22085170
3454.00   0.74969761   0.22006642
3456.00   0.40908800   0.21869633
3458.00   0.03278547   0.21593501
3460.00   0.72326572   0.21320870
3462.00   0.08775703   0.21172985
3464.00   0.29825481   0.20805962
3466.00   0.34236464   0.20608021
3468.00   -0.11008246   0.20922794
3470.00   -0.00439957   0.21111204
3472.00   0.58465376   0.21076687
3474.00   0.19061089   0.20544015
3476.00   -0.23863464   0.20916160
3478.00   -0.17584130   0.22219172
3480.00   -0.06461917   0.23114790
3482.00   0.30718718   0.23112756
3484.00   0.49954429   0.22681810
3486.00   0.46989868   0.22384801
3488.00   -0.16230311   0.22063581
3490.00   0.11000488   0.21475540
3492.00   0.13353059   0.21170516
3494.00   0.37321835   0.20967848
3496.00   0.16007287   0.20878965
3498.00   0.12355178   0.20652362
3500.00   0.21530957   0.20670959
3502.00   0.20529765   0.20219996
3504.00   -0.02922157   0.20348831
3506.00   0.25663453   0.20438233
3508.00   -0.23606021   0.20313278
3510.00   -0.12365497   0.20596486
3512.00   0.00793995   0.20309999
3514.00   -0.19334318   0.19886461
3516.00   0.34965117   0.19857885
3518.00   0.28286303   0.19500364
3520.00   0.51940355   0.19608727
3522.00   -0.20742869   0.19850024
3524.00   0.45870001   0.19187264
3526.00   0.23148148   0.19047518
3528.00   0.24554822   0.18968965
3530.00   0.05982152   0.19027675
3532.00   0.32017445   0.18716625
3534.00   0.30661752   0.18906747
3536.00   -0.04563127   0.19049068
3538.00   0.71296436   0.19933913
3540.00   0.14668343   0.20001696
3542.00   0.65561941   0.21183076
3544.00   -0.22593967   0.21617234
3546.00   0.04339208   0.20997877
3548.00   0.42981284   0.20593094
3550.00   -0.04547100   0.20058351
3552.00   0.07932411   0.20189915
3554.00   0.42774605   0.20293034
3556.00   0.41740142   0.20439167
3558.00   0.35221900   0.20165312
3560.00   0.24908783   0.20035899
3562.00   0.08714907   0.18947576
3564.00   0.22653022   0.18597248
3566.00   0.36514171   0.18727051
3568.00   0.22530907   0.18070032
3570.00   0.12883362   0.18291194
3572.00   0.11304114   0.18594237
3574.00   0.05263279   0.18580998
3576.00   0.62702990   0.18503187
3578.00   0.17402176   0.17909713
3580.00   -0.07165193   0.17233189
3582.00   -0.26573547   0.17067684
3584.00   -0.03746187   0.16293840
3586.00   0.43931096   0.16406941
3588.00   0.18151041   0.16261229
3590.00   0.38069464   0.17044307
3592.00   0.19509777   0.16699119
3594.00   0.10455744   0.15853305
3596.00   0.31648326   0.15897845
3598.00   0.42275823   0.15930790
3600.00   -0.27281890   0.15569160
3602.00   0.16360012   0.15336500
3604.00   0.47345950   0.15171361
3606.00   -0.01767160   0.14752870
3608.00   0.02196483   0.14833085
3610.00   0.11821016   0.15084600
3612.00   0.32039851   0.16144968
3614.00   0.15492803   0.16857243
3616.00   0.52590099   0.16524312
3618.00   0.39651913   0.15848641
3620.00   0.39842822   0.15398464
3622.00   0.40833899   0.15147375
3624.00   0.43770864   0.15265464
3626.00   0.34025295   0.15345719
3628.00   0.23118047   0.15513436
3630.00   0.47320068   0.17120959
3632.00   0.18613076   0.16903985
3634.00   0.22671531   0.15924237
3636.00   0.24679774   0.15526637
3638.00   0.41885273   0.15609352
3640.00   0.22488144   0.16204152
3642.00   0.02412197   0.16759976
3644.00   0.10820841   0.17204954
3646.00   0.43857080   0.17785791
3648.00   0.13915841   0.22954855
3650.00   0.49975621   0.27265425
3652.00   0.71625271   0.25677331
3654.00   -0.19155452   0.22668412
3656.00   0.08694253   0.20338612
3658.00   0.22667125   0.16964553
3660.00   0.33318792   0.16834464
3662.00   0.01490791   0.19263843
3664.00   -0.01291233   0.18825020
3666.00   0.52490142   0.16083212
3668.00   0.14849041   0.13714413
3670.00   0.34937309   0.13684873
3672.00   0.45288609   0.13325302
3674.00   0.18136825   0.13007806
3676.00   0.42208172   0.12948757
3678.00   0.04720146   0.12500715
3680.00   0.62776378   0.12894847
3682.00   0.13171778   0.12464520
3684.00   0.13525295   0.12005650
3686.00   0.09876279   0.11808563
3688.00   0.20441281   0.11848218
3690.00   0.17172515   0.12160557
3692.00   0.53915421   0.12493588
3694.00   0.39663477   0.12021329
3696.00   0.20759730   0.12192381
3698.00   0.40320214   0.12471054
3700.00   0.27691826   0.12557177
3702.00   0.38067011   0.12370968
3704.00   0.20802392   0.12242734
3706.00   0.43627504   0.12279020
3708.00   0.24337191   0.11829636
3710.00   0.24742976   0.11788090
3712.00   0.23247432   0.11650558
3714.00   0.17695705   0.11444464
3716.00   0.66287794   0.11590621
3718.00   0.51774592   0.11608499
3720.00   0.24100283   0.11486828
3722.00   0.35678916   0.11565893
3724.00   0.40319774   0.11927967
3726.00   0.31435524   0.12739568
3728.00   0.30580820   0.12986587
3730.00   0.47226183   0.12452445
3732.00   0.26507670   0.11630301
3734.00   0.31540221   0.11448771
3736.00   0.49960901   0.11598238
3738.00   0.41959559   0.11807902
3740.00   0.47112035   0.12274803
3742.00   0.42014945   0.12011806
3744.00   0.54505518   0.11497292
3746.00   0.37845476   0.10964791
3748.00   0.44675227   0.11037311
3750.00   0.25289035   0.10815711
3752.00   0.33370512   0.10962540
3754.00   0.56637914   0.11039388
3756.00   0.45820472   0.11034451
3758.00   0.23856468   0.10794064
3760.00   0.40070000   0.10728520
3762.00   0.35188633   0.10530026
3764.00   0.43928596   0.10392411
3766.00   0.20696852   0.10032807
3768.00   0.48701251   0.10125295
3770.00   0.44777130   0.10485639
3772.00   0.23971495   0.10198470
3774.00   0.51838902   0.10499367
3776.00   0.32434065   0.10328006
3778.00   0.25838737   0.10309612
3780.00   0.38720534   0.10070049
3782.00   0.19870528   0.10162768
3784.00   0.43345250   0.10079627
3786.00   0.19449867   0.10007963
3788.00   0.26374089   0.10022169
3790.00   0.26159210   0.10607049
3792.00   0.46101161   0.10592086
3794.00   0.22163910   0.10022136
3796.00   0.21721091   0.09672141
3798.00   0.09173834   0.09495551
3800.00   0.00719630   0.09667452
3802.00   0.21401184   0.09984431
3804.00   0.21136918   0.09749786
3806.00   0.14439344   0.09644219
3808.00   0.22739796   0.09360337
3810.00   0.09435983   0.09425173
3812.00   -0.06239639   0.09756181
3814.00   0.25460775   0.09845389
3816.00   0.12789952   0.09658561
3818.00   -0.12316394   0.09601016
3820.00   0.13349678   0.09420764
3822.00   0.35073715   0.09597688
3824.00   0.11180913   0.09409522
3826.00   0.07647851   0.09523957
3828.00   0.10359824   0.10119553
3830.00   0.29013451   0.10274929
3832.00   0.17213143   0.09931933
3834.00   0.28106608   0.09804641
3836.00   0.17211958   0.09828883
3838.00   0.01545443   0.09716810
3840.00   0.15069768   0.09704604
3842.00   0.17663807   0.09742005
3844.00   0.05906869   0.09255901
3846.00   0.18618104   0.09203515
3848.00   0.01394855   0.09188544
3850.00   0.10068468   0.09000268
3852.00   0.12477396   0.08972335
3854.00   0.28137888   0.08927270
3856.00   0.22310700   0.08911225
3858.00   0.14673962   0.08592376
3860.00   0.18200385   0.08685196
3862.00   0.26704539   0.08885572
3864.00   0.17066588   0.09057721
3866.00   0.17045305   0.08822877
3868.00   0.32183392   0.08807353
3870.00   0.11701822   0.08463636
3872.00   0.19339194   0.08959482
3874.00   0.16678741   0.09498263
3876.00   0.14805661   0.09154000
3878.00   0.21504349   0.08553175
3880.00   0.09564712   0.08453017
3882.00   0.23042650   0.08334216
3884.00   0.41119076   0.08370873
3886.00   0.43899069   0.08562227
3888.00   0.49684672   0.08605926
3890.00   0.40334970   0.08393806
3892.00   0.46639124   0.08542312
3894.00   0.45692874   0.08634816
3896.00   0.33959534   0.08732162
3898.00   0.23682633   0.08639858
3900.00   0.38321661   0.08851176
3902.00   0.27454266   0.08983038
3904.00   0.58351552   0.09733379
3906.00   0.28165333   0.11175844
3908.00   0.23351583   0.12058732
3910.00   0.20077672   0.12360349
3912.00   0.62177762   0.12333798
3914.00   0.16749802   0.11350435
3916.00   0.56119089   0.10388221
3918.00   0.56961130   0.09982520
3920.00   0.47041887   0.09320014
3922.00   0.60884245   0.09031790
3924.00   0.64301141   0.09058436
3926.00   0.41474208   0.08677591
3928.00   0.49689608   0.08639534
3930.00   0.69914771   0.08785295
3932.00   0.51167919   0.09221439
3934.00   0.71357454   0.09531681
3936.00   0.63132915   0.08732181
3938.00   0.63795272   0.08540230
3940.00   0.52567817   0.08632902
3942.00   0.65184362   0.09460728
3944.00   0.73604800   0.09909060
3946.00   0.76595757   0.09615633
3948.00   0.39574014   0.08906305
3950.00   0.61983937   0.08822020
3952.00   0.56736665   0.08627749
3954.00   0.57782438   0.08543614
3956.00   0.68069984   0.08600187
3958.00   0.70948040   0.08611736
3960.00   0.51715738   0.09166573
3962.00   0.59500828   0.09406025
3964.00   0.61531126   0.08568691
3966.00   0.74029155   0.08139852
3968.00   0.77749968   0.08160681
3970.00   0.61436554   0.08000898
3972.00   0.80240062   0.08384390
3974.00   0.73778618   0.08412925
3976.00   0.72577035   0.08204562
3978.00   0.65447590   0.08143585
3980.00   0.68925499   0.08270575
3982.00   0.73921221   0.08292626
3984.00   0.75702504   0.08135586
3986.00   0.81000662   0.08342556
3988.00   0.77886203   0.08354553
3990.00   0.72529215   0.08403620
3992.00   0.94820326   0.08544312
3994.00   0.68872362   0.08828830
3996.00   0.89084787   0.09615886
3998.00   0.69777909   0.09392099
4000.00   0.82306949   0.08698374
4002.00   0.86519645   0.08433497
4004.00   0.64308852   0.08177393
4006.00   0.87988313   0.08571293
4008.00   0.84000265   0.08917015
4010.00   0.86503703   0.08878694
4012.00   0.92927144   0.08917144
4014.00   0.76627112   0.08658256
4016.00   0.74890255   0.08638859
4018.00   0.71161032   0.09881450
4020.00   0.58421146   0.11075259
4022.00   0.67955563   0.11752342
4024.00   0.52364105   0.11349370
4026.00   0.81099467   0.10464353
4028.00   0.74347682   0.09564416
4030.00   0.77831581   0.09407646
4032.00   0.77087334   0.09314336
4034.00   0.67165704   0.08934945
4036.00   0.89180093   0.09027508
4038.00   0.81151234   0.08824506
4040.00   0.80281150   0.08696375
4042.00   0.58913156   0.09107938
4044.00   0.56530548   0.14793756
4046.00   0.60314398   0.20119219
4048.00   0.73969524   0.18570607
4050.00   0.72806795   0.11813109
4052.00   0.64118834   0.09682076
4054.00   0.51959075   0.09793690
4056.00   0.50576173   0.09503430
4058.00   0.55839965   0.08735280
4060.00   0.47138601   0.08288690
4062.00   0.73944969   0.08378151
4064.00   0.58650717   0.08292269
4066.00   0.66864570   0.08351353
4068.00   0.60466581   0.08316118
4070.00   0.52763037   0.08104146
4072.00   0.49290221   0.07812420
4074.00   0.58078161   0.08178503
4076.00   0.66899264   0.09876308
4078.00   0.77292991   0.10580661
4080.00   0.61620695   0.09917520
4082.00   0.55578846   0.09416040
4084.00   0.68225930   0.09401005
4086.00   0.58594550   0.09061124
4088.00   0.50302338   0.08590999
4090.00   0.80016810   0.07880146
4092.00   0.42824718   0.07379537
4094.00   0.54317373   0.07606220
4096.00   0.42008082   0.07497878
4098.00   0.61194348   0.07648724
4100.00   0.54440410   0.07536411
4102.00   0.43689892   0.07269614
4104.00   0.47977860   0.07098481
4106.00   0.54208644   0.07198465
4108.00   0.51357935   0.07208465
4110.00   0.44065272   0.07201110
4112.00   0.49380162   0.07230964
4114.00   0.63983462   0.07429892
4116.00   0.46654541   0.07231250
4118.00   0.48382494   0.06980514
4120.00   0.42944163   0.06822344
4122.00   0.32410578   0.06799116
4124.00   0.35563597   0.06921888
4126.00   0.48926317   0.07082120
4128.00   0.40720538   0.07088902
4130.00   0.27572121   0.07188493
4132.00   0.45471349   0.07813729
4134.00   0.57831051   0.07964313
4136.00   0.47095865   0.07409451
4138.00   0.44846334   0.07569809
4140.00   0.35349220   0.07740916
4142.00   0.44234770   0.07442116
4144.00   0.54194655   0.06922194
4146.00   0.56381218   0.06918645
4148.00   0.39421065   0.06840527
4150.00   0.35322100   0.07295835
4152.00   0.51917800   0.07904948
4154.00   0.40343329   0.07636751
4156.00   0.28791721   0.06925307
4158.00   0.38664162   0.06947582
4160.00   0.45062826   0.07045345
4162.00   0.37969808   0.07434102
4164.00   0.52485150   0.08337333
4166.00   0.21101371   0.08121433
4168.00   0.44121393   0.07438604
4170.00   0.36090440   0.06957153
4172.00   0.38023887   0.06763516
4174.00   0.40511655   0.06590333
4176.00   0.60099734   0.06829394
4178.00   0.32927411   0.06840140
4180.00   0.32639065   0.06731029
4182.00   0.49495471   0.06644159
4184.00   0.49332309   0.06482009
4186.00   0.56930745   0.06590923
4188.00   0.40671525   0.06517972
4190.00   0.57879655   0.06645052
4192.00   0.52878295   0.06670676
4194.00   0.43175628   0.06623838
4196.00   0.46351754   0.06399637
4198.00   0.45661668   0.06300141
4200.00   0.45467165   0.06358752
4202.00   0.49466355   0.06395214
4204.00   0.52960382   0.06451935
4206.00   0.46467032   0.06613013
4208.00   0.39213217   0.06666362
4210.00   0.35345605   0.06921858
4212.00   0.52242268   0.06963952
4214.00   0.47080760   0.06751995
4216.00   0.49125654   0.06670158
4218.00   0.50125236   0.06651483
4220.00   0.47266916   0.06609226
4222.00   0.27417136   0.06438111
4224.00   0.44314990   0.06490097
4226.00   0.55339222   0.06608182
4228.00   0.41017993   0.06531961
4230.00   0.35738837   0.06714389
4232.00   0.35917229   0.06876185
4234.00   0.47428831   0.06948300
4236.00   0.62346223   0.07196693
4238.00   0.54569859   0.07227304
4240.00   0.61711806   0.07006273
4242.00   0.52460811   0.06560493
4244.00   0.39439695   0.07404313
4246.00   0.27866024   0.08629593
4248.00   0.28913424   0.08412301
4250.00   0.44964288   0.07055236
4252.00   0.45154570   0.06649225
4254.00   0.47229342   0.06750585
4256.00   0.44209966   0.06722847
4258.00   0.53721132   0.06809918
4260.00   0.45523707   0.06598597
4262.00   0.42517807   0.06461103
4264.00   0.57025472   0.06468094
4266.00   0.67320997   0.06536409
4268.00   0.38920495   0.06391849
4270.00   0.62935917   0.06687196
4272.00   0.61519184   0.06666436
4274.00   0.42928477   0.06563504
4276.00   0.61024889   0.06773254
4278.00   0.64695230   0.06783698
4280.00   0.58342686   0.06813874
4282.00   0.52759432   0.06841100
4284.00   0.62776945   0.06881179
4286.00   0.61415615   0.06723907
4288.00   0.57248600   0.06639414
4290.00   0.77710702   0.06781237
4292.00   0.71595282   0.06788582
4294.00   0.64060044   0.06826484
4296.00   0.59575926   0.06780732
4298.00   0.62432211   0.06730404
4300.00   0.54992498   0.06596830
4302.00   0.57049414   0.06578801
4304.00   0.55911319   0.06686564
4306.00   0.51638050   0.06800499
4308.00   0.58893323   0.06829730
4310.00   0.75853233   0.07029975
4312.00   0.59787483   0.07820261
4314.00   0.54576581   0.08253184
4316.00   0.78681316   0.07874600
4318.00   0.66834742   0.07582132
4320.00   1.04881256   0.08140423
4322.00   0.66040356   0.07956096
4324.00   0.42104517   0.07559701
4326.00   0.65618067   0.07544991
4328.00   0.40078569   0.06953478
4330.00   0.76088503   0.06976162
4332.00   0.59547681   0.06846427
4334.00   0.68438956   0.06979495
4336.00   0.72713019   0.07164022
4338.00   0.64240271   0.07430567
4340.00   0.58886075   0.07484855
4342.00   0.67374559   0.07455962
4344.00   0.72157689   0.07656017
4346.00   0.62297068   0.08111715
4348.00   0.62322752   0.08251557
4350.00   0.68250011   0.07911457
4352.00   0.78688691   0.07738268
4354.00   0.47389186   0.08934805
4356.00   0.41418270   0.17101284
4358.00   0.41626173   0.21601846
4360.00   0.54775352   0.18565208
4362.00   0.96195130   0.11466295
4364.00   0.62167720   0.08698483
4366.00   0.83940526   0.08262028
4368.00   0.65032734   0.07985428
4370.00   0.81309138   0.07944791
4372.00   0.72494608   0.08239213
4374.00   0.66900994   0.08519179
4376.00   0.60193259   0.08145977
4378.00   0.61649887   0.07639020
4380.00   0.56089320   0.07371102
4382.00   0.73083556   0.07388037
4384.00   0.70629400   0.07284287
4386.00   0.58093889   0.07089057
4388.00   0.61398827   0.07137606
4390.00   0.57158810   0.07216312
4392.00   0.56271460   0.07164244
4394.00   0.68342832   0.07109316
4396.00   0.64770020   0.07035774
4398.00   0.64013432   0.07347706
4400.00   0.46769733   0.07553021
4402.00   0.57479775   0.07438811
4404.00   0.49790127   0.07070472
4406.00   0.57644967   0.07054856
4408.00   0.50230636   0.07065757
4410.00   0.51634011   0.07063450
4412.00   0.66237388   0.07201885
4414.00   0.54376036   0.07451924
4416.00   0.47796722   0.07415296
4418.00   0.43388887   0.07146689
4420.00   0.50885617   0.07061109
4422.00   0.55173017   0.07055829
4424.00   0.50914476   0.06901773
4426.00   0.52152789   0.06889942
4428.00   0.38016809   0.06855900
4430.00   0.42268791   0.06834946
4432.00   0.42416380   0.06855074
4434.00   0.47590139   0.06803460
4436.00   0.41016050   0.06728064
4438.00   0.35575519   0.06766674
4440.00   0.40247031   0.06804343
4442.00   0.34758488   0.06699503
4444.00   0.29936261   0.06666709
4446.00   0.34159380   0.06741680
4448.00   0.42727323   0.06695492
4450.00   0.17853696   0.06589688
4452.00   0.28914127   0.06595629
4454.00   0.36087068   0.06570236
4456.00   0.23564844   0.06516188
4458.00   0.44867651   0.06671420
4460.00   0.34075547   0.06596489
4462.00   0.41097816   0.06586050
4464.00   0.20355225   0.06441288
4466.00   0.37032537   0.06532289
4468.00   0.27209972   0.06397574
4470.00   0.41916472   0.06446329
4472.00   0.26994239   0.06408886
4474.00   0.26398360   0.06415775
4476.00   0.37325167   0.06511831
4478.00   0.22214171   0.06430993
4480.00   0.46984960   0.06522263
4482.00   0.50660608   0.06609732
4484.00   0.35965419   0.06550672
4486.00   0.40081407   0.06584856
4488.00   0.41478416   0.06583188
4490.00   0.32781406   0.06478660
4492.00   0.34377367   0.06612347
4494.00   0.31587834   0.06650980
4496.00   0.43416869   0.06705364
4498.00   0.44983005   0.06737628
4500.00   0.43122877   0.06606314
4502.00   0.17489690   0.06379925
4504.00   0.43531108   0.06537561
4506.00   0.28210995   0.06454367
4508.00   0.21493832   0.06410965
4510.00   0.31500574   0.06373820
4512.00   0.48223668   0.06451138
4514.00   0.35358958   0.06380363
4516.00   0.41879324   0.06333182
4518.00   0.39529625   0.06247880
4520.00   0.22214296   0.06226193
4522.00   0.34767948   0.06226229
4524.00   0.47223571   0.06267360
4526.00   0.41510129   0.06179313
4528.00   0.41822252   0.06155029
4530.00   0.45905398   0.06242839
4532.00   0.38187545   0.06173256
4534.00   0.50251609   0.06233971
4536.00   0.40096060   0.06194337
4538.00   0.41934719   0.06093208
4540.00   0.61398181   0.06265827
4542.00   0.47311822   0.06370519
4544.00   0.46647926   0.06433061
4546.00   0.40576000   0.06288129
4548.00   0.42800121   0.06102567
4550.00   0.56028105   0.06087612
4552.00   0.56561887   0.06100485
4554.00   0.41989916   0.06049233
4556.00   0.56272178   0.06225608
4558.00   0.61706397   0.06218313
4560.00   0.54177856   0.06101370
4562.00   0.58099533   0.06024157
4564.00   0.64181970   0.05975036
4566.00   0.60419287   0.05975980
4568.00   0.67978300   0.06030990
4570.00   0.66559507   0.06017669
4572.00   0.60974336   0.06095475
4574.00   0.68585944   0.06167012
4576.00   0.70417838   0.06067797
4578.00   0.74299834   0.06001457
4580.00   0.74395296   0.05936414
4582.00   0.68490041   0.05837263
4584.00   0.68627456   0.05752221
4586.00   0.78739317   0.05865729
4588.00   0.91666434   0.05960963
4590.00   0.80436156   0.05929156
4592.00   0.77714342   0.05944037
4594.00   0.96395109   0.06035452
4596.00   0.88900875   0.06015384
4598.00   0.88687955   0.05943221
4600.00   0.94033869   0.05874964
4602.00   1.02503657   0.05911266
4604.00   1.01439286   0.05952352
4606.00   0.85832945   0.05853347
4608.00   1.01930408   0.06020977
4610.00   1.04063408   0.06053624
4612.00   1.11456574   0.06018480
4614.00   1.03296622   0.05873037
4616.00   0.97140423   0.05779704
4618.00   0.98695409   0.05785494
4620.00   1.21146431   0.05921760
4622.00   1.00939215   0.05825572
4624.00   1.35647988   0.06041236
4626.00   1.24911304   0.05956386
4628.00   1.24763500   0.05935246
4630.00   1.21862462   0.05941242
4632.00   1.24373029   0.05956232
4634.00   1.15182437   0.05870128
4636.00   1.18246230   0.05859315
4638.00   1.27936301   0.05912447
4640.00   1.32219711   0.05974486
4642.00   1.32149859   0.05928278
4644.00   1.39526998   0.05943769
4646.00   1.30105869   0.05911507
4648.00   1.24686729   0.05929507
4650.00   1.32653339   0.06020997
4652.00   1.41289509   0.06080315
4654.00   1.39526650   0.06062996
4656.00   1.40303450   0.06139231
4658.00   1.40564893   0.06240375
4660.00   1.45309372   0.06322919
4662.00   1.42591885   0.06442957
4664.00   1.46146675   0.06550273
4666.00   1.45652965   0.06678118
4668.00   1.58317653   0.06894385
4670.00   1.53013127   0.06943569
4672.00   1.51703462   0.06852097
4674.00   1.54212827   0.06691160
4676.00   1.57680432   0.06579050
4678.00   1.57939913   0.06422757
4680.00   1.55234308   0.06395641
4682.00   1.59335918   0.06315395
4684.00   1.34556514   0.06094223
4686.00   1.55675597   0.06169832
4688.00   1.54285130   0.06186517
4690.00   1.55948711   0.06124051
4692.00   1.58214341   0.06119547
4694.00   1.57211211   0.06115044
4696.00   1.45918203   0.06003420
4698.00   1.42312101   0.05889992
4700.00   1.38364153   0.05856500
4702.00   1.44939214   0.05983442
4704.00   1.51207936   0.06082853
4706.00   1.44218822   0.06081186
4708.00   1.29802175   0.06119231
4710.00   1.36186812   0.06152671
4712.00   1.34118195   0.06086983
4714.00   1.52194385   0.06159137
4716.00   1.45980933   0.05976696
4718.00   1.28876168   0.05878073
4720.00   1.26955256   0.05831904
4722.00   1.28416266   0.05914158
4724.00   1.26050424   0.05888348
4726.00   1.01612969   0.05961364
4728.00   1.04974373   0.06431485
4730.00   1.03931727   0.06575154
4732.00   1.09350926   0.06524797
4734.00   1.12775469   0.06680878
4736.00   1.07774551   0.06823942
4738.00   0.95858788   0.06939106
4740.00   0.95491243   0.07199146
4742.00   0.92624313   0.07496552
4744.00   0.95925961   0.07177907
4746.00   0.86048406   0.06410097
4748.00   0.84954602   0.05808802
4750.00   0.86109699   0.05788423
4752.00   0.78571197   0.05954639
4754.00   0.89557339   0.05919230
4756.00   0.77277375   0.05471990
4758.00   0.80567833   0.05296217
4760.00   0.63746993   0.05082800
4762.00   0.77963517   0.05134867
4764.00   0.74647171   0.05078160
4766.00   0.59829208   0.04941053
4768.00   0.68978902   0.04936937
4770.00   0.60228597   0.04832116
4772.00   0.67349931   0.04920084
4774.00   0.64978449   0.04943082
4776.00   0.64129338   0.05083703
4778.00   0.70195197   0.05406146
4780.00   0.58845921   0.05357768
4782.00   0.61125303   0.05065829
4784.00   0.55166514   0.04851783
4786.00   0.55892194   0.04792747
4788.00   0.57864663   0.04839651
4790.00   0.50707708   0.04912459
4792.00   0.60504596   0.04943266
4794.00   0.51012876   0.04818565
4796.00   0.53233291   0.04729166
4798.00   0.52740448   0.04718910
4800.00   0.41879549   0.04599326
4802.00   0.50007278   0.04669250
4804.00   0.52860803   0.04757560
4806.00   0.49841594   0.04797355
4808.00   0.47958746   0.04830139
4810.00   0.51822749   0.04856735
4812.00   0.52781890   0.04826562
4814.00   0.55509619   0.04890582
4816.00   0.51537840   0.04871506
4818.00   0.43138725   0.04842964
4820.00   0.51650234   0.04968063
4822.00   0.49855983   0.05057065
4824.00   0.53035900   0.05143319
4826.00   0.57771267   0.05172139
4828.00   0.59803795   0.05235763
4830.00   0.58598911   0.05229945
4832.00   0.44043366   0.05261145
4834.00   0.49512530   0.05262346
4836.00   0.53687129   0.05219151
4838.00   0.60784140   0.05501685
4840.00   0.72911933   0.05682326
4842.00   0.57661547   0.05398206
4844.00   0.64371048   0.05314541
4846.00   0.60545666   0.05296330
4848.00   0.70044932   0.05384682
4850.00   0.54022064   0.05314118
4852.00   0.63728460   0.05340640
4854.00   0.59514429   0.05220120
4856.00   0.51745929   0.05062279
4858.00   0.69956981   0.05280925
4860.00   0.64108727   0.05512875
4862.00   0.78214733   0.05681407
4864.00   0.64699252   0.05438488
4866.00   0.67687411   0.05306038
4868.00   0.70402583   0.05243308
4870.00   0.67570220   0.05238993
4872.00   0.55710634   0.05172222
4874.00   0.59102427   0.05222560
4876.00   0.64761774   0.05277832
4878.00   0.60094038   0.05350013
4880.00   0.68772345   0.05374289
4882.00   0.59688498   0.05255403
4884.00   0.61503661   0.05167381
4886.00   0.63070925   0.05112435
4888.00   0.53647171   0.05030998
4890.00   0.66466349   0.05140562
4892.00   0.57506706   0.05133460
4894.00   0.58073180   0.05152812
4896.00   0.64096348   0.05156026
4898.00   0.54461675   0.05043121
4900.00   0.61651161   0.05023119
4902.00   0.49700309   0.04912660
4904.00   0.59453766   0.05007019
4906.00   0.64718416   0.05084488
4908.00   0.55328538   0.05108474
4910.00   0.58861535   0.05149791
4912.00   0.63454552   0.05121618
4914.00   0.46206009   0.04982217
4916.00   0.65199984   0.05132131
4918.00   0.72885028   0.05116412
4920.00   0.75391363   0.05129707
4922.00   0.64847305   0.05087855
4924.00   0.66584689   0.05076077
4926.00   0.58951840   0.04891238
4928.00   0.64426559   0.04897168
4930.00   0.62869500   0.04820216
4932.00   0.62979257   0.04839412
4934.00   0.65035734   0.04906905
4936.00   0.67381854   0.04954930
4938.00   0.70636075   0.05012429
4940.00   0.67210560   0.05050686
4942.00   0.72410068   0.05035997
4944.00   0.74533764   0.05012601
4946.00   0.64026876   0.04875724
4948.00   0.77601544   0.04936367
4950.00   0.76378392   0.05018162
4952.00   0.80578877   0.05218608
4954.00   0.72729661   0.05194568
4956.00   0.88423314   0.05249836
4958.00   0.85765823   0.05143094
4960.00   0.75826680   0.05098602
4962.00   0.77295927   0.05135878
4964.00   0.90414589   0.05258411
4966.00   0.89745775   0.05296440
4968.00   0.85019702   0.05290141
4970.00   0.94027700   0.05518430
4972.00   0.98008932   0.05816643
4974.00   0.96999406   0.06034396
4976.00   1.03468932   0.06263685
4978.00   0.91049200   0.06590099
4980.00   0.95255538   0.07047660
4982.00   1.00522581   0.07256461
4984.00   1.20257284   0.07266523
4986.00   1.04994320   0.06967206
4988.00   0.98945210   0.06647002
4990.00   1.05080771   0.06444720
4992.00   1.09490952   0.06261879
4994.00   1.11651814   0.05989173
4996.00   1.06871028   0.05723887
4998.00   1.10711857   0.05561169
5000.00   1.08100115   0.05440269
5002.00   1.08120367   0.05403252
5004.00   1.03298863   0.05380958
5006.00   1.13475308   0.05411698
5008.00   1.07014754   0.05294794
5010.00   1.03963045   0.05189133
5012.00   1.06710506   0.05134594
5014.00   1.07519633   0.05127710
5016.00   1.16462188   0.05300177
5018.00   1.00062293   0.05297194
5020.00   1.01010664   0.05364930
5022.00   0.98237408   0.05257775
5024.00   1.05165016   0.05144084
5026.00   0.93572447   0.05009091
5028.00   0.93201571   0.05090855
5030.00   0.94775058   0.05248360
5032.00   0.88877696   0.05234752
5034.00   0.82621078   0.05004353
5036.00   0.82835166   0.04879076
5038.00   0.83559825   0.04864665
5040.00   0.97026608   0.04917623
5042.00   0.73675810   0.04796405
5044.00   0.84879376   0.04922221
5046.00   0.75880207   0.04909835
5048.00   0.87967383   0.04934339
5050.00   0.85636018   0.04933397
5052.00   0.71707919   0.04799399
5054.00   0.80711228   0.04870723
5056.00   0.71142840   0.04776522
5058.00   0.78245777   0.04858249
5060.00   0.63534675   0.04796618
5062.00   0.68856334   0.05057166
5064.00   0.75953939   0.05301781
5066.00   0.80846398   0.05439915
5068.00   0.71831045   0.05694647
5070.00   0.77376575   0.05829770
5072.00   0.77369629   0.05579359
5074.00   0.72918151   0.05352326
5076.00   0.65422419   0.05246829
5078.00   0.61550687   0.05373998
5080.00   0.63295300   0.06151895
5082.00   0.60098786   0.07008634
5084.00   0.56457914   0.07489960
5086.00   0.77625009   0.07575092
5088.00   0.60681616   0.06988847
5090.00   0.75219474   0.06186386
5092.00   0.73990806   0.05593337
5094.00   0.72194649   0.05355558
5096.00   0.77345548   0.05584731
5098.00   0.71120212   0.05865215
5100.00   0.73265021   0.05973641
5102.00   0.68312218   0.05634171
5104.00   0.69179312   0.05206559
5106.00   0.69215573   0.05042785
5108.00   0.65337286   0.04969358
5110.00   0.77292798   0.05065269
5112.00   0.63922526   0.05035604
5114.00   0.72141963   0.05185837
5116.00   0.67677824   0.05193665
5118.00   0.71696065   0.05155455
5120.00   0.68006749   0.04965477
5122.00   0.72335428   0.04896128
5124.00   0.72051735   0.04826713
5126.00   0.80633549   0.04878107
5128.00   0.67763159   0.04815689
5130.00   0.70988508   0.04827310
5132.00   0.70977272   0.04855199
5134.00   0.76522789   0.04938664
5136.00   0.68400899   0.04878353
5138.00   0.65713676   0.04837574
5140.00   0.64780779   0.04808220
5142.00   0.65325162   0.04912372
5144.00   0.66992437   0.04889011
5146.00   0.71475740   0.05041391
5148.00   0.69278741   0.05203715
5150.00   0.65251870   0.05345237
5152.00   0.68185317   0.05646429
5154.00   0.62068149   0.05711074
5156.00   0.64424779   0.05580007
5158.00   0.73287713   0.05433888
5160.00   0.71730328   0.05227626
5162.00   0.69438879   0.05123929
5164.00   0.66797208   0.04936931
5166.00   0.64527173   0.04862827
5168.00   0.68078215   0.04817888
5170.00   0.73686215   0.04877709
5172.00   0.66679474   0.04821149
5174.00   0.64573748   0.04873420
5176.00   0.62900337   0.04923223
5178.00   0.65930906   0.04918543
5180.00   0.70335302   0.04939354
5182.00   0.66448969   0.04862248
5184.00   0.70127923   0.04920594
5186.00   0.65845947   0.04941595
5188.00   0.78411147   0.05091586
5190.00   0.77163766   0.05066570
5192.00   0.61066953   0.04951874
5194.00   0.72225579   0.05061020
5196.00   0.67524644   0.05249423
5198.00   0.71387074   0.05491049
5200.00   0.69676722   0.05506893
5202.00   0.74459602   0.05355429
5204.00   0.67229196   0.05213113
5206.00   0.67778401   0.05133009
5208.00   0.74397683   0.05339987
5210.00   0.54858287   0.05394700
5212.00   0.89576149   0.05546175
5214.00   0.70114048   0.05293748
5216.00   0.70983868   0.05281310
5218.00   0.78712690   0.05509096
5220.00   0.78786358   0.05587286
5222.00   0.86074153   0.05487632
5224.00   0.88404646   0.05508770
5226.00   0.83241717   0.05444257
5228.00   0.87566253   0.05329469
5230.00   0.72035822   0.05323174
5232.00   0.68290262   0.05302210
5234.00   0.83953258   0.05320021
5236.00   0.82527764   0.05380814
5238.00   0.83258134   0.05493204
5240.00   0.85753512   0.05435164
5242.00   0.83962418   0.05415796
5244.00   0.86172747   0.05368067
5246.00   0.98665915   0.05432717
5248.00   0.82687219   0.05345119
5250.00   0.80656142   0.05321006
5252.00   0.85390037   0.05388708
5254.00   0.93548319   0.05525967
5256.00   0.90188194   0.05707264
5258.00   0.94487199   0.05924130
5260.00   0.79666770   0.05698381
5262.00   0.98526100   0.05671153
5264.00   0.88411776   0.05521290
5266.00   0.93204589   0.05468792
5268.00   1.02187339   0.05551380
5270.00   1.05030794   0.05642537
5272.00   1.03872482   0.05674381
5274.00   0.94473338   0.05651489
5276.00   0.90632926   0.05669836
5278.00   0.96742118   0.05732686
5280.00   1.11733582   0.05748309
5282.00   1.00011929   0.05712998
5284.00   0.96754292   0.05864397
5286.00   1.13667041   0.06061061
5288.00   1.03913930   0.05938124
5290.00   1.07215905   0.05939090
5292.00   1.25229953   0.06015463
5294.00   1.10660523   0.05906294
5296.00   1.20544624   0.06023576
5298.00   1.25971859   0.06095308
5300.00   1.11448140   0.06063202
5302.00   1.20461680   0.06175854
5304.00   1.17376021   0.06099893
5306.00   1.21879731   0.06114001
5308.00   1.29639099   0.06222009
5310.00   1.22475945   0.06176095
5312.00   1.29812683   0.06336818
5314.00   1.26493439   0.06362249
5316.00   1.30468309   0.06339699
5318.00   1.33730415   0.06317895
5320.00   1.24135084   0.06311671
5322.00   1.35946333   0.06406870
5324.00   1.42013622   0.06529509
5326.00   1.29971896   0.06454866
5328.00   1.36411322   0.06522321
5330.00   1.34319440   0.06570222
5332.00   1.49897884   0.06734976
5334.00   1.34706558   0.06562013
5336.00   1.42939062   0.06641545
5338.00   1.38930599   0.06775694
5340.00   1.46081128   0.07035280
5342.00   1.43872709   0.07133207
5344.00   1.52406898   0.07164529
5346.00   1.46255065   0.07202723
5348.00   1.53351109   0.07543164
5350.00   1.61590103   0.07674943
5352.00   1.45168583   0.07487175
5354.00   1.38393960   0.07665131
5356.00   1.59905969   0.07916073
5358.00   1.70149283   0.07778263
5360.00   1.51518713   0.07381842
5362.00   1.59240788   0.07257244
5364.00   1.63603781   0.07195400
5366.00   1.59750907   0.07171826
5368.00   1.58707308   0.07180324
5370.00   1.80566915   0.07316547
5372.00   1.68380948   0.07433441
5374.00   1.78850261   0.07729159
5376.00   1.51287798   0.07637826
5378.00   1.76088445   0.07720751
5380.00   1.63851887   0.07608420
5382.00   1.60692105   0.07543005
5384.00   1.66710455   0.07562530
5386.00   1.68656783   0.07561334
5388.00   1.67861393   0.07665622
5390.00   1.67332506   0.07994322
5392.00   1.71630700   0.08243141
5394.00   1.64450638   0.08082406
5396.00   1.70276109   0.08034232
5398.00   1.56743973   0.07924062
5400.00   1.69106860   0.07961201
5402.00   1.81971710   0.08089666
5404.00   1.79641256   0.08094089
5406.00   1.65615741   0.08114482
5408.00   1.57692288   0.08218457
5410.00   1.86693109   0.08431172
5412.00   1.83531886   0.08668593
5414.00   1.77603970   0.08860986
5416.00   1.75893025   0.09075339
5418.00   1.82666656   0.09330503
5420.00   1.80172684   0.09259205
5422.00   1.54096269   0.09162181
5424.00   1.68304730   0.09209099
5426.00   1.88375604   0.09255079
5428.00   1.79550444   0.09246398
5430.00   1.96155163   0.09378143
5432.00   1.64021414   0.09161868
5434.00   1.87238127   0.09265745
5436.00   1.79851937   0.03451446
5438.00   1.86728889   0.03529696
5440.00   1.91338539   0.03627111
5442.00   1.95244503   0.03734279
5444.00   1.99035257   0.03702961
5446.00   2.01675153   0.03452001
5448.00   2.06617486   0.03464594
5450.00   2.18376684   0.03472399
5452.00   2.20910072   0.03819093
5454.00   2.07213682   0.04681472
5456.00   1.90261149   0.05471671
5458.00   1.90073943   0.05623209
5460.00   2.02493131   0.05349727
5462.00   2.06465524   0.05198168
5464.00   2.07568848   0.04989048
5466.00   2.08902502   0.04727103
5468.00   2.10621226   0.04329007
5470.00   2.11968791   0.03916084
5472.00   2.12347841   0.03655346
5474.00   2.11753893   0.03502529
5476.00   2.10437691   0.03431742
5478.00   2.03374988   0.03487034
5480.00   2.06539041   0.03582320
5482.00   2.24877048   0.03818051
5484.00   2.37991142   0.03982151
5486.00   2.32526672   0.03946218
5488.00   2.16624463   0.03787216
5490.00   2.09957743   0.03625024
5492.00   2.04956853   0.03280179
5494.00   2.03645498   0.03168655
5496.00   2.07998198   0.03343784
5498.00   2.11257350   0.03426725
5500.00   2.11616695   0.03276480
5502.00   2.10320389   0.03028742
5504.00   2.07889724   0.02915142
5506.00   2.04105556   0.02863457
5508.00   1.99620789   0.02829824
5510.00   1.92357826   0.02846702
5512.00   1.87751621   0.02867287
5514.00   1.85953492   0.02892675
5516.00   1.86102819   0.02914909
5518.00   1.89541805   0.02920507
5520.00   1.97910661   0.02921248
5522.00   1.99407244   0.02886840
5524.00   1.96225744   0.02804832
5526.00   1.93121451   0.02738564
5528.00   1.88049930   0.02676636
5530.00   1.84074372   0.02625569
5532.00   1.85459358   0.02594507
5534.00   1.90965343   0.02577607
5536.00   1.90120262   0.02608378
5538.00   1.81795704   0.02733664
5540.00   1.80792773   0.02762113
5542.00   1.85802662   0.02670370
5544.00   1.93005091   0.02614915
5546.00   2.01664507   0.02708205
5548.00   2.11361468   0.02869519
5550.00   2.14266789   0.02897238
5552.00   2.10522699   0.02819867
5554.00   2.09321380   0.02789274
5556.00   2.06265414   0.02741697
5558.00   2.06317854   0.02744808
5560.00   2.12001586   0.02829257
5562.00   2.20334566   0.02938626
5564.00   2.24657094   0.02964820
5566.00   2.26057756   0.02792467
5568.00   2.29709017   0.03142741
5570.00   2.31850910   0.03694476
5572.00   2.38954782   0.04397121
5574.00   2.56293833   0.05475194
5576.00   2.72740686   0.06267009
5578.00   2.72268605   0.06213111
5580.00   2.57407486   0.05509112
5582.00   2.62766731   0.05027357
5584.00   2.88191819   0.04310549
5586.00   2.99092269   0.03778948
5588.00   2.94908166   0.03524554
5590.00   2.89156556   0.03395910
5592.00   2.91263425   0.03302223
5594.00   2.96930814   0.03304135
5596.00   2.99191570   0.03226712
5598.00   2.98955572   0.03085229
5600.00   3.00955212   0.03020444
5602.00   3.04784369   0.03007220
5604.00   3.08734238   0.03027327
5606.00   3.11995935   0.03084952
5608.00   3.14926362   0.03169583
5610.00   3.17475677   0.03235611
5612.00   3.20670855   0.03350504
5614.00   3.20379889   0.03331671
5616.00   3.16328156   0.03142459
5618.00   3.12913227   0.03030101
5620.00   3.10271120   0.03066716
5622.00   3.08168149   0.03162426
5624.00   3.07750797   0.03219099
5626.00   3.09320629   0.03295069
5628.00   3.08947647   0.03278344
5630.00   3.06933248   0.03160169
5632.00   3.06215858   0.03067096
5634.00   3.06744957   0.02992923
5636.00   3.07274687   0.02942370
5638.00   3.07903826   0.02924687
5640.00   3.09408176   0.02930778
5642.00   3.07210922   0.02964087
5644.00   3.00576282   0.03061582
5646.00   2.96378398   0.03103082
5648.00   2.92789614   0.03096632
5650.00   2.91710913   0.03067674
5652.00   2.95560968   0.02993913
5654.00   3.02960157   0.02885539
5656.00   3.05412936   0.03014548
5658.00   3.06850207   0.03452778
5660.00   3.04102647   0.03572868
5662.00   2.94507647   0.03480067
5664.00   2.87186193   0.03380546
5666.00   2.86241400   0.03298297
5668.00   2.87612903   0.03246198
5670.00   2.85230005   0.03406476
5672.00   2.81725192   0.03820461
5674.00   2.77146900   0.03936805
5676.00   2.70652819   0.03826281
5678.00   2.64324319   0.03822109
5680.00   2.56155813   0.03965550
5682.00   2.50505400   0.04165994
5684.00   2.56619346   0.04363475
5686.00   2.75353515   0.04620326
5688.00   2.78319979   0.04668259
5690.00   2.70505369   0.04552179
5692.00   2.64509404   0.04417333
5694.00   2.57079411   0.04218004
5696.00   2.51178956   0.04002461
5698.00   2.51887655   0.03829828
5700.00   2.57511842   0.03672736
5702.00   2.58880055   0.03589515
5704.00   2.59655952   0.03643272
5706.00   2.58017206   0.03586572
5708.00   2.53391564   0.03414174
5710.00   2.47944891   0.03264964
5712.00   2.41712356   0.03208169
5714.00   2.35088718   0.03206899
5716.00   2.33921278   0.03231500
5718.00   2.41869581   0.03387081
5720.00   2.39412439   0.03347278
5722.00   2.27835143   0.03112733
5724.00   2.18837678   0.02924673
5726.00   2.15813184   0.02863309
5728.00   2.15275705   0.02858797
5730.00   2.14029622   0.02842244
5732.00   2.14332843   0.02847115
5734.00   2.12352848   0.02853329
5736.00   2.09183013   0.02905862
5738.00   2.05057454   0.02887913
5740.00   1.98344946   0.02756469
5742.00   1.91807067   0.02607669
5744.00   1.90513313   0.02568325
5746.00   1.93475479   0.02595141
5748.00   1.94955993   0.02623750
5750.00   2.00481308   0.02671263
5752.00   1.98517263   0.02748346
5754.00   1.86679620   0.02886518
5756.00   1.74217880   0.02992552
5758.00   1.67893189   0.02982824
5760.00   1.64855212   0.02890057
5762.00   1.65260661   0.02953940
5764.00   1.73960412   0.03159745
5766.00   1.74699581   0.03270893
5768.00   1.68848187   0.03372748
5770.00   1.62810284   0.03389335
5772.00   1.58806348   0.03255609
5774.00   1.55652946   0.03019409
5776.00   1.54272890   0.02874921
5778.00   1.54805809   0.02707706
5780.00   1.55154914   0.02681570
5782.00   1.55744022   0.02789071
5784.00   1.57456911   0.02934317
5786.00   1.60935056   0.03145098
5788.00   1.64597464   0.03349378
5790.00   1.65747648   0.03369335
5792.00   1.65297621   0.03240360
5794.00   1.64676476   0.03132954
5796.00   1.61760432   0.02934694
5798.00   1.61473942   0.02806104
5800.00   1.65613425   0.02784331
5802.00   1.69852692   0.02802054
5804.00   1.69438875   0.02778839
5806.00   1.66092527   0.02740060
5808.00   1.62010151   0.02767097
5810.00   1.52645731   0.02884140
5812.00   1.50012320   0.02924804
5814.00   1.54760331   0.02914413
5816.00   1.60917920   0.02866674
5818.00   1.64717609   0.02771678
5820.00   1.67930609   0.02634113
5822.00   1.70350111   0.02588985
5824.00   1.70796001   0.02625437
5826.00   1.73420966   0.02635598
5828.00   1.79284984   0.02625562
5830.00   1.83032191   0.02653329
5832.00   1.81637961   0.02754258
5834.00   1.77727604   0.02878672
5836.00   1.77528560   0.02930936
5838.00   1.78593796   0.02960270
5840.00   1.81602693   0.02931987
5842.00   1.88349527   0.02800159
5844.00   1.93316716   0.02718907
5846.00   1.94862312   0.02723984
5848.00   1.94824660   0.02758726
5850.00   1.95972526   0.02763534
5852.00   1.97990417   0.02756259
5854.00   1.97494638   0.02776543
5856.00   1.93215495   0.02787648
5858.00   1.92039269   0.02860846
5860.00   1.93571091   0.03048293
5862.00   1.97781044   0.03201093
5864.00   2.05935693   0.03190252
5866.00   2.18553483   0.03068270
5868.00   2.26079130   0.03038334
5870.00   2.32370973   0.03017781
5872.00   2.35091245   0.03054284
5874.00   2.32647979   0.03183669
5876.00   2.29900503   0.03292771
5878.00   2.31166899   0.03246478
5880.00   2.34531248   0.03131283
5882.00   2.32228506   0.03519576
5884.00   2.23459172   0.04292641
5886.00   2.19556677   0.04802527
5888.00   2.14285576   0.05310887
5890.00   2.17103159   0.05681856
5892.00   2.36494768   0.05926318
5894.00   2.61514997   0.06041653
5896.00   2.63810086   0.05892968
5898.00   2.45363891   0.05386551
5900.00   2.42145693   0.05017937
5902.00   2.45842469   0.04636060
5904.00   2.48882103   0.04221468
5906.00   2.50898075   0.03693835
5908.00   2.52163410   0.03167471
5910.00   2.52518392   0.02978922
5912.00   2.51369238   0.03150710
5914.00   2.54546452   0.03174972
5916.00   2.62004185   0.03248693
5918.00   2.68031073   0.03262932
5920.00   2.74103844   0.03181428
5922.00   2.78896260   0.03104223
5924.00   2.79603767   0.03140360
5926.00   2.76948464   0.03249347
5928.00   2.76924706   0.03288957
5930.00   2.78391135   0.03311266
5932.00   2.78465927   0.03304675
5934.00   2.77665532   0.03256873
5936.00   2.77003300   0.03211272
5938.00   2.75755799   0.03177527
5940.00   2.74367881   0.03151400
5942.00   2.76394999   0.03166668
5944.00   2.83352101   0.03237092
5946.00   2.85723376   0.03269971
5948.00   2.84733343   0.03322867
5950.00   2.84590876   0.03318890
5952.00   2.87066710   0.03192670
5954.00   2.90174687   0.03031908
5956.00   2.90159726   0.03042927
5958.00   2.88098550   0.03208180
5960.00   2.84873736   0.03236478
5962.00   2.79551601   0.03211143
5964.00   2.74138224   0.03158425
5966.00   2.68018436   0.03046583
5968.00   2.62398922   0.02930494
5970.00   2.58969212   0.02896128
5972.00   2.57090783   0.02916403
5974.00   2.56060207   0.02952959
5976.00   2.55210972   0.03068019
5978.00   2.57264280   0.03100669
5980.00   2.63787770   0.03036852
5982.00   2.70408189   0.02968984
5984.00   2.74523592   0.02970654
5986.00   2.77880359   0.03011141
5988.00   2.75193906   0.03045674
5990.00   2.64920223   0.03142536
5992.00   2.57632363   0.03128172
5994.00   2.51167965   0.02954191
5996.00   2.45688188   0.02827728
5998.00   2.41168773   0.02898266
6000.00   2.37922132   0.03043747
6002.00   2.35864878   0.03022396
6004.00   2.35402596   0.02871490
6006.00   2.34405816   0.02780712
6008.00   2.33554804   0.02661087
6010.00   2.33009923   0.02600102
6012.00   2.33035576   0.02631467
6014.00   2.33743548   0.02720823
6016.00   2.33874083   0.02813346
6018.00   2.34266663   0.02963198
6020.00   2.30735457   0.02944409
6022.00   2.21685290   0.02743296
6024.00   2.16038692   0.02606864
6026.00   2.14660358   0.02543690
6028.00   2.14119339   0.02510050
6030.00   2.11620378   0.02476460
6032.00   2.08624673   0.02453280
6034.00   2.04020977   0.02455434
6036.00   1.94668257   0.02513989
6038.00   1.91483271   0.02515500
6040.00   1.96069318   0.02451164
6042.00   2.00488818   0.02392296
6044.00   1.99332356   0.02389602
6046.00   1.95175403   0.02418705
6048.00   1.92237955   0.02401731
6050.00   1.88499182   0.02344371
6052.00   1.85903895   0.02312571
6054.00   1.84218234   0.02272112
6056.00   1.82752252   0.02276830
6058.00   1.81375194   0.02380905
6060.00   1.79929149   0.02523580
6062.00   1.77502024   0.02526981
6064.00   1.73757720   0.02412137
6066.00   1.71528286   0.02341613
6068.00   1.70355356   0.02245362
6070.00   1.69080245   0.02181180
6072.00   1.67611903   0.02171245
6074.00   1.66069001   0.02192672
6076.00   1.64558774   0.02217478
6078.00   1.63012135   0.02272283
6080.00   1.61497110   0.02258490
6082.00   1.59187865   0.02159882
6084.00   1.58574826   0.02117982
6086.00   1.60629749   0.02124637
6088.00   1.62476623   0.02166486
6090.00   1.61237043   0.02258044
6092.00   1.57806808   0.02393406
6094.00   1.55832052   0.02458395
6096.00   1.54666984   0.02494040
6098.00   1.52687293   0.02511513
6100.00   1.50010723   0.02485605
6102.00   1.46479601   0.02439539
6104.00   1.41491240   0.02399432
6106.00   1.35662991   0.02366051
6108.00   1.34433079   0.02398478
6110.00   1.37977016   0.02519407
6112.00   1.39322287   0.02571118
6114.00   1.40497559   0.02604916
6116.00   1.40883929   0.02604421
6118.00   1.40339172   0.02556257
6120.00   1.39261138   0.02472284
6122.00   1.37776607   0.02388736
6124.00   1.33455998   0.02258042
6126.00   1.35200065   0.02215677
6128.00   1.44026011   0.02254492
6130.00   1.49409723   0.02286717
6132.00   1.50005853   0.02318752
6134.00   1.47725344   0.02341259
6136.00   1.43798947   0.02318524
6138.00   1.36951816   0.02246935
6140.00   1.33172077   0.02244010
6142.00   1.29863578   0.02316904
6144.00   1.29061043   0.02327528
6146.00   1.31121057   0.02253219
6148.00   1.34540373   0.02188905
6150.00   1.39098430   0.02220412
6152.00   1.45526797   0.02311857
6154.00   1.47453338   0.02345740
6156.00   1.45102012   0.02345810
6158.00   1.44555938   0.02367714
6160.00   1.44326365   0.02413145
6162.00   1.44908875   0.02443612
6164.00   1.47539228   0.02455038
6166.00   1.51286739   0.02451006
6168.00   1.51607919   0.02388606
6170.00   1.49222142   0.02230088
6172.00   1.47194481   0.02138512
6174.00   1.43927455   0.02075139
6176.00   1.41461182   0.02023082
6178.00   1.40264046   0.01980758
6180.00   1.39915979   0.01956788
6182.00   1.40144885   0.01973022
6184.00   1.41434145   0.02050827
6186.00   1.42316091   0.02069688
6188.00   1.43951678   0.02041896
6190.00   1.44193637   0.02040569
6192.00   1.42190546   0.02085142
6194.00   1.39948511   0.02131268
6196.00   1.40178132   0.02139155
6198.00   1.42230284   0.02128645
6200.00   1.43475014   0.02096829
6202.00   1.45472598   0.01996278
6204.00   1.45896685   0.01970101
6206.00   1.44852841   0.02047013
6208.00   1.43200469   0.02121796
6210.00   1.40841520   0.02117944
6212.00   1.37583202   0.02069846
6214.00   1.36963087   0.02029739
6216.00   1.38674086   0.01951541
6218.00   1.39802235   0.01924787
6220.00   1.42061067   0.01923161
6222.00   1.42896366   0.01968919
6224.00   1.39453745   0.02096601
6226.00   1.34341359   0.02248753
6228.00   1.37007791   0.02275277
6230.00   1.48801243   0.02180274
6232.00   1.52851546   0.02173068
6234.00   1.52732944   0.02219381
6236.00   1.52073139   0.02245139
6238.00   1.51726526   0.02229192
6240.00   1.50961274   0.02185733
6242.00   1.49189651   0.02129634
6244.00   1.45521885   0.02034635
6246.00   1.45132107   0.01989018
6248.00   1.47246504   0.01970414
6250.00   1.49440032   0.01972199
6252.00   1.51628178   0.02001749
6254.00   1.54152155   0.02040028
6256.00   1.57271105   0.02068562
6258.00   1.60961878   0.02100185
6260.00   1.62322474   0.02097610
6262.00   1.61648422   0.02060931
6264.00   1.61201119   0.02027793
6266.00   1.59990925   0.01986193
6268.00   1.59055525   0.01948816
6270.00   1.59296459   0.01926883
6272.00   1.60476422   0.01915489
6274.00   1.61742461   0.01910627
6276.00   1.65452772   0.01908972
6278.00   1.64614081   0.01926613
6280.00   1.57827127   0.01976941
6282.00   1.53866309   0.02009655
6284.00   1.56695884   0.01999779
6286.00   1.62513787   0.01975768
6288.00   1.65040952   0.02000144
6290.00   1.65527117   0.02003643
6292.00   1.68498558   0.02148717
6294.00   1.73713446   0.02420063
6296.00   1.77985030   0.02650267
6298.00   1.81617498   0.02879400
6300.00   1.83801532   0.03053547
6302.00   1.81667936   0.03034228
6304.00   1.74472380   0.02836256
6306.00   1.71647638   0.02671966
6308.00   1.71260083   0.02417509
6310.00   1.70301431   0.02210119
6312.00   1.67640799   0.02053942
6314.00   1.66152954   0.01948306
6316.00   1.69100165   0.01912109
6318.00   1.75609607   0.01952371
6320.00   1.77985382   0.01967063
6322.00   1.79562992   0.02004938
6324.00   1.77912611   0.02018192
6326.00   1.70591170   0.01999761
6328.00   1.64620209   0.01990770
6330.00   1.64952654   0.02026559
6332.00   1.68843538   0.02080972
6334.00   1.68741065   0.02053776
6336.00   1.65595073   0.01926685
6338.00   1.65007943   0.01870834
6340.00   1.67286432   0.01852142
6342.00   1.67612624   0.01845076
6344.00   1.63715535   0.01844141
6346.00   1.58201069   0.01849427
6348.00   1.56079662   0.01856632
6350.00   1.56305379   0.01877809
6352.00   1.55505556   0.01886045
6354.00   1.55331486   0.01865083
6356.00   1.53924578   0.01882265
6358.00   1.49971288   0.01970057
6360.00   1.46145976   0.02066169
6362.00   1.46882433   0.02099293
6364.00   1.52003282   0.02104128
6366.00   1.52053475   0.02068099
6368.00   1.48606318   0.01959710
6370.00   1.45962322   0.01876821
6372.00   1.43043697   0.01806230
6374.00   1.41434795   0.01758441
6376.00   1.43380904   0.01758097
6378.00   1.48123062   0.01797788
6380.00   1.48372692   0.01810612
6382.00   1.45767087   0.01814962
6384.00   1.43051153   0.01826516
6386.00   1.38583130   0.01860238
6388.00   1.34751004   0.01861186
6390.00   1.32650328   0.01789267
6392.00   1.31658429   0.01674871
6394.00   1.32959336   0.01653439
6396.00   1.38239038   0.01699129
6398.00   1.40371114   0.01742298
6400.00   1.41530627   0.01840791
6402.00   1.41277742   0.01888213
6404.00   1.38176244   0.01838084
6406.00   1.34146142   0.01740376
6408.00   1.34412718   0.01708216
6410.00   1.38828564   0.01716314
6412.00   1.39529252   0.01708228
6414.00   1.37147611   0.01695439
6416.00   1.36828011   0.01693801
6418.00   1.39948124   0.01703350
6420.00   1.43697721   0.01724008
6422.00   1.44531721   0.01764848
6424.00   1.43416280   0.01834526
6426.00   1.43783987   0.01844243
6428.00   1.45118725   0.01811649
6430.00   1.45571047   0.01772463
6432.00   1.44582504   0.01703793
6434.00   1.44202489   0.01644213
6436.00   1.45957494   0.01636737
6438.00   1.49214649   0.01664797
6440.00   1.53200883   0.01678202
6442.00   1.59999555   0.01700687
6444.00   1.63610297   0.01710132
6446.00   1.65105081   0.01703668
6448.00   1.65389639   0.01701960
6450.00   1.64169711   0.01714134
6452.00   1.62022036   0.01733611
6454.00   1.62243265   0.01754586
6456.00   1.63572466   0.01779237
6458.00   1.66307634   0.01806551
6460.00   1.72112560   0.01835634
6462.00   1.75936228   0.01869597
6464.00   1.76266217   0.01923760
6466.00   1.75720680   0.01968322
6468.00   1.77791607   0.01946626
6470.00   1.81777298   0.01857727
6472.00   1.83957064   0.01823201
6474.00   1.85529232   0.01812224
6476.00   1.86378682   0.01805794
6478.00   1.85706049   0.01807421
6480.00   1.85284561   0.01817131
6482.00   1.87285119   0.01835878
6484.00   1.91039860   0.01869954
6486.00   1.95217878   0.01885971
6488.00   2.02361470   0.01886651
6490.00   2.05810618   0.01896073
6492.00   2.04868853   0.01917934
6494.00   2.03655797   0.01936885
6496.00   2.05092174   0.01943224
6498.00   2.07713652   0.01943791
6500.00   2.10581970   0.01974206
6502.00   2.14501321   0.02037227
6504.00   2.17983711   0.02078948
6506.00   2.21982682   0.02136528
6508.00   2.24626517   0.02148813
6510.00   2.24788570   0.02061093
6512.00   2.23427153   0.01915443
6514.00   2.23049712   0.01890086
6516.00   2.22069836   0.01961451
6518.00   2.22955704   0.01999941
6520.00   2.26379108   0.02063457
6522.00   2.28359663   0.02095004
6524.00   2.27495825   0.02070538
6526.00   2.26068354   0.02034454
6528.00   2.27097690   0.02062865
6530.00   2.29280925   0.02158685
6532.00   2.32638514   0.02136595
6534.00   2.38377857   0.01963891
6536.00   2.42919850   0.01904389
6538.00   2.46276355   0.01995128
6540.00   2.48901355   0.02109734
6542.00   2.51019776   0.02177100
6544.00   2.52529716   0.02238351
6546.00   2.53483891   0.02234438
6548.00   2.53066003   0.02140354
6550.00   2.53853333   0.02101433
6552.00   2.54965889   0.02085931
6554.00   2.57155311   0.02086709
6556.00   2.61746895   0.02121325
6558.00   2.68129051   0.02183874
6560.00   2.71430981   0.02225084
6562.00   2.72600055   0.02296313
6564.00   2.74056673   0.02283497
6566.00   2.75304687   0.02166128
6568.00   2.75999010   0.02075002
6570.00   2.76132989   0.02069843
6572.00   2.76165748   0.02102401
6574.00   2.76378465   0.02105275
6576.00   2.76735401   0.02096740
6578.00   2.76812375   0.02096167
6580.00   2.76192379   0.02102589
6582.00   2.76298976   0.02105601
6584.00   2.77593303   0.02099826
6586.00   2.79850149   0.02084614
6588.00   2.83005917   0.02049573
6590.00   2.87823045   0.01971649
6592.00   2.90578270   0.01977734
6594.00   2.92768049   0.02081600
6596.00   2.93296599   0.02120421
6598.00   2.91902268   0.02086676
6600.00   2.89797354   0.02035796
6602.00   2.87634683   0.02000712
6604.00   2.84873939   0.01959314
6606.00   2.84866297   0.01960731
6608.00   2.88176298   0.02022933
6610.00   2.89409852   0.02038246
6612.00   2.89428890   0.02017207
6614.00   2.88745236   0.01983462
6616.00   2.87035406   0.01942502
6618.00   2.84492350   0.01890735
6620.00   2.83880734   0.01861949
6622.00   2.85173428   0.01829587
6624.00   2.85180414   0.01847263
6626.00   2.84758389   0.01929149
6628.00   2.83997273   0.01990335
6630.00   2.82394123   0.02016815
6632.00   2.80707252   0.02019403
6634.00   2.81155205   0.01989784
6636.00   2.84494889   0.01906169
6638.00   2.83799577   0.01878274
6640.00   2.79919755   0.01892104
6642.00   2.76584601   0.01893288
6644.00   2.73254859   0.01880257
6646.00   2.70797920   0.01860465
6648.00   2.71311307   0.01832581
6650.00   2.74722457   0.01789924
6652.00   2.74256110   0.01801392
6654.00   2.70885038   0.01876149
6656.00   2.68510199   0.01910721
6658.00   2.66429973   0.01914521
6660.00   2.64585578   0.01913149
6662.00   2.63506222   0.01919691
6664.00   2.63068283   0.01932935
6666.00   2.61539435   0.01930860
6668.00   2.59463644   0.01924115
6670.00   2.56944287   0.01897167
6672.00   2.54033685   0.01846290
6674.00   2.50687599   0.01799461
6676.00   2.46149683   0.01760939
6678.00   2.41231537   0.01732132
6680.00   2.39619970   0.01754336
6682.00   2.41285956   0.01862266
6684.00   2.41426349   0.01879640
6686.00   2.41894162   0.01838934
6688.00   2.41546416   0.01794375
6690.00   2.40276206   0.01751680
6692.00   2.37876463   0.01708096
6694.00   2.33577287   0.01687813
6696.00   2.26799202   0.01682473
6698.00   2.21809506   0.01695592
6700.00   2.16455519   0.01743482
6702.00   2.13215435   0.01773033
6704.00   2.12797964   0.01775110
6706.00   2.13326299   0.01773925
6708.00   2.12991107   0.01796293
6710.00   2.12718022   0.01834520
6712.00   2.10659301   0.01833631
6714.00   2.06447268   0.01804966
6716.00   2.03228402   0.01770741
6718.00   2.00441569   0.01713179
6720.00   1.97916597   0.01661404
6722.00   1.96046525   0.01640013
6724.00   1.94534248   0.01636941
6726.00   1.91364986   0.01623402
6728.00   1.85265154   0.01572027
6730.00   1.82867014   0.01607708
6732.00   1.83414978   0.01756361
6734.00   1.84196854   0.01840814
6736.00   1.85172617   0.01810826
6738.00   1.85864365   0.01723183
6740.00   1.82664961   0.01657962
6742.00   1.74841839   0.01562210
6744.00   1.70450008   0.01520586
6746.00   1.67113423   0.01531353
6748.00   1.64700300   0.01535970
6750.00   1.63865131   0.01530797
6752.00   1.63186073   0.01523064
6754.00   1.60503238   0.01509102
6756.00   1.56486666   0.01480712
6758.00   1.53110147   0.01497001
6760.00   1.49026471   0.01575220
6762.00   1.46367598   0.01600847
6764.00   1.45799726   0.01571945
6766.00   1.45409226   0.01527675
6768.00   1.43261969   0.01492101
6770.00   1.39977896   0.01451469
6772.00   1.38176900   0.01436451
6774.00   1.37629640   0.01450535
6776.00   1.36286086   0.01451881
6778.00   1.34230530   0.01447000
6780.00   1.32429218   0.01441944
6782.00   1.31245965   0.01438204
6784.00   1.30235392   0.01434705
6786.00   1.28980100   0.01433728
6788.00   1.27741480   0.01439833
6790.00   1.26323611   0.01435251
6792.00   1.25151271   0.01403727
6794.00   1.22796899   0.01401308
6796.00   1.17923015   0.01452485
6798.00   1.12369633   0.01531551
6800.00   1.11057079   0.01593388
6802.00   1.13846409   0.01675120
6804.00   1.13392806   0.01670532
6806.00   1.11275595   0.01573527
6808.00   1.09447736   0.01497461
6810.00   1.08199573   0.01444139
6812.00   1.06891012   0.01405001
6814.00   1.04581124   0.01386066
6816.00   1.01220691   0.01384095
6818.00   0.99265113   0.01398524
6820.00   0.98205754   0.01427660
6822.00   0.97291297   0.01476175
6824.00   0.96223000   0.01551820
6826.00   0.95386937   0.01627307
6828.00   0.95636883   0.01688876
6830.00   0.96761593   0.01747188
6832.00   0.98244980   0.01755903
6834.00   1.02047879   0.01703907
6836.00   1.02440512   0.01680069
6838.00   0.98905608   0.01682061
6840.00   0.95434868   0.01672968
6842.00   0.94303232   0.01628225
6844.00   0.94071364   0.01559290
6846.00   0.92979261   0.01494711
6848.00   0.91510770   0.01398973
6850.00   0.90412810   0.01354306
6852.00   0.89040047   0.01337495
6854.00   0.88247654   0.01361578
6856.00   0.88583496   0.01434510
6858.00   0.89421269   0.01534933
6860.00   0.89856431   0.01630460
6862.00   0.90051070   0.01740883
6864.00   0.90966135   0.01824986
6866.00   0.92462823   0.01930870
6868.00   0.94094479   0.01964220
6870.00   0.96683785   0.01902603
6872.00   0.98459241   0.01795007
6874.00   0.96737635   0.01697065
6876.00   0.91959316   0.01569961
6878.00   0.89842379   0.01501164
6880.00   0.88121054   0.01476962
6882.00   0.88024881   0.01473815
6884.00   0.90333506   0.01510895
6886.00   0.92964572   0.01549520
6888.00   0.94354790   0.01559310
6890.00   0.95213848   0.01556140
6892.00   0.95845640   0.01563765
6894.00   0.96876609   0.01582438
6896.00   0.95958376   0.01583693
6898.00   0.92435831   0.01572643
6900.00   0.89373326   0.01555745
6902.00   0.87873849   0.01529118
6904.00   0.87319133   0.01499190
6906.00   0.87880048   0.01499535
6908.00   0.89998665   0.01532281
6910.00   0.91731131   0.01546635
6912.00   0.94471112   0.01545992
6914.00   0.95908925   0.01562757
6916.00   0.95413586   0.01617555
6918.00   0.94138342   0.01673584
6920.00   0.93218201   0.01676680
6922.00   0.91916853   0.01645683
6924.00   0.91634864   0.01605993
6926.00   0.92186341   0.01512800
6928.00   0.92748806   0.01468541
6930.00   0.93505725   0.01498270
6932.00   0.94446820   0.01541799
6934.00   0.95490929   0.01542837
6936.00   0.96642238   0.01520369
6938.00   0.98201400   0.01534966
6940.00   1.00828570   0.01576019
6942.00   1.02185220   0.01612106
6944.00   1.01959151   0.01657921
6946.00   1.01596558   0.01690183
6948.00   1.02303278   0.01694845
6950.00   1.03451318   0.01679368
6952.00   1.03192428   0.01639444
6954.00   1.01828438   0.01550050
6956.00   1.00504491   0.01489478
6958.00   0.97698075   0.01432628
6960.00   0.96636918   0.01398654
6962.00   0.99070597   0.01400297
6964.00   1.03266418   0.01426003
6966.00   1.05587286   0.01449022
6968.00   1.07416260   0.01479514
6970.00   1.08720350   0.01514791
6972.00   1.09855056   0.01562505
6974.00   1.09825033   0.01601832
6976.00   1.07745641   0.01641177
6978.00   1.05260223   0.01662897
6980.00   1.05130243   0.01632252
6982.00   1.06998724   0.01547176
6984.00   1.06162816   0.01491354
6986.00   1.02286559   0.01416528
6988.00   1.00979638   0.01390221
6990.00   1.02790135   0.01437505
6992.00   1.04967445   0.01487764
6994.00   1.05366266   0.01486581
6996.00   1.04865336   0.01459330
6998.00   1.05363399   0.01449223
7000.00   1.06968427   0.01435226
7002.00   1.07316351   0.01437827
7004.00   1.06176215   0.01465472
7006.00   1.05240250   0.01486401
7008.00   1.05664790   0.01483302
7010.00   1.06834394   0.01466387
7012.00   1.06350416   0.01448863
7014.00   1.03814459   0.01416176
7016.00   1.03277683   0.01400190
7018.00   1.04177278   0.01389909
7020.00   1.05295575   0.01393913
7022.00   1.06399268   0.01417093
7024.00   1.07681811   0.01450952
7026.00   1.08832878   0.01481930
7028.00   1.10153341   0.01530423
7030.00   1.10587126   0.01531741
7032.00   1.10497546   0.01486894
7034.00   1.09838015   0.01451003
7036.00   1.07945883   0.01419941
7038.00   1.05952132   0.01398801
7040.00   1.05463231   0.01408787
7042.00   1.05700868   0.01446371
7044.00   1.06880754   0.01472824
7046.00   1.10475045   0.01513286
7048.00   1.11823601   0.01528784
7050.00   1.10124987   0.01505447
7052.00   1.08334279   0.01485236
7054.00   1.09199274   0.01514727
7056.00   1.11728692   0.01579281
7058.00   1.11444825   0.01576367
7060.00   1.09010673   0.01515867
7062.00   1.07134712   0.01474168
7064.00   1.04304713   0.01422913
7066.00   1.02863324   0.01398605
7068.00   1.04931837   0.01432272
7070.00   1.08883762   0.01497988
7072.00   1.09024662   0.01526203
7074.00   1.05486447   0.01548728
7076.00   1.04955649   0.01546195
7078.00   1.06141752   0.01505619
7080.00   1.07267332   0.01478251
7082.00   1.08330739   0.01478872
7084.00   1.09023607   0.01491460
7086.00   1.08061731   0.01496287
7088.00   1.05039430   0.01507673
7090.00   1.04028779   0.01494860
7092.00   1.04085928   0.01453113
7094.00   1.04352790   0.01421837
7096.00   1.04587841   0.01396172
7098.00   1.05122423   0.01387013
7100.00   1.06463122   0.01415884
7102.00   1.08711952   0.01477021
7104.00   1.09149063   0.01515960
7106.00   1.08340222   0.01572493
7108.00   1.07266456   0.01580382
7110.00   1.04863966   0.01511046
7112.00   1.03517234   0.01454887
7114.00   1.05406171   0.01490139
7116.00   1.09348142   0.01570696
7118.00   1.09256548   0.01597343
7120.00   1.05175298   0.01612985
7122.00   1.03889012   0.01600623
7124.00   1.04489321   0.01535253
7126.00   1.05121386   0.01473561
7128.00   1.05208164   0.01441654
7130.00   1.05243397   0.01423723
7132.00   1.04580063   0.01425965
7134.00   1.02774227   0.01469039
7136.00   1.01669788   0.01477059
7138.00   1.00479358   0.01468039
7140.00   1.00034112   0.01453694
7142.00   1.00535995   0.01431724
7144.00   1.01709789   0.01406350
7146.00   1.03040814   0.01393291
7148.00   1.05306691   0.01379428
7150.00   1.05390316   0.01395336
7152.00   1.03093988   0.01457524
7154.00   1.01937863   0.01487017
7156.00   1.01777104   0.01459926
7158.00   1.02326477   0.01434937
7160.00   1.04185739   0.01484700
7162.00   1.07649970   0.01585727
7164.00   1.07873833   0.01600189
7166.00   1.04901442   0.01552676
7168.00   1.03603816   0.01516472
7170.00   1.03795975   0.01471793
7172.00   1.03863853   0.01432139
7174.00   1.02743196   0.01410734
7176.00   1.01018941   0.01401015
7178.00   1.00440857   0.01386978
7180.00   1.00650892   0.01365466
7182.00   1.00838745   0.01366157
7184.00   1.00844049   0.01392945
7186.00   1.01480138   0.01412628
7188.00   1.03444231   0.01414673
7190.00   1.06096685   0.01410501
7192.00   1.07761586   0.01417028
7194.00   1.09206021   0.01438082
7196.00   1.09732074   0.01438650
7198.00   1.08441907   0.01397948
7200.00   1.08529735   0.01405463
7202.00   1.11140406   0.01501893
7204.00   1.14198500   0.01598097
7206.00   1.14769489   0.01599249
7208.00   1.13668489   0.01539000
7210.00   1.12797600   0.01491574
7212.00   1.09856343   0.01399906
7214.00   1.10066521   0.01358215
7216.00   1.14791179   0.01380687
7218.00   1.19592935   0.01420060
7220.00   1.20572942   0.01451094
7222.00   1.19288069   0.01492231
7224.00   1.18256450   0.01494043
7226.00   1.15071297   0.01435388
7228.00   1.14770329   0.01435188
7230.00   1.17282563   0.01427064
7232.00   1.20409459   0.01517988
7234.00   1.22767377   0.01787805
7236.00   1.24920189   0.02125452
7238.00   1.27800012   0.02294223
7240.00   1.33340752   0.02435209
7242.00   1.34108561   0.02455899
7244.00   1.29772907   0.02343941
7246.00   1.26548284   0.02210951
7248.00   1.25962722   0.02067019
7250.00   1.26724291   0.01915909
7252.00   1.29371631   0.01878997
7254.00   1.36210096   0.01996244
7256.00   1.38222063   0.01968986
7258.00   1.36669004   0.01841960
7260.00   1.35615522   0.01730824
7262.00   1.35431433   0.01629951
7264.00   1.35591257   0.01563584
7266.00   1.36625689   0.01606595
7268.00   1.38732898   0.01725029
7270.00   1.40006167   0.01906688
7272.00   1.41053754   0.02225016
7274.00   1.41853505   0.02392067
7276.00   1.42530674   0.02456762
7278.00   1.42730021   0.02450192
7280.00   1.41898936   0.02359383
7282.00   1.40000015   0.02167831
7284.00   1.39431429   0.02059906
7286.00   1.39270943   0.01980177
7288.00   1.40026236   0.01929246
7290.00   1.42314780   0.01924157
7292.00   1.44008034   0.01918542
7294.00   1.43950987   0.01899117
7296.00   1.42880964   0.01875738
7298.00   1.42377383   0.01832850
7300.00   1.42437798   0.01749679
7302.00   1.41273832   0.01713697
7304.00   1.37994218   0.01695615
7306.00   1.36242986   0.01708836
7308.00   1.36992776   0.01764116
7310.00   1.39661825   0.01847736
7312.00   1.43693596   0.01940613
7314.00   1.50539452   0.02075986
7316.00   1.54199606   0.02124468
7318.00   1.56789070   0.02128837
7320.00   1.57473099   0.02095721
7322.00   1.55433851   0.01997150
7324.00   1.52811378   0.01879233
7326.00   1.52029037   0.01812159
7328.00   1.51871920   0.01764171
7330.00   1.53861594   0.01783498
7332.00   1.59886146   0.01869339
7334.00   1.62500906   0.01966662
7336.00   1.61297131   0.02111359
7338.00   1.59923464   0.02231622
7340.00   1.60547590   0.02286934
7342.00   1.62043250   0.02305739
7344.00   1.64617759   0.02253738
7346.00   1.69715983   0.02077404
7348.00   1.72401184   0.01965298
7350.00   1.73620719   0.01876965
7352.00   1.73869628   0.01820301
7354.00   1.73216915   0.01809739
7356.00   1.71769583   0.01833533
7358.00   1.70466149   0.01844592
7360.00   1.68011284   0.01842766
7362.00   1.68191612   0.01892668
7364.00   1.71429008   0.01997660
7366.00   1.73228276   0.02082362
7368.00   1.72864443   0.02157959
7370.00   1.71525013   0.02205815
7372.00   1.70138758   0.02165904
7374.00   1.67644745   0.02035157
7376.00   1.67837322   0.01929040
7378.00   1.70937896   0.01776525
7380.00   1.72679448   0.01671264
7382.00   1.72761142   0.01624743
7384.00   1.72588533   0.01619535
7386.00   1.73169625   0.01646778
7388.00   1.73957002   0.01714584
7390.00   1.76572275   0.01763571
7392.00   1.82767510   0.01815339
7394.00   1.85282862   0.01863246
7396.00   1.84847474   0.01917582
7398.00   1.82811058   0.01956680
7400.00   1.79168946   0.01970560
7402.00   1.74067456   0.01966063
7404.00   1.72283745   0.01929662
7406.00   1.73320371   0.01841643
7408.00   1.73279053   0.01773878
7410.00   1.72678858   0.01699696
7412.00   1.72681230   0.01641557
7414.00   1.74351311   0.01608264
7416.00   1.76570261   0.01595877
7418.00   1.76377857   0.01613220
7420.00   1.73992252   0.01665228
7422.00   1.72596282   0.01728153
7424.00   1.70926309   0.01837019
7426.00   1.69942760   0.01902166
7428.00   1.69836897   0.01916205
7430.00   1.70065701   0.01897153
7432.00   1.69737643   0.01861645
7434.00   1.68997806   0.01787401
7436.00   1.68104988   0.01782384
7438.00   1.66754043   0.01852487
7440.00   1.65800327   0.01874368
7442.00   1.64610904   0.01859247
7444.00   1.63949353   0.01815636
7446.00   1.65034622   0.01730381
7448.00   1.67439008   0.01595109
7450.00   1.67932326   0.01551870
7452.00   1.67061478   0.01585191
7454.00   1.66645050   0.01609160
7456.00   1.65914470   0.01645928
7458.00   1.65705597   0.01687265
7460.00   1.66387683   0.01729464
7462.00   1.67523384   0.01776068
7464.00   1.69032788   0.01807511
7466.00   1.71658337   0.01831980
7468.00   1.73136812   0.01845586
7470.00   1.74060309   0.01836665
7472.00   1.74445868   0.01843946
7474.00   1.74164087   0.01886276
7476.00   1.73136073   0.01939663
7478.00   1.71560657   0.01965287
7480.00   1.68513012   0.01988049
7482.00   1.67660034   0.01967589
7484.00   1.68257707   0.01892064
7486.00   1.69270104   0.01827590
7488.00   1.70851696   0.01772070
7490.00   1.72466081   0.01726037
7492.00   1.73044240   0.01706153
7494.00   1.72620147   0.01711549
7496.00   1.73880583   0.01708807
7498.00   1.77271628   0.01721156
7500.00   1.78789896   0.01710296
7502.00   1.78035790   0.01662333
7504.00   1.76997685   0.01618883
7506.00   1.77400255   0.01617819
7508.00   1.78649867   0.01643544
7510.00   1.78982186   0.01657983
7512.00   1.78542674   0.01658544
7514.00   1.78736728   0.01695273
7516.00   1.78801978   0.01751896
7518.00   1.79811692   0.01833696
7520.00   1.83098066   0.01964487
7522.00   1.87668687   0.02112339
7524.00   1.89419818   0.02160051
7526.00   1.89234704   0.02136012
7528.00   1.89157945   0.02114708
7530.00   1.87306589   0.02059094
7532.00   1.87246299   0.02007633
7534.00   1.91097492   0.01981935
7536.00   1.95860475   0.01954809
7538.00   1.95804524   0.01875652
7540.00   1.91422105   0.01708652
7542.00   1.90789390   0.01693968
7544.00   1.92558110   0.01814787
7546.00   1.93322927   0.01906359
7548.00   1.92649221   0.01999707
7550.00   1.91866517   0.02058807
7552.00   1.92150128   0.02001861
7554.00   1.93320984   0.01821298
7556.00   1.92792201   0.01786631
7558.00   1.90510029   0.01861666
7560.00   1.89193040   0.01904119
7562.00   1.88262206   0.01933003
7564.00   1.88411570   0.01950169
7566.00   1.90558881   0.01955399
7568.00   1.94236314   0.01955419
7570.00   1.96116209   0.01975416
7572.00   1.96208990   0.02033365
7574.00   1.98296636   0.02037120
7576.00   2.02997726   0.01992575
7578.00   2.06092715   0.01944157
7580.00   2.05560827   0.01906538
7582.00   2.03203332   0.01871546
7584.00   2.02501118   0.01853729
7586.00   2.02304447   0.01836047
7588.00   2.02276862   0.01867583
7590.00   2.01767731   0.01887955
7592.00   2.02756351   0.02017338
7594.00   2.07352257   0.02227729
7596.00   2.12510943   0.02522660
7598.00   2.12219286   0.02970009
7600.00   2.08565676   0.03598121
7602.00   2.03634417   0.03804478
7604.00   1.92788547   0.03806167
7606.00   1.87721252   0.03708544
7608.00   1.90990579   0.03429092
7610.00   1.95974469   0.03072599
7612.00   1.96542174   0.02806377
7614.00   1.95268857   0.02560870
7616.00   1.93645698   0.02383577
7618.00   1.89573538   0.02283131
7620.00   1.88219905   0.02248845
7622.00   1.88639092   0.02297195
7624.00   1.90381128   0.02399643
7626.00   1.94075328   0.02557379
7628.00   1.99519718   0.02754595
7630.00   2.04013312   0.02850419
7632.00   2.10995507   0.02918950
7634.00   2.12170756   0.02907768
7636.00   2.09042001   0.02807102
7638.00   2.03252560   0.02673496
7640.00   1.94082791   0.02499260
7642.00   1.82860333   0.02285097
7644.00   1.75222450   0.02136821
7646.00   1.68720549   0.02030400
7648.00   1.64444798   0.01955609
7650.00   1.62008202   0.01925512
7652.00   1.61666453   0.01929486
7654.00   1.64271653   0.01989012
7656.00   1.67925936   0.02062297
7658.00   1.69450575   0.02075200
7660.00   1.69447416   0.02045479
7662.00   1.71496660   0.02037260
7664.00   1.76318806   0.02043056
7666.00   1.78397191   0.02025791
7668.00   1.76582056   0.01972150
7670.00   1.74371654   0.01915363
7672.00   1.75358182   0.01890719
7674.00   1.78431362   0.01887149
7676.00   1.76437247   0.01853860
7678.00   1.68163180   0.01774369
7680.00   1.65122151   0.01751977
7682.00   1.67819339   0.01799716
7684.00   1.69344085   0.01835870
7686.00   1.65231544   0.01816035
7688.00   1.58192831   0.01769461
7690.00   1.55682266   0.01758152
7692.00   1.56081623   0.01762850
7694.00   1.56062460   0.01775163
7696.00   1.56991822   0.01810025
7698.00   1.57351673   0.01832191
7700.00   1.56539673   0.01819712
7702.00   1.55336583   0.01799779
7704.00   1.55299997   0.01832866
7706.00   1.55390066   0.01856177
7708.00   1.58162254   0.02028453
7710.00   1.64478606   0.02338011
7712.00   1.69412768   0.02581365
7714.00   1.72365904   0.02783656
7716.00   1.75067735   0.02944751
7718.00   1.79469448   0.03041925
7720.00   1.85527325   0.03109975
7722.00   1.86084980   0.02986502
7724.00   1.80231690   0.02536947
7726.00   1.78177005   0.02233522
7728.00   1.80246538   0.02109356
7730.00   1.81661052   0.02041673
7732.00   1.78881854   0.01949367
7734.00   1.73417908   0.01874395
7736.00   1.71602374   0.01819130
7738.00   1.71768415   0.01752009
7740.00   1.72416419   0.01782434
7742.00   1.74078107   0.01888487
7744.00   1.75973815   0.02047860
7746.00   1.77583659   0.02277025
7748.00   1.78898150   0.02526206
7750.00   1.81192601   0.02635310
7752.00   1.85717243   0.02688924
7754.00   1.87127876   0.02660362
7756.00   1.85645545   0.02494422
7758.00   1.84598476   0.02348169
7760.00   1.84469163   0.02274449
7762.00   1.84937543   0.02219831
7764.00   1.86644346   0.02124122
7766.00   1.90124571   0.01983460
7768.00   1.91406494   0.01917693
7770.00   1.89123660   0.01890567
7772.00   1.90984970   0.01916537
7774.00   1.99519920   0.02033390
7776.00   2.08733428   0.02153513
7778.00   2.11210454   0.02174783
7780.00   2.08854735   0.02128223
7782.00   2.11937463   0.02136228
7784.00   2.19345629   0.02126989
7786.00   2.24015963   0.02200289
7788.00   2.27256596   0.02375814
7790.00   2.29157174   0.02543534
7792.00   2.28928268   0.02662681
7794.00   2.26939487   0.02768519
7796.00   2.24710321   0.02750367
7798.00   2.20473182   0.02589492
7800.00   2.18212652   0.02457024
7802.00   2.17518806   0.02284079
7804.00   2.17175508   0.02152770
7806.00   2.16554880   0.02112816
7808.00   2.16517091   0.02134824
7810.00   2.18560946   0.02153627
7812.00   2.20791388   0.02148077
7814.00   2.27770686   0.02274312
7816.00   2.40561068   0.02512011
7818.00   2.52362728   0.02730479
7820.00   2.64489245   0.02986967
7822.00   2.73923206   0.03185340
7824.00   2.72929847   0.03105950
7826.00   2.62295020   0.02718308
7828.00   2.55246460   0.02523987
7830.00   2.45814323   0.02389097
7832.00   2.39408708   0.02294197
7834.00   2.36082757   0.02256221
7836.00   2.34451079   0.02246908
7838.00   2.34330380   0.02226021
7840.00   2.36080253   0.02206125
7842.00   2.36330414   0.02220149
7844.00   2.35313368   0.02233293
7846.00   2.35933483   0.02320548
7848.00   2.37362790   0.02475750
7850.00   2.40075755   0.02654750
7852.00   2.44996810   0.02865865
7854.00   2.51410925   0.03089572
7856.00   2.55101991   0.03133790
7858.00   2.58070266   0.03025636
7860.00   2.58713293   0.02932913
7862.00   2.56533396   0.02767737
7864.00   2.53715372   0.02628329
7866.00   2.50645852   0.02563759
7868.00   2.47189450   0.02539010
7870.00   2.44587553   0.02499183
7872.00   2.43972099   0.02446088
7874.00   2.39134252   0.02464515
7876.00   2.28371000   0.02585865
7878.00   2.21899498   0.02636736
7880.00   2.22147501   0.02598865
7882.00   2.24933660   0.02527707
7884.00   2.25475347   0.02469496
7886.00   2.25792742   0.02396600
7888.00   2.24707663   0.02363426
7890.00   2.21110523   0.02393767
7892.00   2.19653523   0.02365149
7894.00   2.20411885   0.02259000
7896.00   2.21816874   0.02141608
7898.00   2.22440743   0.02068293
7900.00   2.22576988   0.02010200
7902.00   2.24621642   0.02019864
7904.00   2.30117071   0.02023264
7906.00   2.31681252   0.02198317
7908.00   2.28673637   0.02559000
7910.00   2.26323104   0.02871303
7912.00   2.27142346   0.03080659
7914.00   2.29485404   0.03234984
7916.00   2.32538414   0.03278690
7918.00   2.38976133   0.03215858
7920.00   2.40946651   0.03130936
7922.00   2.39270568   0.02927982
7924.00   2.37314665   0.02768454
7926.00   2.35684812   0.02720445
7928.00   2.33982265   0.02721729
7930.00   2.33551240   0.02726451
7932.00   2.35740447   0.02830293
7934.00   2.33317649   0.02734133
7936.00   2.26941884   0.02368748
7938.00   2.21036923   0.02125780
7940.00   2.14381671   0.02107957
7942.00   2.09325516   0.02182741
7944.00   2.10716474   0.02257663
7946.00   2.18184197   0.02394232
7948.00   2.20523524   0.02440445
7950.00   2.21981883   0.02425326
7952.00   2.20580375   0.02421136
7954.00   2.14707899   0.02415999
7956.00   2.08672941   0.02410233
7958.00   2.06359375   0.02407971
7960.00   2.05959439   0.02412398
7962.00   2.00861454   0.02473253
7964.00   1.92336065   0.02638179
7966.00   1.83649105   0.02678915
7968.00   1.70501429   0.02625219
7970.00   1.62012488   0.02554519
7972.00   1.64161009   0.02491910
7974.00   1.72116798   0.02420878
7976.00   1.73579478   0.02331458
7978.00   1.71643978   0.02148621
7980.00   1.71503395   0.02119597
7982.00   1.70656759   0.02215804
7984.00   1.71644098   0.02341978
7986.00   1.76331592   0.02500329
7988.00   1.81982929   0.02658973
7990.00   1.83055043   0.02713396
7992.00   1.79831827   0.02692162
7994.00   1.80531907   0.02651240
7996.00   1.86418498   0.02563599
7998.00   1.86317354   0.02454652
8000.00   1.77302545   0.02279752
8002.00   1.66588426   0.02105208
8004.00   1.61492294   0.02051337
8006.00   1.59021705   0.02100602
8008.00   1.57236463   0.02074055
8010.00   1.59025061   0.01984666
8012.00   1.57344854   0.01968665
8014.00   1.51360857   0.02030141
8016.00   1.45708972   0.02115157
8018.00   1.43468446   0.02194732
8020.00   1.43120849   0.02286045
8022.00   1.42882913   0.02368902
8024.00   1.45425004   0.02462042
8026.00   1.43995875   0.02524738
8028.00   1.38441402   0.02621379
8030.00   1.33392125   0.02620057
8032.00   1.30309826   0.02428288
8034.00   1.28473365   0.02099844
8036.00   1.28817868   0.01890932
8038.00   1.33334887   0.01718813
8040.00   1.33188480   0.01616228
8042.00   1.29501432   0.01623213
8044.00   1.26634037   0.01648080
8046.00   1.24914789   0.01687053
8048.00   1.23814911   0.01741084
8050.00   1.23854655   0.01787430
8052.00   1.24904805   0.01825489
8054.00   1.27407706   0.01912916
8056.00   1.32282293   0.02036862
8058.00   1.36232167   0.02162191
8060.00   1.40919858   0.02355121
8062.00   1.43493998   0.02469899
8064.00   1.40268791   0.02356691
8066.00   1.32462645   0.02037847
8068.00   1.26826262   0.01865907
8070.00   1.19979542   0.01737532
8072.00   1.15446568   0.01652680
8074.00   1.12637961   0.01648354
8076.00   1.11469942   0.01667401
8078.00   1.12807959   0.01676136
8080.00   1.16183984   0.01690514
8082.00   1.16802096   0.01714299
8084.00   1.16673547   0.01722521
8086.00   1.14694697   0.01793276
8088.00   1.09196758   0.01969491
8090.00   1.05198342   0.02059181
8092.00   1.05092371   0.01977788
8094.00   1.07146418   0.01814048
8096.00   1.07899505   0.01804552
8098.00   1.08233929   0.01933528
8100.00   1.09021080   0.01945606
8102.00   1.09497499   0.01879972
8104.00   1.11219460   0.01843831
8106.00   1.15420067   0.01879429
8108.00   1.19572192   0.01923163
8110.00   1.19525909   0.01885018
8112.00   1.15705293   0.01769668
8114.00   1.14950919   0.01723707
8116.00   1.15869337   0.01717808
8118.00   1.16207701   0.01710956
8120.00   1.16123641   0.01709962
8122.00   1.15544009   0.01707436
8124.00   1.14318514   0.01688458
8126.00   1.12587512   0.01657621
8128.00   1.09738517   0.01642240
8130.00   1.04544413   0.01640588
8132.00   1.01584673   0.01628715
8134.00   1.00596514   0.01605860
8136.00   0.99886271   0.01591182
8138.00   0.98964107   0.01595360
8140.00   0.98147577   0.01609908
8142.00   0.96300110   0.01608569
8144.00   0.91909966   0.01595926
8146.00   0.91432798   0.01588379
8148.00   0.94695851   0.01581357
8150.00   0.97166106   0.01574499
8152.00   0.98035151   0.01560145
8154.00   0.98201817   0.01552006
8156.00   0.97205332   0.01585139
8158.00   0.93738678   0.01670223
8160.00   0.94077912   0.01681556
8162.00   0.98609081   0.01633103
8164.00   1.00550866   0.01602574
8166.00   0.98672447   0.01581303
8168.00   0.96013749   0.01577819
8170.00   0.95476139   0.01608646
8172.00   0.95618361   0.01642846
8174.00   0.96812689   0.01803877
8176.00   0.99988919   0.02107658
8178.00   1.01987991   0.02295527
8180.00   1.02437600   0.02369445
8182.00   1.03215468   0.02451521
8184.00   1.05767223   0.02637070
8186.00   1.09220374   0.02861595
8188.00   1.10060397   0.02946556
8190.00   1.09428421   0.02948903
8192.00   1.07690546   0.02929182
8194.00   1.03059536   0.02838072
8196.00   0.99659544   0.02738076
8198.00   1.00395203   0.02672634
8200.00   1.03139371   0.02613194
8202.00   1.00679982   0.02497423
8204.00   0.94203329   0.02309347
8206.00   0.88073888   0.02152748
8208.00   0.79534337   0.01976822
8210.00   0.73138380   0.01842041
8212.00   0.69972521   0.01789686
8214.00   0.68150201   0.01775107
8216.00   0.65770125   0.01715772
8218.00   0.64046532   0.01636768
8220.00   0.61322349   0.01575115
8222.00   0.57818210   0.01520022
8224.00   0.54411918   0.01472365
8226.00   0.50721085   0.01432827
8228.00   0.47141024   0.01399362
8230.00   0.44700424   0.01369134
8232.00   0.43256058   0.01340075
8234.00   0.41554746   0.01344871
8236.00   0.40026329   0.01395061
8238.00   0.38554178   0.01420451
8240.00   0.36922972   0.01410335
8242.00   0.35576093   0.01416107
8244.00   0.35296285   0.01490475
8246.00   0.35892169   0.01606549
8248.00   0.35249254   0.01624620
8250.00   0.33321358   0.01565223
8252.00   0.32557476   0.01526791
8254.00   0.32877117   0.01481265
8256.00   0.33072831   0.01441162
8258.00   0.32660528   0.01414945
8260.00   0.31923412   0.01400969
8262.00   0.31068166   0.01403653
8264.00   0.29691221   0.01396579
8266.00   0.28767566   0.01469436
8268.00   0.27811287   0.01612481
8270.00   0.27491169   0.01746525
8272.00   0.27780157   0.01860850
8274.00   0.28420683   0.01972272
8276.00   0.29286626   0.02092033
8278.00   0.31150913   0.02209130
8280.00   0.29463557   0.02347733
8282.00   0.24849023   0.02550180
8284.00   0.19869721   0.02656807
8286.00   0.13136704   0.02663700
8288.00   0.06907773   0.02631011
8290.00   0.03799746   0.02589372
8292.00   0.02659040   0.02507310
8294.00   0.02588860   0.02553790
8296.00   0.05785591   0.02786619
8298.00   0.06303326   0.02827493
8300.00   0.03165507   0.02712852
8302.00   0.01165842   0.02532553
8304.00   0.03849303   0.02296806
8306.00   0.09199032   0.01975756
8308.00   0.11527185   0.01800067
8310.00   0.13123180   0.01793603
8312.00   0.13064367   0.01719503
8314.00   0.09139277   0.01633474
8316.00   0.07712330   0.01556018
8318.00   0.11950860   0.01490265
8320.00   0.18735100   0.01439908
8322.00   0.21790100   0.01423542
8324.00   0.22827559   0.01451811
8326.00   0.24102890   0.01455835
8328.00   0.25388004   0.01432990
8330.00   0.25352925   0.01451390
8332.00   0.23574186   0.01447032
8334.00   0.21249072   0.01541156
8336.00   0.19422127   0.01893832
8338.00   0.17700722   0.02358797
8340.00   0.15196583   0.02774466
8342.00   0.11775925   0.03350547
8344.00   0.08700089   0.03601381
8346.00   0.04454963   0.03591022
8348.00   0.02265294   0.03443699
8350.00   0.06091140   0.03190742
8352.00   0.14759096   0.02746866
8354.00   0.19131121   0.02492998
8356.00   0.22690157   0.02381494
8358.00   0.24079560   0.02270878
8360.00   0.21580730   0.02221086
8362.00   0.20138121   0.02168398
8364.00   0.23214801   0.02057133
8366.00   0.28542159   0.01906623
8368.00   0.29463308   0.01815512
8370.00   0.25684073   0.01748681
8372.00   0.26169613   0.01736710
8374.00   0.29452841   0.01728536
8376.00   0.32870552   0.01839082
8378.00   0.36967577   0.02151038
8380.00   0.40158591   0.02465006
8382.00   0.37369476   0.02511370
8384.00   0.27019636   0.02355132
8386.00   0.25404122   0.02315383
8388.00   0.31174296   0.02254649
8390.00   0.33584473   0.02288901
8392.00   0.31261167   0.02441205
8394.00   0.27398239   0.02634521
8396.00   0.24987178   0.02837558
8398.00   0.22733189   0.03108575
8400.00   0.21195685   0.03095102
8402.00   0.19538995   0.02806417
8404.00   0.19733969   0.02552888
8406.00   0.22161001   0.02199702
8408.00   0.25516256   0.01932148
8410.00   0.29219468   0.02073956
8412.00   0.33622424   0.02465740
8414.00   0.35474136   0.02500990
8416.00   0.34659392   0.02271158
8418.00   0.35363932   0.02203710
8420.00   0.36420044   0.02108554
8422.00   0.37341778   0.02232013
8424.00   0.38664434   0.02747291
8426.00   0.40103055   0.03332619
8428.00   0.41836900   0.03495438
8430.00   0.45735392   0.03429102
8432.00   0.45617212   0.03349593
8434.00   0.41854116   0.03185315
8436.00   0.38179596   0.02918758
8438.00   0.34611034   0.02415599
8440.00   0.31414324   0.01729790
8442.00   0.30767187   0.01425186
8444.00   0.33008684   0.01556237
8446.00   0.31716810   0.01686408
8448.00   0.27023648   0.02060815
8450.00   0.24562424   0.02245578
8452.00   0.24762528   0.02241334
8454.00   0.25960156   0.02181474
8456.00   0.26422653   0.02170335
8458.00   0.26556887   0.02141496
8460.00   0.29329318   0.02300305
8462.00   0.35573018   0.02682995
8464.00   0.39593022   0.02864828
8466.00   0.42992748   0.02970650
8468.00   0.44348611   0.02944820
8470.00   0.41609679   0.02655865
8472.00   0.35696697   0.02068315
8474.00   0.33567232   0.01729180
8476.00   0.32594535   0.01579076
8478.00   0.33640566   0.01443645
8480.00   0.37541403   0.01404496
8482.00   0.40976979   0.01430407
8484.00   0.43432063   0.01522397
8486.00   0.45227519   0.01655117
8488.00   0.44767430   0.01739768
8490.00   0.40095736   0.01812487
8492.00   0.40820383   0.01878972
8494.00   0.46760714   0.01922504
8496.00   0.50264096   0.01988998
8498.00   0.48913737   0.02094784
8500.00   0.46461278   0.02204438
8502.00   0.48861714   0.02281217
8504.00   0.56293374   0.02366560
8506.00   0.55603480   0.02342821
8508.00   0.46324074   0.02214168
8510.00   0.42327581   0.02064453
8512.00   0.44098514   0.01846682
8514.00   0.47679049   0.01624162
8516.00   0.50717609   0.01514207
8518.00   0.54514387   0.01497244
8520.00   0.56659883   0.01476466
8522.00   0.56887114   0.01511183
8524.00   0.58594945   0.01521469
8526.00   0.61135137   0.01503792
8528.00   0.64528948   0.01503337
8530.00   0.69467872   0.01548238
8532.00   0.75410590   0.01618379
8534.00   0.77944735   0.01681270
8536.00   0.77601305   0.01753609
8538.00   0.77797505   0.01816595
8540.00   0.76749766   0.01873463
8542.00   0.76849645   0.01929100
8544.00   0.78948712   0.01986261
8546.00   0.82117131   0.02040266
8548.00   0.85500288   0.02088699
8550.00   0.90828872   0.02166755
8552.00   0.93336532   0.02151607
8554.00   0.92807895   0.02048017
8556.00   0.93841535   0.01940135
8558.00   0.97402555   0.01818190
8560.00   1.01969594   0.01697915
8562.00   1.06479001   0.01645120
8564.00   1.12238920   0.01639269
8566.00   1.14840341   0.01681647
8568.00   1.13189286   0.01823584
8570.00   1.14761913   0.01893706
8572.00   1.20488155   0.01884745
8574.00   1.26774400   0.01862213
8576.00   1.30868787   0.01877436
8578.00   1.34112644   0.01904701
8580.00   1.35982734   0.01916742
8582.00   1.34209651   0.01897179
8584.00   1.36591369   0.01930332
8586.00   1.43766904   0.02013227
8588.00   1.50246489   0.02102437
8590.00   1.53088242   0.02190309
8592.00   1.54251683   0.02277616
8594.00   1.56349325   0.02280172
8596.00   1.58953679   0.02194777
8598.00   1.60167032   0.02132330
8600.00   1.59920377   0.02047285
8602.00   1.60056651   0.01982458
8604.00   1.60809910   0.01936884
8606.00   1.62108439   0.01928170
8608.00   1.64596701   0.02004706
8610.00   1.68919212   0.02132983
8612.00   1.70900166   0.02317747
8614.00   1.69830942   0.02611210
8616.00   1.71654767   0.02804610
8618.00   1.77953267   0.02898795
8620.00   1.84733719   0.02958487
8622.00   1.87476331   0.03011727
8624.00   1.87254816   0.03029257
8626.00   1.88505787   0.03093230
8628.00   1.89460123   0.03234263
8630.00   1.91502577   0.03273235
8632.00   1.95691997   0.03207546
8634.00   1.98089361   0.03105604
8636.00   1.95108920   0.02988359
8638.00   1.88012028   0.02824530
8640.00   1.85186511   0.02757863
8642.00   1.83526421   0.02761714
8644.00   1.84098941   0.02789010
8646.00   1.87833112   0.02850700
8648.00   1.90962809   0.02936847
8650.00   1.92058343   0.03045591
8652.00   1.92489874   0.03170646
8654.00   1.93325984   0.03263046
8656.00   1.93398315   0.03356766
8658.00   1.95201325   0.03401912
8660.00   1.99522197   0.03420556
8662.00   2.02129126   0.03392533
8664.00   2.01826727   0.03319882
8666.00   2.00513858   0.03217787
8668.00   2.00506186   0.03088711
8670.00   2.01075935   0.02895585
8672.00   2.00363141   0.02777473
8674.00   1.98385042   0.02712512
8676.00   1.97038805   0.02655758
8678.00   1.96351218   0.02619627
8680.00   1.95195389   0.02593090
8682.00   1.93090928   0.02557426
8684.00   1.90585083   0.02528241
8686.00   1.87855673   0.02471986
8688.00   1.82464951   0.02341760
8690.00   1.81665850   0.02307720
8692.00   1.86207658   0.02416089
8694.00   1.91648871   0.02507463
8696.00   1.96086621   0.02485642
8698.00   2.00978833   0.02408907
8700.00   2.02582860   0.02341277
8702.00   1.98812020   0.02205386
8704.00   2.00583971   0.02169685
8706.00   2.05957866   0.02193401
8708.00   2.12935472   0.02296162
8710.00   2.24093556   0.02522640
8712.00   2.35326660   0.02769528
8714.00   2.32532632   0.02825989
8716.00   2.14069176   0.02774343
8718.00   2.08204150   0.02664199
8720.00   2.08832669   0.02365807
8722.00   2.08815885   0.02156054
8724.00   2.07703257   0.02118248
8726.00   2.06264794   0.02148532
8728.00   2.04197776   0.02143533
8730.00   2.01243341   0.02150323
8732.00   1.99009216   0.02152222
8734.00   1.96133667   0.02149739
8736.00   1.95309591   0.02157772
8738.00   1.97069430   0.02163868
8740.00   1.99304682   0.02188771
8742.00   2.00223452   0.02264240
8744.00   2.00703073   0.02378902
8746.00   2.03113377   0.02427050
8748.00   2.08129382   0.02385874
8750.00   2.10917401   0.02449470
8752.00   2.12493122   0.02534239
8754.00   2.12951362   0.02740183
8756.00   2.12300003   0.03124248
8758.00   2.10337245   0.03587979
8760.00   2.06814420   0.03926676
8762.00   1.96680033   0.04285013
8764.00   1.97280800   0.04490140
8766.00   2.08346838   0.04605545
8768.00   2.17597461   0.04636948
8770.00   2.21406746   0.04576955
8772.00   2.22406507   0.04452796
8774.00   2.22424066   0.04350891
8776.00   2.19610846   0.04264437
8778.00   2.19166303   0.04099885
8780.00   2.21163273   0.03843638
8782.00   2.20818806   0.03578619
8784.00   2.16555977   0.03283912
8786.00   2.11268878   0.03001416
8788.00   2.08916938   0.02865524
8790.00   2.08394265   0.02887371
8792.00   2.07649827   0.02812569
8794.00   2.05486828   0.02700822
8796.00   2.07440335   0.02610327
8798.00   2.14249277   0.02502040
8800.00   2.22857738   0.02455603
8802.00   2.31698740   0.02581698
8804.00   2.42043412   0.02828013
8806.00   2.48681855   0.02871062
8808.00   2.53802955   0.02764814
8810.00   2.55784822   0.02714499
8812.00   2.53549135   0.02599148
8814.00   2.51408434   0.02612479
8816.00   2.51956058   0.02749208
8818.00   2.53140831   0.03037571
8820.00   2.48517728   0.03843298
8822.00   2.36250317   0.05183719
8824.00   2.30224955   0.05704445
8826.00   2.27070951   0.05945051
8828.00   2.25900459   0.05987494
8830.00   2.26624215   0.05789107
8832.00   2.28686464   0.05395341
8834.00   2.30067623   0.04979250
8836.00   2.31593955   0.04357854
8838.00   2.32808697   0.03902071
8840.00   2.34509313   0.03535456
8842.00   2.34679282   0.03243396
8844.00   2.33147132   0.03091085
8846.00   2.31193793   0.03023363
8848.00   2.29408300   0.02942871
8850.00   2.27456307   0.02902673
8852.00   2.24200451   0.02868790
8854.00   2.17734647   0.02860613
8856.00   2.15235376   0.02850742
8858.00   2.17054224   0.02798478
8860.00   2.19608688   0.02825897
8862.00   2.21562755   0.03053595
8864.00   2.24033380   0.03392812
8866.00   2.21702564   0.03477033
8868.00   2.11879408   0.03429115
8870.00   2.09121895   0.03317678
8872.00   2.10657203   0.02961759
8874.00   2.15046680   0.02733088
8876.00   2.22273695   0.02789936
8878.00   2.32135582   0.03061773
8880.00   2.42637956   0.03703986
8882.00   2.58163238   0.04827929
8884.00   2.65142787   0.05240803
8886.00   2.67816508   0.05448672
8888.00   2.65716910   0.05381655
8890.00   2.54988706   0.04820220
8892.00   2.42193866   0.03971967
8894.00   2.40536094   0.03679109
8896.00   2.47070873   0.03817954
8898.00   2.51356745   0.03854936
8900.00   2.58932936   0.04043500
8902.00   2.62775517   0.04122382
8904.00   2.62320101   0.04039756
8906.00   2.60189986   0.03930638
8908.00   2.59173095   0.03923773
8910.00   2.58097279   0.03951102
8912.00   2.55245686   0.04111059
8914.00   2.50057280   0.04423221
8916.00   2.46333361   0.04675066
8918.00   2.44032109   0.05017656
8920.00   2.40958619   0.05173532
8922.00   2.35225046   0.04926980
8924.00   2.27309501   0.04352716
8926.00   2.20535553   0.03886473
8928.00   2.10294092   0.03187571
8930.00   2.08219588   0.02774055
8932.00   2.14722776   0.02710159
8934.00   2.21149743   0.02771966
8936.00   2.24977160   0.02913110
8938.00   2.27114725   0.03130588
8940.00   2.24700046   0.03271625
8942.00   2.15152264   0.03439634
8944.00   2.11980104   0.03479166
8946.00   2.11252832   0.03348039
8948.00   2.12858570   0.03309539
8950.00   2.18619442   0.03358280
8952.00   2.24239540   0.03522864
8954.00   2.21944499   0.03933218
8956.00   2.13223517   0.04609014
8958.00   2.07250166   0.04777536
8960.00   1.97893244   0.04704953
8962.00   1.94964904   0.04466868
8964.00   2.00163186   0.03858366
8966.00   2.07607317   0.03147949
8968.00   2.12381840   0.02841747
8970.00   2.16734314   0.02846341
8972.00   2.22469258   0.02840811
8974.00   2.31196463   0.02998149
8976.00   2.35860634   0.03115119
8978.00   2.36319792   0.03223707
8980.00   2.35955060   0.03335158
8982.00   2.36979926   0.03449647
8984.00   2.38298881   0.03562548
8986.00   2.38826084   0.03677695
8988.00   2.38280118   0.03786685
8990.00   2.38910508   0.03914257
8992.00   2.42651916   0.04091073
8994.00   2.42320108   0.04215248
8996.00   2.33871698   0.04243645
8998.00   2.22158504   0.04214833
9000.00   2.17368853   0.04213493
9002.00   2.17032921   0.04279386
9004.00   2.15242136   0.04145081
9006.00   2.13844144   0.03773142
9008.00   2.12614286   0.03432473
9010.00   2.12115419   0.03153260
9012.00   2.11841226   0.02919259
9014.00   2.10289812   0.02768227
9016.00   2.07852268   0.02709474
9018.00   2.05502343   0.02699232
9020.00   2.04344654   0.02785578
9022.00   1.99992883   0.02867918
9024.00   1.90863699   0.03010422
9026.00   1.82133192   0.03093896
9028.00   1.77791983   0.02974386
9030.00   1.75981247   0.02670658
9032.00   1.74445552   0.02593311
9034.00   1.74636298   0.02687129
9036.00   1.74235356   0.02732808
9038.00   1.74271780   0.02760231
9040.00   1.73974013   0.02797751
9042.00   1.72379273   0.02861896
9044.00   1.69980919   0.02939969
9046.00   1.68552244   0.03001037
9048.00   1.67610580   0.03095555
9050.00   1.66811883   0.03091285
9052.00   1.66825950   0.03005338
9054.00   1.65872329   0.02889941
9056.00   1.62980253   0.02726420
9058.00   1.59692091   0.02542090
9060.00   1.58707023   0.02458598
9062.00   1.58465570   0.02442700
9064.00   1.60439610   0.02473659
9066.00   1.67010289   0.02588426
9068.00   1.69994479   0.02689561
9070.00   1.66634929   0.02784690
9072.00   1.62961346   0.02858303
9074.00   1.66528386   0.02899932
9076.00   1.76130873   0.02932034
9078.00   1.76795316   0.02919784
9080.00   1.69395375   0.02844212
9082.00   1.66216904   0.02791985
9084.00   1.67336118   0.02753137
9086.00   1.68558681   0.02720225
9088.00   1.67495877   0.02710157
9090.00   1.65518624   0.02722428
9092.00   1.62005520   0.02711472
9094.00   1.55487466   0.02679534
9096.00   1.51328015   0.02667082
9098.00   1.48755908   0.02655454
9100.00   1.46739161   0.02670409
9102.00   1.44667256   0.02760127
9104.00   1.42909902   0.02875883
9106.00   1.42960232   0.02812995
9108.00   1.45621014   0.02518380
9110.00   1.46553981   0.02391651
9112.00   1.45680070   0.02336381
9114.00   1.46635032   0.02333348
9116.00   1.51255590   0.02395673
9118.00   1.56927073   0.02496147
9120.00   1.59211391   0.02572924
9122.00   1.59462059   0.02662114
9124.00   1.58997810   0.02682403
9126.00   1.55697733   0.02629931
9128.00   1.54762346   0.02601384
9130.00   1.58230352   0.02598066
9132.00   1.60819191   0.02593715
9134.00   1.56118137   0.02560333
9136.00   1.45656133   0.02499417
9138.00   1.43058378   0.02511170
9140.00   1.47403198   0.02615081
9142.00   1.47343510   0.02641148
9144.00   1.43579561   0.02597989
9146.00   1.39525211   0.02550468
9148.00   1.36732137   0.02526667
9150.00   1.34428662   0.02510434
9152.00   1.33048457   0.02511055
9154.00   1.32643533   0.02534144
9156.00   1.32423127   0.02550425
9158.00   1.32570398   0.02580688
9160.00   1.33576554   0.02590817
9162.00   1.36336774   0.02568383
9164.00   1.39473099   0.02522747
9166.00   1.38315791   0.02460634
9168.00   1.32782817   0.02350047
9170.00   1.29899663   0.02294877
9172.00   1.26198053   0.02270867
9174.00   1.25538433   0.02265751
9176.00   1.29230261   0.02279805
9178.00   1.34893036   0.02312444
9180.00   1.39770329   0.02362725
9182.00   1.45801049   0.02441518
9184.00   1.48642534   0.02479732
9186.00   1.47876632   0.02491453
9188.00   1.48892808   0.02504521
9190.00   1.52020276   0.02493102
9192.00   1.55559182   0.02510273
9194.00   1.57933360   0.02619910
9196.00   1.59683287   0.02792268
9198.00   1.61789584   0.02849275
9200.00   1.64851326   0.02836998
9202.00   1.65980810   0.02820122
9204.00   1.65433860   0.02753757
9206.00   1.63776624   0.02709085
9208.00   1.61001426   0.02743092
9210.00   1.57166898   0.02817275
9212.00   1.55438256   0.02832098
9214.00   1.55495757   0.02807458
9216.00   1.54859233   0.02799215
9218.00   1.54590183   0.02793847
9220.00   1.52973038   0.02782669
9222.00   1.48902595   0.02767034
9224.00   1.43864846   0.02742261
9226.00   1.41816545   0.02691331
9228.00   1.42056280   0.02605017
9230.00   1.41805649   0.02540265
9232.00   1.43502539   0.02466729
9234.00   1.42440486   0.02422879
9236.00   1.36217856   0.02398621
9238.00   1.29853249   0.02421435
9240.00   1.30140066   0.02542495
9242.00   1.35107118   0.02766425
9244.00   1.38455200   0.02860685
9246.00   1.44777113   0.02927415
9248.00   1.46154666   0.02904010
9250.00   1.40085262   0.02735616
9252.00   1.34888512   0.02563596
9254.00   1.37272477   0.02531768
9256.00   1.44342601   0.02587631
9258.00   1.49680859   0.02648338
9260.00   1.57770789   0.02796874
9262.00   1.61125851   0.02842244
9264.00   1.60012931   0.02796277
9266.00   1.57768321   0.02746610
9268.00   1.55642211   0.02729449
9270.00   1.53142285   0.02725288
9272.00   1.52113539   0.02744956
9274.00   1.51469076   0.02810085
9276.00   1.52683526   0.02826050
9278.00   1.57855511   0.02803417
9280.00   1.59939903   0.02795150
9282.00   1.55788130   0.02806808
9284.00   1.49764824   0.02829344
9286.00   1.49763352   0.02866670
9288.00   1.55908549   0.02942272
9290.00   1.54156440   0.02943199
9292.00   1.45391619   0.02827033
9294.00   1.39680988   0.02820416
9296.00   1.36707801   0.02823560
9298.00   1.36308908   0.03018084
9300.00   1.40671992   0.03567297
9302.00   1.50238490   0.04210877
9304.00   1.55208188   0.05250415
9306.00   1.56582940   0.06633444
9308.00   1.61117917   0.07622643
9310.00   1.70412785   0.08623746
9312.00   1.78241408   0.09241530
9314.00   1.79335600   0.09080785
9316.00   1.75976032   0.08302911
9318.00   1.78362322   0.08211886
9320.00   1.86007816   0.08698212
9322.00   1.89342487   0.08720571
9324.00   1.92161155   0.08506984
9326.00   1.89332700   0.08071483
9328.00   1.76194149   0.07232471
9330.00   1.57930779   0.06039117
9332.00   1.51855636   0.05420149
9334.00   1.53771806   0.05363258
9336.00   1.55184919   0.05222863
9338.00   1.63636631   0.05374298
9340.00   1.65213573   0.05339418
9342.00   1.52460319   0.04929747
9344.00   1.37348646   0.04402217
9346.00   1.39647043   0.04264888
9348.00   1.57443619   0.04450968
9350.00   1.59582543   0.04414912
9352.00   1.47939092   0.04157976
9354.00   1.46064055   0.04188346
9356.00   1.55328995   0.04620729
9358.00   1.69355965   0.05038455
9360.00   1.85590756   0.05100170
9362.00   2.07724208   0.04898661
9364.00   2.09234262   0.05418458
9366.00   1.97017801   0.06079825
9368.00   1.77070779   0.07240891
9370.00   1.33468759   0.08901046
9372.00   1.02123508   0.10352123
9374.00   1.09631544   0.11584542
9376.00   1.39890373   0.12690584
9378.00   1.54073894   0.12472255
9380.00   1.68208039   0.10657171
9382.00   1.74969965   0.09270141
9384.00   1.70658147   0.07473327
9386.00   1.70144254   0.05768544
9388.00   1.78879577   0.04844354
9390.00   1.90080029   0.04646914
9392.00   1.93372065   0.04341874
9394.00   1.91946626   0.04395692
9396.00   1.90063655   0.04474660
9398.00   1.81911176   0.04784426
9400.00   1.80251455   0.04994791
9402.00   1.90696007   0.05108403
9404.00   2.03217149   0.05146160
9406.00   2.03739417   0.05034768
9408.00   1.97610199   0.04718387
9410.00   1.88237149   0.04611327
9412.00   1.69294649   0.04582966
9414.00   1.56505096   0.04657034
9416.00   1.50999826   0.04884645
9418.00   1.47234595   0.05134205
9420.00   1.39736634   0.05300083
9422.00   1.29437935   0.05437996
9424.00   1.32132816   0.05510162
9426.00   1.48891568   0.05499771
9428.00   1.59927297   0.05514841
9430.00   1.67801446   0.05111911
9432.00   1.74510539   0.05338409
9434.00   1.81180662   0.06730394
9436.00   1.86335075   0.08451212
9438.00   1.89048648   0.09659914
9440.00   1.90501356   0.11537939
9442.00   1.88587058   0.11522384
9444.00   1.79478258   0.09482596
9446.00   1.73764843   0.07414980
9448.00   1.74708444   0.06282150
9450.00   1.79707396   0.05796721
9452.00   1.86169225   0.06129602
9454.00   2.03129405   0.07707572
9456.00   1.95252222   0.08023174
9458.00   1.59330314   0.07866946
9460.00   1.35997766   0.07463644
9462.00   1.30621153   0.06451056
9464.00   1.32579058   0.05183763
9466.00   1.32235914   0.04806447
9468.00   1.34254301   0.05086526
9470.00   1.31013161   0.05746500
9472.00   1.23367858   0.07157624
9474.00   1.16266543   0.07875951
9476.00   1.07199019   0.08270690
9478.00   1.01599506   0.08301072
9480.00   1.02974260   0.07728868
9482.00   1.08897728   0.06484170
9484.00   1.15807688   0.05650774
9486.00   1.27878904   0.04825804
9488.00   1.35762531   0.04264698
9490.00   1.40693986   0.04050559
9492.00   1.45333934   0.04165286
9494.00   1.48955220   0.04621526
9496.00   1.51934761   0.05289619
9498.00   1.61252660   0.05840594
9500.00   1.80381912   0.06588311
9502.00   1.89435703   0.06879660
9504.00   1.95594162   0.06901734
9506.00   1.93895864   0.06772596
9508.00   1.79265910   0.06427664
9510.00   1.60535759   0.06009574
9512.00   1.55507851   0.05940688
9514.00   1.56487471   0.06075916
9516.00   1.63994145   0.06359078
9518.00   1.86487073   0.07048113
9520.00   1.99021775   0.07337703
9522.00   2.00504804   0.07253197
9524.00   1.94825596   0.06927069
9526.00   1.81216419   0.06310991
9528.00   1.56559038   0.05147229
9530.00   1.47168469   0.04482390
9532.00   1.48941523   0.04232765
9534.00   1.48076302   0.04024473
9536.00   1.47093439   0.03996621
9538.00   1.44810766   0.04016014
9540.00   1.38171118   0.03923313
9542.00   1.28445601   0.03786101
9544.00   1.29482085   0.03905896
9546.00   1.45442575   0.04167978
9548.00   1.47071350   0.04543659
9550.00   1.37349373   0.05183313
9552.00   1.26897824   0.05619389
9554.00   1.16320893   0.05661956
9556.00   1.07042834   0.05518673
9558.00   1.15751457   0.05617499
9560.00   1.41762221   0.05471917
9562.00   1.65369701   0.06187189
9564.00   2.00371647   0.07782479
9566.00   2.24821156   0.08678397
9568.00   2.33855927   0.08884202
9570.00   2.32639939   0.08669592
9572.00   2.24002039   0.07989963
9574.00   2.00937438   0.06306844
9576.00   1.89466721   0.05332406
9578.00   1.83266366   0.04842806
9580.00   1.77577639   0.04494687
9582.00   1.69789708   0.04394560
9584.00   1.64950007   0.04468366
9586.00   1.69808245   0.04577252
9588.00   1.83545089   0.04818422
9590.00   1.85607851   0.04818571
9592.00   1.81507301   0.04638812
9594.00   1.75274092   0.04467834
9596.00   1.63985813   0.04235818
9598.00   1.52560699   0.04041389
9600.00   1.43914515   0.03940793
9602.00   1.36645365   0.03914810
9604.00   1.34368187   0.04134638
9606.00   1.35897446   0.04717208
9608.00   1.41027004   0.04958493
9610.00   1.52624828   0.04966592
9612.00   1.62834895   0.04993031
9614.00   1.68947917   0.05093420
9616.00   1.73030400   0.05252452
9618.00   1.78673363   0.05607212
9620.00   1.89916879   0.06367565
9622.00   1.88803625   0.06426852
9624.00   1.73408145   0.05946831
9626.00   1.64216769   0.05437221
9628.00   1.65106356   0.04912451
9630.00   1.69736642   0.04406037
9632.00   1.74298567   0.04174763
9634.00   1.82935464   0.04222018
9636.00   1.81720215   0.04191513
9638.00   1.70338172   0.04193646
9640.00   1.63252342   0.04242952
9642.00   1.58328766   0.04384932
9644.00   1.56504464   0.04496499
9646.00   1.60040593   0.04471250
9648.00   1.67853981   0.04356692
9650.00   1.72449309   0.04360529
9652.00   1.80234975   0.04426074
9654.00   1.78968656   0.04506435
9656.00   1.64863902   0.04610324
9658.00   1.53930795   0.04733336
9660.00   1.54787320   0.04910457
9662.00   1.61487895   0.05110787
9664.00   1.63012111   0.05164225
9666.00   1.64158130   0.05067057
9668.00   1.62016177   0.05055488
9670.00   1.55481869   0.05002897
9672.00   1.50480634   0.05058690
9674.00   1.45376259   0.05304745
9676.00   1.43264025   0.05611292
9678.00   1.56087220   0.05801555
9680.00   1.90039903   0.05967266
9682.00   1.99388677   0.06096549
9684.00   1.90905231   0.06280442
9686.00   1.85494566   0.06268117
9688.00   1.83883119   0.05883171
9690.00   1.84560746   0.05445822
9692.00   1.88433099   0.05523095
9694.00   1.95771414   0.05953481
9696.00   1.97901779   0.06266935
9698.00   1.96984005   0.06721068
9700.00   1.95201588   0.06962861
9702.00   1.92018956   0.07091998
9704.00   1.88659859   0.07025478
9706.00   1.83727908   0.06569346
9708.00   1.76629400   0.05702740
9710.00   1.74139619   0.05574019
9712.00   1.76199102   0.06035763
9714.00   1.75887394   0.06417027
9716.00   1.73927402   0.07021131
9718.00   1.72594708   0.07416472
9720.00   1.72884643   0.07427987
9722.00   1.73452342   0.07200567
9724.00   1.72145128   0.06925526
9726.00   1.68296087   0.06236318
9728.00   1.67639631   0.06087611
9730.00   1.70188683   0.06412486
9732.00   1.70792574   0.06708565
9734.00   1.67530376   0.06954632
9736.00   1.64314377   0.07110433
9738.00   1.65038449   0.06919188
9740.00   1.66655916   0.06251673
9742.00   1.72589380   0.06107203
9744.00   1.88831592   0.06457272
9746.00   1.94851506   0.06522543
9748.00   1.85693616   0.06248681
9750.00   1.73827994   0.05880655
9752.00   1.72597200   0.05572818
9754.00   1.77513206   0.05188376
9756.00   1.78197312   0.05046313
9758.00   1.78260654   0.05213492
9760.00   1.77183843   0.05230792
9762.00   1.72204721   0.05093698
9764.00   1.68895888   0.04957877
9766.00   1.72696656   0.04919446
9768.00   1.80892557   0.04926204
9770.00   1.85084951   0.05035633
9772.00   1.88892514   0.05171288
9774.00   1.90246522   0.05498986
9776.00   1.86140937   0.06110339
9778.00   1.84364265   0.06541070
9780.00   1.90960902   0.06449601
9782.00   2.01863444   0.06246978
9784.00   2.05392969   0.07188178
9786.00   2.09638786   0.09098423
9788.00   2.00537544   0.09855103
9790.00   1.73023540   0.10258485
9792.00   1.53358018   0.10364749
9794.00   1.44335705   0.10058634
9796.00   1.41464031   0.09492892
9798.00   1.48047769   0.09007036
9800.00   1.69854271   0.08403993
9802.00   1.75093752   0.07925550
9804.00   1.73528898   0.07489436
9806.00   1.65141362   0.07157665
9808.00   1.45011538   0.07033612
9810.00   1.25100857   0.06960857
9812.00   1.18209153   0.06730596
9814.00   1.19520432   0.06415004
9816.00   1.20270532   0.06119043
9818.00   1.28814173   0.05663053
9820.00   1.27531391   0.05491646
9822.00   1.12482244   0.05681709
9824.00   1.02412981   0.05892405
9826.00   1.10372549   0.06012142
9828.00   1.28570169   0.06139373
9830.00   1.33207172   0.06044610
9832.00   1.28336227   0.05615327
9834.00   1.28350967   0.05429352
9836.00   1.29516077   0.05270102
9838.00   1.31372559   0.05387489
9840.00   1.33913803   0.05840862
9842.00   1.38267034   0.06518625
9844.00   1.44552845   0.07328971
9846.00   1.55477548   0.08617873
9848.00   1.55968940   0.08861058
9850.00   1.45613700   0.08336164
9852.00   1.39377183   0.07798691
9854.00   1.40457517   0.07274635
9856.00   1.42447770   0.06744652
9858.00   1.35203952   0.06296514
9860.00   1.18089801   0.05720720
9862.00   1.15571916   0.06001213
9864.00   1.21541142   0.06833890
9866.00   1.31142002   0.07910312
9868.00   1.50542331   0.09492463
9870.00   1.67610109   0.10729370
9872.00   1.69764018   0.11180266
9874.00   1.63112497   0.11231729
9876.00   1.51403803   0.10726509
9878.00   1.24221194   0.09012060
9880.00   1.10331827   0.07864625
9882.00   1.06699145   0.07109319
9884.00   1.07484826   0.06694796
9886.00   1.12992638   0.06746783
9888.00   1.22845745   0.07205588
9890.00   1.23660028   0.07523241
9892.00   1.17238569   0.08004189
9894.00   1.13625753   0.08248577
9896.00   1.10822013   0.08337243
9898.00   1.05649289   0.08394627
9900.00   0.92366064   0.08347392
9902.00   0.80127722   0.08281799
9904.00   0.93642908   0.08669478
9906.00   1.34610248   0.09456119
9908.00   1.58608186   0.10071969
9910.00   1.90454602   0.10874587
9912.00   1.96680218   0.11313113
9914.00   1.62843698   0.11407187
9916.00   1.20632362   0.11212687
9918.00   1.13022590   0.10707419
9920.00   1.28122336   0.09756755
9922.00   1.27906698   0.09001839
9924.00   1.21702319   0.08046423
9926.00   1.18227649   0.07452121
9928.00   1.14407915   0.07293906
9930.00   1.14113671   0.07454187
9932.00   1.24031180   0.07788501
9934.00   1.42735374   0.08319015
9936.00   1.45494199   0.09322434
9938.00   1.31277382   0.10783336
9940.00   1.29976249   0.11951673
9942.00   1.39458841   0.13251947
9944.00   1.49772626   0.14139608
9946.00   1.57883561   0.14386053
9948.00   1.65091991   0.14254490
9950.00   1.66283470   0.14225148
9952.00   1.55807823   0.13992851
9954.00   1.60083771   0.14008448
9956.00   1.81894135   0.14197119
9958.00   1.92595005   0.14414622
9960.00   1.80670506   0.14778698
9962.00   1.60207736   0.15015206
9964.00   1.54210383   0.14527612
9966.00   1.53514105   0.13237185
9968.00   1.59371400   0.12347205
9970.00   1.82324278   0.11401293
9972.00   1.90076208   0.10676975
9974.00   1.75429767   0.10285256
9976.00   1.56858122   0.10053522
9978.00   1.52121156   0.09801952
9980.00   1.52957535   0.09632623
9982.00   1.61589426   0.09425121
9984.00   1.88135612   0.09235159
9986.00   1.98932767   0.09011944
9988.00   1.92925656   0.08636644
9990.00   1.84753853   0.08405956
9992.00   1.83005583   0.08591275
9994.00   1.82645607   0.09041840
9996.00   1.83176398   0.09288042
9998.00   1.87232500   0.09284313
10000.00   1.87160122   0.09732925
10002.00   1.80091596   0.10153952
10004.00   1.78453881   0.11214168
10006.00   1.87575728   0.13226355
10008.00   2.01093489   0.15430022
10010.00   2.07744646   0.16692039
10012.00   2.10922176   0.17926927
10014.00   2.10998684   0.18022603
10016.00   2.04543877   0.16846791
10018.00   2.02337343   0.15751531
10020.00   2.04479980   0.14939029
10022.00   2.07086229   0.14203952
10024.00   2.07296121   0.13613083
10026.00   2.07063079   0.13257861
10028.00   2.00346887   0.12650116
10030.00   1.83059579   0.11653067
10032.00   1.73886812   0.11054482
10034.00   1.73180628   0.11023749
10036.00   1.74519014   0.11231678
10038.00   1.73025733   0.11413210
10040.00   1.69880915   0.11743727
10042.00   1.77989614   0.11610376
10044.00   1.98710662   0.10837431
10046.00   2.14306712   0.10561611
10048.00   2.29160583   0.10686789
10050.00   2.40172362   0.11042471
10052.00   2.43859684   0.11626455
10054.00   2.41493988   0.12386400
10056.00   2.38378000   0.12900859
10058.00   2.28811681   0.13532922
10060.00   2.25948179   0.13653050
10062.00   2.28304243   0.13188094
10064.00   2.30168533   0.12681887
10066.00   2.28947961   0.12305333
10068.00   2.27297699   0.12051071
10070.00   2.30245924   0.12217579
10072.00   2.33152771   0.12621686
10074.00   2.47126794   0.13428597
10076.00   2.74454880   0.14907982
10078.00   2.98752880   0.15881651
10080.00   3.20485234   0.16383683
10082.00   3.39378130   0.16585176
10084.00   3.51503515   0.16414928
10086.00   3.60946560   0.15820548
10088.00   3.51843011   0.15107150
10090.00   3.28466415   0.13504731
10092.00   2.93737352   0.12885381
10094.00   2.32866025   0.13564890
10096.00   1.75554335   0.14626572
10098.00   1.51093477   0.15577127
10100.00   1.45238930   0.16756875
10102.00   1.55083865   0.16566806
10104.00   2.02129722   0.14642862
10106.00   2.21697944   0.13656386
10108.00   2.12983346   0.13462917
10110.00   2.07880628   0.13595317
10112.00   2.20538896   0.13677006
10114.00   2.42991126   0.13913341
10116.00   2.82035553   0.14897968
10118.00   3.65326917   0.16886524
10120.00   3.91769469   0.17830916
10122.00   3.73053837   0.18404196
10124.00   3.54332602   0.18679320
10126.00   3.40673137   0.18594513
10128.00   3.25694537   0.18176351
10130.00   3.27217638   0.17577176
10132.00   3.52077460   0.16544945
10134.00   3.51292181   0.15744864
10136.00   3.27120638   0.14707398
10138.00   3.15782988   0.14244509
10140.00   3.25928831   0.14704956
10142.00   3.38997364   0.15353553
10144.00   3.34413183   0.15359716
10146.00   3.19796407   0.14923639
10148.00   3.05372763   0.15338918
10150.00   2.85765457   0.16582642
10152.00   2.66843772   0.17269048
10154.00   2.38615400   0.17607845
10156.00   2.23551971   0.17701094
10158.00   2.48236680   0.17338473
10160.00   3.04196978   0.16499369
10162.00   3.24686897   0.17007152
10164.00   3.32268775   0.18715819
10166.00   3.26544392   0.19829842
10168.00   2.93530834   0.20950267
10170.00   2.69533861   0.21611145
10172.00   2.80367029   0.21583679
10174.00   3.05163860   0.21094117
10176.00   2.83793759   0.20672143
10178.00   2.10029596   0.19662132
10180.00   1.83355194   0.19661578
10182.00   1.77257806   0.20861278
10184.00   1.83635390   0.21438342
10186.00   2.10768497   0.20834660
10188.00   2.49093032   0.19706800
10190.00   2.70419812   0.19257879
10192.00   2.90172565   0.19261351
10194.00   2.88022614   0.18894561
10196.00   2.50392675   0.17914482
10198.00   2.35438907   0.17735007
10200.00   2.56444824   0.18376969
10202.00   2.81610334   0.19652173
10204.00   2.76280797   0.21669686
10206.00   2.50148654   0.24497824
10208.00   2.46699667   0.25706382
10210.00   2.61028612   0.26624457
10212.00   2.64618790   0.26111046
10214.00   2.56454873   0.23252495
10216.00   2.46783364   0.20270271
10218.00   2.45023572   0.19474437
10220.00   2.48224056   0.20016167
10222.00   2.47236204   0.20116613
10224.00   2.47509146   0.20691142
10226.00   2.40297890   0.20743889
10228.00   2.25794089   0.20496418
10230.00   2.12462407   0.20026583
10232.00   1.99864578   0.19193257
10234.00   1.87082314   0.18079096
10236.00   1.81469774   0.17372678
10238.00   1.86445820   0.16993780
10240.00   1.83118039   0.16469999
10242.00   1.68130320   0.15770235
10244.00   1.66227645   0.15375705
10246.00   1.86182088   0.15485601
10248.00   2.14730573   0.15820484
10250.00   2.38870829   0.15998220
10252.00   2.74332219   0.16136506
10254.00   2.61225420   0.16326575
10256.00   1.81806439   0.16597202
10258.00   1.48335242   0.16803269
10260.00   1.64104366   0.16866895
10262.00   1.91705400   0.16883319
10264.00   2.08508062   0.16943057
10266.00   2.25931919   0.16951243
10268.00   2.38041192   0.17259902
10270.00   2.48276782   0.17549817
10272.00   2.51503915   0.18431978
10274.00   2.50925398   0.19229096
10276.00   2.45165449   0.21116380
10278.00   2.22818983   0.24646210
10280.00   1.88511032   0.28740312
10282.00   1.75137997   0.31552185
10284.00   1.76371855   0.34972033
10286.00   1.74059340   0.35743335
10288.00   1.84629267   0.34206212
10290.00   1.83713341   0.32283945
10292.00   1.50659415   0.30160108
10294.00   1.05870290   0.27668041
10296.00   1.01463392   0.26162875
10298.00   1.37425488   0.25535484
10300.00   1.40704238   0.24835648
10302.00   1.20973805   0.24715779
10304.00   1.12805140   0.24223607
10306.00   1.23755929   0.22980002
10308.00   1.43034047   0.21548916
10310.00   1.62207949   0.20946552
10312.00   1.93705666   0.21138968
10314.00   1.84613436   0.20425212
10316.00   1.20363349   0.18592574
10318.00   0.96367326   0.17687747
10320.00   1.27108890   0.17920341
10322.00   1.57841206   0.18650604
10324.00   1.34404388   0.19621081
10326.00   0.74889690   0.20954273
10328.00   0.75042474   0.20987264
10330.00   1.25346352   0.19592097
10332.00   1.52120309   0.19055835
10334.00   1.72424680   0.18847228
10336.00   1.89207464   0.19101947
10338.00   1.98853791   0.20136979
10340.00   2.01687098   0.21655447
10342.00   1.90378368   0.22309212
10344.00   1.56191552   0.22656543
10346.00   1.37878317   0.22537379
10348.00   1.21245852   0.21928006
10350.00   1.13804129   0.21160007
10352.00   1.25536993   0.20048422
10354.00   1.47878981   0.18830745
10356.00   1.56057090   0.18390885
10358.00   1.58487040   0.18463509
10360.00   1.56787336   0.18869418
10362.00   1.42100734   0.19675845
10364.00   1.39382672   0.20756668
10366.00   1.48575938   0.22055748
10368.00   1.65623856   0.23506400
10370.00   2.00489980   0.25360860
10372.00   2.66608143   0.28040157
10374.00   2.54858780   0.27685325
10376.00   1.59390217   0.23894586
10378.00   1.06225669   0.21246883
10380.00   0.91800851   0.19623346
10382.00   0.83614400   0.18733892
10384.00   0.61306067   0.18731712
10386.00   0.33422938   0.19682827
10388.00   0.38744821   0.20134194
10390.00   0.84493501   0.20830300
10392.00   1.05505237   0.20904161
10394.00   1.19767645   0.20413486
10396.00   1.13487831   0.19938457
10398.00   0.67789796   0.19523736
10400.00   0.02433996   0.19138751
10402.00   0.00404900   0.19309545
10404.00   0.63266125   0.20112283
10406.00   0.75678188   0.20486726
10408.00   0.58739819   0.20569818
10410.00   0.50425956   0.20935659
10412.00   0.53117620   0.21661556
10414.00   0.60186951   0.22523815
10416.00   0.72767580   0.23363422
10418.00   0.93596563   0.24674229
10420.00   1.05870572   0.24377407
10422.00   1.21402237   0.22337710
10424.00   1.20741999   0.20648701
10426.00   0.94212681   0.19376283
10428.00   0.66678137   0.18349233
10430.00   0.59974448   0.17623537
10432.00   0.60568246   0.17241466
10434.00   0.78417149   0.16974876
10436.00   1.26858205   0.16905389
10438.00   1.55725616   0.17060960
10440.00   1.71401781   0.17626249
10442.00   1.75564444   0.18154801
10444.00   1.61725664   0.18189493
10446.00   1.31639361   0.17904040
10448.00   1.18842262   0.18424820
10450.00   1.15578002   0.20085085
10452.00   1.09898180   0.20391430
10454.00   0.98631579   0.19286918
10456.00   0.96459275   0.18515891
10458.00   1.18728922   0.18896184
10460.00   1.51148161   0.19794601
10462.00   1.49954033   0.20698218
10464.00   1.19603622   0.22179561
10466.00   1.10364252   0.22823736
10468.00   1.08145684   0.23323826
10470.00   1.08498418   0.23066349
10472.00   1.16181105   0.21477831
10474.00   1.24088693   0.19230479
10476.00   1.23540312   0.18088559
10478.00   1.22208691   0.17644724
10480.00   1.11205912   0.17341016
10482.00   0.82248923   0.17337079
10484.00   0.66832913   0.17721418
10486.00   0.70021034   0.18867042
10488.00   0.77285367   0.19914917
10490.00   0.79213392   0.20122269
10492.00   0.82529333   0.19868506
10494.00   0.87608600   0.19222701
10496.00   0.94226387   0.17369600
10498.00   1.01287526   0.16576755
10500.00   1.13821653   0.16837149
10502.00   1.20967048   0.17405128
10504.00   1.19068003   0.18120334
10506.00   1.09518397   0.19025091
10508.00   0.85458013   0.18901656
10510.00   0.22935281   0.17481627
10512.00   0.11019273   0.17019698
10514.00   0.42124399   0.17074193
10516.00   0.67949775   0.17367411
10518.00   0.77299488   0.17961926
10520.00   0.80190736   0.18681945
10522.00   0.78303477   0.18894929
10524.00   0.59352618   0.18636621
10526.00   0.71360885   0.18772608
10528.00   1.27222553   0.19446936
10530.00   1.48038071   0.19497455
10532.00   1.07769907   0.18433915
10534.00   0.53329450   0.16960530
10536.00   0.52128848   0.16450202
10538.00   0.89981842   0.16609261
10540.00   0.94568303   0.16546144
10542.00   0.79575925   0.16580836
10544.00   0.72482622   0.16587430
10546.00   0.77044487   0.16548405
10548.00   0.80021554   0.16543663
10550.00   0.67520848   0.16687166
10552.00   0.43713312   0.16951694
10554.00   0.31117918   0.16833386
10556.00   0.16728584   0.16261299
10558.00   0.18313204   0.15989838
10560.00   0.41664783   0.15919036
10562.00   0.62988782   0.15909695
10564.00   0.69127625   0.15928555
10566.00   0.68996596   0.15999848
10568.00   0.76128066   0.16085567
10570.00   0.96113122   0.16282833
10572.00   0.93290561   0.16304813
10574.00   0.64840601   0.16139930
10576.00   0.45605470   0.16040887
10578.00   0.47189635   0.16042183
10580.00   0.56767644   0.16103991
10582.00   0.58801514   0.16342773
10584.00   0.59849693   0.16832333
10586.00   0.57983150   0.17122792
10588.00   0.51379244   0.17571815
10590.00   0.46858012   0.17549710
10592.00   0.46522211   0.16746350
10594.00   0.47229593   0.15700601
10596.00   0.41945010   0.15301156
10598.00   0.29994799   0.15307883
10600.00   0.33678329   0.15254975
10602.00   0.57419880   0.15380967
10604.00   0.65089928   0.15399555
10606.00   0.53362031   0.15307758
10608.00   0.43513784   0.15245479
10610.00   0.51336646   0.15304501
10612.00   0.69526568   0.15440734
10614.00   0.74414647   0.15512801
10616.00   0.76420760   0.15576948
10618.00   0.67958274   0.15609836
10620.00   0.39429256   0.15594364
10622.00   0.20209959   0.15582687
10624.00   0.26977035   0.15626610
10626.00   0.47032405   0.15661186
10628.00   0.50712186   0.15549174
10630.00   0.41691385   0.15224532
10632.00   0.43599631   0.15138107
10634.00   0.56142431   0.15286194
10636.00   0.61548923   0.15301380
10638.00   0.51549707   0.15024271
10640.00   0.38585621   0.14674537
10642.00   0.42494112   0.14672707
10644.00   0.58239776   0.14929229
10646.00   0.70144588   0.15115389
10648.00   0.93136802   0.15457154
10650.00   0.98043406   0.15582442
10652.00   0.74896255   0.15421233
10654.00   0.45924574   0.15152217
10656.00   0.34213589   0.14966045
10658.00   0.27864357   0.14778351
10660.00   0.35736173   0.14733882
10662.00   0.69651219   0.14927216
10664.00   0.84595910   0.14913952
10666.00   0.78925717   0.14622428
10668.00   0.70365247   0.14369864
10670.00   0.70902079   0.14408078
10672.00   0.75507176   0.14641375
10674.00   0.81678271   0.14905400
10676.00   0.95747420   0.15506508
10678.00   0.99460909   0.15584158
10680.00   0.96684310   0.15182026
10682.00   0.88165900   0.14767915
10684.00   0.72431639   0.14522274
10686.00   0.53744051   0.14374731
10688.00   0.44722944   0.14313616
10690.00   0.41920909   0.14467797
10692.00   0.39009567   0.14310893
10694.00   0.38187175   0.13799518
10696.00   0.38301633   0.13485804
10698.00   0.39222176   0.13504639
10700.00   0.43272483   0.13660901
10702.00   0.54528806   0.13787171
10704.00   0.77862859   0.14038532
10706.00   0.81634778   0.13994639
10708.00   0.66605885   0.13588965
10710.00   0.59826744   0.13404485
10712.00   0.59591158   0.13423317
10714.00   0.65555443   0.13601324
10716.00   0.84028807   0.14036062
10718.00   1.16111755   0.14775555
10720.00   1.20686021   0.14728177
10722.00   1.01382932   0.13940061
10724.00   0.89888483   0.13373129
10726.00   0.80942789   0.12834603
10728.00   0.73092349   0.12437504
10730.00   0.65574899   0.12365113
10732.00   0.57299764   0.12514614
10734.00   0.51289956   0.12278883
10736.00   0.42659004   0.11547295
10738.00   0.45053715   0.11339418
10740.00   0.62100156   0.11609928
10742.00   0.73912704   0.11833837
10744.00   0.71768671   0.11863868
10746.00   0.62339042   0.11785975
10748.00   0.57806969   0.11551061
10750.00   0.54543510   0.10984998
10752.00   0.53620933   0.10823829
10754.00   0.56221595   0.11075642
10756.00   0.57194433   0.11102308
10758.00   0.55382146   0.10787359
10760.00   0.53627539   0.10360531
10762.00   0.58141629   0.10099160
10764.00   0.69754550   0.09923921
10766.00   0.76634401   0.09805226
10768.00   0.87520707   0.09802583
10770.00   0.85805193   0.09763222
10772.00   0.70151328   0.09700780
10774.00   0.51566703   0.09611108
10776.00   0.34875208   0.09509650
10778.00   0.17342896   0.09384271
10780.00   0.23993488   0.09409368
10782.00   0.65587050   0.09750925
10784.00   0.79365197   0.09687381
10786.00   0.70198721   0.09139702
10788.00   0.60414481   0.08622804
10790.00   0.61922197   0.08447337
10792.00   0.68669444   0.08434378
10794.00   0.69158685   0.08408954
10796.00   0.65251641   0.08551131
10798.00   0.62854126   0.08498700
10800.00   0.57640005   0.08202267
10802.00   0.58559401   0.08005533
10804.00   0.73946047   0.08114260
10806.00   0.93275750   0.08333863
10808.00   0.86951357   0.08289333
10810.00   0.52672325   0.08034650
10812.00   0.45838220   0.07910245
10814.00   0.57833394   0.07776255
10816.00   0.64634064   0.07742871
10818.00   0.65952724   0.07649942
10820.00   0.62323709   0.07844698
10822.00   0.52218147   0.08856904
10824.00   0.35245172   0.10481104
10826.00   0.34151823   0.10736363
10828.00   0.45351708   0.09947048
10830.00   0.56100062   0.09445566
10832.00   0.69473839   0.08901079
10834.00   0.82687521   0.08554413
10836.00   0.98329604   0.08080435
10838.00   1.17027530   0.07125646
10840.00   1.07911438   0.11691769
10842.00   0.58965527   0.20575958
10844.00   0.42881989   0.21746798
10846.00   0.50296146   0.16484049
10848.00   0.64470646   0.09209291
10850.00   0.82797733   0.06498855
10852.00   1.05058870   0.07867351
10854.00   1.07760471   0.07410820
10856.00   0.89765553   0.07644053
10858.00   0.85403880   0.07410448
10860.00   0.80427188   0.06746968
10862.00   0.86195844   0.06405088
10864.00   1.16639131   0.06804850
10866.00   1.50340062   0.07367351
10868.00   1.41987264   0.07237542
10870.00   1.41987264   0.07237542
