# File created by shivutils (I.Shivvers)
# 
# wl(A)   flm    er(optional)
3422.00   0.33277961   0.05657865
3424.00   0.56825182   0.05851208
3426.00   0.46269204   0.05932456
3428.00   0.29587805   0.05751907
3430.00   0.44058613   0.05699900
3432.00   0.39121583   0.05880530
3434.00   0.31238430   0.05810748
3436.00   0.30428324   0.05851192
3438.00   0.43487113   0.05911027
3440.00   0.39853558   0.05727729
3442.00   0.34479834   0.05744640
3444.00   0.50515045   0.05930126
3446.00   0.36528247   0.05935791
3448.00   0.41729484   0.06175969
3450.00   0.60193985   0.06344084
3452.00   0.39950048   0.06239877
3454.00   0.48786910   0.06151450
3456.00   0.48196689   0.06081042
3458.00   0.63163563   0.06252514
3460.00   0.34755523   0.05891408
3462.00   0.49743006   0.05922587
3464.00   0.56688582   0.05966831
3466.00   0.38510819   0.05813257
3468.00   0.39170863   0.05806079
3470.00   0.46788308   0.05919871
3472.00   0.45311379   0.05867176
3474.00   0.49473003   0.05961269
3476.00   0.49639454   0.06205796
3478.00   0.42517278   0.06392304
3480.00   0.46555241   0.06422377
3482.00   0.53047774   0.06393741
3484.00   0.59471123   0.06323708
3486.00   0.56201413   0.06233159
3488.00   0.42173224   0.05898344
3490.00   0.45691220   0.05931749
3492.00   0.57014709   0.05963061
3494.00   0.42801848   0.05743628
3496.00   0.50156450   0.05839205
3498.00   0.49567769   0.05736123
3500.00   0.55352887   0.05826744
3502.00   0.55820010   0.05869763
3504.00   0.53646468   0.05788416
3506.00   0.48181151   0.05787223
3508.00   0.49683610   0.05736859
3510.00   0.65912292   0.05762953
3512.00   0.49827225   0.05574524
3514.00   0.51090903   0.05577024
3516.00   0.57437767   0.05581817
3518.00   0.60968917   0.05562361
3520.00   0.59204387   0.05532922
3522.00   0.71849676   0.05567634
3524.00   0.64728090   0.05513699
3526.00   0.65520737   0.05484889
3528.00   0.43200754   0.05292707
3530.00   0.57199795   0.05244325
3532.00   0.60810127   0.05331355
3534.00   0.61798400   0.05273635
3536.00   0.72543975   0.05447522
3538.00   0.70275874   0.05533376
3540.00   0.64006568   0.05648471
3542.00   0.60567267   0.05696082
3544.00   0.61644581   0.05669620
3546.00   0.59119645   0.05569092
3548.00   0.61642194   0.05431840
3550.00   0.56360604   0.05357268
3552.00   0.76256621   0.05738248
3554.00   0.68132928   0.05525755
3556.00   0.64787004   0.05431731
3558.00   0.73691007   0.05428899
3560.00   0.78320938   0.05393337
3562.00   0.71219835   0.05251737
3564.00   0.65146992   0.05093079
3566.00   0.73375483   0.05219598
3568.00   0.82447189   0.05158365
3570.00   0.66962329   0.05099672
3572.00   0.66803509   0.05018936
3574.00   0.71810802   0.04959883
3576.00   0.79113487   0.05100468
3578.00   0.78385801   0.04951400
3580.00   0.84084944   0.04991186
3582.00   0.66353160   0.04737245
3584.00   0.74822049   0.04725997
3586.00   0.76972796   0.04699377
3588.00   0.76365755   0.04821481
3590.00   0.76258721   0.04738015
3592.00   0.81103970   0.04764962
3594.00   0.75852358   0.04718524
3596.00   0.75974470   0.04610429
3598.00   0.68658575   0.04613922
3600.00   0.67710381   0.04492135
3602.00   0.72369493   0.04466403
3604.00   0.67058726   0.04427751
3606.00   0.76797407   0.04443793
3608.00   0.64852911   0.04282591
3610.00   0.65704725   0.04343065
3612.00   0.68320256   0.04403383
3614.00   0.67413667   0.04468546
3616.00   0.75626263   0.04476932
3618.00   0.60252335   0.04314559
3620.00   0.50627322   0.04181543
3622.00   0.66098965   0.04273493
3624.00   0.66442212   0.04237693
3626.00   0.48394483   0.04114666
3628.00   0.58144652   0.04217802
3630.00   0.64098530   0.04333167
3632.00   0.63292847   0.04283925
3634.00   0.53614185   0.04185355
3636.00   0.53311873   0.04177152
3638.00   0.59182752   0.04146214
3640.00   0.56474468   0.04261019
3642.00   0.53390360   0.04147915
3644.00   0.47953852   0.04102095
3646.00   0.46404139   0.04423611
3648.00   0.54362910   0.05484916
3650.00   0.45344903   0.04962982
3652.00   0.49473384   0.04650612
3654.00   0.48058603   0.04415317
3656.00   0.45842651   0.03935633
3658.00   0.43364000   0.03726776
3660.00   0.47230408   0.04010368
3662.00   0.43535463   0.04142794
3664.00   0.33159082   0.03548422
3666.00   0.38006761   0.03381652
3668.00   0.33286033   0.03238411
3670.00   0.33820544   0.03214639
3672.00   0.27038298   0.03151641
3674.00   0.39429678   0.03177627
3676.00   0.27170532   0.03067069
3678.00   0.33511789   0.03046068
3680.00   0.33400551   0.02997274
3682.00   0.22387079   0.02913981
3684.00   0.28030111   0.02951414
3686.00   0.28957443   0.02952280
3688.00   0.30749096   0.02986408
3690.00   0.16137951   0.02840090
3692.00   0.18015852   0.02805129
3694.00   0.18119235   0.02811754
3696.00   0.11762848   0.02938902
3698.00   0.26287518   0.02981169
3700.00   0.26920516   0.02947840
3702.00   0.26550846   0.02966518
3704.00   0.24073786   0.02844814
3706.00   0.19687433   0.02720469
3708.00   0.15670446   0.02744041
3710.00   0.19271646   0.02796262
3712.00   0.19083720   0.02767402
3714.00   0.16718561   0.02661232
3716.00   0.14591421   0.02688846
3718.00   0.17940233   0.02643778
3720.00   0.17361047   0.02621674
3722.00   0.19452906   0.02676201
3724.00   0.16591927   0.02750899
3726.00   0.23253411   0.02888619
3728.00   0.18762357   0.02790774
3730.00   0.15484473   0.02759075
3732.00   0.21936772   0.02719859
3734.00   0.20849498   0.02699606
3736.00   0.13136246   0.02740680
3738.00   0.16638437   0.02792618
3740.00   0.17919616   0.02858126
3742.00   0.19799289   0.02693874
3744.00   0.21644957   0.02649579
3746.00   0.16787104   0.02575658
3748.00   0.16832723   0.02564985
3750.00   0.20321874   0.02565750
3752.00   0.24812096   0.02601645
3754.00   0.21066831   0.02570820
3756.00   0.23489100   0.02534730
3758.00   0.17903548   0.02494378
3760.00   0.23376976   0.02484818
3762.00   0.22315133   0.02448379
3764.00   0.15062689   0.02408493
3766.00   0.17278626   0.02379816
3768.00   0.27248404   0.02429976
3770.00   0.16911566   0.02475995
3772.00   0.19937770   0.02489226
3774.00   0.17849317   0.02464001
3776.00   0.20700636   0.02490840
3778.00   0.19849418   0.02386243
3780.00   0.16576961   0.02366515
3782.00   0.25441912   0.02437427
3784.00   0.28677939   0.02455824
3786.00   0.25592684   0.02320535
3788.00   0.23850911   0.02401571
3790.00   0.26258718   0.02452752
3792.00   0.23650029   0.02345410
3794.00   0.22732637   0.02334378
3796.00   0.22341185   0.02322440
3798.00   0.29274358   0.02331779
3800.00   0.26959816   0.02387920
3802.00   0.31471353   0.02458610
3804.00   0.25587263   0.02385590
3806.00   0.27871474   0.02360621
3808.00   0.29519083   0.02348301
3810.00   0.33547295   0.02462386
3812.00   0.38907476   0.02492732
3814.00   0.26674406   0.02401910
3816.00   0.35531010   0.02473116
3818.00   0.36568028   0.02445452
3820.00   0.39971785   0.02499404
3822.00   0.38152168   0.02458541
3824.00   0.43860872   0.02485010
3826.00   0.36403769   0.02508155
3828.00   0.37727016   0.02573416
3830.00   0.35068875   0.02580516
3832.00   0.36527126   0.02508187
3834.00   0.41249103   0.02560820
3836.00   0.47437609   0.02537270
3838.00   0.44276616   0.02486790
3840.00   0.41013932   0.02481600
3842.00   0.45779817   0.02487751
3844.00   0.51961436   0.02537880
3846.00   0.45649990   0.02486916
3848.00   0.48333138   0.02478026
3850.00   0.45935250   0.02442312
3852.00   0.42995519   0.02432700
3854.00   0.48917487   0.02457945
3856.00   0.56695417   0.02506606
3858.00   0.56182954   0.02473810
3860.00   0.57361697   0.02510378
3862.00   0.56507338   0.02519033
3864.00   0.52189265   0.02462003
3866.00   0.58785623   0.02504585
3868.00   0.64509886   0.02523192
3870.00   0.64818151   0.02525433
3872.00   0.65556593   0.02580150
3874.00   0.63970684   0.02579555
3876.00   0.63607329   0.02503005
3878.00   0.72129999   0.02569326
3880.00   0.70980255   0.02523923
3882.00   0.77355070   0.02584760
3884.00   0.79261973   0.02599002
3886.00   0.78727119   0.02594367
3888.00   0.83587844   0.02630945
3890.00   0.80847410   0.02604906
3892.00   0.88880158   0.02646412
3894.00   0.85673751   0.02683789
3896.00   0.89980407   0.02709833
3898.00   0.89030925   0.02707318
3900.00   0.90436953   0.02741624
3902.00   0.96287667   0.02820748
3904.00   0.99540022   0.02917006
3906.00   0.94705353   0.03047954
3908.00   0.96005965   0.03039539
3910.00   1.01820101   0.03087135
3912.00   1.03742630   0.03084165
3914.00   1.07838167   0.02950256
3916.00   1.09614947   0.02912487
3918.00   1.07165070   0.02864750
3920.00   1.12770437   0.02868500
3922.00   1.13862281   0.02866943
3924.00   1.11689208   0.02837719
3926.00   1.13058615   0.02835403
3928.00   1.10957343   0.02813296
3930.00   1.04354152   0.02756721
3932.00   0.95942406   0.02743339
3934.00   1.08559605   0.02766893
3936.00   1.19412775   0.02824313
3938.00   1.22956698   0.02893695
3940.00   1.20175048   0.02893702
3942.00   1.21307876   0.02993135
3944.00   1.26399574   0.02985549
3946.00   1.23981941   0.02916755
3948.00   1.21656582   0.02876269
3950.00   1.23175326   0.02883268
3952.00   1.21057862   0.02828675
3954.00   1.24052226   0.02849500
3956.00   1.26228192   0.02817607
3958.00   1.22954957   0.02839584
3960.00   1.19853975   0.02899684
3962.00   1.24302363   0.02839727
3964.00   1.19955948   0.02758255
3966.00   1.05985808   0.02629101
3968.00   1.14199575   0.02685923
3970.00   1.24749123   0.02773293
3972.00   1.26104303   0.02806087
3974.00   1.17846583   0.02746937
3976.00   1.18824974   0.02757415
3978.00   1.19209076   0.02728910
3980.00   1.12023234   0.02711753
3982.00   1.13741813   0.02709943
3984.00   1.01045065   0.02570026
3986.00   1.05470850   0.02633965
3988.00   1.16155340   0.02710930
3990.00   1.17048674   0.02698174
3992.00   1.22458985   0.02724032
3994.00   1.23756191   0.02772293
3996.00   1.17410534   0.02787533
3998.00   1.14564873   0.02690221
4000.00   1.13659278   0.02683445
4002.00   1.13726412   0.02621932
4004.00   1.13228177   0.02617985
4006.00   1.09721784   0.02634419
4008.00   1.05548391   0.02632728
4010.00   1.05569060   0.02632300
4012.00   1.09753590   0.02641000
4014.00   1.06051439   0.02585373
4016.00   1.10499424   0.02615372
4018.00   1.04744528   0.02725432
4020.00   0.93208426   0.02753439
4022.00   1.06189858   0.02818988
4024.00   1.03089873   0.02753784
4026.00   1.03712371   0.02639382
4028.00   1.00360052   0.02571182
4030.00   1.04384473   0.02592670
4032.00   1.06037836   0.02565181
4034.00   1.05324430   0.02575064
4036.00   1.03284940   0.02550392
4038.00   1.03231538   0.02532640
4040.00   1.05290509   0.02577143
4042.00   1.07316780   0.02627799
4044.00   1.02154280   0.03527433
4046.00   1.04841952   0.04332897
4048.00   1.01814692   0.03061196
4050.00   1.05619125   0.02637421
4052.00   0.99017100   0.02590046
4054.00   1.09906393   0.02681593
4056.00   1.05871388   0.02554229
4058.00   1.08927025   0.02563380
4060.00   1.10775284   0.02542735
4062.00   1.13839411   0.02564538
4064.00   1.08479092   0.02547480
4066.00   1.16128639   0.02598797
4068.00   1.18135126   0.02574620
4070.00   1.16786574   0.02555406
4072.00   1.12830270   0.02493176
4074.00   1.17328118   0.02546018
4076.00   1.16935299   0.02808429
4078.00   1.13441324   0.02758662
4080.00   1.20733632   0.02649437
4082.00   1.25634459   0.02682732
4084.00   1.27521444   0.02639028
4086.00   1.27041760   0.02660856
4088.00   1.23938015   0.02561174
4090.00   1.19581052   0.02501220
4092.00   1.23011616   0.02515198
4094.00   1.27666895   0.02540158
4096.00   1.23616542   0.02498399
4098.00   1.22735643   0.02520259
4100.00   1.26336371   0.02522266
4102.00   1.35847657   0.02549793
4104.00   1.25431052   0.02485600
4106.00   1.25080486   0.02499405
4108.00   1.25905051   0.02485537
4110.00   1.29272312   0.02523969
4112.00   1.33880693   0.02533458
4114.00   1.27830492   0.02505084
4116.00   1.32740665   0.02540693
4118.00   1.32187045   0.02512190
4120.00   1.36567547   0.02519725
4122.00   1.34192903   0.02526817
4124.00   1.34239554   0.02532956
4126.00   1.28105544   0.02498962
4128.00   1.29590443   0.02499945
4130.00   1.36834972   0.02545630
4132.00   1.32088543   0.02569765
4134.00   1.36277561   0.02569224
4136.00   1.36595180   0.02524867
4138.00   1.38299763   0.02559180
4140.00   1.34581105   0.02556567
4142.00   1.32256376   0.02477542
4144.00   1.31491446   0.02457371
4146.00   1.28860218   0.02446323
4148.00   1.34529360   0.02454415
4150.00   1.30138002   0.02477043
4152.00   1.30576348   0.02529025
4154.00   1.34684904   0.02506787
4156.00   1.29543921   0.02454641
4158.00   1.26127937   0.02415205
4160.00   1.20532354   0.02417433
4162.00   1.23463431   0.02436762
4164.00   1.27152254   0.02565901
4166.00   1.26679978   0.02483286
4168.00   1.26988454   0.02439862
4170.00   1.27556502   0.02419259
4172.00   1.30963618   0.02408776
4174.00   1.25304264   0.02362320
4176.00   1.22648132   0.02370057
4178.00   1.27318912   0.02400973
4180.00   1.21068573   0.02344503
4182.00   1.24007547   0.02334379
4184.00   1.26130212   0.02359105
4186.00   1.20837852   0.02328613
4188.00   1.19411714   0.02303548
4190.00   1.21189772   0.02314460
4192.00   1.20458935   0.02338825
4194.00   1.17136538   0.02306923
4196.00   1.17888308   0.02273775
4198.00   1.22500907   0.02279476
4200.00   1.24469432   0.02299040
4202.00   1.25052111   0.02302931
4204.00   1.18658298   0.02273315
4206.00   1.25272149   0.02310719
4208.00   1.21796978   0.02301195
4210.00   1.19698746   0.02292995
4212.00   1.20106869   0.02296413
4214.00   1.22816622   0.02274122
4216.00   1.19315110   0.02277352
4218.00   1.18196357   0.02249618
4220.00   1.18742770   0.02249327
4222.00   1.13917683   0.02218918
4224.00   1.21845230   0.02249356
4226.00   1.19981245   0.02227869
4228.00   1.21857019   0.02229733
4230.00   1.15992124   0.02210164
4232.00   1.10289636   0.02202281
4234.00   1.13453888   0.02197060
4236.00   1.15755163   0.02228910
4238.00   1.09868965   0.02241938
4240.00   1.08247720   0.02144956
4242.00   1.10947565   0.02143855
4244.00   1.07828840   0.02210515
4246.00   1.06869571   0.02401207
4248.00   1.05488373   0.02233250
4250.00   0.98836619   0.02103390
4252.00   1.08494734   0.02170560
4254.00   0.98494439   0.02091280
4256.00   1.04149341   0.02129370
4258.00   0.96273463   0.02084951
4260.00   1.00688152   0.02070988
4262.00   1.01264252   0.02057382
4264.00   0.99633220   0.02054109
4266.00   0.93683819   0.02025756
4268.00   0.95891795   0.02033391
4270.00   0.98449686   0.02040488
4272.00   0.95522771   0.02024540
4274.00   0.96697641   0.02003375
4276.00   0.88402319   0.01977865
4278.00   0.91395178   0.02013574
4280.00   0.90924177   0.02004698
4282.00   0.90455600   0.02006010
4284.00   0.89292348   0.01982852
4286.00   0.85821184   0.01952582
4288.00   0.92959219   0.01985294
4290.00   0.93049010   0.01983418
4292.00   0.87627566   0.01955433
4294.00   0.86151831   0.01968332
4296.00   0.87785472   0.01963435
4298.00   0.85608821   0.01923692
4300.00   0.89080563   0.01937114
4302.00   0.81465078   0.01883538
4304.00   0.78231945   0.01891474
4306.00   0.79870022   0.01920728
4308.00   0.74953380   0.01887846
4310.00   0.79281359   0.01913342
4312.00   0.72737357   0.01996747
4314.00   0.80407534   0.02087958
4316.00   0.71522327   0.01908895
4318.00   0.77042154   0.01937796
4320.00   0.74391049   0.02019708
4322.00   0.74385191   0.01922622
4324.00   0.72685618   0.01943131
4326.00   0.76925572   0.01924587
4328.00   0.72738262   0.01857132
4330.00   0.74887428   0.01844009
4332.00   0.67856762   0.01833729
4334.00   0.74965596   0.01880853
4336.00   0.70902814   0.01857370
4338.00   0.72161783   0.01906048
4340.00   0.68952576   0.01904011
4342.00   0.74586403   0.01910927
4344.00   0.68765808   0.01893324
4346.00   0.70897052   0.01987647
4348.00   0.75678047   0.02030076
4350.00   0.71044929   0.01942371
4352.00   0.73638883   0.01931456
4354.00   0.71338279   0.01968870
4356.00   0.73182691   0.03246289
4358.00   0.71643185   0.04565930
4360.00   0.71869750   0.03057032
4362.00   0.73995678   0.02168994
4364.00   0.74307380   0.02043269
4366.00   0.73981479   0.02010816
4368.00   0.76495455   0.01987874
4370.00   0.77400294   0.01982812
4372.00   0.79424684   0.02015147
4374.00   0.78666539   0.02102272
4376.00   0.80849949   0.02026647
4378.00   0.74632343   0.01935226
4380.00   0.75927872   0.01932234
4382.00   0.82835467   0.01951746
4384.00   0.80063320   0.01936120
4386.00   0.77896987   0.01930016
4388.00   0.77603606   0.01901003
4390.00   0.77974914   0.01924342
4392.00   0.78233624   0.01927750
4394.00   0.78245121   0.01910010
4396.00   0.78841361   0.01910918
4398.00   0.80062615   0.01926241
4400.00   0.79866591   0.01990387
4402.00   0.84473500   0.01959561
4404.00   0.83055985   0.01944033
4406.00   0.84093942   0.01925556
4408.00   0.78666865   0.01924711
4410.00   0.83218673   0.01943868
4412.00   0.84077878   0.01951557
4414.00   0.83337274   0.01987611
4416.00   0.82779614   0.01995812
4418.00   0.86108067   0.01955032
4420.00   0.80338299   0.01928563
4422.00   0.81606782   0.01918271
4424.00   0.83604811   0.01943323
4426.00   0.86107916   0.01937908
4428.00   0.85354949   0.01923231
4430.00   0.85049451   0.01929183
4432.00   0.87414204   0.01952873
4434.00   0.89562620   0.01935461
4436.00   0.90207842   0.01950877
4438.00   0.95726808   0.01974696
4440.00   0.89006083   0.01955267
4442.00   0.93878114   0.01959827
4444.00   0.95952501   0.01993022
4446.00   0.93978882   0.01984295
4448.00   0.95248028   0.01978553
4450.00   0.94568242   0.01974285
4452.00   0.96763486   0.01975637
4454.00   0.93662942   0.01959340
4456.00   0.96300484   0.01962056
4458.00   0.92707346   0.01952090
4460.00   0.97171006   0.01974293
4462.00   0.91936528   0.01955245
4464.00   0.90577942   0.01956337
4466.00   0.94205528   0.01954849
4468.00   0.93204281   0.01946162
4470.00   0.91818814   0.01935800
4472.00   0.96646006   0.01957402
4474.00   0.92580705   0.01949436
4476.00   0.89498884   0.01928780
4478.00   0.90643877   0.01927150
4480.00   0.88737903   0.01916793
4482.00   0.88446942   0.01919439
4484.00   0.88660173   0.01925839
4486.00   0.94752719   0.01943971
4488.00   0.92332380   0.01943600
4490.00   0.91375790   0.01938007
4492.00   0.91942611   0.01967991
4494.00   0.99986945   0.01989385
4496.00   0.95503040   0.01960268
4498.00   0.95898361   0.01973904
4500.00   0.98551561   0.01977860
4502.00   0.95921877   0.01959766
4504.00   1.05639159   0.02006508
4506.00   1.05923018   0.02003281
4508.00   1.04468769   0.01996264
4510.00   1.06140149   0.01999841
4512.00   1.10878252   0.02025623
4514.00   1.05213838   0.01998615
4516.00   1.08516060   0.02005476
4518.00   1.08831180   0.02003377
4520.00   1.10446572   0.02012495
4522.00   1.08499497   0.01995610
4524.00   1.19975280   0.02036025
4526.00   1.13365175   0.02015855
4528.00   1.19167530   0.02030923
4530.00   1.16777087   0.02037854
4532.00   1.19268605   0.02041195
4534.00   1.15503049   0.02025975
4536.00   1.22296623   0.02049871
4538.00   1.17293677   0.02034060
4540.00   1.20416912   0.02041562
4542.00   1.20756413   0.02061167
4544.00   1.18989734   0.02058744
4546.00   1.21682840   0.02053724
4548.00   1.18921314   0.02030925
4550.00   1.25009437   0.02039306
4552.00   1.23456494   0.02025155
4554.00   1.24611198   0.02034567
4556.00   1.26196009   0.02053455
4558.00   1.25084743   0.02048592
4560.00   1.24781058   0.02023664
4562.00   1.21194231   0.02008439
4564.00   1.27652685   0.02033298
4566.00   1.23278782   0.02016687
4568.00   1.24033866   0.02014026
4570.00   1.26889822   0.02020495
4572.00   1.23707305   0.02004399
4574.00   1.27362350   0.02035189
4576.00   1.28278027   0.02019605
4578.00   1.25688861   0.01998446
4580.00   1.21374218   0.01984815
4582.00   1.26095243   0.01996078
4584.00   1.24478239   0.01990490
4586.00   1.19464183   0.01959921
4588.00   1.20744366   0.01965256
4590.00   1.20801233   0.01966100
4592.00   1.24184669   0.01974366
4594.00   1.18610395   0.01958573
4596.00   1.19843241   0.01952459
4598.00   1.18439631   0.01934260
4600.00   1.22230343   0.01946508
4602.00   1.17986451   0.01925787
4604.00   1.19030302   0.01937646
4606.00   1.20375220   0.01942063
4608.00   1.20126881   0.01947266
4610.00   1.20478615   0.01954353
4612.00   1.22965785   0.01952320
4614.00   1.21326910   0.01931546
4616.00   1.21643097   0.01945903
4618.00   1.23585084   0.01943688
4620.00   1.23726210   0.01940324
4622.00   1.24289052   0.01939219
4624.00   1.25811699   0.01944859
4626.00   1.23368748   0.01943229
4628.00   1.25586854   0.01949128
4630.00   1.23964362   0.01942671
4632.00   1.23294958   0.01932009
4634.00   1.25064249   0.01945864
4636.00   1.22878387   0.01921576
4638.00   1.26729224   0.01949099
4640.00   1.28015865   0.01953445
4642.00   1.28085027   0.01953604
4644.00   1.22166522   0.01919832
4646.00   1.25876329   0.01934555
4648.00   1.25535704   0.01938270
4650.00   1.20886267   0.01934461
4652.00   1.23520663   0.01939220
4654.00   1.25801191   0.01951772
4656.00   1.23033363   0.01940489
4658.00   1.19446536   0.01942309
4660.00   1.26441928   0.01980427
4662.00   1.22552809   0.01970142
4664.00   1.22050322   0.01983646
4666.00   1.19043574   0.01979861
4668.00   1.21876480   0.02012543
4670.00   1.16426578   0.02004172
4672.00   1.15858928   0.01984744
4674.00   1.18814123   0.01984685
4676.00   1.15057278   0.01953789
4678.00   1.12574640   0.01918488
4680.00   1.07405167   0.01890024
4682.00   1.13370668   0.01904298
4684.00   1.05548307   0.01854997
4686.00   1.07271756   0.01856758
4688.00   1.05922271   0.01839416
4690.00   1.04769491   0.01836452
4692.00   1.03186775   0.01826189
4694.00   1.05283615   0.01843069
4696.00   1.05113864   0.01823898
4698.00   1.05662628   0.01802975
4700.00   1.02598156   0.01804137
4702.00   1.02026426   0.01800084
4704.00   1.02733208   0.01814427
4706.00   0.99614705   0.01799376
4708.00   0.99962825   0.01796771
4710.00   0.97600029   0.01795390
4712.00   1.00301596   0.01795505
4714.00   0.97495447   0.01765305
4716.00   0.96512782   0.01749592
4718.00   0.98559677   0.01765206
4720.00   0.97493225   0.01751113
4722.00   0.96166255   0.01740869
4724.00   0.97688169   0.01729719
4726.00   0.94030009   0.01713359
4728.00   0.95958390   0.01798570
4730.00   0.92297111   0.01786296
4732.00   0.92719065   0.01753426
4734.00   0.89471649   0.01775523
4736.00   0.87818003   0.01768399
4738.00   0.92014499   0.01800768
4740.00   0.90619993   0.01826578
4742.00   0.86154519   0.01842154
4744.00   0.87114439   0.01838696
4746.00   0.88138551   0.01726171
4748.00   0.84353509   0.01657907
4750.00   0.85295041   0.01658202
4752.00   0.85419643   0.01695770
4754.00   0.85084601   0.01686440
4756.00   0.85955337   0.01638727
4758.00   0.84977882   0.01629392
4760.00   0.80977534   0.01591543
4762.00   0.83830828   0.01595554
4764.00   0.85722727   0.01595683
4766.00   0.83302806   0.01600324
4768.00   0.86041882   0.01596174
4770.00   0.85065180   0.01582446
4772.00   0.89435080   0.01609392
4774.00   0.88701732   0.01600184
4776.00   0.83966424   0.01597212
4778.00   0.84149034   0.01627734
4780.00   0.80119179   0.01623738
4782.00   0.82799044   0.01583518
4784.00   0.84799131   0.01582082
4786.00   0.83145995   0.01572038
4788.00   0.82494489   0.01573422
4790.00   0.81652855   0.01568646
4792.00   0.81754314   0.01577891
4794.00   0.81635281   0.01564251
4796.00   0.82127809   0.01550678
4798.00   0.83275133   0.01548330
4800.00   0.79282698   0.01529520
4802.00   0.80650400   0.01535016
4804.00   0.79695178   0.01535442
4806.00   0.81132210   0.01545315
4808.00   0.79163654   0.01548032
4810.00   0.82375902   0.01548659
4812.00   0.81635910   0.01547915
4814.00   0.82510206   0.01548997
4816.00   0.78435917   0.01540702
4818.00   0.82132207   0.01557620
4820.00   0.78483348   0.01552390
4822.00   0.74316105   0.01544077
4824.00   0.79682482   0.01560505
4826.00   0.81054112   0.01576961
4828.00   0.78738057   0.01563269
4830.00   0.77421128   0.01557096
4832.00   0.78303145   0.01568555
4834.00   0.75466529   0.01561446
4836.00   0.77687174   0.01545014
4838.00   0.75093621   0.01547939
4840.00   0.75142474   0.01601257
4842.00   0.77454861   0.01580163
4844.00   0.78259699   0.01558669
4846.00   0.79598063   0.01557077
4848.00   0.77619096   0.01566476
4850.00   0.76737464   0.01541674
4852.00   0.77038341   0.01564350
4854.00   0.81218594   0.01562593
4856.00   0.77340970   0.01522498
4858.00   0.75036496   0.01509002
4860.00   0.76308852   0.01585560
4862.00   0.74789782   0.01578229
4864.00   0.74538783   0.01539363
4866.00   0.69441991   0.01502625
4868.00   0.71088153   0.01498735
4870.00   0.75047010   0.01500115
4872.00   0.68150019   0.01482212
4874.00   0.66302696   0.01460271
4876.00   0.66659319   0.01472164
4878.00   0.62819058   0.01464773
4880.00   0.68220492   0.01490959
4882.00   0.67364525   0.01476859
4884.00   0.64990190   0.01460268
4886.00   0.66290954   0.01454979
4888.00   0.65788841   0.01430373
4890.00   0.60796948   0.01422957
4892.00   0.66518645   0.01437758
4894.00   0.62952635   0.01435660
4896.00   0.66083079   0.01451730
4898.00   0.63043912   0.01437042
4900.00   0.64470991   0.01427008
4902.00   0.63425405   0.01415357
4904.00   0.64360231   0.01428718
4906.00   0.64264130   0.01438345
4908.00   0.66666359   0.01438020
4910.00   0.65441628   0.01446477
4912.00   0.64003220   0.01434400
4914.00   0.68687693   0.01450043
4916.00   0.64786384   0.01462185
4918.00   0.66771728   0.01453055
4920.00   0.67422442   0.01443710
4922.00   0.64937785   0.01445964
4924.00   0.69317453   0.01455375
4926.00   0.71355887   0.01447812
4928.00   0.69802357   0.01440457
4930.00   0.68900641   0.01436822
4932.00   0.73516255   0.01454190
4934.00   0.75345145   0.01470382
4936.00   0.73967137   0.01481109
4938.00   0.76194275   0.01485482
4940.00   0.73998421   0.01480731
4942.00   0.74262527   0.01476636
4944.00   0.77536725   0.01487793
4946.00   0.76810501   0.01480883
4948.00   0.77713681   0.01485743
4950.00   0.79015473   0.01492197
4952.00   0.77459495   0.01501973
4954.00   0.78423625   0.01534213
4956.00   0.76372911   0.01504472
4958.00   0.75558188   0.01490757
4960.00   0.74078319   0.01488661
4962.00   0.72532259   0.01478238
4964.00   0.75771711   0.01498367
4966.00   0.74128856   0.01497767
4968.00   0.73613174   0.01502362
4970.00   0.71364365   0.01501669
4972.00   0.72853237   0.01542215
4974.00   0.75743974   0.01584748
4976.00   0.72250791   0.01586219
4978.00   0.71651815   0.01651479
4980.00   0.72934885   0.01731957
4982.00   0.68613870   0.01742317
4984.00   0.67427787   0.01741696
4986.00   0.73487982   0.01728140
4988.00   0.71071509   0.01659994
4990.00   0.72302126   0.01620979
4992.00   0.71891842   0.01597069
4994.00   0.69775199   0.01550638
4996.00   0.74941127   0.01528793
4998.00   0.72720320   0.01501915
5000.00   0.73210388   0.01476635
5002.00   0.71187512   0.01460827
5004.00   0.72786098   0.01475133
5006.00   0.73528089   0.01486337
5008.00   0.73327995   0.01471867
5010.00   0.72072483   0.01450469
5012.00   0.69932511   0.01433364
5014.00   0.70547511   0.01431828
5016.00   0.71126924   0.01441937
5018.00   0.71855641   0.01461809
5020.00   0.74125239   0.01477414
5022.00   0.70855686   0.01447783
5024.00   0.71505452   0.01442284
5026.00   0.71295801   0.01432690
5028.00   0.71164516   0.01431819
5030.00   0.71681479   0.01476806
5032.00   0.73064921   0.01487082
5034.00   0.74193407   0.01460998
5036.00   0.72898063   0.01438543
5038.00   0.74585830   0.01449724
5040.00   0.76306762   0.01451035
5042.00   0.71693245   0.01428151
5044.00   0.71543318   0.01429885
5046.00   0.76949999   0.01465938
5048.00   0.73973897   0.01460590
5050.00   0.73089268   0.01455358
5052.00   0.73939133   0.01445797
5054.00   0.75404338   0.01464678
5056.00   0.79308296   0.01483314
5058.00   0.76541858   0.01474789
5060.00   0.81473767   0.01495134
5062.00   0.79732848   0.01500901
5064.00   0.78736599   0.01535814
5066.00   0.77212037   0.01533318
5068.00   0.81405781   0.01556230
5070.00   0.80888734   0.01603008
5072.00   0.82393611   0.01587415
5074.00   0.80940555   0.01540801
5076.00   0.82085607   0.01562129
5078.00   0.82080338   0.01536221
5080.00   0.81461739   0.01593101
5082.00   0.81899051   0.01740447
5084.00   0.86554097   0.01811822
5086.00   0.86338277   0.01856700
5088.00   0.83843282   0.01789721
5090.00   0.85771987   0.01688542
5092.00   0.89192281   0.01629439
5094.00   0.89735600   0.01594292
5096.00   0.89393459   0.01613972
5098.00   0.91242372   0.01668666
5100.00   0.93858661   0.01704817
5102.00   0.94205652   0.01671267
5104.00   0.92569014   0.01615852
5106.00   0.95604165   0.01605173
5108.00   0.93257756   0.01606054
5110.00   0.93074458   0.01609501
5112.00   0.93877032   0.01614372
5114.00   0.94007546   0.01626564
5116.00   0.97579225   0.01660907
5118.00   0.95930914   0.01643009
5120.00   0.99666694   0.01649415
5122.00   1.00983589   0.01648693
5124.00   1.02148352   0.01645812
5126.00   1.04960303   0.01658574
5128.00   1.04579144   0.01664600
5130.00   1.03809340   0.01662692
5132.00   1.06103229   0.01685017
5134.00   1.09926006   0.01695188
5136.00   1.06738634   0.01690209
5138.00   1.09687686   0.01704034
5140.00   1.09426827   0.01710749
5142.00   1.11225228   0.01719878
5144.00   1.12269888   0.01731413
5146.00   1.10970806   0.01741091
5148.00   1.13890510   0.01771304
5150.00   1.13639115   0.01802408
5152.00   1.12879493   0.01824503
5154.00   1.16240744   0.01888931
5156.00   1.13193905   0.01855664
5158.00   1.16786456   0.01832677
5160.00   1.16278139   0.01808438
5162.00   1.16883913   0.01785713
5164.00   1.17308493   0.01784258
5166.00   1.16752111   0.01762618
5168.00   1.16344689   0.01764566
5170.00   1.20830242   0.01783782
5172.00   1.18317769   0.01767205
5174.00   1.19000917   0.01769604
5176.00   1.15944805   0.01776005
5178.00   1.16149521   0.01775549
5180.00   1.16091474   0.01774196
5182.00   1.14264407   0.01760437
5184.00   1.19121071   0.01775782
5186.00   1.20030979   0.01783371
5188.00   1.14797514   0.01769853
5190.00   1.16053821   0.01783386
5192.00   1.14789556   0.01763340
5194.00   1.14785186   0.01776094
5196.00   1.14133093   0.01772242
5198.00   1.13698790   0.01804783
5200.00   1.12814819   0.01803355
5202.00   1.10570972   0.01791959
5204.00   1.12049558   0.01784282
5206.00   1.11383575   0.01773356
5208.00   1.12702337   0.01788801
5210.00   1.16602313   0.01835594
5212.00   1.14219340   0.01855504
5214.00   1.14316062   0.01821351
5216.00   1.12050283   0.01805349
5218.00   1.16135721   0.01838708
5220.00   1.19088753   0.01875529
5222.00   1.14973047   0.01855797
5224.00   1.15486559   0.01857546
5226.00   1.17172372   0.01856524
5228.00   1.15488278   0.01851613
5230.00   1.17741566   0.01872347
5232.00   1.15645619   0.01864668
5234.00   1.13374156   0.01845019
5236.00   1.15227666   0.01870178
5238.00   1.18776391   0.01893573
5240.00   1.18751751   0.01899361
5242.00   1.15535917   0.01886518
5244.00   1.16248737   0.01896608
5246.00   1.18302571   0.01909034
5248.00   1.15123019   0.01885391
5250.00   1.16118888   0.01898078
5252.00   1.15362389   0.01896692
5254.00   1.17458224   0.01906359
5256.00   1.18876674   0.01938596
5258.00   1.15927214   0.01965708
5260.00   1.15662620   0.01954748
5262.00   1.17322439   0.01941611
5264.00   1.15237422   0.01909787
5266.00   1.12677153   0.01898359
5268.00   1.10554173   0.01891134
5270.00   1.14399057   0.01923911
5272.00   1.03933408   0.01873926
5274.00   1.05891200   0.01893348
5276.00   1.01037022   0.01870723
5278.00   1.00229314   0.01873381
5280.00   1.02304368   0.01881399
5282.00   1.03375860   0.01891070
5284.00   0.98920549   0.01876980
5286.00   1.01027297   0.01914049
5288.00   0.95005690   0.01869091
5290.00   0.94943650   0.01863331
5292.00   0.90477353   0.01835892
5294.00   0.94563176   0.01860874
5296.00   0.94901268   0.01858984
5298.00   0.90576097   0.01845244
5300.00   0.82724681   0.01803262
5302.00   0.87772804   0.01853239
5304.00   0.84721803   0.01830891
5306.00   0.82709480   0.01832147
5308.00   0.82528792   0.01813903
5310.00   0.85115686   0.01819170
5312.00   0.83174339   0.01831891
5314.00   0.81527769   0.01828556
5316.00   0.80031851   0.01811091
5318.00   0.76826045   0.01793964
5320.00   0.80444914   0.01818037
5322.00   0.80059288   0.01811005
5324.00   0.78081653   0.01821518
5326.00   0.76795042   0.01821980
5328.00   0.79435642   0.01823496
5330.00   0.73891786   0.01811942
5332.00   0.72139224   0.01802519
5334.00   0.80753735   0.01848958
5336.00   0.74021407   0.01821160
5338.00   0.77329484   0.01843908
5340.00   0.78692779   0.01889731
5342.00   0.80004998   0.01921147
5344.00   0.77234896   0.01901574
5346.00   0.78473121   0.01884107
5348.00   0.79069591   0.01919937
5350.00   0.78389732   0.01982434
5352.00   0.80115141   0.01971900
5354.00   0.75090091   0.01940997
5356.00   0.75047285   0.02015512
5358.00   0.80102557   0.02008974
5360.00   0.80182011   0.01973193
5362.00   0.77876675   0.01934314
5364.00   0.79814192   0.01952279
5366.00   0.79314536   0.01936600
5368.00   0.79581845   0.01950575
5370.00   0.74779641   0.01928249
5372.00   0.79275335   0.01959479
5374.00   0.84200450   0.02026700
5376.00   0.85604415   0.02084733
5378.00   0.83663692   0.02065386
5380.00   0.83677177   0.02059623
5382.00   0.86221557   0.02063164
5384.00   0.81505758   0.02041163
5386.00   0.84950721   0.02084614
5388.00   0.84649785   0.02081652
5390.00   0.89958146   0.02147451
5392.00   0.85639294   0.02185202
5394.00   0.88359603   0.02203245
5396.00   0.87903800   0.02181759
5398.00   0.88595044   0.02194745
5400.00   0.91423454   0.02223987
5402.00   0.82580685   0.02193505
5404.00   0.87858675   0.02240695
5406.00   0.85091639   0.02256502
5408.00   0.90744348   0.02297527
5410.00   0.97416164   0.02344085
5412.00   0.90478103   0.02355128
5414.00   0.92567304   0.02407721
5416.00   0.91129214   0.02465543
5418.00   0.92305139   0.00963713
5420.00   0.90941361   0.01085834
5422.00   0.90106219   0.01094100
5424.00   0.89022538   0.00999911
5426.00   0.89074063   0.00963563
5428.00   0.90211076   0.00957457
5430.00   0.90980962   0.00941970
5432.00   0.90621066   0.00909512
5434.00   0.89958841   0.00883673
5436.00   0.91482547   0.00895140
5438.00   0.95717323   0.00955419
5440.00   0.96650550   0.00963042
5442.00   0.95546970   0.00926398
5444.00   0.93993154   0.00911753
5446.00   0.91570202   0.00939205
5448.00   0.89594001   0.00967239
5450.00   0.89531431   0.00958453
5452.00   0.90668076   0.00914464
5454.00   0.90373853   0.00982946
5456.00   0.88990816   0.01170343
5458.00   0.88526747   0.01255781
5460.00   0.88105255   0.01271568
5462.00   0.87746453   0.01247091
5464.00   0.88753211   0.01191722
5466.00   0.91043177   0.01099518
5468.00   0.90865397   0.01043775
5470.00   0.88273129   0.01011432
5472.00   0.87037185   0.00966165
5474.00   0.87120825   0.00916525
5476.00   0.86842149   0.00887285
5478.00   0.85026786   0.00877909
5480.00   0.82144836   0.00880472
5482.00   0.80186003   0.00890398
5484.00   0.78300196   0.00932385
5486.00   0.77374411   0.00923933
5488.00   0.77875847   0.00862454
5490.00   0.77816015   0.00814287
5492.00   0.76046023   0.00795391
5494.00   0.73700869   0.00786690
5496.00   0.73284972   0.00776607
5498.00   0.74524575   0.00772021
5500.00   0.74540552   0.00764043
5502.00   0.73819223   0.00750980
5504.00   0.73548833   0.00746022
5506.00   0.73885721   0.00750282
5508.00   0.74299037   0.00761103
5510.00   0.74276835   0.00775347
5512.00   0.73894170   0.00797683
5514.00   0.74324390   0.00804850
5516.00   0.75318184   0.00777535
5518.00   0.76425922   0.00797583
5520.00   0.78351888   0.00897453
5522.00   0.79916555   0.00970281
5524.00   0.79429150   0.00939215
5526.00   0.77395490   0.00832405
5528.00   0.77373931   0.00779580
5530.00   0.78140527   0.00727539
5532.00   0.79775429   0.00718678
5534.00   0.83381930   0.00771893
5536.00   0.86201453   0.00817235
5538.00   0.86790887   0.00825701
5540.00   0.86107537   0.00813349
5542.00   0.85425201   0.00808812
5544.00   0.83124086   0.00800327
5546.00   0.83497450   0.00801415
5548.00   0.86312863   0.00805485
5550.00   0.88905442   0.00819584
5552.00   0.90853453   0.00850061
5554.00   0.92268762   0.00875751
5556.00   0.93195972   0.00869029
5558.00   0.93510851   0.00840272
5560.00   0.95035544   0.00819444
5562.00   0.97888201   0.00781563
5564.00   0.99934965   0.00767660
5566.00   1.01100910   0.00758149
5568.00   1.01590389   0.00799950
5570.00   1.01850772   0.00945305
5572.00   1.01710829   0.01144260
5574.00   1.03010935   0.01319837
5576.00   1.05654553   0.01610785
5578.00   1.08015808   0.01659185
5580.00   1.11111030   0.01436803
5582.00   1.12737185   0.01144177
5584.00   1.11381048   0.01004464
5586.00   1.08230045   0.00949731
5588.00   1.07508153   0.00870561
5590.00   1.07939041   0.00811289
5592.00   1.08747971   0.00775785
5594.00   1.10549006   0.00774004
5596.00   1.12127385   0.00775489
5598.00   1.13409209   0.00776457
5600.00   1.14380020   0.00780701
5602.00   1.14493451   0.00778984
5604.00   1.13320190   0.00768998
5606.00   1.13658267   0.00776462
5608.00   1.15076125   0.00803518
5610.00   1.16392106   0.00819202
5612.00   1.17706937   0.00821561
5614.00   1.18762475   0.00819533
5616.00   1.18874758   0.00818038
5618.00   1.18213713   0.00809586
5620.00   1.18117368   0.00813484
5622.00   1.17976403   0.00832608
5624.00   1.18221205   0.00840374
5626.00   1.19473046   0.00835793
5628.00   1.20608091   0.00829338
5630.00   1.20378309   0.00816723
5632.00   1.19273597   0.00790472
5634.00   1.18912148   0.00782698
5636.00   1.18361545   0.00790599
5638.00   1.18774903   0.00793534
5640.00   1.20906371   0.00794698
5642.00   1.22741610   0.00793745
5644.00   1.22912669   0.00782849
5646.00   1.22118515   0.00766063
5648.00   1.20913106   0.00789961
5650.00   1.18154097   0.00865979
5652.00   1.17025959   0.00892365
5654.00   1.16654134   0.00890459
5656.00   1.17319274   0.00873729
5658.00   1.19532889   0.00842626
5660.00   1.22412109   0.00804230
5662.00   1.23709166   0.00799570
5664.00   1.24242485   0.00829586
5666.00   1.24483490   0.00841086
5668.00   1.24193197   0.00847449
5670.00   1.23585618   0.00851369
5672.00   1.22339761   0.00848903
5674.00   1.20978153   0.00854126
5676.00   1.20749319   0.00892615
5678.00   1.21236962   0.00957169
5680.00   1.21564406   0.00984263
5682.00   1.22305864   0.00984434
5684.00   1.22743970   0.00998019
5686.00   1.22351390   0.01027349
5688.00   1.21674514   0.01047528
5690.00   1.21711898   0.01033393
5692.00   1.22184956   0.00989928
5694.00   1.22088021   0.00955375
5696.00   1.21561003   0.00908766
5698.00   1.21198356   0.00875692
5700.00   1.20767939   0.00855109
5702.00   1.20613909   0.00841010
5704.00   1.21136332   0.00826524
5706.00   1.22186202   0.00816074
5708.00   1.21770602   0.00827299
5710.00   1.19754356   0.00875856
5712.00   1.18921638   0.00879846
5714.00   1.18769103   0.00847152
5716.00   1.18609565   0.00827521
5718.00   1.18554568   0.00828521
5720.00   1.18896526   0.00835182
5722.00   1.19652450   0.00830097
5724.00   1.21118563   0.00805804
5726.00   1.21811163   0.00805917
5728.00   1.22389829   0.00830426
5730.00   1.22263831   0.00848573
5732.00   1.20825553   0.00852773
5734.00   1.19130826   0.00842748
5736.00   1.18988985   0.00815975
5738.00   1.20181137   0.00762828
5740.00   1.20302105   0.00748310
5742.00   1.20016390   0.00773299
5744.00   1.19523877   0.00776512
5746.00   1.18789917   0.00752258
5748.00   1.18029833   0.00726703
5750.00   1.17587960   0.00725222
5752.00   1.17361033   0.00739066
5754.00   1.17130202   0.00742505
5756.00   1.16746920   0.00739568
5758.00   1.16920662   0.00744257
5760.00   1.17973214   0.00750533
5762.00   1.18682742   0.00769519
5764.00   1.18298346   0.00811351
5766.00   1.17222029   0.00862811
5768.00   1.16368091   0.00872627
5770.00   1.15345454   0.00840782
5772.00   1.14475557   0.00839470
5774.00   1.14000160   0.00859930
5776.00   1.12914413   0.00866237
5778.00   1.10534617   0.00859576
5780.00   1.07601854   0.00849391
5782.00   1.06652126   0.00827226
5784.00   1.07137299   0.00769536
5786.00   1.07735232   0.00779948
5788.00   1.09414339   0.00863241
5790.00   1.10648769   0.00908771
5792.00   1.10741436   0.00912833
5794.00   1.10092771   0.00891203
5796.00   1.09683156   0.00850603
5798.00   1.08849314   0.00770993
5800.00   1.09021649   0.00733455
5802.00   1.10537976   0.00719543
5804.00   1.11130300   0.00719373
5806.00   1.10504732   0.00746901
5808.00   1.09352815   0.00774703
5810.00   1.08233362   0.00766638
5812.00   1.06801316   0.00732006
5814.00   1.06180528   0.00728029
5816.00   1.06226945   0.00746619
5818.00   1.06281629   0.00752505
5820.00   1.06060085   0.00751579
5822.00   1.06339914   0.00761035
5824.00   1.07920384   0.00781204
5826.00   1.09888282   0.00797990
5828.00   1.09538093   0.00791178
5830.00   1.06639975   0.00754490
5832.00   1.05685157   0.00742963
5834.00   1.05731571   0.00746624
5836.00   1.05949989   0.00748978
5838.00   1.06039318   0.00741069
5840.00   1.06067213   0.00728106
5842.00   1.06119496   0.00725848
5844.00   1.05830795   0.00727371
5846.00   1.06932384   0.00744142
5848.00   1.10228342   0.00788994
5850.00   1.11836147   0.00808840
5852.00   1.11037609   0.00797538
5854.00   1.09215543   0.00779238
5856.00   1.08008313   0.00777783
5858.00   1.06515071   0.00788226
5860.00   1.06433338   0.00789846
5862.00   1.08146843   0.00781232
5864.00   1.08927023   0.00784331
5866.00   1.08419454   0.00801086
5868.00   1.07462618   0.00829939
5870.00   1.06992084   0.00874254
5872.00   1.06801230   0.00927525
5874.00   1.07462323   0.00905969
5876.00   1.09726763   0.00773659
5878.00   1.10356200   0.00723727
5880.00   1.10265321   0.00714259
5882.00   1.09400105   0.00763378
5884.00   1.07060561   0.00885045
5886.00   1.03661457   0.01046506
5888.00   1.01402208   0.01187967
5890.00   0.99087125   0.01370464
5892.00   0.98066399   0.01452417
5894.00   0.98008010   0.01492596
5896.00   0.99051690   0.01473599
5898.00   1.01336953   0.01367358
5900.00   1.04380849   0.01201084
5902.00   1.07510743   0.01071150
5904.00   1.12208870   0.00906958
5906.00   1.13820785   0.00800532
5908.00   1.12902293   0.00766689
5910.00   1.11953089   0.00756599
5912.00   1.10645914   0.00761372
5914.00   1.09276056   0.00774074
5916.00   1.09106737   0.00780383
5918.00   1.09804547   0.00792036
5920.00   1.10191697   0.00785687
5922.00   1.10744485   0.00753909
5924.00   1.11199573   0.00740537
5926.00   1.11282197   0.00745634
5928.00   1.11540645   0.00758852
5930.00   1.12581655   0.00772852
5932.00   1.14150852   0.00790637
5934.00   1.14662731   0.00806925
5936.00   1.14671582   0.00838991
5938.00   1.14129806   0.00835446
5940.00   1.12781858   0.00785824
5942.00   1.11413428   0.00749948
5944.00   1.09890398   0.00761089
5946.00   1.08291844   0.00795327
5948.00   1.08814973   0.00816454
5950.00   1.11854851   0.00856058
5952.00   1.13336593   0.00852032
5954.00   1.14196098   0.00792014
5956.00   1.14745677   0.00747656
5958.00   1.15256757   0.00747762
5960.00   1.15224689   0.00760278
5962.00   1.14006057   0.00762073
5964.00   1.11313108   0.00771495
5966.00   1.09648022   0.00772022
5968.00   1.07854187   0.00768394
5970.00   1.07122803   0.00758259
5972.00   1.07267690   0.00740354
5974.00   1.08299500   0.00720880
5976.00   1.10797021   0.00710010
5978.00   1.15219378   0.00705502
5980.00   1.16627479   0.00703961
5982.00   1.15612060   0.00709400
5984.00   1.15305680   0.00712258
5986.00   1.15442753   0.00707272
5988.00   1.15426487   0.00709413
5990.00   1.15195042   0.00737456
5992.00   1.14905626   0.00782504
5994.00   1.14735258   0.00792103
5996.00   1.13937944   0.00775594
5998.00   1.14702439   0.00764501
6000.00   1.17955017   0.00751026
6002.00   1.20042926   0.00735442
6004.00   1.18737471   0.00718312
6006.00   1.15523857   0.00700960
6008.00   1.14691222   0.00690736
6010.00   1.15285021   0.00687820
6012.00   1.15552717   0.00683545
6014.00   1.16059202   0.00680107
6016.00   1.16186392   0.00677044
6018.00   1.16235322   0.00669177
6020.00   1.15937942   0.00666268
6022.00   1.14372307   0.00690133
6024.00   1.11109418   0.00742528
6026.00   1.10317558   0.00753996
6028.00   1.11459765   0.00741553
6030.00   1.12176844   0.00724171
6032.00   1.12749577   0.00693041
6034.00   1.13238055   0.00662373
6036.00   1.13210505   0.00650658
6038.00   1.12724820   0.00651926
6040.00   1.11897641   0.00647461
6042.00   1.10058752   0.00643188
6044.00   1.09289303   0.00640095
6046.00   1.09651569   0.00638659
6048.00   1.09832069   0.00637530
6050.00   1.09344214   0.00636697
6052.00   1.08693275   0.00637111
6054.00   1.07832232   0.00635008
6056.00   1.06424481   0.00630561
6058.00   1.05513132   0.00626714
6060.00   1.05175278   0.00622892
6062.00   1.04586852   0.00619961
6064.00   1.03456444   0.00616122
6066.00   1.02167568   0.00614357
6068.00   1.00994316   0.00623913
6070.00   0.99541792   0.00647970
6072.00   0.98515797   0.00656879
6074.00   0.98289973   0.00662776
6076.00   0.97599655   0.00657712
6078.00   0.95783633   0.00633424
6080.00   0.93495160   0.00605900
6082.00   0.91812903   0.00601849
6084.00   0.90546861   0.00621946
6086.00   0.89097631   0.00624114
6088.00   0.88067794   0.00613659
6090.00   0.86113426   0.00610126
6092.00   0.82900846   0.00631004
6094.00   0.79638332   0.00647291
6096.00   0.77393249   0.00626482
6098.00   0.75524530   0.00574736
6100.00   0.73536220   0.00567410
6102.00   0.71611086   0.00598251
6104.00   0.69815955   0.00610850
6106.00   0.68121880   0.00606290
6108.00   0.66545945   0.00612066
6110.00   0.64503554   0.00645150
6112.00   0.61917788   0.00689677
6114.00   0.61234561   0.00702817
6116.00   0.63567400   0.00708128
6118.00   0.62682393   0.00685824
6120.00   0.58599979   0.00608031
6122.00   0.55077749   0.00534192
6124.00   0.53480352   0.00510659
6126.00   0.52678941   0.00516039
6128.00   0.51626211   0.00509956
6130.00   0.50865968   0.00506916
6132.00   0.49953014   0.00506514
6134.00   0.48890263   0.00512787
6136.00   0.47882372   0.00515882
6138.00   0.47145560   0.00513230
6140.00   0.46668448   0.00509008
6142.00   0.46178438   0.00502331
6144.00   0.45720877   0.00486801
6146.00   0.45072719   0.00486435
6148.00   0.44359094   0.00499710
6150.00   0.43500237   0.00509628
6152.00   0.42113706   0.00515627
6154.00   0.40766232   0.00520396
6156.00   0.40423232   0.00529353
6158.00   0.41012327   0.00544604
6160.00   0.40578648   0.00553854
6162.00   0.39322034   0.00569355
6164.00   0.38546096   0.00565105
6166.00   0.38243817   0.00533672
6168.00   0.37954867   0.00494443
6170.00   0.37658925   0.00467869
6172.00   0.37663187   0.00446066
6174.00   0.37205078   0.00432799
6176.00   0.35861111   0.00428098
6178.00   0.35641176   0.00430284
6180.00   0.36695126   0.00446510
6182.00   0.37935510   0.00463548
6184.00   0.38888180   0.00473366
6186.00   0.39705949   0.00477745
6188.00   0.39765549   0.00472486
6190.00   0.38891348   0.00451987
6192.00   0.38538283   0.00440350
6194.00   0.38261078   0.00426983
6196.00   0.38196108   0.00426046
6198.00   0.38617556   0.00440506
6200.00   0.39166442   0.00458987
6202.00   0.38833912   0.00473772
6204.00   0.37262292   0.00498517
6206.00   0.37764709   0.00507545
6208.00   0.40098986   0.00508779
6210.00   0.41969515   0.00500411
6212.00   0.43528101   0.00481949
6214.00   0.44707382   0.00459466
6216.00   0.44804868   0.00445262
6218.00   0.43700299   0.00436569
6220.00   0.44442149   0.00432916
6222.00   0.46665356   0.00431924
6224.00   0.48421474   0.00441716
6226.00   0.50140569   0.00468206
6228.00   0.51594687   0.00488222
6230.00   0.52254799   0.00491848
6232.00   0.52314681   0.00487327
6234.00   0.53196351   0.00488042
6236.00   0.54778066   0.00486907
6238.00   0.55855365   0.00491221
6240.00   0.56498402   0.00505346
6242.00   0.57315847   0.00513274
6244.00   0.58724004   0.00504104
6246.00   0.60512596   0.00484986
6248.00   0.61695454   0.00484076
6250.00   0.62205270   0.00499185
6252.00   0.63463956   0.00506673
6254.00   0.65443420   0.00507461
6256.00   0.67145154   0.00514265
6258.00   0.68452886   0.00539701
6260.00   0.69548357   0.00564342
6262.00   0.70389816   0.00558567
6264.00   0.70920339   0.00526369
6266.00   0.71771142   0.00510789
6268.00   0.72718740   0.00492636
6270.00   0.73778957   0.00490118
6272.00   0.75400555   0.00513303
6274.00   0.76771206   0.00535208
6276.00   0.76952073   0.00532345
6278.00   0.76233709   0.00514369
6280.00   0.75565776   0.00518240
6282.00   0.73118514   0.00540610
6284.00   0.73688814   0.00549939
6286.00   0.77702042   0.00554458
6288.00   0.82218471   0.00559031
6290.00   0.85417318   0.00551451
6292.00   0.87980592   0.00533162
6294.00   0.89356902   0.00551063
6296.00   0.89162704   0.00614202
6298.00   0.89436921   0.00631195
6300.00   0.89485368   0.00617764
6302.00   0.89691836   0.00602475
6304.00   0.90080363   0.00592542
6306.00   0.90755534   0.00582684
6308.00   0.92273039   0.00571418
6310.00   0.95392829   0.00555032
6312.00   0.96213919   0.00546574
6314.00   0.94512624   0.00544604
6316.00   0.94151044   0.00545317
6318.00   0.96224591   0.00548108
6320.00   0.98987383   0.00551273
6322.00   0.99994832   0.00549397
6324.00   0.99924028   0.00538160
6326.00   1.00344679   0.00544248
6328.00   1.00746435   0.00565029
6330.00   1.01146170   0.00583733
6332.00   1.01433876   0.00599891
6334.00   1.02039021   0.00612108
6336.00   1.03598881   0.00621069
6338.00   1.06028703   0.00624416
6340.00   1.06248927   0.00607773
6342.00   1.04040393   0.00552997
6344.00   1.03412500   0.00530274
6346.00   1.03973225   0.00532258
6348.00   1.04636678   0.00540952
6350.00   1.04971275   0.00553159
6352.00   1.05251399   0.00573123
6354.00   1.05561966   0.00575083
6356.00   1.06251299   0.00554662
6358.00   1.06061926   0.00553518
6360.00   1.04319188   0.00576072
6362.00   1.03564993   0.00591997
6364.00   1.05248040   0.00583158
6366.00   1.08077028   0.00559750
6368.00   1.09247980   0.00552264
6370.00   1.09852269   0.00557075
6372.00   1.09905967   0.00553280
6374.00   1.08584306   0.00539946
6376.00   1.08076602   0.00533834
6378.00   1.09216213   0.00540834
6380.00   1.10871658   0.00554719
6382.00   1.11419871   0.00570489
6384.00   1.11463484   0.00599617
6386.00   1.11249426   0.00598473
6388.00   1.10221580   0.00564002
6390.00   1.09779006   0.00544336
6392.00   1.10122070   0.00541213
6394.00   1.10713807   0.00547686
6396.00   1.11148846   0.00567130
6398.00   1.11814457   0.00598487
6400.00   1.12443721   0.00601623
6402.00   1.13533342   0.00576221
6404.00   1.13606286   0.00570116
6406.00   1.12920302   0.00568589
6408.00   1.11941278   0.00576855
6410.00   1.10534564   0.00609100
6412.00   1.08871514   0.00651218
6414.00   1.08974338   0.00652539
6416.00   1.11228555   0.00618547
6418.00   1.11908102   0.00596788
6420.00   1.11779118   0.00560530
6422.00   1.11236858   0.00540446
6424.00   1.10349086   0.00560621
6426.00   1.09325665   0.00595115
6428.00   1.08962688   0.00599403
6430.00   1.08952832   0.00590767
6432.00   1.09215060   0.00579768
6434.00   1.10039547   0.00555110
6436.00   1.10683352   0.00534521
6438.00   1.11227790   0.00521562
6440.00   1.11500227   0.00518783
6442.00   1.10984546   0.00528871
6444.00   1.09630886   0.00549268
6446.00   1.08796531   0.00572074
6448.00   1.08138153   0.00617650
6450.00   1.07451522   0.00628837
6452.00   1.06389323   0.00600038
6454.00   1.05511290   0.00565653
6456.00   1.05631092   0.00549310
6458.00   1.06567207   0.00537630
6460.00   1.06675988   0.00529872
6462.00   1.06382114   0.00526805
6464.00   1.06026140   0.00529507
6466.00   1.05441055   0.00539169
6468.00   1.05058706   0.00549290
6470.00   1.05250689   0.00562069
6472.00   1.05689979   0.00576709
6474.00   1.04735789   0.00566128
6476.00   1.01900908   0.00520551
6478.00   1.00875917   0.00500520
6480.00   1.01300618   0.00494350
6482.00   1.01525906   0.00496588
6484.00   1.00936595   0.00508311
6486.00   1.00139606   0.00525232
6488.00   1.00175381   0.00538404
6490.00   1.01152572   0.00556512
6492.00   1.01293066   0.00558778
6494.00   1.00645483   0.00539248
6496.00   1.00465012   0.00533786
6498.00   1.01218972   0.00551394
6500.00   1.02301839   0.00573471
6502.00   1.02978265   0.00576154
6504.00   1.04033270   0.00569635
6506.00   1.03357175   0.00554253
6508.00   1.00575492   0.00512956
6510.00   0.98704368   0.00490891
6512.00   0.97949263   0.00501201
6514.00   0.97535220   0.00519661
6516.00   0.97112674   0.00522495
6518.00   0.96905014   0.00519224
6520.00   0.96450993   0.00516931
6522.00   0.95616782   0.00506697
6524.00   0.95330039   0.00509619
6526.00   0.95675716   0.00530881
6528.00   0.95932236   0.00546291
6530.00   0.95560491   0.00542696
6532.00   0.94831714   0.00526583
6534.00   0.94340226   0.00515327
6536.00   0.93669578   0.00500283
6538.00   0.93482453   0.00492003
6540.00   0.94109398   0.00485896
6542.00   0.94343093   0.00485017
6544.00   0.93478122   0.00492791
6546.00   0.92259488   0.00504902
6548.00   0.92197973   0.00510002
6550.00   0.93238840   0.00505396
6552.00   0.93277156   0.00518380
6554.00   0.92676005   0.00550838
6556.00   0.92172390   0.00570938
6558.00   0.91739434   0.00577379
6560.00   0.91549793   0.00577085
6562.00   0.92074233   0.00568231
6564.00   0.93561834   0.00543575
6566.00   0.93695751   0.00534933
6568.00   0.92800274   0.00540689
6570.00   0.92067271   0.00537407
6572.00   0.91557521   0.00521835
6574.00   0.90981477   0.00506677
6576.00   0.90130061   0.00498933
6578.00   0.89075726   0.00492146
6580.00   0.88609380   0.00492053
6582.00   0.88609937   0.00504783
6584.00   0.88595346   0.00506857
6586.00   0.88784361   0.00494246
6588.00   0.88911596   0.00483662
6590.00   0.88789296   0.00486667
6592.00   0.88508877   0.00500171
6594.00   0.88310593   0.00512411
6596.00   0.88255465   0.00537282
6598.00   0.87903437   0.00535645
6600.00   0.87117481   0.00502681
6602.00   0.86437520   0.00481405
6604.00   0.86160651   0.00492667
6606.00   0.86215058   0.00518668
6608.00   0.86202401   0.00528864
6610.00   0.86396271   0.00538705
6612.00   0.85935929   0.00531399
6614.00   0.84676164   0.00500180
6616.00   0.83800459   0.00476381
6618.00   0.83455604   0.00465783
6620.00   0.83507934   0.00460858
6622.00   0.83878073   0.00455095
6624.00   0.84819680   0.00444259
6626.00   0.84852397   0.00457100
6628.00   0.84249890   0.00498129
6630.00   0.83594215   0.00523873
6632.00   0.82648832   0.00534610
6634.00   0.81944063   0.00531867
6636.00   0.82005727   0.00516726
6638.00   0.82635310   0.00484292
6640.00   0.82666224   0.00466577
6642.00   0.82465219   0.00450463
6644.00   0.82099783   0.00448231
6646.00   0.81253189   0.00463958
6648.00   0.80808917   0.00477127
6650.00   0.81278679   0.00476051
6652.00   0.82196182   0.00467050
6654.00   0.82468045   0.00461418
6656.00   0.82599539   0.00447384
6658.00   0.82323420   0.00453346
6660.00   0.81327686   0.00483312
6662.00   0.80482244   0.00502756
6664.00   0.80123502   0.00503117
6666.00   0.80149695   0.00493042
6668.00   0.80291614   0.00486840
6670.00   0.80509883   0.00480890
6672.00   0.80864644   0.00478959
6674.00   0.81713420   0.00482329
6676.00   0.82044539   0.00481429
6678.00   0.81345516   0.00474694
6680.00   0.80539218   0.00470737
6682.00   0.81002533   0.00484756
6684.00   0.82699412   0.00522733
6686.00   0.82987702   0.00524359
6688.00   0.82527542   0.00497754
6690.00   0.81788111   0.00473725
6692.00   0.80635694   0.00438938
6694.00   0.79426539   0.00422070
6696.00   0.78442588   0.00473014
6698.00   0.77426711   0.00570262
6700.00   0.76892626   0.00582657
6702.00   0.76637599   0.00532018
6704.00   0.76834577   0.00502960
6706.00   0.77782765   0.00483274
6708.00   0.78467655   0.00467262
6710.00   0.78404409   0.00461357
6712.00   0.77934790   0.00465218
6714.00   0.77350715   0.00459745
6716.00   0.76264268   0.00445245
6718.00   0.75654545   0.00443297
6720.00   0.75219536   0.00454970
6722.00   0.75093633   0.00461063
6724.00   0.75348806   0.00456572
6726.00   0.75861865   0.00448008
6728.00   0.76495814   0.00443292
6730.00   0.77639499   0.00436935
6732.00   0.77730170   0.00443067
6734.00   0.76808900   0.00468889
6736.00   0.76231804   0.00477563
6738.00   0.75958714   0.00466491
6740.00   0.75683275   0.00450208
6742.00   0.75353661   0.00439665
6744.00   0.75004211   0.00427239
6746.00   0.74658835   0.00432889
6748.00   0.74034154   0.00464839
6750.00   0.73980781   0.00475678
6752.00   0.74601835   0.00463957
6754.00   0.75411421   0.00449220
6756.00   0.76207930   0.00448535
6758.00   0.77119318   0.00458232
6760.00   0.76806486   0.00463933
6762.00   0.74942470   0.00475995
6764.00   0.74084005   0.00473004
6766.00   0.73778695   0.00454210
6768.00   0.73729026   0.00442708
6770.00   0.73829821   0.00447785
6772.00   0.73933658   0.00459624
6774.00   0.73760220   0.00464397
6776.00   0.73328003   0.00470499
6778.00   0.73111433   0.00465734
6780.00   0.72968048   0.00443674
6782.00   0.72905564   0.00432889
6784.00   0.72905466   0.00441728
6786.00   0.72670451   0.00453490
6788.00   0.72090513   0.00449460
6790.00   0.71110046   0.00432075
6792.00   0.70622531   0.00427992
6794.00   0.70396805   0.00433980
6796.00   0.70314458   0.00436694
6798.00   0.70438492   0.00428133
6800.00   0.70411614   0.00420015
6802.00   0.69833454   0.00433945
6804.00   0.68712440   0.00466292
6806.00   0.68156102   0.00467315
6808.00   0.67830285   0.00441705
6810.00   0.67708522   0.00425911
6812.00   0.67724049   0.00414173
6814.00   0.67851636   0.00407345
6816.00   0.68275055   0.00406814
6818.00   0.68905571   0.00407788
6820.00   0.69304836   0.00441586
6822.00   0.69868392   0.00525060
6824.00   0.69939181   0.00553582
6826.00   0.69131777   0.00535622
6828.00   0.68140364   0.00502785
6830.00   0.67686650   0.00479143
6832.00   0.67474291   0.00455609
6834.00   0.67011774   0.00439055
6836.00   0.66252986   0.00428831
6838.00   0.65918419   0.00422895
6840.00   0.65923509   0.00422800
6842.00   0.66033015   0.00425003
6844.00   0.66109699   0.00429073
6846.00   0.66241065   0.00431800
6848.00   0.66524008   0.00433673
6850.00   0.67071024   0.00441161
6852.00   0.67069009   0.00438941
6854.00   0.66525015   0.00419589
6856.00   0.66211572   0.00416349
6858.00   0.66118607   0.00439939
6860.00   0.65948370   0.00465944
6862.00   0.65721959   0.00475736
6864.00   0.65580267   0.00479461
6866.00   0.65291038   0.00481871
6868.00   0.64858112   0.00481197
6870.00   0.64447659   0.00477539
6872.00   0.63830617   0.00466339
6874.00   0.63549051   0.00459002
6876.00   0.64159745   0.00465238
6878.00   0.65387401   0.00477945
6880.00   0.65620449   0.00482604
6882.00   0.65229163   0.00487823
6884.00   0.64810073   0.00483410
6886.00   0.64075643   0.00464997
6888.00   0.63498253   0.00449876
6890.00   0.63148588   0.00439873
6892.00   0.62982562   0.00433202
6894.00   0.63147095   0.00441810
6896.00   0.63751304   0.00474456
6898.00   0.64013845   0.00476769
6900.00   0.64164379   0.00451386
6902.00   0.64311686   0.00436722
6904.00   0.64425811   0.00443415
6906.00   0.64490709   0.00455525
6908.00   0.64341918   0.00454505
6910.00   0.64065537   0.00447757
6912.00   0.63659143   0.00440256
6914.00   0.62909779   0.00425283
6916.00   0.62390184   0.00416554
6918.00   0.62284207   0.00418092
6920.00   0.62383264   0.00422976
6922.00   0.62465236   0.00424551
6924.00   0.62696534   0.00426177
6926.00   0.62275299   0.00426283
6928.00   0.60952052   0.00426082
6930.00   0.60323209   0.00422713
6932.00   0.60317427   0.00414333
6934.00   0.60565966   0.00409079
6936.00   0.60922828   0.00409547
6938.00   0.61364433   0.00415222
6940.00   0.61211890   0.00431068
6942.00   0.60382867   0.00471379
6944.00   0.60026959   0.00477277
6946.00   0.59709048   0.00454415
6948.00   0.59541455   0.00436366
6950.00   0.59711021   0.00433312
6952.00   0.60014120   0.00435624
6954.00   0.60163209   0.00435045
6956.00   0.60324395   0.00434506
6958.00   0.60357770   0.00433359
6960.00   0.60158259   0.00434131
6962.00   0.60107303   0.00431883
6964.00   0.60346213   0.00421665
6966.00   0.60659531   0.00408733
6968.00   0.60654774   0.00403225
6970.00   0.60335410   0.00401023
6972.00   0.60276678   0.00404436
6974.00   0.60366452   0.00419495
6976.00   0.60437673   0.00425197
6978.00   0.60502061   0.00420119
6980.00   0.60483631   0.00412400
6982.00   0.60218355   0.00407206
6984.00   0.59720331   0.00401140
6986.00   0.59661263   0.00401829
6988.00   0.59998307   0.00411658
6990.00   0.60150433   0.00415069
6992.00   0.60286146   0.00413634
6994.00   0.60329095   0.00410914
6996.00   0.60065860   0.00407557
6998.00   0.59547475   0.00402747
7000.00   0.59454346   0.00403620
7002.00   0.59739318   0.00410624
7004.00   0.59801385   0.00414713
7006.00   0.59945607   0.00418244
7008.00   0.59800887   0.00418161
7010.00   0.58867803   0.00414253
7012.00   0.57590947   0.00409156
7014.00   0.57545865   0.00406243
7016.00   0.58551139   0.00402168
7018.00   0.59020340   0.00402120
7020.00   0.59808180   0.00407710
7022.00   0.59827346   0.00411843
7024.00   0.58230942   0.00410939
7026.00   0.56441227   0.00407510
7028.00   0.56817475   0.00408890
7030.00   0.58940867   0.00415016
7032.00   0.59771141   0.00419172
7034.00   0.60163772   0.00423754
7036.00   0.60464621   0.00426635
7038.00   0.60616213   0.00428013
7040.00   0.60543543   0.00432255
7042.00   0.60228717   0.00439738
7044.00   0.59520879   0.00446769
7046.00   0.59124127   0.00442055
7048.00   0.58691967   0.00421504
7050.00   0.58713835   0.00411577
7052.00   0.59313887   0.00407629
7054.00   0.59561190   0.00406594
7056.00   0.58873123   0.00407207
7058.00   0.57684803   0.00408991
7060.00   0.57471973   0.00407313
7062.00   0.58010313   0.00396452
7064.00   0.58258078   0.00401610
7066.00   0.58615834   0.00424119
7068.00   0.58967808   0.00438882
7070.00   0.59068033   0.00440370
7072.00   0.58984160   0.00436408
7074.00   0.58950064   0.00430650
7076.00   0.58824152   0.00417065
7078.00   0.58806401   0.00410107
7080.00   0.58957115   0.00401593
7082.00   0.58968899   0.00404139
7084.00   0.58733809   0.00428237
7086.00   0.58453861   0.00454979
7088.00   0.58242649   0.00452264
7090.00   0.57959875   0.00423198
7092.00   0.57826096   0.00411552
7094.00   0.57748577   0.00404891
7096.00   0.57800001   0.00401815
7098.00   0.58122200   0.00404578
7100.00   0.58528739   0.00408092
7102.00   0.58661541   0.00404744
7104.00   0.58652654   0.00395962
7106.00   0.58484167   0.00392009
7108.00   0.57872459   0.00385982
7110.00   0.57722852   0.00389133
7112.00   0.58211389   0.00408075
7114.00   0.58604953   0.00424448
7116.00   0.58319652   0.00419455
7118.00   0.57624912   0.00400555
7120.00   0.57529908   0.00405373
7122.00   0.57710034   0.00430408
7124.00   0.58080047   0.00441399
7126.00   0.59020033   0.00453279
7128.00   0.59672499   0.00457881
7130.00   0.59553394   0.00440603
7132.00   0.58971426   0.00409242
7134.00   0.58436352   0.00397413
7136.00   0.57773677   0.00393732
7138.00   0.56956357   0.00401490
7140.00   0.55390456   0.00433285
7142.00   0.54784372   0.00446182
7144.00   0.55766763   0.00433469
7146.00   0.57252871   0.00414280
7148.00   0.57782614   0.00407002
7150.00   0.57830411   0.00400076
7152.00   0.58040756   0.00414315
7154.00   0.58282760   0.00464075
7156.00   0.58364776   0.00478976
7158.00   0.58216357   0.00454287
7160.00   0.57885846   0.00423585
7162.00   0.57471535   0.00417346
7164.00   0.56992733   0.00422443
7166.00   0.56825995   0.00423792
7168.00   0.57054061   0.00428268
7170.00   0.56947476   0.00430786
7172.00   0.56553745   0.00430951
7174.00   0.56236333   0.00431235
7176.00   0.56153077   0.00431652
7178.00   0.56170408   0.00431951
7180.00   0.56152160   0.00435388
7182.00   0.56264876   0.00443430
7184.00   0.56103577   0.00446408
7186.00   0.55785549   0.00446474
7188.00   0.55351700   0.00447538
7190.00   0.54477559   0.00447686
7192.00   0.53531623   0.00445110
7194.00   0.53910896   0.00447582
7196.00   0.56041369   0.00455894
7198.00   0.56350097   0.00461456
7200.00   0.55023058   0.00470843
7202.00   0.54423515   0.00472150
7204.00   0.55118020   0.00457860
7206.00   0.56236582   0.00434688
7208.00   0.57040635   0.00421619
7210.00   0.57973182   0.00412877
7212.00   0.58353296   0.00406028
7214.00   0.58300176   0.00402160
7216.00   0.58135501   0.00400941
7218.00   0.57669389   0.00403681
7220.00   0.57064557   0.00407282
7222.00   0.56560418   0.00403661
7224.00   0.56049980   0.00392350
7226.00   0.55590303   0.00413071
7228.00   0.55048057   0.00471240
7230.00   0.54751833   0.00495368
7232.00   0.54742599   0.00495889
7234.00   0.55001837   0.00494328
7236.00   0.55413027   0.00493840
7238.00   0.55894284   0.00489463
7240.00   0.55847280   0.00501102
7242.00   0.55286074   0.00539465
7244.00   0.54901329   0.00544155
7246.00   0.54398964   0.00519804
7248.00   0.54157843   0.00491587
7250.00   0.54217061   0.00460123
7252.00   0.54622214   0.00432672
7254.00   0.55366693   0.00455385
7256.00   0.56798171   0.00535819
7258.00   0.57092309   0.00543606
7260.00   0.56547569   0.00500010
7262.00   0.55958986   0.00464106
7264.00   0.55157757   0.00436086
7266.00   0.54489428   0.00417387
7268.00   0.54487057   0.00419968
7270.00   0.55040252   0.00436950
7272.00   0.55249590   0.00467040
7274.00   0.55497642   0.00532830
7276.00   0.55479257   0.00557454
7278.00   0.54992503   0.00538534
7280.00   0.54710035   0.00506026
7282.00   0.55254591   0.00484098
7284.00   0.56405836   0.00460307
7286.00   0.56505361   0.00446079
7288.00   0.55794930   0.00443229
7290.00   0.55279371   0.00437083
7292.00   0.54653658   0.00427271
7294.00   0.54261030   0.00421758
7296.00   0.54310362   0.00425568
7298.00   0.54589231   0.00434154
7300.00   0.54637985   0.00437859
7302.00   0.54533969   0.00442260
7304.00   0.54686591   0.00441410
7306.00   0.54950099   0.00429140
7308.00   0.55213086   0.00424505
7310.00   0.55760939   0.00435888
7312.00   0.56429577   0.00455496
7314.00   0.56400517   0.00470773
7316.00   0.55668604   0.00494294
7318.00   0.55394076   0.00492101
7320.00   0.55333829   0.00460225
7322.00   0.55204523   0.00437439
7324.00   0.54957610   0.00431303
7326.00   0.54701552   0.00434437
7328.00   0.54446918   0.00440377
7330.00   0.54084399   0.00456161
7332.00   0.54063059   0.00456291
7334.00   0.54379585   0.00433802
7336.00   0.54630852   0.00434073
7338.00   0.54957151   0.00467892
7340.00   0.55056421   0.00496356
7342.00   0.54664822   0.00497490
7344.00   0.53867799   0.00486875
7346.00   0.53816114   0.00478478
7348.00   0.54477066   0.00462202
7350.00   0.54720913   0.00450929
7352.00   0.54633833   0.00448468
7354.00   0.54548028   0.00447140
7356.00   0.54567637   0.00440289
7358.00   0.54529248   0.00432069
7360.00   0.54157597   0.00426226
7362.00   0.53381056   0.00417729
7364.00   0.52793927   0.00417420
7366.00   0.52129172   0.00429120
7368.00   0.51781824   0.00437811
7370.00   0.51914994   0.00439629
7372.00   0.52193496   0.00437532
7374.00   0.51937552   0.00428804
7376.00   0.51140931   0.00407684
7378.00   0.50827008   0.00399610
7380.00   0.50908646   0.00388517
7382.00   0.50796267   0.00400465
7384.00   0.50186516   0.00449190
7386.00   0.49565294   0.00495108
7388.00   0.49473567   0.00506476
7390.00   0.49645938   0.00503970
7392.00   0.49766053   0.00488610
7394.00   0.50038105   0.00439318
7396.00   0.50192562   0.00410072
7398.00   0.50360194   0.00406105
7400.00   0.50354731   0.00408642
7402.00   0.49662289   0.00412387
7404.00   0.48356573   0.00424401
7406.00   0.48014568   0.00423252
7408.00   0.48311332   0.00411106
7410.00   0.48588091   0.00402357
7412.00   0.49336575   0.00391004
7414.00   0.49785145   0.00385694
7416.00   0.49305932   0.00394513
7418.00   0.48320048   0.00410697
7420.00   0.47955169   0.00418710
7422.00   0.47910625   0.00426913
7424.00   0.47786021   0.00425699
7426.00   0.47675809   0.00412116
7428.00   0.47679597   0.00403068
7430.00   0.47844762   0.00400482
7432.00   0.48001111   0.00401951
7434.00   0.47829066   0.00406620
7436.00   0.47534898   0.00411007
7438.00   0.46855241   0.00422422
7440.00   0.45379551   0.00448977
7442.00   0.44508593   0.00461771
7444.00   0.44498482   0.00450092
7446.00   0.44858226   0.00428713
7448.00   0.45225896   0.00417078
7450.00   0.45949587   0.00401637
7452.00   0.46109474   0.00393492
7454.00   0.45840965   0.00393829
7456.00   0.45631889   0.00392560
7458.00   0.45396282   0.00382711
7460.00   0.45024249   0.00379554
7462.00   0.44674115   0.00393379
7464.00   0.44282247   0.00417762
7466.00   0.43772598   0.00421980
7468.00   0.43084438   0.00413217
7470.00   0.42555103   0.00403711
7472.00   0.41899522   0.00386091
7474.00   0.41409548   0.00374382
7476.00   0.41414374   0.00376044
7478.00   0.41771601   0.00385117
7480.00   0.41774403   0.00390322
7482.00   0.41595809   0.00399716
7484.00   0.41410314   0.00399021
7486.00   0.41059716   0.00385724
7488.00   0.40934539   0.00377742
7490.00   0.41219752   0.00378244
7492.00   0.41704878   0.00382470
7494.00   0.41962740   0.00392186
7496.00   0.42208311   0.00412005
7498.00   0.42123736   0.00419210
7500.00   0.41725409   0.00421027
7502.00   0.41305208   0.00418296
7504.00   0.40626748   0.00408781
7506.00   0.39885806   0.00393714
7508.00   0.39675969   0.00376921
7510.00   0.39841546   0.00354584
7512.00   0.39944375   0.00350696
7514.00   0.40367861   0.00365086
7516.00   0.40395862   0.00375085
7518.00   0.39833376   0.00385178
7520.00   0.39164300   0.00393617
7522.00   0.38777497   0.00397517
7524.00   0.38467237   0.00397943
7526.00   0.38586184   0.00397269
7528.00   0.39255272   0.00392950
7530.00   0.39698318   0.00390567
7532.00   0.40183015   0.00390723
7534.00   0.40515615   0.00389997
7536.00   0.40442379   0.00385464
7538.00   0.40072237   0.00378925
7540.00   0.39854819   0.00371956
7542.00   0.39512289   0.00358438
7544.00   0.39514333   0.00355923
7546.00   0.39866328   0.00360675
7548.00   0.40168531   0.00372810
7550.00   0.40379737   0.00392422
7552.00   0.40594448   0.00415643
7554.00   0.40686490   0.00434519
7556.00   0.40616897   0.00457910
7558.00   0.40708792   0.00457487
7560.00   0.41056776   0.00433213
7562.00   0.41062902   0.00411357
7564.00   0.40593505   0.00385726
7566.00   0.40152645   0.00363475
7568.00   0.40190299   0.00367460
7570.00   0.40480366   0.00395471
7572.00   0.40494658   0.00403280
7574.00   0.40391037   0.00406650
7576.00   0.40280415   0.00402651
7578.00   0.39915825   0.00382849
7580.00   0.39718348   0.00363668
7582.00   0.40115653   0.00364074
7584.00   0.40949799   0.00377149
7586.00   0.41080292   0.00387021
7588.00   0.40434353   0.00396173
7590.00   0.40484491   0.00412308
7592.00   0.41536874   0.00424717
7594.00   0.42063956   0.00456133
7596.00   0.40813211   0.00513751
7598.00   0.38783891   0.00585904
7600.00   0.39461870   0.00657585
7602.00   0.43079211   0.00755255
7604.00   0.44177526   0.00795229
7606.00   0.43946788   0.00809638
7608.00   0.43271112   0.00792741
7610.00   0.41688199   0.00729466
7612.00   0.39848596   0.00635161
7614.00   0.40050785   0.00569215
7616.00   0.42225440   0.00505900
7618.00   0.42634600   0.00484130
7620.00   0.42157093   0.00519042
7622.00   0.41687614   0.00544995
7624.00   0.40619649   0.00569166
7626.00   0.39715281   0.00590290
7628.00   0.40484750   0.00600663
7630.00   0.42571057   0.00607534
7632.00   0.43461882   0.00595454
7634.00   0.43962105   0.00553685
7636.00   0.44197458   0.00525680
7638.00   0.43874568   0.00510538
7640.00   0.43331677   0.00499153
7642.00   0.42825468   0.00487283
7644.00   0.42198397   0.00477009
7646.00   0.42024377   0.00466152
7648.00   0.42193785   0.00453657
7650.00   0.42433921   0.00445523
7652.00   0.42973809   0.00443432
7654.00   0.43433410   0.00440595
7656.00   0.43525970   0.00432442
7658.00   0.43396242   0.00422955
7660.00   0.43362285   0.00423674
7662.00   0.43204091   0.00435093
7664.00   0.43303052   0.00439587
7666.00   0.43633299   0.00444751
7668.00   0.44019997   0.00443752
7670.00   0.44340362   0.00429470
7672.00   0.44609970   0.00409363
7674.00   0.45117220   0.00406454
7676.00   0.46184357   0.00421869
7678.00   0.46278407   0.00419535
7680.00   0.45456445   0.00403265
7682.00   0.44884883   0.00392493
7684.00   0.44610550   0.00390748
7686.00   0.44555801   0.00393454
7688.00   0.44707114   0.00397245
7690.00   0.44944948   0.00402870
7692.00   0.44850993   0.00408085
7694.00   0.44336008   0.00415569
7696.00   0.44247058   0.00420269
7698.00   0.44544332   0.00422035
7700.00   0.44751911   0.00419764
7702.00   0.44374371   0.00410516
7704.00   0.43461744   0.00394324
7706.00   0.43618307   0.00397488
7708.00   0.44817725   0.00412972
7710.00   0.45508127   0.00433814
7712.00   0.45821652   0.00468977
7714.00   0.45998278   0.00494034
7716.00   0.46166377   0.00500958
7718.00   0.46252309   0.00497079
7720.00   0.46123673   0.00493714
7722.00   0.45673762   0.00486140
7724.00   0.45333852   0.00479859
7726.00   0.44819751   0.00474563
7728.00   0.44703381   0.00465075
7730.00   0.45254238   0.00447047
7732.00   0.45952608   0.00422882
7734.00   0.45861253   0.00407291
7736.00   0.45052145   0.00396351
7738.00   0.45127730   0.00391330
7740.00   0.46026827   0.00391796
7742.00   0.46421598   0.00398357
7744.00   0.46134539   0.00409553
7746.00   0.45790412   0.00427363
7748.00   0.45978057   0.00457067
7750.00   0.46595205   0.00498759
7752.00   0.46407677   0.00513570
7754.00   0.45510733   0.00512234
7756.00   0.44817939   0.00507837
7758.00   0.44233878   0.00496456
7760.00   0.43848200   0.00479261
7762.00   0.43697193   0.00453786
7764.00   0.43755457   0.00415862
7766.00   0.43791279   0.00401853
7768.00   0.43666410   0.00408095
7770.00   0.44083388   0.00414536
7772.00   0.45296484   0.00428560
7774.00   0.46224193   0.00439848
7776.00   0.46366185   0.00440680
7778.00   0.46182257   0.00433656
7780.00   0.46462229   0.00438484
7782.00   0.47093536   0.00459536
7784.00   0.47538550   0.00463157
7786.00   0.47960667   0.00441896
7788.00   0.48165207   0.00436960
7790.00   0.48384340   0.00473388
7792.00   0.48639673   0.00519120
7794.00   0.48394625   0.00523037
7796.00   0.47568981   0.00491169
7798.00   0.46952140   0.00485775
7800.00   0.46060885   0.00500290
7802.00   0.45609216   0.00498950
7804.00   0.45842783   0.00471544
7806.00   0.46416481   0.00441524
7808.00   0.46662706   0.00440841
7810.00   0.46837300   0.00465170
7812.00   0.47017574   0.00465787
7814.00   0.46821041   0.00444699
7816.00   0.47331899   0.00442846
7818.00   0.49036534   0.00468070
7820.00   0.50472723   0.00490381
7822.00   0.50721490   0.00494252
7824.00   0.50261213   0.00488934
7826.00   0.49762212   0.00477107
7828.00   0.48518731   0.00445587
7830.00   0.48104708   0.00430790
7832.00   0.48440237   0.00430531
7834.00   0.48704796   0.00433805
7836.00   0.48383652   0.00433736
7838.00   0.47754042   0.00432684
7840.00   0.47590446   0.00431354
7842.00   0.47638200   0.00426162
7844.00   0.47960711   0.00430092
7846.00   0.48830980   0.00436513
7848.00   0.49334256   0.00453360
7850.00   0.49323983   0.00489997
7852.00   0.49236432   0.00524294
7854.00   0.49399063   0.00527665
7856.00   0.49687466   0.00510015
7858.00   0.49748380   0.00496007
7860.00   0.49728329   0.00469742
7862.00   0.49547473   0.00452850
7864.00   0.49070735   0.00446253
7866.00   0.48527968   0.00447698
7868.00   0.48355436   0.00457962
7870.00   0.48532300   0.00475614
7872.00   0.48381750   0.00482040
7874.00   0.47809932   0.00484123
7876.00   0.47774470   0.00482863
7878.00   0.48389830   0.00471284
7880.00   0.48930407   0.00460064
7882.00   0.48996690   0.00456395
7884.00   0.48817220   0.00455067
7886.00   0.49073906   0.00462639
7888.00   0.49525669   0.00479271
7890.00   0.50228927   0.00498052
7892.00   0.51618779   0.00528490
7894.00   0.52336919   0.00540893
7896.00   0.51843607   0.00526511
7898.00   0.50612657   0.00494049
7900.00   0.49677442   0.00466828
7902.00   0.48536366   0.00426912
7904.00   0.47967143   0.00413592
7906.00   0.47852562   0.00417301
7908.00   0.47750005   0.00436239
7910.00   0.47717580   0.00479193
7912.00   0.47768053   0.00525884
7914.00   0.47821078   0.00546329
7916.00   0.48010877   0.00557553
7918.00   0.47858122   0.00550389
7920.00   0.47298127   0.00514426
7922.00   0.46949960   0.00484785
7924.00   0.46849696   0.00463287
7926.00   0.46911700   0.00447140
7928.00   0.47138189   0.00437127
7930.00   0.47640692   0.00434599
7932.00   0.47479816   0.00437776
7934.00   0.46741268   0.00457956
7936.00   0.46087345   0.00459903
7938.00   0.45303348   0.00443463
7940.00   0.44797480   0.00425347
7942.00   0.44818957   0.00415284
7944.00   0.45250700   0.00409781
7946.00   0.45632987   0.00410333
7948.00   0.46379714   0.00420054
7950.00   0.46600156   0.00426057
7952.00   0.46430069   0.00431590
7954.00   0.46148027   0.00435953
7956.00   0.45795791   0.00440546
7958.00   0.45453496   0.00446409
7960.00   0.45372614   0.00454829
7962.00   0.45650700   0.00468717
7964.00   0.45389973   0.00475490
7966.00   0.44620200   0.00482102
7968.00   0.44021133   0.00478644
7970.00   0.43758522   0.00459282
7972.00   0.43648501   0.00435057
7974.00   0.43373999   0.00428061
7976.00   0.42988828   0.00433959
7978.00   0.42490061   0.00435635
7980.00   0.41603793   0.00441669
7982.00   0.41198020   0.00442321
7984.00   0.41425823   0.00432511
7986.00   0.41794898   0.00423371
7988.00   0.41709872   0.00429523
7990.00   0.41391294   0.00445902
7992.00   0.40932988   0.00454013
7994.00   0.40016155   0.00464948
7996.00   0.39560233   0.00463691
7998.00   0.39531188   0.00447576
8000.00   0.39621165   0.00428357
8002.00   0.39736772   0.00411226
8004.00   0.39830221   0.00392933
8006.00   0.39811994   0.00392442
8008.00   0.39610530   0.00408958
8010.00   0.39670986   0.00424932
8012.00   0.40023918   0.00451892
8014.00   0.40243468   0.00466248
8016.00   0.39904827   0.00455834
8018.00   0.39289802   0.00431358
8020.00   0.39182888   0.00431145
8022.00   0.39442135   0.00448119
8024.00   0.39238971   0.00461908
8026.00   0.38962983   0.00491580
8028.00   0.38287827   0.00496858
8030.00   0.36801161   0.00464623
8032.00   0.35226467   0.00416867
8034.00   0.34523408   0.00391740
8036.00   0.34364420   0.00376629
8038.00   0.34081599   0.00365231
8040.00   0.33964033   0.00361403
8042.00   0.33800472   0.00362908
8044.00   0.33548406   0.00370247
8046.00   0.33314684   0.00380269
8048.00   0.33249678   0.00394160
8050.00   0.33354443   0.00412486
8052.00   0.33300444   0.00413204
8054.00   0.33113800   0.00392254
8056.00   0.33033581   0.00387827
8058.00   0.33205752   0.00394786
8060.00   0.33187737   0.00402392
8062.00   0.32640220   0.00410538
8064.00   0.31764860   0.00419401
8066.00   0.31314528   0.00416252
8068.00   0.31144558   0.00395124
8070.00   0.30793874   0.00392298
8072.00   0.30226780   0.00410295
8074.00   0.30019498   0.00413956
8076.00   0.30276887   0.00389816
8078.00   0.30677955   0.00357971
8080.00   0.30711813   0.00357480
8082.00   0.30378725   0.00383334
8084.00   0.30473079   0.00393079
8086.00   0.31072782   0.00404533
8088.00   0.31258014   0.00403575
8090.00   0.30887790   0.00384080
8092.00   0.30403359   0.00360274
8094.00   0.30021435   0.00354683
8096.00   0.29580449   0.00361200
8098.00   0.29263918   0.00362747
8100.00   0.28852767   0.00364783
8102.00   0.28816228   0.00367591
8104.00   0.29427144   0.00371046
8106.00   0.30132206   0.00374051
8108.00   0.30281807   0.00376707
8110.00   0.30147928   0.00379658
8112.00   0.30075893   0.00381060
8114.00   0.29932588   0.00382433
8116.00   0.29733407   0.00380734
8118.00   0.29406913   0.00374525
8120.00   0.29247641   0.00368577
8122.00   0.29671693   0.00366224
8124.00   0.30522659   0.00365651
8126.00   0.30435741   0.00364733
8128.00   0.29481119   0.00362500
8130.00   0.29074048   0.00365258
8132.00   0.28673524   0.00371759
8134.00   0.28642432   0.00380117
8136.00   0.29535745   0.00392516
8138.00   0.30731362   0.00405036
8140.00   0.30696994   0.00406563
8142.00   0.29638983   0.00397488
8144.00   0.29307812   0.00394692
8146.00   0.29359420   0.00393117
8148.00   0.29186970   0.00392873
8150.00   0.28786677   0.00392152
8152.00   0.28414403   0.00394097
8154.00   0.28144585   0.00404719
8156.00   0.28005899   0.00418657
8158.00   0.27807446   0.00434526
8160.00   0.27500417   0.00464749
8162.00   0.27302346   0.00475657
8164.00   0.27554733   0.00454656
8166.00   0.27916158   0.00422995
8168.00   0.27793558   0.00409885
8170.00   0.27377651   0.00405259
8172.00   0.27638823   0.00414396
8174.00   0.28539488   0.00421579
8176.00   0.29182233   0.00467996
8178.00   0.29817972   0.00563074
8180.00   0.30042361   0.00626772
8182.00   0.29908080   0.00639297
8184.00   0.29546987   0.00629347
8186.00   0.28820904   0.00625323
8188.00   0.26986794   0.00599729
8190.00   0.26802995   0.00608550
8192.00   0.28363939   0.00659784
8194.00   0.29370092   0.00690252
8196.00   0.29107700   0.00684023
8198.00   0.28416255   0.00656626
8200.00   0.28423895   0.00624792
8202.00   0.28799973   0.00564567
8204.00   0.29260609   0.00535507
8206.00   0.30457048   0.00538932
8208.00   0.30723530   0.00530413
8210.00   0.29533064   0.00496071
8212.00   0.27951944   0.00452189
8214.00   0.27462860   0.00427072
8216.00   0.27638479   0.00412915
8218.00   0.27363656   0.00405686
8220.00   0.26937754   0.00412707
8222.00   0.26544939   0.00417832
8224.00   0.26097327   0.00422795
8226.00   0.25652326   0.00426244
8228.00   0.25318146   0.00427047
8230.00   0.25151189   0.00426606
8232.00   0.25402308   0.00420245
8234.00   0.26566063   0.00405877
8236.00   0.26700363   0.00393783
8238.00   0.25815247   0.00378323
8240.00   0.24973883   0.00368704
8242.00   0.24807512   0.00373483
8244.00   0.25092417   0.00390455
8246.00   0.25339964   0.00398308
8248.00   0.25887617   0.00405189
8250.00   0.26000690   0.00402765
8252.00   0.25749559   0.00391990
8254.00   0.25538282   0.00382765
8256.00   0.25647711   0.00372984
8258.00   0.25865252   0.00364369
8260.00   0.25496128   0.00366531
8262.00   0.24498606   0.00380197
8264.00   0.24178903   0.00388953
8266.00   0.24216813   0.00398943
8268.00   0.24304779   0.00406237
8270.00   0.24660277   0.00407557
8272.00   0.25203642   0.00411294
8274.00   0.25653280   0.00430321
8276.00   0.26388282   0.00465010
8278.00   0.26410313   0.00477776
8280.00   0.25528280   0.00471764
8282.00   0.25181117   0.00476769
8284.00   0.25515182   0.00495351
8286.00   0.26069541   0.00514653
8288.00   0.26770878   0.00530013
8290.00   0.27800894   0.00542875
8292.00   0.27747744   0.00542548
8294.00   0.26565702   0.00527167
8296.00   0.25904759   0.00516560
8298.00   0.25480574   0.00506852
8300.00   0.25114772   0.00491738
8302.00   0.24812624   0.00460904
8304.00   0.24627171   0.00420307
8306.00   0.24489968   0.00411560
8308.00   0.24399889   0.00435951
8310.00   0.24486130   0.00438291
8312.00   0.24822040   0.00435725
8314.00   0.25024411   0.00426636
8316.00   0.24989397   0.00401042
8318.00   0.24915201   0.00370607
8320.00   0.25246359   0.00369758
8322.00   0.25954779   0.00399430
8324.00   0.26204392   0.00403952
8326.00   0.26146144   0.00396481
8328.00   0.26162648   0.00388906
8330.00   0.26020348   0.00378876
8332.00   0.25945215   0.00371442
8334.00   0.26378988   0.00376822
8336.00   0.27182436   0.00387744
8338.00   0.27680127   0.00426966
8340.00   0.28189030   0.00501870
8342.00   0.28460570   0.00544256
8344.00   0.28481008   0.00571573
8346.00   0.28214607   0.00580783
8348.00   0.27519702   0.00559699
8350.00   0.26409875   0.00508630
8352.00   0.26004460   0.00479859
8354.00   0.25792441   0.00459096
8356.00   0.26213690   0.00440436
8358.00   0.27593942   0.00423033
8360.00   0.28827068   0.00413016
8362.00   0.29366715   0.00418452
8364.00   0.29483064   0.00433410
8366.00   0.29452449   0.00432312
8368.00   0.28874414   0.00421932
8370.00   0.28848943   0.00411109
8372.00   0.29124517   0.00387171
8374.00   0.29604346   0.00376123
8376.00   0.30326638   0.00390701
8378.00   0.31213669   0.00417344
8380.00   0.31881116   0.00438239
8382.00   0.32680900   0.00469275
8384.00   0.33097787   0.00477822
8386.00   0.33211711   0.00465496
8388.00   0.33123590   0.00458480
8390.00   0.33047463   0.00456946
8392.00   0.32863159   0.00460164
8394.00   0.32584564   0.00481815
8396.00   0.32442939   0.00523060
8398.00   0.32266292   0.00538146
8400.00   0.32074551   0.00549157
8402.00   0.31791878   0.00537538
8404.00   0.31528354   0.00485624
8406.00   0.31460309   0.00429130
8408.00   0.31587477   0.00410058
8410.00   0.31830604   0.00414341
8412.00   0.32480781   0.00420021
8414.00   0.34061609   0.00446350
8416.00   0.34590253   0.00453841
8418.00   0.33873756   0.00437964
8420.00   0.33442676   0.00432677
8422.00   0.34175843   0.00454755
8424.00   0.35568209   0.00490205
8426.00   0.36481783   0.00536559
8428.00   0.37966549   0.00617403
8430.00   0.37615867   0.00644045
8432.00   0.34784059   0.00638278
8434.00   0.33030760   0.00615544
8436.00   0.33366448   0.00572365
8438.00   0.34918180   0.00510019
8440.00   0.36622258   0.00465706
8442.00   0.39310466   0.00427451
8444.00   0.40569428   0.00418093
8446.00   0.40825678   0.00450047
8448.00   0.41067483   0.00468666
8450.00   0.41170490   0.00478685
8452.00   0.41261247   0.00484509
8454.00   0.41664410   0.00478209
8456.00   0.42270003   0.00454661
8458.00   0.42991856   0.00466248
8460.00   0.44117826   0.00498128
8462.00   0.44821776   0.00538395
8464.00   0.45219828   0.00612621
8466.00   0.45419049   0.00654840
8468.00   0.45136754   0.00614605
8470.00   0.44316567   0.00504326
8472.00   0.44609432   0.00461347
8474.00   0.45878272   0.00464396
8476.00   0.46820521   0.00461547
8478.00   0.47903961   0.00473060
8480.00   0.48537962   0.00478237
8482.00   0.48321036   0.00464789
8484.00   0.47715837   0.00444606
8486.00   0.47994258   0.00448722
8488.00   0.49295753   0.00469127
8490.00   0.49450640   0.00488669
8492.00   0.48320882   0.00524322
8494.00   0.47860745   0.00543363
8496.00   0.48934759   0.00525229
8498.00   0.50420430   0.00491730
8500.00   0.50654580   0.00505363
8502.00   0.49881029   0.00566583
8504.00   0.49953362   0.00574699
8506.00   0.50739081   0.00544214
8508.00   0.50984396   0.00525117
8510.00   0.50045820   0.00530172
8512.00   0.49203968   0.00534387
8514.00   0.49995367   0.00519080
8516.00   0.51980712   0.00493695
8518.00   0.53088467   0.00482098
8520.00   0.54121469   0.00475347
8522.00   0.54693584   0.00475486
8524.00   0.54691251   0.00491351
8526.00   0.54546116   0.00507336
8528.00   0.54426968   0.00510612
8530.00   0.54141842   0.00505325
8532.00   0.54351795   0.00501442
8534.00   0.54759592   0.00492258
8536.00   0.55651948   0.00489483
8538.00   0.57485533   0.00491532
8540.00   0.58876553   0.00495307
8542.00   0.58999512   0.00498216
8544.00   0.58366913   0.00501197
8546.00   0.58086720   0.00505556
8548.00   0.57824367   0.00514561
8550.00   0.57294068   0.00513613
8552.00   0.55916554   0.00497673
8554.00   0.55632457   0.00492017
8556.00   0.57098106   0.00508610
8558.00   0.59070140   0.00532235
8560.00   0.59826943   0.00532844
8562.00   0.60054895   0.00507963
8564.00   0.59802735   0.00509125
8566.00   0.58410120   0.00534053
8568.00   0.57795280   0.00545325
8570.00   0.58271182   0.00529168
8572.00   0.58975297   0.00509709
8574.00   0.58920383   0.00520287
8576.00   0.58445346   0.00547403
8578.00   0.58456731   0.00546147
8580.00   0.58811924   0.00518574
8582.00   0.58996642   0.00508022
8584.00   0.58943653   0.00506414
8586.00   0.59116042   0.00508453
8588.00   0.59985188   0.00513755
8590.00   0.61196509   0.00521420
8592.00   0.61482161   0.00524057
8594.00   0.60942325   0.00524307
8596.00   0.60795826   0.00523371
8598.00   0.60632986   0.00514857
8600.00   0.60598969   0.00512303
8602.00   0.60550368   0.00523612
8604.00   0.60428166   0.00537543
8606.00   0.60665753   0.00538599
8608.00   0.61401525   0.00524578
8610.00   0.61563993   0.00529895
8612.00   0.61109266   0.00548309
8614.00   0.61028221   0.00569005
8616.00   0.61583760   0.00587179
8618.00   0.62430370   0.00604972
8620.00   0.63059789   0.00625469
8622.00   0.63868469   0.00646850
8624.00   0.63452092   0.00665913
8626.00   0.61264884   0.00686382
8628.00   0.60332987   0.00701384
8630.00   0.60798997   0.00713306
8632.00   0.61709622   0.00719855
8634.00   0.62359655   0.00711142
8636.00   0.63044557   0.00686844
8638.00   0.62768900   0.00661923
8640.00   0.61120901   0.00619254
8642.00   0.60496324   0.00594954
8644.00   0.60801995   0.00583119
8646.00   0.61254299   0.00587564
8648.00   0.61377487   0.00619540
8650.00   0.61551371   0.00672525
8652.00   0.61520243   0.00692598
8654.00   0.60922432   0.00689842
8656.00   0.61111251   0.00697761
8658.00   0.62449744   0.00715633
8660.00   0.63349313   0.00726789
8662.00   0.63254246   0.00722937
8664.00   0.62517971   0.00711299
8666.00   0.61407003   0.00699932
8668.00   0.59126863   0.00677943
8670.00   0.58653995   0.00664750
8672.00   0.59676844   0.00662414
8674.00   0.60550362   0.00655194
8676.00   0.61253163   0.00633041
8678.00   0.61685923   0.00607672
8680.00   0.61484274   0.00594238
8682.00   0.60619652   0.00589087
8684.00   0.60716841   0.00578442
8686.00   0.61745706   0.00560541
8688.00   0.62215754   0.00552995
8690.00   0.62168509   0.00560620
8692.00   0.61677760   0.00574391
8694.00   0.60750574   0.00585860
8696.00   0.59167677   0.00603748
8698.00   0.59007457   0.00598453
8700.00   0.59784493   0.00558871
8702.00   0.60933772   0.00546185
8704.00   0.63093507   0.00567009
8706.00   0.64703089   0.00587418
8708.00   0.64755479   0.00594973
8710.00   0.63821805   0.00597941
8712.00   0.62889653   0.00581131
8714.00   0.60900056   0.00526179
8716.00   0.60295197   0.00505868
8718.00   0.61002728   0.00513980
8720.00   0.61425391   0.00522066
8722.00   0.61123157   0.00523611
8724.00   0.60446829   0.00523727
8726.00   0.59712994   0.00521408
8728.00   0.58525634   0.00515014
8730.00   0.58143458   0.00513082
8732.00   0.58307827   0.00512772
8734.00   0.58651361   0.00514839
8736.00   0.59430745   0.00521611
8738.00   0.60237437   0.00528952
8740.00   0.60145783   0.00530756
8742.00   0.59282547   0.00529038
8744.00   0.58856755   0.00527845
8746.00   0.58321249   0.00524899
8748.00   0.58195287   0.00523012
8750.00   0.58524048   0.00515036
8752.00   0.59081861   0.00517166
8754.00   0.59744644   0.00543200
8756.00   0.60706803   0.00583040
8758.00   0.60799232   0.00633780
8760.00   0.60129470   0.00720227
8762.00   0.59532374   0.00754540
8764.00   0.58853167   0.00747816
8766.00   0.58250836   0.00731725
8768.00   0.57823417   0.00712842
8770.00   0.57633513   0.00683435
8772.00   0.57601342   0.00675928
8774.00   0.58063322   0.00689743
8776.00   0.57778227   0.00691993
8778.00   0.56889999   0.00696788
8780.00   0.56210724   0.00688762
8782.00   0.55786987   0.00652690
8784.00   0.55644076   0.00601740
8786.00   0.55826004   0.00584646
8788.00   0.56432334   0.00600111
8790.00   0.56214905   0.00596242
8792.00   0.55059712   0.00583050
8794.00   0.54597740   0.00572199
8796.00   0.55049498   0.00572138
8798.00   0.55890512   0.00573463
8800.00   0.55993026   0.00564777
8802.00   0.55339745   0.00551243
8804.00   0.55311497   0.00544980
8806.00   0.55682454   0.00533999
8808.00   0.56005880   0.00540331
8810.00   0.56217355   0.00581355
8812.00   0.55992725   0.00620717
8814.00   0.55345495   0.00614622
8816.00   0.54441053   0.00565730
8818.00   0.54847774   0.00568153
8820.00   0.56402421   0.00572488
8822.00   0.57851291   0.00641390
8824.00   0.60110462   0.00787822
8826.00   0.61485392   0.00889473
8828.00   0.60627571   0.00905518
8830.00   0.58252665   0.00870306
8832.00   0.57493266   0.00837899
8834.00   0.57864244   0.00767744
8836.00   0.57304251   0.00730688
8838.00   0.55719998   0.00721722
8840.00   0.54823416   0.00701430
8842.00   0.55278204   0.00655525
8844.00   0.56266443   0.00603463
8846.00   0.56354690   0.00586955
8848.00   0.55805168   0.00603596
8850.00   0.55991551   0.00606602
8852.00   0.57159933   0.00615302
8854.00   0.57369298   0.00615152
8856.00   0.56033185   0.00596566
8858.00   0.54262380   0.00574396
8860.00   0.53763896   0.00574678
8862.00   0.54295118   0.00589454
8864.00   0.53872791   0.00603215
8866.00   0.53186892   0.00636737
8868.00   0.52003397   0.00640903
8870.00   0.49830611   0.00603029
8872.00   0.47750837   0.00559179
8874.00   0.47006088   0.00549626
8876.00   0.46975067   0.00561531
8878.00   0.47268075   0.00577883
8880.00   0.48353361   0.00597048
8882.00   0.49269943   0.00636907
8884.00   0.50604799   0.00723286
8886.00   0.51060651   0.00772718
8888.00   0.49213187   0.00737405
8890.00   0.46044749   0.00645655
8892.00   0.46075039   0.00616843
8894.00   0.49035273   0.00627444
8896.00   0.50130327   0.00624506
8898.00   0.50743929   0.00624564
8900.00   0.50816606   0.00630900
8902.00   0.49849863   0.00642255
8904.00   0.48359546   0.00654224
8906.00   0.47840776   0.00642968
8908.00   0.47692534   0.00594777
8910.00   0.48445976   0.00591754
8912.00   0.51025465   0.00606583
8914.00   0.52164394   0.00647859
8916.00   0.51537110   0.00741514
8918.00   0.50199702   0.00825126
8920.00   0.48819791   0.00818245
8922.00   0.46871682   0.00736604
8924.00   0.44822107   0.00717279
8926.00   0.41293716   0.00748162
8928.00   0.40173297   0.00733763
8930.00   0.41956072   0.00673696
8932.00   0.44224881   0.00611361
8934.00   0.45182842   0.00567464
8936.00   0.45508736   0.00532155
8938.00   0.45463759   0.00553632
8940.00   0.44496083   0.00656068
8942.00   0.44274931   0.00688220
8944.00   0.44698249   0.00678627
8946.00   0.44710925   0.00665538
8948.00   0.43595760   0.00650407
8950.00   0.41902111   0.00627635
8952.00   0.41442840   0.00654100
8954.00   0.42249872   0.00731252
8956.00   0.41971622   0.00769438
8958.00   0.40979531   0.00807598
8960.00   0.39759876   0.00815895
8962.00   0.38463986   0.00765126
8964.00   0.37515008   0.00674080
8966.00   0.37811880   0.00619813
8968.00   0.39455976   0.00575384
8970.00   0.40432240   0.00550283
8972.00   0.41678667   0.00557739
8974.00   0.42187047   0.00562038
8976.00   0.41711047   0.00555427
8978.00   0.41122523   0.00553324
8980.00   0.41235226   0.00568322
8982.00   0.41862601   0.00594099
8984.00   0.41576537   0.00627454
8986.00   0.40110220   0.00688263
8988.00   0.39609058   0.00712261
8990.00   0.40461700   0.00695313
8992.00   0.41732058   0.00673919
8994.00   0.42261821   0.00676719
8996.00   0.42476991   0.00693722
8998.00   0.42880003   0.00719456
9000.00   0.43300726   0.00780148
9002.00   0.43686660   0.00790162
9004.00   0.44468968   0.00755951
9006.00   0.44983847   0.00709648
9008.00   0.44480002   0.00665973
9010.00   0.43320058   0.00620545
9012.00   0.42844282   0.00601091
9014.00   0.42448974   0.00605992
9016.00   0.42426322   0.00609835
9018.00   0.43001860   0.00627041
9020.00   0.43713588   0.00641798
9022.00   0.44084741   0.00645868
9024.00   0.44299956   0.00646823
9026.00   0.44395210   0.00647180
9028.00   0.43869852   0.00640293
9030.00   0.44120057   0.00634946
9032.00   0.45268840   0.00629086
9034.00   0.45846806   0.00622693
9036.00   0.45563495   0.00613427
9038.00   0.44869508   0.00606540
9040.00   0.43984860   0.00602728
9042.00   0.42693026   0.00600661
9044.00   0.41818571   0.00601977
9046.00   0.40969752   0.00607869
9048.00   0.40533385   0.00612482
9050.00   0.40487109   0.00621355
9052.00   0.40802978   0.00627878
9054.00   0.41583557   0.00618679
9056.00   0.42716129   0.00593710
9058.00   0.42697258   0.00589715
9060.00   0.41854195   0.00604386
9062.00   0.40833779   0.00607151
9064.00   0.38989575   0.00598775
9066.00   0.37746520   0.00599211
9068.00   0.37492597   0.00614440
9070.00   0.37567608   0.00636022
9072.00   0.38083915   0.00635548
9074.00   0.39620261   0.00608288
9076.00   0.40341280   0.00603612
9078.00   0.40464927   0.00619882
9080.00   0.40607247   0.00631510
9082.00   0.40785851   0.00629451
9084.00   0.40753795   0.00622744
9086.00   0.40526412   0.00615093
9088.00   0.39805810   0.00592264
9090.00   0.39745563   0.00599082
9092.00   0.40210621   0.00632453
9094.00   0.40658814   0.00659692
9096.00   0.41062903   0.00686990
9098.00   0.41121949   0.00705938
9100.00   0.40557739   0.00693885
9102.00   0.39605461   0.00650883
9104.00   0.38504192   0.00627649
9106.00   0.36312699   0.00606319
9108.00   0.35625735   0.00594313
9110.00   0.36769584   0.00593004
9112.00   0.38184617   0.00597235
9114.00   0.38998666   0.00607080
9116.00   0.39714433   0.00621422
9118.00   0.39979000   0.00623838
9120.00   0.39580031   0.00612228
9122.00   0.39561541   0.00614863
9124.00   0.39881603   0.00619284
9126.00   0.40162012   0.00631656
9128.00   0.40095387   0.00664503
9130.00   0.39743854   0.00699804
9132.00   0.39505944   0.00699203
9134.00   0.39160013   0.00668088
9136.00   0.39168458   0.00649706
9138.00   0.39578183   0.00626904
9140.00   0.39793766   0.00606631
9142.00   0.39746591   0.00589918
9144.00   0.39590889   0.00579606
9146.00   0.39297740   0.00589117
9148.00   0.38831741   0.00615761
9150.00   0.38194275   0.00643744
9152.00   0.36930420   0.00688020
9154.00   0.36448063   0.00715974
9156.00   0.36814316   0.00726020
9158.00   0.37387641   0.00726262
9160.00   0.38230073   0.00721607
9162.00   0.40088712   0.00710900
9164.00   0.40122765   0.00691477
9166.00   0.38463582   0.00649243
9168.00   0.37216195   0.00625684
9170.00   0.36426279   0.00621721
9172.00   0.36141500   0.00629407
9174.00   0.36293715   0.00651642
9176.00   0.36906736   0.00686733
9178.00   0.37400743   0.00679952
9180.00   0.38362321   0.00627115
9182.00   0.38487194   0.00600252
9184.00   0.37528020   0.00585258
9186.00   0.37028216   0.00576910
9188.00   0.37851155   0.00577574
9190.00   0.39267923   0.00585478
9192.00   0.39477088   0.00586093
9194.00   0.38654505   0.00583811
9196.00   0.38583137   0.00581663
9198.00   0.38838872   0.00576658
9200.00   0.39191739   0.00574471
9202.00   0.40095575   0.00576849
9204.00   0.40966071   0.00582985
9206.00   0.40067933   0.00592191
9208.00   0.37499274   0.00596686
9210.00   0.36295980   0.00627260
9212.00   0.35029644   0.00699735
9214.00   0.34967074   0.00731656
9216.00   0.37265199   0.00706347
9218.00   0.40108427   0.00662175
9220.00   0.40862004   0.00655935
9222.00   0.40392363   0.00672771
9224.00   0.40352575   0.00669307
9226.00   0.40234411   0.00655059
9228.00   0.39903516   0.00642629
9230.00   0.39443395   0.00621403
9232.00   0.39072950   0.00611373
9234.00   0.38537127   0.00638373
9236.00   0.37458549   0.00697016
9238.00   0.36729887   0.00714506
9240.00   0.35705091   0.00716341
9242.00   0.35849494   0.00698895
9244.00   0.37022322   0.00657431
9246.00   0.38068427   0.00624409
9248.00   0.38505049   0.00607538
9250.00   0.38485664   0.00602578
9252.00   0.38570268   0.00615842
9254.00   0.38605477   0.00662859
9256.00   0.38724345   0.00670884
9258.00   0.38841206   0.00650648
9260.00   0.38967600   0.00632028
9262.00   0.39126505   0.00616617
9264.00   0.39276411   0.00606113
9266.00   0.39304815   0.00613492
9268.00   0.39320388   0.00637756
9270.00   0.38935395   0.00646689
9272.00   0.37960000   0.00645208
9274.00   0.37292695   0.00651125
9276.00   0.36908488   0.00663140
9278.00   0.36916195   0.00678525
9280.00   0.37655206   0.00694191
9282.00   0.39098397   0.00712451
9284.00   0.39077623   0.00736070
9286.00   0.37769204   0.00779014
9288.00   0.37049094   0.00790257
9290.00   0.36333831   0.00767386
9292.00   0.35600378   0.00746774
9294.00   0.34806232   0.00747120
9296.00   0.33616742   0.00761232
9298.00   0.34297235   0.00807276
9300.00   0.37390590   0.00872541
9302.00   0.38855860   0.00956351
9304.00   0.39272694   0.01033476
9306.00   0.39112739   0.01157178
9308.00   0.38178293   0.01349327
9310.00   0.36895822   0.01562202
9312.00   0.37321165   0.01700055
9314.00   0.39510925   0.01825370
9316.00   0.40166463   0.01867818
9318.00   0.40102990   0.01837447
9320.00   0.39842243   0.01794465
9322.00   0.38764775   0.01736009
9324.00   0.37466510   0.01661967
9326.00   0.38154475   0.01579567
9328.00   0.40932716   0.01463834
9330.00   0.40556321   0.01396509
9332.00   0.37389871   0.01319202
9334.00   0.35529396   0.01350882
9336.00   0.34180731   0.01540078
9338.00   0.33347918   0.01713607
9340.00   0.33593021   0.01754304
9342.00   0.33821335   0.01716784
9344.00   0.35189129   0.01630834
9346.00   0.39019930   0.01394712
9348.00   0.40662883   0.01253960
9350.00   0.39900556   0.01200550
9352.00   0.37708741   0.01175282
9354.00   0.33371690   0.01148166
9356.00   0.26887256   0.01127981
9358.00   0.26553719   0.01117538
9360.00   0.32646596   0.01112123
9362.00   0.35051896   0.01132502
9364.00   0.35775268   0.01082107
9366.00   0.35643032   0.01187912
9368.00   0.34668142   0.01499963
9370.00   0.33497757   0.01868395
9372.00   0.33776173   0.02190987
9374.00   0.35890678   0.02638507
9376.00   0.35526584   0.02728983
9378.00   0.32742544   0.02577379
9380.00   0.30846135   0.02339687
9382.00   0.30564964   0.01943947
9384.00   0.31510980   0.01405255
9386.00   0.33311158   0.01078157
9388.00   0.36604233   0.01035086
9390.00   0.37462737   0.00919076
9392.00   0.36264792   0.00894496
9394.00   0.35753770   0.00885712
9396.00   0.35334097   0.00902638
9398.00   0.35543326   0.00942237
9400.00   0.37377736   0.01002545
9402.00   0.40511763   0.01095252
9404.00   0.40806022   0.01104471
9406.00   0.38100302   0.01022385
9408.00   0.37373985   0.00995927
9410.00   0.38313611   0.01018903
9412.00   0.39550386   0.01065739
9414.00   0.40286058   0.01125745
9416.00   0.40785053   0.01204153
9418.00   0.39510678   0.01241880
9420.00   0.36369605   0.01253716
9422.00   0.33491156   0.01263594
9424.00   0.29118668   0.01287207
9426.00   0.26544257   0.01277603
9428.00   0.27208663   0.01186199
9430.00   0.29648803   0.01065237
9432.00   0.31870407   0.01108606
9434.00   0.36200649   0.01221878
9436.00   0.37152041   0.01421540
9438.00   0.34945828   0.01800811
9440.00   0.32997701   0.01976215
9442.00   0.31946507   0.01910306
9444.00   0.32013018   0.01724592
9446.00   0.33632083   0.01555724
9448.00   0.37037085   0.01260204
9450.00   0.38417023   0.01163393
9452.00   0.37854245   0.01237353
9454.00   0.38825396   0.01363923
9456.00   0.42437609   0.01621335
9458.00   0.45835632   0.01806328
9460.00   0.45231442   0.01735840
9462.00   0.41185679   0.01441946
9464.00   0.39019166   0.01301560
9466.00   0.36464630   0.01199464
9468.00   0.35545129   0.01167639
9470.00   0.36286914   0.01228343
9472.00   0.37164503   0.01315488
9474.00   0.37429744   0.01416736
9476.00   0.37345029   0.01534403
9478.00   0.35902339   0.01529457
9480.00   0.31763184   0.01414119
9482.00   0.30598709   0.01307864
9484.00   0.31637278   0.01131466
9486.00   0.33561729   0.00984762
9488.00   0.36219251   0.00937179
9490.00   0.38551894   0.00963076
9492.00   0.37178823   0.01028809
9494.00   0.31218626   0.01143319
9496.00   0.30366826   0.01283662
9498.00   0.33232678   0.01520854
9500.00   0.35366184   0.01627085
9502.00   0.36443692   0.01590283
9504.00   0.37003565   0.01477206
9506.00   0.37873067   0.01339686
9508.00   0.39168023   0.01076216
9510.00   0.39200208   0.00969942
9512.00   0.37596504   0.00972598
9514.00   0.37205420   0.01069280
9516.00   0.38764913   0.01310478
9518.00   0.39197120   0.01482965
9520.00   0.35261448   0.01473562
9522.00   0.27639465   0.01361808
9524.00   0.26837084   0.01334230
9526.00   0.31984906   0.01368315
9528.00   0.34765761   0.01334341
9530.00   0.36745396   0.01211340
9532.00   0.37744482   0.01078375
9534.00   0.37274605   0.01037137
9536.00   0.35445207   0.01053032
9538.00   0.35138859   0.01057008
9540.00   0.35683201   0.01072345
9542.00   0.36448294   0.01103540
9544.00   0.37176391   0.01146053
9546.00   0.37845767   0.01197268
9548.00   0.39608230   0.01266900
9550.00   0.41701023   0.01332989
9552.00   0.40680458   0.01338735
9554.00   0.36188973   0.01287834
9556.00   0.34629038   0.01257122
9558.00   0.34491803   0.01189803
9560.00   0.34596102   0.01183546
9562.00   0.35264194   0.01278529
9564.00   0.36403830   0.01392876
9566.00   0.37419555   0.01435973
9568.00   0.38851207   0.01456987
9570.00   0.38553692   0.01397306
9572.00   0.36544384   0.01189844
9574.00   0.34815656   0.01045947
9576.00   0.32676944   0.00980632
9578.00   0.31534912   0.00966001
9580.00   0.32975309   0.00999336
9582.00   0.36664717   0.01094553
9584.00   0.36247616   0.01122575
9586.00   0.31822746   0.01091444
9588.00   0.29772869   0.01114992
9590.00   0.29119721   0.01224524
9592.00   0.29632597   0.01300892
9594.00   0.31657560   0.01263122
9596.00   0.35009614   0.01143614
9598.00   0.36179507   0.01085053
9600.00   0.35508491   0.00998962
9602.00   0.35864730   0.01044282
9604.00   0.37464575   0.01267769
9606.00   0.37936749   0.01360701
9608.00   0.36677071   0.01252614
9610.00   0.34381096   0.01057179
9612.00   0.31682563   0.01021856
9614.00   0.26910761   0.01094406
9616.00   0.26866652   0.01137499
9618.00   0.31929594   0.01224433
9620.00   0.34920196   0.01257409
9622.00   0.34990770   0.01214262
9624.00   0.33705877   0.01146749
9626.00   0.32852209   0.01123735
9628.00   0.31518523   0.01112267
9630.00   0.31878990   0.01095913
9632.00   0.34331535   0.01083537
9634.00   0.35516247   0.01074056
9636.00   0.35666887   0.01053331
9638.00   0.34975424   0.01027934
9640.00   0.32883331   0.01004973
9642.00   0.29315558   0.00977218
9644.00   0.28761646   0.00965056
9646.00   0.30283196   0.00964401
9648.00   0.32013804   0.00970250
9650.00   0.35625204   0.00982997
9652.00   0.38197307   0.01000555
9654.00   0.37639070   0.01028292
9656.00   0.35381159   0.01069183
9658.00   0.34238917   0.01091077
9660.00   0.32868606   0.01106020
9662.00   0.32189193   0.01108864
9664.00   0.32301143   0.01106653
9666.00   0.32687046   0.01085843
9668.00   0.33204395   0.01035421
9670.00   0.33828694   0.00971520
9672.00   0.33324511   0.00942781
9674.00   0.30850106   0.00933715
9676.00   0.30274382   0.00938388
9678.00   0.30756323   0.00972398
9680.00   0.31721428   0.00995554
9682.00   0.33308674   0.01005260
9684.00   0.35040826   0.01007533
9686.00   0.35134335   0.01001031
9688.00   0.33668281   0.00979347
9690.00   0.32759386   0.00981146
9692.00   0.31477122   0.00976795
9694.00   0.30863050   0.01017509
9696.00   0.30855858   0.01136739
9698.00   0.30577619   0.01236659
9700.00   0.29652371   0.01232653
9702.00   0.28246617   0.01158625
9704.00   0.29109990   0.01116330
9706.00   0.32945213   0.01060041
9708.00   0.34580740   0.01023906
9710.00   0.34483667   0.01011090
9712.00   0.33722025   0.01016030
9714.00   0.32573417   0.01036701
9716.00   0.30861373   0.01072339
9718.00   0.30240354   0.01093597
9720.00   0.30683963   0.01125045
9722.00   0.30141751   0.01115331
9724.00   0.28628229   0.01047901
9726.00   0.27890467   0.01005245
9728.00   0.27933533   0.01008430
9730.00   0.28487391   0.01032135
9732.00   0.30055064   0.01083198
9734.00   0.33423489   0.01182487
9736.00   0.35168996   0.01234787
9738.00   0.36604750   0.01284324
9740.00   0.36808293   0.01297310
9742.00   0.35413021   0.01252078
9744.00   0.33437657   0.01172733
9746.00   0.32000221   0.01111933
9748.00   0.30500089   0.01041723
9750.00   0.28634292   0.01001846
9752.00   0.26067615   0.00983637
9754.00   0.24135929   0.00985719
9756.00   0.22393890   0.01020208
9758.00   0.21939281   0.01064624
9760.00   0.23622547   0.01086359
9762.00   0.26927491   0.01091806
9764.00   0.28994029   0.01079460
9766.00   0.31005995   0.01030431
9768.00   0.32421802   0.01008006
9770.00   0.33287092   0.01005883
9772.00   0.33582646   0.01014959
9774.00   0.32732046   0.01015911
9776.00   0.30801021   0.01014777
9778.00   0.30311038   0.01041046
9780.00   0.30819257   0.01089388
9782.00   0.31020136   0.01129402
9784.00   0.31588915   0.01179651
9786.00   0.31495243   0.01220680
9788.00   0.29980293   0.01245867
9790.00   0.28067429   0.01268202
9792.00   0.27491403   0.01271506
9794.00   0.27837636   0.01251094
9796.00   0.27622232   0.01224923
9798.00   0.27334598   0.01171003
9800.00   0.26836013   0.01135459
9802.00   0.25831144   0.01127485
9804.00   0.25412499   0.01137475
9806.00   0.26679468   0.01157063
9808.00   0.29184107   0.01193721
9810.00   0.30388961   0.01187318
9812.00   0.31561196   0.01137870
9814.00   0.31600414   0.01105576
9816.00   0.29597899   0.01081669
9818.00   0.27271507   0.01069369
9820.00   0.26225682   0.01069233
9822.00   0.25677922   0.01078526
9824.00   0.25431130   0.01073078
9826.00   0.25955208   0.01052507
9828.00   0.26123717   0.01045242
9830.00   0.25880108   0.01054714
9832.00   0.25177520   0.01059141
9834.00   0.24034607   0.01036682
9836.00   0.22992039   0.00998087
9838.00   0.24077778   0.01004489
9840.00   0.27916590   0.01044936
9842.00   0.29015899   0.01079221
9844.00   0.28426862   0.01121356
9846.00   0.27941397   0.01163791
9848.00   0.27281797   0.01207637
9850.00   0.26552056   0.01241936
9852.00   0.26864672   0.01238263
9854.00   0.28066021   0.01189355
9856.00   0.28432629   0.01152329
9858.00   0.28544302   0.01083660
9860.00   0.28470686   0.01063750
9862.00   0.27418764   0.01087612
9864.00   0.26192843   0.01145042
9866.00   0.26598545   0.01238850
9868.00   0.28274979   0.01370835
9870.00   0.28445728   0.01448955
9872.00   0.27447833   0.01532434
9874.00   0.27153893   0.01548886
9876.00   0.27257811   0.01487576
9878.00   0.27286799   0.01397963
9880.00   0.27109671   0.01306452
9882.00   0.26535708   0.01186699
9884.00   0.25709770   0.01136319
9886.00   0.23369491   0.01141098
9888.00   0.23619882   0.01169295
9890.00   0.26340820   0.01240410
9892.00   0.29523621   0.01307758
9894.00   0.32168214   0.01361759
9896.00   0.34281017   0.01400490
9898.00   0.34825706   0.01390794
9900.00   0.33896285   0.01323830
9902.00   0.32933100   0.01291820
9904.00   0.31030320   0.01231807
9906.00   0.29514590   0.01234004
9908.00   0.28579053   0.01359145
9910.00   0.27370261   0.01511919
9912.00   0.26216721   0.01570064
9914.00   0.26294882   0.01586050
9916.00   0.26023822   0.01582625
9918.00   0.26566156   0.01521422
9920.00   0.25214001   0.01493833
9922.00   0.21273746   0.01530245
9924.00   0.17255799   0.01571413
9926.00   0.18102587   0.01509853
9928.00   0.23326351   0.01310925
9930.00   0.26073582   0.01289829
9932.00   0.29042819   0.01399840
9934.00   0.30473790   0.01504876
9936.00   0.30303861   0.01589494
9938.00   0.29079700   0.01701188
9940.00   0.26972595   0.01862183
9942.00   0.23758801   0.02047095
9944.00   0.22457518   0.02165609
9946.00   0.21248243   0.02300701
9948.00   0.22599816   0.02307560
9950.00   0.28245459   0.02166378
9952.00   0.33247413   0.02052660
9954.00   0.34186523   0.02039055
9956.00   0.32520244   0.02065973
9958.00   0.31236050   0.02034206
9960.00   0.28420896   0.01972682
9962.00   0.27381384   0.01898214
9964.00   0.27605151   0.01772503
9966.00   0.28147448   0.01684082
9968.00   0.28930774   0.01664586
9970.00   0.29538382   0.01680224
9972.00   0.28865589   0.01689527
9974.00   0.27287351   0.01721104
9976.00   0.25692824   0.01686889
9978.00   0.22871462   0.01570165
9980.00   0.21490716   0.01497427
9982.00   0.22429860   0.01472910
9984.00   0.23885137   0.01459764
9986.00   0.23367517   0.01429292
9988.00   0.20874336   0.01384780
9990.00   0.20858817   0.01393265
9992.00   0.22463699   0.01455438
9994.00   0.24327457   0.01499216
9996.00   0.26987934   0.01534732
9998.00   0.28541309   0.01565948
10000.00   0.26859391   0.01574562
10002.00   0.22889496   0.01567279
10004.00   0.23686042   0.01691655
10006.00   0.28847070   0.01915620
10008.00   0.31801575   0.02105280
10010.00   0.34917587   0.02361276
10012.00   0.35872577   0.02498616
10014.00   0.32881790   0.02427063
10016.00   0.27771600   0.02231931
10018.00   0.26418173   0.02178162
10020.00   0.27479348   0.02218585
10022.00   0.27440943   0.02178205
10024.00   0.26782329   0.02084671
10026.00   0.27482806   0.02002323
10028.00   0.30042345   0.01925003
10030.00   0.32335275   0.01845007
10032.00   0.31562704   0.01781967
10034.00   0.28267493   0.01726834
10036.00   0.27171331   0.01708608
10038.00   0.28461754   0.01736109
10040.00   0.26828568   0.01760312
10042.00   0.20288059   0.01785603
10044.00   0.15070203   0.01804209
10046.00   0.17308315   0.01808539
10048.00   0.25131159   0.01801835
10050.00   0.28500313   0.01801849
10052.00   0.31679873   0.01770369
10054.00   0.31670144   0.01807752
10056.00   0.27847155   0.01928336
10058.00   0.22735526   0.02054438
10060.00   0.17723202   0.02135270
10062.00   0.12924162   0.02172606
10064.00   0.13389983   0.02149425
10066.00   0.20268618   0.02028669
10068.00   0.23481222   0.01965996
10070.00   0.26269325   0.01877903
10072.00   0.27053223   0.01842305
10074.00   0.24886215   0.01913949
10076.00   0.22746359   0.02055193
10078.00   0.24365497   0.02196536
10080.00   0.30210739   0.02430633
10082.00   0.30899511   0.02471094
10084.00   0.27671964   0.02346667
10086.00   0.25143301   0.02226195
10088.00   0.24565352   0.02130819
10090.00   0.24496380   0.02047566
10092.00   0.23803499   0.02018551
10094.00   0.22783311   0.02050223
10096.00   0.22065671   0.02106575
10098.00   0.19912028   0.02240337
10100.00   0.21133074   0.02301047
10102.00   0.27792865   0.02290903
10104.00   0.33879897   0.02281802
10106.00   0.32482632   0.02325169
10108.00   0.25095939   0.02383650
10110.00   0.23591392   0.02402080
10112.00   0.25806195   0.02383147
10114.00   0.26813369   0.02395470
10116.00   0.26296499   0.02374636
10118.00   0.24863638   0.02401759
10120.00   0.24999584   0.02583497
10122.00   0.25958058   0.02842277
10124.00   0.22474357   0.02855264
10126.00   0.10423566   0.02644180
10128.00   0.09522535   0.02524917
10130.00   0.19161909   0.02417456
10132.00   0.26982301   0.02335183
10134.00   0.28347217   0.02286106
10136.00   0.26610230   0.02264186
10138.00   0.26774924   0.02257211
10140.00   0.26933931   0.02272535
10142.00   0.29186709   0.02308156
10144.00   0.35320386   0.02370839
10146.00   0.37392025   0.02433799
10148.00   0.34114376   0.02512853
10150.00   0.29375743   0.02584612
10152.00   0.27949581   0.02605940
10154.00   0.29455668   0.02597694
10156.00   0.27525824   0.02576273
10158.00   0.22075482   0.02499313
10160.00   0.18943015   0.02471512
10162.00   0.19101753   0.02481288
10164.00   0.20202228   0.02543883
10166.00   0.20916723   0.02713149
10168.00   0.22207182   0.02985656
10170.00   0.24045482   0.03093764
10172.00   0.25896887   0.03121007
10174.00   0.29260060   0.03112507
10176.00   0.35675812   0.03058367
10178.00   0.41455615   0.02997680
10180.00   0.43380077   0.02917242
10182.00   0.41327612   0.02797828
10184.00   0.37183990   0.02779225
10186.00   0.25620686   0.02820732
10188.00   0.23395938   0.02908481
10190.00   0.29733435   0.03143628
10192.00   0.34599628   0.03277378
10194.00   0.32428917   0.03131642
10196.00   0.26410708   0.02809690
10198.00   0.23945726   0.02726708
10200.00   0.21416639   0.02767433
10202.00   0.22566569   0.02849306
10204.00   0.29424426   0.03055196
10206.00   0.33492324   0.03202538
10208.00   0.33455940   0.03263239
10210.00   0.30185068   0.03276702
10212.00   0.22943693   0.03254869
10214.00   0.09305177   0.03167572
10216.00   0.08829508   0.03103227
10218.00   0.20253283   0.02982529
10220.00   0.28066733   0.02967424
10222.00   0.33599475   0.03050981
10224.00   0.38243230   0.03196196
10226.00   0.43923078   0.03406074
10228.00   0.51769850   0.03659273
10230.00   0.47875662   0.03802709
10232.00   0.30092862   0.03994366
10234.00   0.19247011   0.03969262
10236.00   0.11225856   0.03542840
10238.00   0.07984496   0.03018803
10240.00   0.12795631   0.02817753
10242.00   0.23986492   0.02818109
10244.00   0.27141825   0.02787485
10246.00   0.23235289   0.02831991
10248.00   0.25397020   0.02871687
10250.00   0.34583181   0.02939201
10252.00   0.40660195   0.02986954
10254.00   0.39068435   0.02987715
10256.00   0.33110803   0.02969233
10258.00   0.28437379   0.03020841
10260.00   0.20430914   0.03166168
10262.00   0.20301224   0.03237523
10264.00   0.29930665   0.03231172
10266.00   0.34314962   0.03260753
10268.00   0.29304819   0.03455431
10270.00   0.21900203   0.03692907
10272.00   0.22270413   0.03667052
10274.00   0.29164584   0.03276353
10276.00   0.25357026   0.03408912
10278.00   0.08477247   0.03926483
10280.00   0.02271591   0.04329629
10282.00   0.09291422   0.04686822
10284.00   0.19415230   0.04904447
10286.00   0.22342321   0.04860947
10288.00   0.22744314   0.04572858
10290.00   0.25334216   0.04451479
10292.00   0.30980436   0.04402689
10294.00   0.31042326   0.04318580
10296.00   0.25550262   0.04176487
10298.00   0.21430503   0.04046034
10300.00   0.22623837   0.03972357
10302.00   0.25407530   0.03914743
10304.00   0.27968589   0.03867374
10306.00   0.32984913   0.03848488
10308.00   0.35869861   0.03830173
10310.00   0.35284619   0.03810709
10312.00   0.33729674   0.03786238
10314.00   0.32993659   0.03722471
10316.00   0.31284936   0.03627393
10318.00   0.29056621   0.03629791
10320.00   0.27282123   0.03712493
10322.00   0.28845091   0.03810517
10324.00   0.36614487   0.04006501
10326.00   0.36324987   0.04084908
10328.00   0.26889566   0.04018473
10330.00   0.18494285   0.03924934
10332.00   0.22832094   0.03917767
10334.00   0.40523989   0.03947920
10336.00   0.42934431   0.03972237
10338.00   0.33208983   0.04019257
10340.00   0.28317399   0.04053454
10342.00   0.31770526   0.04056650
10344.00   0.34384333   0.04033891
10346.00   0.28365183   0.04018964
10348.00   0.16316987   0.04025282
10350.00   0.13627711   0.04070148
10352.00   0.17321638   0.04227930
10354.00   0.20859875   0.04213577
10356.00   0.26598285   0.04027980
10358.00   0.29627873   0.03854461
10360.00   0.26287612   0.03774709
10362.00   0.19448580   0.03770315
10364.00   0.22194502   0.03902636
10366.00   0.36426464   0.04232302
10368.00   0.39571272   0.04400653
10370.00   0.35367498   0.04404131
10372.00   0.29349934   0.04573998
10374.00   0.21430055   0.05088868
10376.00   0.14943544   0.05562386
10378.00   0.15734313   0.05482430
10380.00   0.21212231   0.04895813
10382.00   0.26090583   0.04554353
10384.00   0.35219886   0.04140023
10386.00   0.40503378   0.03919743
10388.00   0.40382592   0.04022219
10390.00   0.37711833   0.04212182
10392.00   0.33458153   0.04208399
10394.00   0.24358730   0.04095962
10396.00   0.21518611   0.04161100
10398.00   0.22066275   0.04393557
10400.00   0.25600170   0.04511663
10402.00   0.31813928   0.04565046
10404.00   0.34639227   0.04578396
10406.00   0.33493308   0.04554065
10408.00   0.30257189   0.04524159
10410.00   0.29556625   0.04506521
10412.00   0.31688273   0.04443485
10414.00   0.30552399   0.04476240
10416.00   0.23695100   0.04683965
10418.00   0.18321531   0.04811471
10420.00   0.19505014   0.04726533
10422.00   0.24624617   0.04538984
10424.00   0.27260158   0.04490719
10426.00   0.28985342   0.04539836
10428.00   0.30557093   0.04503096
10430.00   0.33610419   0.04346563
10432.00   0.36248575   0.04346537
10434.00   0.34926344   0.04640987
10436.00   0.33991124   0.05018188
10438.00   0.38217701   0.05071764
10440.00   0.46795304   0.04893089
10442.00   0.47122594   0.04713358
10444.00   0.42161257   0.04265644
10446.00   0.35904730   0.04110989
10448.00   0.22960704   0.04383617
10450.00   0.14005400   0.04756795
10452.00   0.22482184   0.04970598
10454.00   0.45682435   0.05161153
10456.00   0.52548723   0.05097934
10458.00   0.51774566   0.04671449
10460.00   0.48084265   0.04433784
10462.00   0.36798094   0.04323162
10464.00   0.26612338   0.04311341
10466.00   0.26120930   0.04450638
10468.00   0.33963690   0.04758146
10470.00   0.38240843   0.04825127
10472.00   0.45553765   0.04757246
10474.00   0.45899031   0.04658115
10476.00   0.39190927   0.04469971
10478.00   0.32963599   0.04303320
10480.00   0.34627947   0.04283022
10482.00   0.42586158   0.04375021
10484.00   0.42295085   0.04352649
10486.00   0.35678926   0.04218447
10488.00   0.31689779   0.04197268
10490.00   0.27398956   0.04305719
10492.00   0.25098176   0.04384511
10494.00   0.27441806   0.04361865
10496.00   0.33975935   0.04298084
10498.00   0.40648891   0.04289241
10500.00   0.51562983   0.04305100
10502.00   0.53363919   0.04312954
10504.00   0.47516164   0.04332511
10506.00   0.41764134   0.04341267
10508.00   0.34525906   0.04313245
10510.00   0.28737032   0.04274798
10512.00   0.30849236   0.04279592
10514.00   0.40473509   0.04304635
10516.00   0.41119960   0.04401004
10518.00   0.33099601   0.04633260
10520.00   0.31999691   0.04732496
10522.00   0.40162814   0.04707045
10524.00   0.46638012   0.04637598
10526.00   0.42732766   0.04537360
10528.00   0.31658604   0.04380987
10530.00   0.26125372   0.04457451
10532.00   0.20684883   0.04807637
10534.00   0.19624326   0.04940440
10536.00   0.22036304   0.04974425
10538.00   0.25912865   0.04990791
10540.00   0.32603301   0.04930753
10542.00   0.41523163   0.04772828
10544.00   0.44563974   0.04648286
10546.00   0.43692158   0.04500646
10548.00   0.42072131   0.04390037
10550.00   0.37346961   0.04280260
10552.00   0.33296248   0.04229102
10554.00   0.32081680   0.04256333
10556.00   0.32686427   0.04319174
10558.00   0.30658418   0.04341907
10560.00   0.25235622   0.04352942
10562.00   0.24931050   0.04362060
10564.00   0.28996105   0.04363350
10566.00   0.32081230   0.04365016
10568.00   0.34226567   0.04367746
10570.00   0.35879152   0.04371059
10572.00   0.37400767   0.04376728
10574.00   0.39505798   0.04385729
10576.00   0.38643934   0.04396387
10578.00   0.34905404   0.04421422
10580.00   0.31287925   0.04421702
10582.00   0.26590093   0.04390812
10584.00   0.22905163   0.04357672
10586.00   0.23468475   0.04354327
10588.00   0.27314176   0.04369573
10590.00   0.26272314   0.04342519
10592.00   0.19081577   0.04252941
10594.00   0.18927461   0.04233858
10596.00   0.25214599   0.04248610
10598.00   0.30808891   0.04302185
10600.00   0.34062896   0.04434207
10602.00   0.36382228   0.04591062
10604.00   0.35133180   0.04614191
10606.00   0.29444046   0.04551588
10608.00   0.25736661   0.04467771
10610.00   0.20915291   0.04281751
10612.00   0.18619904   0.04140979
10614.00   0.21001423   0.04092380
10616.00   0.25295232   0.04094335
10618.00   0.26301529   0.04102846
10620.00   0.24264490   0.04148555
10622.00   0.26389218   0.04152017
10624.00   0.33449766   0.04131341
10626.00   0.37288542   0.04108967
10628.00   0.36274377   0.04087589
10630.00   0.30851860   0.04052315
10632.00   0.23991523   0.03979488
10634.00   0.15198011   0.03864170
10636.00   0.09377672   0.03823157
10638.00   0.02334309   0.03790730
10640.00   0.01488341   0.03857418
10642.00   0.09335399   0.04095557
10644.00   0.18479990   0.04276797
10646.00   0.22327353   0.04276873
10648.00   0.22814279   0.04199714
10650.00   0.27216077   0.04118431
10652.00   0.37789819   0.03952718
10654.00   0.39831857   0.03849898
10656.00   0.32963610   0.03803998
10658.00   0.25749371   0.03764820
10660.00   0.21306708   0.03764373
10662.00   0.17623342   0.03803355
10664.00   0.15710860   0.03745950
10666.00   0.15976013   0.03593946
10668.00   0.16451718   0.03502147
10670.00   0.17259516   0.03414974
10672.00   0.18673671   0.03363112
10674.00   0.22157344   0.03387921
10676.00   0.26030779   0.03449089
10678.00   0.27243160   0.03472808
10680.00   0.26069392   0.03489485
10682.00   0.25351755   0.03470001
10684.00   0.23475672   0.03411301
10686.00   0.23046134   0.03349364
10688.00   0.23644706   0.03269548
10690.00   0.24910920   0.03202894
10692.00   0.25944959   0.03169900
10694.00   0.27061610   0.03159288
10696.00   0.25130468   0.03152833
10698.00   0.18460298   0.03171930
10700.00   0.15330456   0.03173631
10702.00   0.15750016   0.03166214
10704.00   0.19304732   0.03121372
10706.00   0.23778857   0.03040180
10708.00   0.28517668   0.02931055
10710.00   0.31203072   0.02856331
10712.00   0.32412492   0.02763415
10714.00   0.33925301   0.02759337
10716.00   0.35256772   0.02892123
10718.00   0.34607981   0.02951680
10720.00   0.31360856   0.02833749
10722.00   0.26307620   0.02610687
10724.00   0.24269358   0.02534646
10726.00   0.23329330   0.02534149
10728.00   0.25023180   0.02578255
10730.00   0.30708948   0.02760417
10732.00   0.35227045   0.02834660
10734.00   0.36256890   0.02693960
10736.00   0.34527433   0.02438932
10738.00   0.35058126   0.02349911
10740.00   0.39421184   0.02389472
10742.00   0.37088133   0.02353198
10744.00   0.26130369   0.02269670
10746.00   0.21206608   0.02233555
10748.00   0.26066106   0.02274532
10750.00   0.32133992   0.02312763
10752.00   0.30491823   0.02288910
10754.00   0.23362413   0.02236003
10756.00   0.21164155   0.02236714
10758.00   0.21150547   0.02279582
10760.00   0.22031266   0.02309097
10762.00   0.22304543   0.02359948
10764.00   0.23296776   0.02361634
10766.00   0.28036582   0.02260783
10768.00   0.35007727   0.02087136
10770.00   0.34808856   0.02054515
10772.00   0.26098039   0.02180011
10774.00   0.24215379   0.02172734
10776.00   0.26694239   0.02048162
10778.00   0.29509294   0.01971243
10780.00   0.32467330   0.02035526
10782.00   0.35198757   0.02145926
10784.00   0.33949980   0.02105696
10786.00   0.27916132   0.01897667
10788.00   0.26688096   0.01844552
10790.00   0.28930344   0.01918097
10792.00   0.29964924   0.01966498
10794.00   0.28597122   0.01950436
10796.00   0.26715517   0.01903914
10798.00   0.27632166   0.01875986
10800.00   0.30591850   0.01852049
10802.00   0.33367735   0.01840484
10804.00   0.39547727   0.01838284
10806.00   0.40508455   0.01838346
10808.00   0.33180505   0.01877614
10810.00   0.24962804   0.01919419
10812.00   0.24407256   0.01868604
10814.00   0.28831746   0.01724205
10816.00   0.31035975   0.01714025
10818.00   0.36353652   0.01855862
10820.00   0.35304371   0.01867800
10822.00   0.24966298   0.01743215
10824.00   0.16391343   0.01611024
10826.00   0.16503412   0.01551533
10828.00   0.20754904   0.01519271
10830.00   0.26106642   0.01560642
10832.00   0.38740191   0.01735953
10834.00   0.42525074   0.01778518
10836.00   0.38208580   0.01739655
10838.00   0.33065985   0.01685062
10840.00   0.28738648   0.01587283
10842.00   0.28738648   0.01587283
