# File created by shivutils (I.Shivvers)
# 
# wl(A)   flm    er(optional)
3402.00   0.13068174   0.06284299
3404.00   -0.06385057   0.06250272
3406.00   0.09563007   0.06494255
3408.00   0.04374152   0.06558254
3410.00   0.01220137   0.06450920
3412.00   -0.01652217   0.06728140
3414.00   -0.16381496   0.06972390
3416.00   0.08199540   0.06672687
3418.00   -0.04358223   0.06649975
3420.00   -0.00580309   0.06659316
3422.00   0.20961562   0.06616544
3424.00   0.10241126   0.06598518
3426.00   0.11066528   0.06708005
3428.00   0.06073616   0.06766313
3430.00   -0.15218410   0.06613798
3432.00   -0.00756716   0.06556632
3434.00   0.02437806   0.06503568
3436.00   -0.06648676   0.06314538
3438.00   0.06566908   0.05817454
3440.00   0.01679856   0.05738716
3442.00   0.08220445   0.06022123
3444.00   0.14353366   0.06148322
3446.00   0.02144675   0.06385642
3448.00   -0.01219563   0.06694170
3450.00   -0.02890005   0.06799243
3452.00   -0.00732039   0.06709982
3454.00   0.04170786   0.06612823
3456.00   0.02369361   0.06377430
3458.00   0.21286888   0.06423092
3460.00   0.22122355   0.06429309
3462.00   -0.04722907   0.06457667
3464.00   0.06235871   0.06452956
3466.00   0.14120342   0.06490707
3468.00   0.27474508   0.06440543
3470.00   0.12363230   0.06160320
3472.00   0.10703478   0.05911916
3474.00   0.09150558   0.06002947
3476.00   0.02212245   0.06299938
3478.00   0.13695088   0.06604225
3480.00   0.23693112   0.06664195
3482.00   -0.00210332   0.06383741
3484.00   0.10312009   0.06355341
3486.00   0.03146241   0.06213497
3488.00   0.13065691   0.06107388
3490.00   0.08753143   0.06021937
3492.00   0.17658058   0.06016325
3494.00   0.07454072   0.05872195
3496.00   0.08687638   0.06053796
3498.00   0.00595172   0.06113215
3500.00   0.10400561   0.06237616
3502.00   0.13883625   0.06179425
3504.00   0.08418515   0.06192188
3506.00   0.01832599   0.06068990
3508.00   0.13305026   0.06020709
3510.00   0.06503902   0.05985854
3512.00   0.15931825   0.05794776
3514.00   0.16632819   0.05884958
3516.00   0.19911666   0.05966466
3518.00   0.17285240   0.05900646
3520.00   0.10985388   0.05694566
3522.00   0.22848339   0.05616881
3524.00   0.05395124   0.05484479
3526.00   0.15302426   0.05705149
3528.00   0.01381380   0.05734756
3530.00   0.21584941   0.05899091
3532.00   0.09715866   0.05874287
3534.00   0.18843891   0.05975623
3536.00   -0.00970153   0.05975405
3538.00   0.13358961   0.06152035
3540.00   0.11519792   0.06148018
3542.00   0.07840867   0.06185519
3544.00   0.02084740   0.06215103
3546.00   0.12269846   0.06211932
3548.00   0.09846015   0.06177144
3550.00   0.02633719   0.05977802
3552.00   0.09607504   0.05909920
3554.00   -0.00810186   0.05931713
3556.00   0.14380433   0.05848693
3558.00   0.12821859   0.05848549
3560.00   0.06692793   0.05865676
3562.00   0.14689003   0.05695037
3564.00   0.22922593   0.05427974
3566.00   0.10168913   0.05177422
3568.00   0.09425437   0.04998151
3570.00   0.02050946   0.05065303
3572.00   0.15976073   0.05228534
3574.00   0.21287471   0.05230889
3576.00   0.09623530   0.04998003
3578.00   0.18675588   0.04991374
3580.00   0.07410377   0.04740108
3582.00   -0.02142858   0.04458015
3584.00   0.00875436   0.04433747
3586.00   0.16444726   0.04553202
3588.00   0.20803285   0.04818652
3590.00   0.09520814   0.04876055
3592.00   0.12458242   0.04886506
3594.00   0.22599977   0.04994611
3596.00   0.16497950   0.04985896
3598.00   0.13161486   0.04889587
3600.00   0.11919072   0.04736006
3602.00   0.13158822   0.04603295
3604.00   0.20241216   0.04494625
3606.00   0.19910698   0.04497033
3608.00   0.09720916   0.04451148
3610.00   0.11313716   0.04591994
3612.00   -0.01626703   0.04738745
3614.00   0.03468880   0.04666985
3616.00   -0.00428219   0.04508482
3618.00   0.17663981   0.04541601
3620.00   0.12556182   0.04526576
3622.00   0.12368385   0.04608344
3624.00   0.15105304   0.04749062
3626.00   0.05954915   0.04781963
3628.00   0.14487064   0.04729869
3630.00   0.25581142   0.04648311
3632.00   0.13377321   0.04625014
3634.00   0.07790074   0.04612671
3636.00   0.02082255   0.04656968
3638.00   0.06195706   0.04779706
3640.00   0.21873643   0.04849547
3642.00   0.06964120   0.04728488
3644.00   0.05609503   0.04614313
3646.00   -0.09988176   0.05404668
3648.00   0.06709876   0.05918768
3650.00   0.05839832   0.05897466
3652.00   -0.00753255   0.05718461
3654.00   0.03582892   0.05391835
3656.00   0.12448090   0.05019703
3658.00   0.25158307   0.05027149
3660.00   0.12500875   0.05105196
3662.00   0.11214494   0.05109008
3664.00   0.05964151   0.04769525
3666.00   0.23680268   0.04552802
3668.00   0.24460118   0.04417020
3670.00   0.21335691   0.04406093
3672.00   0.08162122   0.04301433
3674.00   0.16478534   0.04285083
3676.00   0.11098142   0.04130058
3678.00   0.13991161   0.04040023
3680.00   0.20708065   0.04090287
3682.00   0.16011353   0.04085391
3684.00   0.10544667   0.03960007
3686.00   0.07591894   0.03964693
3688.00   0.14360897   0.04092761
3690.00   0.02489982   0.04103586
3692.00   0.20127256   0.04200815
3694.00   0.11640415   0.04142315
3696.00   0.11809577   0.04241534
3698.00   0.12167879   0.04324590
3700.00   0.17164895   0.04329377
3702.00   0.16760585   0.04119146
3704.00   0.14109646   0.03923886
3706.00   0.19996028   0.03887901
3708.00   0.08388179   0.03821551
3710.00   0.07276196   0.04054748
3712.00   0.09325787   0.04124429
3714.00   0.10194689   0.04104954
3716.00   0.10644857   0.03939206
3718.00   0.09820613   0.03605226
3720.00   0.03687545   0.03443342
3722.00   0.12131087   0.03700997
3724.00   0.14823449   0.03857315
3726.00   0.06113737   0.03876897
3728.00   0.12760465   0.03867470
3730.00   0.14786081   0.03677575
3732.00   0.14410736   0.03474848
3734.00   0.18227082   0.03369817
3736.00   0.14303520   0.03493821
3738.00   0.21583796   0.03799006
3740.00   0.15672530   0.03801411
3742.00   0.18566088   0.03598692
3744.00   0.17861053   0.03443690
3746.00   0.16820167   0.03276214
3748.00   0.14678772   0.03303562
3750.00   0.11203984   0.03485297
3752.00   0.06779987   0.03619990
3754.00   0.03753788   0.03621749
3756.00   0.02905894   0.03453650
3758.00   0.02814053   0.03368910
3760.00   0.01229856   0.03296195
3762.00   0.08970266   0.03365209
3764.00   0.08233877   0.03330585
3766.00   0.08569063   0.03275125
3768.00   0.13276275   0.03380601
3770.00   -0.04390258   0.03475145
3772.00   -0.11608525   0.03604029
3774.00   -0.19465593   0.03801668
3776.00   -0.17329760   0.03710512
3778.00   -0.18156534   0.03674382
3780.00   -0.11864134   0.03605667
3782.00   -0.01414698   0.03501135
3784.00   -0.00120623   0.03406625
3786.00   0.07700647   0.03244307
3788.00   0.06045288   0.03202119
3790.00   0.06568555   0.03188120
3792.00   0.07609978   0.03113225
3794.00   0.04866010   0.02988127
3796.00   0.06564486   0.02951466
3798.00   0.05935205   0.02952101
3800.00   0.08933693   0.03073033
3802.00   0.02437866   0.03144766
3804.00   0.06985130   0.03108608
3806.00   0.05417810   0.03100768
3808.00   0.13180788   0.03168872
3810.00   -0.05306210   0.03040993
3812.00   0.07331060   0.02949167
3814.00   0.15292349   0.02951422
3816.00   0.04567277   0.02827499
3818.00   0.00533235   0.02714213
3820.00   0.05886070   0.02691696
3822.00   0.09492964   0.02702104
3824.00   0.08474122   0.02592045
3826.00   0.02817870   0.02578188
3828.00   0.00797547   0.02622328
3830.00   0.03400872   0.02598297
3832.00   0.04195654   0.02536387
3834.00   0.08880459   0.02587320
3836.00   0.08667307   0.02526873
3838.00   0.09028669   0.02524307
3840.00   0.07187616   0.02631357
3842.00   0.10241711   0.02783175
3844.00   0.04035681   0.02768057
3846.00   0.06337816   0.02781128
3848.00   0.03059367   0.02691752
3850.00   0.05973317   0.02690300
3852.00   0.07544723   0.02710576
3854.00   0.08723009   0.02632768
3856.00   0.13949399   0.02602209
3858.00   0.03669317   0.02459573
3860.00   0.10958344   0.02628847
3862.00   0.15568583   0.02772566
3864.00   0.10409898   0.02734806
3866.00   0.12017432   0.02703615
3868.00   0.08439115   0.02560862
3870.00   0.07590616   0.02503105
3872.00   0.10453548   0.02653904
3874.00   0.09818549   0.02719250
3876.00   0.10344899   0.02663332
3878.00   0.12072156   0.02608197
3880.00   0.16276407   0.02632036
3882.00   0.13388236   0.02638539
3884.00   0.11130366   0.02572186
3886.00   0.05665445   0.02491934
3888.00   0.11453591   0.02547226
3890.00   0.18175502   0.02681214
3892.00   0.12973769   0.02690257
3894.00   0.11087871   0.02744664
3896.00   0.18521343   0.02785746
3898.00   0.13425289   0.02747537
3900.00   0.17227866   0.02754381
3902.00   0.17996942   0.02771028
3904.00   0.21492349   0.02892540
3906.00   0.13611704   0.02986810
3908.00   0.13123436   0.03142415
3910.00   0.21553662   0.03356731
3912.00   0.23432741   0.03384065
3914.00   0.24401675   0.03151653
3916.00   0.17962536   0.02774522
3918.00   0.18812056   0.02592356
3920.00   0.29094550   0.02556247
3922.00   0.25870952   0.02513257
3924.00   0.20784602   0.02419019
3926.00   0.21479326   0.02285592
3928.00   0.21330617   0.02145421
3930.00   0.24210586   0.02149164
3932.00   0.20308635   0.02124568
3934.00   0.18567237   0.02066900
3936.00   0.18184374   0.02088695
3938.00   0.15722856   0.02233387
3940.00   0.25905508   0.02354752
3942.00   0.24155279   0.02404337
3944.00   0.20425282   0.02428026
3946.00   0.25748208   0.02480361
3948.00   0.21565813   0.02456119
3950.00   0.24669793   0.02464585
3952.00   0.21068868   0.02436937
3954.00   0.18123989   0.02367648
3956.00   0.23814200   0.02414454
3958.00   0.30665308   0.02493018
3960.00   0.25828272   0.02380710
3962.00   0.28109634   0.02274151
3964.00   0.23121075   0.02068159
3966.00   0.21134469   0.01943234
3968.00   0.25277373   0.01943157
3970.00   0.24176189   0.02007729
3972.00   0.25547016   0.02155722
3974.00   0.26804975   0.02262634
3976.00   0.33135015   0.02389236
3978.00   0.24059135   0.02391444
3980.00   0.26549846   0.02440947
3982.00   0.29489648   0.02437478
3984.00   0.27513030   0.02421859
3986.00   0.25113142   0.02418594
3988.00   0.27243248   0.02477413
3990.00   0.23648991   0.02460171
3992.00   0.29056567   0.02511692
3994.00   0.26005360   0.02528950
3996.00   0.27686158   0.02522810
3998.00   0.23425384   0.02482252
4000.00   0.22154410   0.02468617
4002.00   0.24540541   0.02450113
4004.00   0.29050693   0.02426102
4006.00   0.29085177   0.02428783
4008.00   0.26830670   0.02471613
4010.00   0.25674751   0.02512033
4012.00   0.24298628   0.02474406
4014.00   0.25291753   0.02477030
4016.00   0.24014083   0.02499223
4018.00   0.25464895   0.02616960
4020.00   0.23004724   0.02692852
4022.00   0.25683025   0.02723636
4024.00   0.23704712   0.02634569
4026.00   0.24935970   0.02567821
4028.00   0.26158977   0.02485742
4030.00   0.18944106   0.02380144
4032.00   0.21621011   0.02354653
4034.00   0.22727014   0.02374901
4036.00   0.17442168   0.02396499
4038.00   0.23606540   0.02424615
4040.00   0.16586758   0.02377357
4042.00   0.16220312   0.02551692
4044.00   0.19188106   0.03319353
4046.00   0.19582632   0.03631419
4048.00   0.15264887   0.03067745
4050.00   0.19535397   0.02582365
4052.00   0.15747488   0.02404977
4054.00   0.23291475   0.02412879
4056.00   0.18859860   0.02312106
4058.00   0.22008421   0.02316879
4060.00   0.16808826   0.02271865
4062.00   0.17467783   0.02215706
4064.00   0.15305291   0.02198064
4066.00   0.14101559   0.02248908
4068.00   0.19708622   0.02282564
4070.00   0.18715182   0.02220801
4072.00   0.21345431   0.02248065
4074.00   0.17599337   0.02308643
4076.00   0.17842399   0.02415915
4078.00   0.16023684   0.02426705
4080.00   0.22014263   0.02431711
4082.00   0.16828883   0.02363338
4084.00   0.19410132   0.02319301
4086.00   0.20803073   0.02341738
4088.00   0.19942904   0.02292204
4090.00   0.17510678   0.02240468
4092.00   0.16476689   0.02198052
4094.00   0.11858252   0.02143165
4096.00   0.15210368   0.02121088
4098.00   0.17349446   0.02093784
4100.00   0.20779867   0.02041341
4102.00   0.17761405   0.02007001
4104.00   0.20923358   0.02076463
4106.00   0.22063592   0.02144786
4108.00   0.21120939   0.02152837
4110.00   0.14180487   0.02117007
4112.00   0.20198262   0.02173415
4114.00   0.17696102   0.02194277
4116.00   0.17701045   0.02171821
4118.00   0.15152340   0.02110664
4120.00   0.17037408   0.02108128
4122.00   0.17869249   0.02125191
4124.00   0.16408773   0.02124601
4126.00   0.15458831   0.02095247
4128.00   0.14789711   0.02074240
4130.00   0.16057469   0.02092047
4132.00   0.13714157   0.02070528
4134.00   0.15663943   0.02087596
4136.00   0.17076750   0.02102364
4138.00   0.15031168   0.02146187
4140.00   0.12300171   0.02119288
4142.00   0.15470502   0.02043384
4144.00   0.15231657   0.02024275
4146.00   0.16232103   0.02055032
4148.00   0.15659928   0.02070992
4150.00   0.14909722   0.02114751
4152.00   0.21430473   0.02148566
4154.00   0.18930250   0.02090681
4156.00   0.10270049   0.02015388
4158.00   0.15196292   0.02073170
4160.00   0.14776732   0.02103386
4162.00   0.18003333   0.02191164
4164.00   0.16538076   0.02222032
4166.00   0.20600219   0.02195211
4168.00   0.21488306   0.02128749
4170.00   0.20536356   0.02064545
4172.00   0.20021006   0.02014283
4174.00   0.16188377   0.01987077
4176.00   0.18438011   0.02012362
4178.00   0.20634195   0.02054077
4180.00   0.17386776   0.02011671
4182.00   0.18952428   0.01996791
4184.00   0.20172954   0.02001567
4186.00   0.18626298   0.01986978
4188.00   0.18400988   0.01990441
4190.00   0.14441168   0.01987220
4192.00   0.16855729   0.02025204
4194.00   0.14790468   0.01990253
4196.00   0.15294065   0.01922205
4198.00   0.21073124   0.01945894
4200.00   0.21510111   0.01925439
4202.00   0.18521971   0.01938540
4204.00   0.12444273   0.01954376
4206.00   0.20272015   0.02045405
4208.00   0.17598979   0.02026144
4210.00   0.16207626   0.02026174
4212.00   0.16440132   0.02010404
4214.00   0.18817866   0.01984094
4216.00   0.22882818   0.01993387
4218.00   0.24926163   0.02010982
4220.00   0.19050217   0.02005230
4222.00   0.21478944   0.01973060
4224.00   0.21322531   0.01881713
4226.00   0.22052909   0.01845016
4228.00   0.22233413   0.01925679
4230.00   0.18488885   0.01965353
4232.00   0.19838484   0.01981698
4234.00   0.17337249   0.01954588
4236.00   0.21794985   0.01976364
4238.00   0.21426173   0.01959088
4240.00   0.16650394   0.01907236
4242.00   0.23173128   0.01955257
4244.00   0.20776467   0.02048665
4246.00   0.14430423   0.02070567
4248.00   0.18876967   0.01997138
4250.00   0.16508631   0.01899912
4252.00   0.19258173   0.01888037
4254.00   0.15867329   0.01892750
4256.00   0.21533361   0.01946120
4258.00   0.18754637   0.01888078
4260.00   0.20204006   0.01871563
4262.00   0.21064995   0.01913979
4264.00   0.20684592   0.01937326
4266.00   0.23793823   0.01938654
4268.00   0.19956996   0.01866068
4270.00   0.21515897   0.01832062
4272.00   0.21667521   0.01808538
4274.00   0.14838384   0.01826582
4276.00   0.13654904   0.01975453
4278.00   0.21307366   0.01934403
4280.00   0.17146596   0.01854364
4282.00   0.20781873   0.01863970
4284.00   0.21904720   0.01843615
4286.00   0.21485884   0.01817000
4288.00   0.19966388   0.01781586
4290.00   0.15732262   0.01771135
4292.00   0.17614606   0.01811803
4294.00   0.21727680   0.01834855
4296.00   0.20444956   0.01791137
4298.00   0.17079511   0.01710995
4300.00   0.18265945   0.01662745
4302.00   0.18786483   0.01680249
4304.00   0.22321001   0.01714586
4306.00   0.20376264   0.01691967
4308.00   0.20710286   0.01668783
4310.00   0.20928244   0.01709525
4312.00   0.22661765   0.01885489
4314.00   0.18928620   0.01968170
4316.00   0.22875445   0.01983945
4318.00   0.24555384   0.02009755
4320.00   0.21951132   0.02008761
4322.00   0.23937878   0.01947499
4324.00   0.21168551   0.01851084
4326.00   0.22496533   0.01862335
4328.00   0.22731054   0.01887058
4330.00   0.20544596   0.01899699
4332.00   0.22356816   0.01901185
4334.00   0.23154509   0.01894736
4336.00   0.25852168   0.01874099
4338.00   0.27181271   0.01835033
4340.00   0.26201722   0.01825810
4342.00   0.22851488   0.01832887
4344.00   0.27421558   0.01929567
4346.00   0.21727695   0.01979982
4348.00   0.23513444   0.01983069
4350.00   0.21737568   0.01902317
4352.00   0.26810756   0.01885648
4354.00   0.24788249   0.02114461
4356.00   0.30124620   0.03250748
4358.00   0.31235462   0.03751508
4360.00   0.19082788   0.03098614
4362.00   0.23107363   0.02237364
4364.00   0.23996951   0.02023249
4366.00   0.22648269   0.01964341
4368.00   0.26774383   0.01951457
4370.00   0.26966047   0.01942688
4372.00   0.25606015   0.01947484
4374.00   0.24625224   0.01945848
4376.00   0.22218852   0.01917892
4378.00   0.22335967   0.01890489
4380.00   0.22261681   0.01847022
4382.00   0.22573149   0.01770722
4384.00   0.21612462   0.01724749
4386.00   0.18182477   0.01739142
4388.00   0.21978031   0.01771388
4390.00   0.17080964   0.01752542
4392.00   0.17822367   0.01769644
4394.00   0.18861669   0.01763529
4396.00   0.18382430   0.01775284
4398.00   0.15845452   0.01792113
4400.00   0.16217394   0.01810108
4402.00   0.18032680   0.01789627
4404.00   0.16112740   0.01732744
4406.00   0.15168309   0.01729858
4408.00   0.14479403   0.01760781
4410.00   0.16418460   0.01816048
4412.00   0.12936103   0.01807168
4414.00   0.08840130   0.01788914
4416.00   0.14535111   0.01800460
4418.00   0.15008110   0.01809306
4420.00   0.13026299   0.01798097
4422.00   0.12751938   0.01768687
4424.00   0.16328099   0.01780726
4426.00   0.15302329   0.01772361
4428.00   0.12857181   0.01760123
4430.00   0.10750080   0.01740083
4432.00   0.12917992   0.01733018
4434.00   0.12159852   0.01717059
4436.00   0.13942419   0.01730077
4438.00   0.09713186   0.01744564
4440.00   0.12915091   0.01740887
4442.00   0.17252365   0.01724721
4444.00   0.11553036   0.01710554
4446.00   0.09856408   0.01700074
4448.00   0.09579359   0.01686740
4450.00   0.09581888   0.01705934
4452.00   0.13669623   0.01700220
4454.00   0.12945782   0.01672196
4456.00   0.12284116   0.01645999
4458.00   0.11957456   0.01655318
4460.00   0.11460514   0.01649567
4462.00   0.12327276   0.01665808
4464.00   0.13926795   0.01692929
4466.00   0.14566498   0.01697979
4468.00   0.12447947   0.01676724
4470.00   0.11388314   0.01670246
4472.00   0.12242055   0.01691979
4474.00   0.12347195   0.01696642
4476.00   0.11546057   0.01684760
4478.00   0.15783659   0.01689536
4480.00   0.13069706   0.01636658
4482.00   0.14820419   0.01646830
4484.00   0.15247390   0.01690945
4486.00   0.12987006   0.01695800
4488.00   0.11139593   0.01655020
4490.00   0.12548256   0.01656309
4492.00   0.11559086   0.01675673
4494.00   0.13220926   0.01686422
4496.00   0.15096925   0.01704431
4498.00   0.12168159   0.01692566
4500.00   0.15909472   0.01703553
4502.00   0.16324832   0.01710312
4504.00   0.14502135   0.01712285
4506.00   0.19386925   0.01732038
4508.00   0.18625721   0.01718515
4510.00   0.17851025   0.01707702
4512.00   0.17173962   0.01694027
4514.00   0.17319308   0.01677885
4516.00   0.15496676   0.01670693
4518.00   0.13452171   0.01652300
4520.00   0.16809508   0.01666591
4522.00   0.19372541   0.01658851
4524.00   0.19654387   0.01639747
4526.00   0.21660867   0.01634903
4528.00   0.20310900   0.01619032
4530.00   0.16653627   0.01611371
4532.00   0.17764115   0.01631431
4534.00   0.15561834   0.01611539
4536.00   0.18189867   0.01640790
4538.00   0.20592511   0.01664959
4540.00   0.20049268   0.01671657
4542.00   0.19043328   0.01668835
4544.00   0.20447508   0.01681016
4546.00   0.19616705   0.01651118
4548.00   0.24320103   0.01641250
4550.00   0.18860395   0.01621053
4552.00   0.19699445   0.01621727
4554.00   0.24378426   0.01638039
4556.00   0.19768985   0.01618877
4558.00   0.25348580   0.01670476
4560.00   0.28746390   0.01691868
4562.00   0.23011665   0.01658838
4564.00   0.25091720   0.01642296
4566.00   0.27820283   0.01648536
4568.00   0.26462618   0.01665440
4570.00   0.28079152   0.01656494
4572.00   0.29294801   0.01670141
4574.00   0.28384131   0.01669887
4576.00   0.32144150   0.01674634
4578.00   0.29883686   0.01641918
4580.00   0.30590832   0.01626927
4582.00   0.31818533   0.01620725
4584.00   0.34822661   0.01632073
4586.00   0.29736882   0.01600319
4588.00   0.34435624   0.01663332
4590.00   0.32580516   0.01647734
4592.00   0.38155267   0.01664067
4594.00   0.37182042   0.01663231
4596.00   0.39352208   0.01658901
4598.00   0.38809475   0.01660001
4600.00   0.43118554   0.01668593
4602.00   0.43592018   0.01660837
4604.00   0.44323152   0.01666888
4606.00   0.41453582   0.01657774
4608.00   0.43906024   0.01684773
4610.00   0.45637512   0.01708268
4612.00   0.44393075   0.01681031
4614.00   0.44621551   0.01668815
4616.00   0.47784537   0.01685693
4618.00   0.47374904   0.01685450
4620.00   0.43363905   0.01660186
4622.00   0.45277080   0.01684704
4624.00   0.49393773   0.01689292
4626.00   0.48269176   0.01692228
4628.00   0.53960586   0.01710561
4630.00   0.50386071   0.01684339
4632.00   0.52825326   0.01696995
4634.00   0.54971075   0.01708390
4636.00   0.56605023   0.01703620
4638.00   0.53689903   0.01688395
4640.00   0.54333115   0.01703460
4642.00   0.56473064   0.01711044
4644.00   0.56731296   0.01699838
4646.00   0.56002879   0.01686940
4648.00   0.54152930   0.01683717
4650.00   0.59045786   0.01726701
4652.00   0.59136748   0.01740877
4654.00   0.60096174   0.01734420
4656.00   0.63796324   0.01757577
4658.00   0.63397825   0.01770291
4660.00   0.61259693   0.01775499
4662.00   0.64262027   0.01792623
4664.00   0.64823353   0.01786044
4666.00   0.64777809   0.01773222
4668.00   0.60983491   0.01760532
4670.00   0.65301263   0.01804388
4672.00   0.58939177   0.01774735
4674.00   0.61932039   0.01770551
4676.00   0.62145156   0.01766722
4678.00   0.62334293   0.01738310
4680.00   0.59921557   0.01710949
4682.00   0.60692191   0.01718379
4684.00   0.61520630   0.01720815
4686.00   0.56624466   0.01694939
4688.00   0.58995849   0.01691548
4690.00   0.53622502   0.01661414
4692.00   0.55862147   0.01659998
4694.00   0.51634854   0.01645846
4696.00   0.51888287   0.01643202
4698.00   0.52606922   0.01629556
4700.00   0.49655780   0.01598150
4702.00   0.50914341   0.01593985
4704.00   0.45883563   0.01572791
4706.00   0.48508194   0.01592410
4708.00   0.46002224   0.01590676
4710.00   0.38125804   0.01560564
4712.00   0.39825714   0.01559593
4714.00   0.39423153   0.01554457
4716.00   0.39055586   0.01537654
4718.00   0.38480836   0.01538576
4720.00   0.37643781   0.01535073
4722.00   0.33050460   0.01513010
4724.00   0.34542623   0.01518019
4726.00   0.33198282   0.01513922
4728.00   0.33311892   0.01544930
4730.00   0.31033933   0.01539616
4732.00   0.32546368   0.01530883
4734.00   0.28794369   0.01527625
4736.00   0.29347324   0.01539969
4738.00   0.28367767   0.01543292
4740.00   0.28380939   0.01566781
4742.00   0.25472361   0.01584408
4744.00   0.28823015   0.01584340
4746.00   0.25351277   0.01496314
4748.00   0.26343024   0.01445395
4750.00   0.24482898   0.01430816
4752.00   0.22618467   0.01437267
4754.00   0.24904884   0.01435195
4756.00   0.25174829   0.01397915
4758.00   0.26625672   0.01387739
4760.00   0.23885377   0.01373278
4762.00   0.23607802   0.01346671
4764.00   0.21893644   0.01322530
4766.00   0.24514677   0.01329750
4768.00   0.21482696   0.01315257
4770.00   0.23654093   0.01331033
4772.00   0.27305093   0.01353786
4774.00   0.19613995   0.01312388
4776.00   0.21265240   0.01344920
4778.00   0.22139186   0.01364509
4780.00   0.21109599   0.01362410
4782.00   0.21938525   0.01339350
4784.00   0.19898926   0.01302414
4786.00   0.19819985   0.01290205
4788.00   0.17857279   0.01271222
4790.00   0.20952432   0.01304086
4792.00   0.20072077   0.01294179
4794.00   0.22529750   0.01309155
4796.00   0.20298265   0.01293092
4798.00   0.20348701   0.01284622
4800.00   0.21268409   0.01269883
4802.00   0.20485412   0.01277908
4804.00   0.23427013   0.01288447
4806.00   0.22627585   0.01284590
4808.00   0.19691534   0.01270039
4810.00   0.22492506   0.01288095
4812.00   0.21344505   0.01280511
4814.00   0.24012817   0.01297611
4816.00   0.23906629   0.01301269
4818.00   0.21202677   0.01293403
4820.00   0.24615011   0.01321999
4822.00   0.23846252   0.01312201
4824.00   0.23273298   0.01301078
4826.00   0.22912741   0.01311903
4828.00   0.24505569   0.01328538
4830.00   0.21732147   0.01311508
4832.00   0.23523746   0.01321711
4834.00   0.25632221   0.01335654
4836.00   0.25617406   0.01320580
4838.00   0.26426825   0.01335686
4840.00   0.24715309   0.01351291
4842.00   0.25692007   0.01336082
4844.00   0.29866755   0.01339251
4846.00   0.24670453   0.01313016
4848.00   0.25593969   0.01323644
4850.00   0.27242103   0.01323545
4852.00   0.27672935   0.01332516
4854.00   0.27235878   0.01320089
4856.00   0.28742456   0.01293818
4858.00   0.25727904   0.01261218
4860.00   0.27363238   0.01264659
4862.00   0.25800818   0.01242678
4864.00   0.26784644   0.01265504
4866.00   0.25752303   0.01275194
4868.00   0.27414519   0.01299397
4870.00   0.24473907   0.01267605
4872.00   0.26752958   0.01274154
4874.00   0.25459731   0.01273516
4876.00   0.26311880   0.01292275
4878.00   0.24114273   0.01293463
4880.00   0.26743019   0.01311032
4882.00   0.24350540   0.01293909
4884.00   0.22452499   0.01272740
4886.00   0.26957619   0.01272254
4888.00   0.26117459   0.01255000
4890.00   0.25613481   0.01239258
4892.00   0.23978832   0.01240869
4894.00   0.25629365   0.01272290
4896.00   0.27506602   0.01297692
4898.00   0.28163528   0.01297780
4900.00   0.27935573   0.01286271
4902.00   0.26042378   0.01270642
4904.00   0.25505382   0.01268830
4906.00   0.26892987   0.01279939
4908.00   0.29292196   0.01300832
4910.00   0.26472983   0.01276219
4912.00   0.26250088   0.01271494
4914.00   0.29087472   0.01296146
4916.00   0.30289152   0.01304568
4918.00   0.31825331   0.01286424
4920.00   0.31432888   0.01252089
4922.00   0.31359115   0.01256158
4924.00   0.32436493   0.01278487
4926.00   0.31090584   0.01282841
4928.00   0.30987400   0.01281690
4930.00   0.34528029   0.01295771
4932.00   0.35745585   0.01299268
4934.00   0.33793676   0.01284995
4936.00   0.35691348   0.01290337
4938.00   0.33716351   0.01275007
4940.00   0.34321395   0.01280341
4942.00   0.36547413   0.01310941
4944.00   0.37899870   0.01315568
4946.00   0.39041713   0.01310674
4948.00   0.37496406   0.01309768
4950.00   0.40841678   0.01331588
4952.00   0.43413270   0.01355140
4954.00   0.44079384   0.01368576
4956.00   0.42685065   0.01339751
4958.00   0.44650641   0.01328874
4960.00   0.43909466   0.01340958
4962.00   0.44135526   0.01361334
4964.00   0.45138207   0.01367109
4966.00   0.45162523   0.01371645
4968.00   0.46156359   0.01383346
4970.00   0.46019861   0.01374862
4972.00   0.45272201   0.01402031
4974.00   0.49271026   0.01449119
4976.00   0.47707996   0.01462221
4978.00   0.47666702   0.01493943
4980.00   0.50368232   0.01547292
4982.00   0.45827389   0.01544266
4984.00   0.49320176   0.01550886
4986.00   0.45654815   0.01512872
4988.00   0.47073624   0.01493808
4990.00   0.45846978   0.01456916
4992.00   0.45831516   0.01438466
4994.00   0.46072438   0.01416818
4996.00   0.45519233   0.01382618
4998.00   0.44929618   0.01358830
5000.00   0.43637079   0.01336106
5002.00   0.43980578   0.01322687
5004.00   0.45164862   0.01324460
5006.00   0.42912573   0.01303402
5008.00   0.41627234   0.01286522
5010.00   0.41125318   0.01284633
5012.00   0.40565109   0.01266469
5014.00   0.40262347   0.01248808
5016.00   0.38256213   0.01236907
5018.00   0.37094358   0.01240043
5020.00   0.37063360   0.01251055
5022.00   0.35283947   0.01240979
5024.00   0.35643092   0.01228960
5026.00   0.35839280   0.01207522
5028.00   0.33217674   0.01197821
5030.00   0.33479825   0.01228808
5032.00   0.34091955   0.01239020
5034.00   0.34017357   0.01217025
5036.00   0.32139966   0.01189523
5038.00   0.34125575   0.01185014
5040.00   0.31431180   0.01161245
5042.00   0.31225294   0.01149327
5044.00   0.31854331   0.01173941
5046.00   0.29558960   0.01178993
5048.00   0.29792121   0.01175078
5050.00   0.29371205   0.01159561
5052.00   0.28179204   0.01147765
5054.00   0.31017521   0.01176575
5056.00   0.27391979   0.01159932
5058.00   0.29038566   0.01169192
5060.00   0.28229180   0.01156765
5062.00   0.29953218   0.01178607
5064.00   0.28591850   0.01193208
5066.00   0.28539339   0.01196003
5068.00   0.26990101   0.01204835
5070.00   0.27519351   0.01234663
5072.00   0.30717707   0.01244688
5074.00   0.29777113   0.01202832
5076.00   0.26953611   0.01179802
5078.00   0.25945896   0.01166343
5080.00   0.28005502   0.01226027
5082.00   0.25553003   0.01309587
5084.00   0.25925598   0.01399585
5086.00   0.25796607   0.01414912
5088.00   0.29411846   0.01387015
5090.00   0.26702428   0.01285195
5092.00   0.22757517   0.01196732
5094.00   0.24496859   0.01178074
5096.00   0.25780311   0.01188290
5098.00   0.26915926   0.01222808
5100.00   0.23779407   0.01232674
5102.00   0.28109878   0.01270149
5104.00   0.24418028   0.01171869
5106.00   0.23803523   0.01146117
5108.00   0.27799511   0.01161497
5110.00   0.27526751   0.01169536
5112.00   0.26047394   0.01171386
5114.00   0.24636155   0.01169102
5116.00   0.25640407   0.01185529
5118.00   0.28149986   0.01201096
5120.00   0.24265502   0.01157415
5122.00   0.24237576   0.01140533
5124.00   0.24331330   0.01128459
5126.00   0.25803569   0.01139251
5128.00   0.23445064   0.01127449
5130.00   0.25026709   0.01135059
5132.00   0.25848174   0.01143660
5134.00   0.23800440   0.01138970
5136.00   0.21895020   0.01130348
5138.00   0.23170358   0.01119983
5140.00   0.24936260   0.01137291
5142.00   0.22159597   0.01123129
5144.00   0.26605502   0.01160541
5146.00   0.26764095   0.01167605
5148.00   0.21911694   0.01160116
5150.00   0.25443280   0.01206731
5152.00   0.25156507   0.01225038
5154.00   0.25866130   0.01248496
5156.00   0.25590128   0.01246057
5158.00   0.24557784   0.01212282
5160.00   0.24217048   0.01183488
5162.00   0.23424591   0.01161246
5164.00   0.25976914   0.01159317
5166.00   0.22769269   0.01109437
5168.00   0.27001831   0.01121181
5170.00   0.22351506   0.01089463
5172.00   0.24438241   0.01095015
5174.00   0.23632960   0.01093516
5176.00   0.23686802   0.01125497
5178.00   0.24858284   0.01157770
5180.00   0.25906882   0.01166958
5182.00   0.27836934   0.01136887
5184.00   0.25896233   0.01101756
5186.00   0.25027141   0.01103807
5188.00   0.26787272   0.01148512
5190.00   0.27001512   0.01161912
5192.00   0.24278486   0.01140639
5194.00   0.26487520   0.01150396
5196.00   0.30359703   0.01196851
5198.00   0.29067570   0.01213466
5200.00   0.27857280   0.01225921
5202.00   0.27899837   0.01206297
5204.00   0.26752990   0.01181970
5206.00   0.28923088   0.01178433
5208.00   0.32101038   0.01195444
5210.00   0.29665974   0.01213130
5212.00   0.26823655   0.01212614
5214.00   0.31365597   0.01231485
5216.00   0.33669510   0.01223893
5218.00   0.32516894   0.01225206
5220.00   0.31171787   0.01236237
5222.00   0.31888396   0.01243798
5224.00   0.32814825   0.01228989
5226.00   0.32484499   0.01204396
5228.00   0.33672160   0.01207124
5230.00   0.33488983   0.01227760
5232.00   0.36193496   0.01243054
5234.00   0.37463781   0.01249223
5236.00   0.35134163   0.01233725
5238.00   0.35713226   0.01255619
5240.00   0.35699534   0.01265679
5242.00   0.36088267   0.01266689
5244.00   0.37757355   0.01259589
5246.00   0.36390954   0.01258237
5248.00   0.37223241   0.01251053
5250.00   0.40428317   0.01276578
5252.00   0.41143709   0.01280616
5254.00   0.42460534   0.01293155
5256.00   0.44981340   0.01321912
5258.00   0.43227196   0.01338906
5260.00   0.41521260   0.01335321
5262.00   0.46341726   0.01335003
5264.00   0.46828988   0.01314249
5266.00   0.43412882   0.01275212
5268.00   0.47479755   0.01311746
5270.00   0.46906632   0.01309586
5272.00   0.49287897   0.01324872
5274.00   0.48962224   0.01341545
5276.00   0.47679862   0.01334569
5278.00   0.47707731   0.01350380
5280.00   0.51760107   0.01385849
5282.00   0.52749306   0.01376455
5284.00   0.51884609   0.01383316
5286.00   0.49619126   0.01390096
5288.00   0.54390109   0.01430996
5290.00   0.54447281   0.01420170
5292.00   0.57570612   0.01432570
5294.00   0.58926034   0.01443389
5296.00   0.58038151   0.01439030
5298.00   0.57993108   0.01431587
5300.00   0.60276443   0.01456374
5302.00   0.63637412   0.01486531
5304.00   0.65170705   0.01500859
5306.00   0.62223637   0.01483381
5308.00   0.63130653   0.01493721
5310.00   0.67120278   0.01526519
5312.00   0.64625722   0.01515837
5314.00   0.70290542   0.01558368
5316.00   0.70028907   0.01552166
5318.00   0.69310492   0.01550905
5320.00   0.71014589   0.01557600
5322.00   0.73988414   0.01585247
5324.00   0.69950712   0.01559771
5326.00   0.69897383   0.01560759
5328.00   0.70971173   0.01567729
5330.00   0.72624159   0.01594682
5332.00   0.74833262   0.01616894
5334.00   0.74265921   0.01622097
5336.00   0.76460212   0.01631096
5338.00   0.74589342   0.01636170
5340.00   0.76394552   0.01651820
5342.00   0.77588606   0.01687943
5344.00   0.77189887   0.01692785
5346.00   0.77316231   0.01687327
5348.00   0.76344258   0.01698118
5350.00   0.78386813   0.01746478
5352.00   0.76110893   0.01740775
5354.00   0.80515957   0.01746183
5356.00   0.81375647   0.01791556
5358.00   0.86202580   0.01826790
5360.00   0.80138153   0.01758667
5362.00   0.81508940   0.01737588
5364.00   0.77828926   0.01708656
5366.00   0.76808590   0.01694067
5368.00   0.80221128   0.01724748
5370.00   0.77635819   0.01707769
5372.00   0.78267020   0.01715886
5374.00   0.75014186   0.01727889
5376.00   0.75321877   0.01766797
5378.00   0.78716183   0.01791349
5380.00   0.82089275   0.01794479
5382.00   0.76759577   0.01755453
5384.00   0.75387573   0.01748001
5386.00   0.78045177   0.01772158
5388.00   0.80983931   0.01788718
5390.00   0.76927596   0.01789678
5392.00   0.75908291   0.01814716
5394.00   0.75084192   0.01818117
5396.00   0.77335101   0.01818349
5398.00   0.78707612   0.00822213
5400.00   0.78110170   0.00816723
5402.00   0.76567870   0.00814973
5404.00   0.76760876   0.00814508
5406.00   0.79111379   0.00817928
5408.00   0.79990339   0.00819760
5410.00   0.78457808   0.00818357
5412.00   0.76719779   0.00817551
5414.00   0.77069694   0.00821697
5416.00   0.78716147   0.00829461
5418.00   0.79280990   0.00833862
5420.00   0.79466927   0.00828931
5422.00   0.79528928   0.00841453
5424.00   0.78890979   0.00883873
5426.00   0.78909254   0.00907488
5428.00   0.80656213   0.00885196
5430.00   0.83144069   0.00839208
5432.00   0.83697182   0.00823034
5434.00   0.82457560   0.00822425
5436.00   0.82713324   0.00820628
5438.00   0.83674067   0.00823437
5440.00   0.84769380   0.00828719
5442.00   0.86339015   0.00839581
5444.00   0.87692875   0.00849430
5446.00   0.87715465   0.00847906
5448.00   0.86686403   0.00836878
5450.00   0.86557394   0.00841814
5452.00   0.86496121   0.00849166
5454.00   0.87130457   0.00875059
5456.00   0.88858289   0.00929402
5458.00   0.90356618   0.00973342
5460.00   0.90782273   0.00994162
5462.00   0.90783542   0.01001010
5464.00   0.91791421   0.00988274
5466.00   0.93900937   0.00945997
5468.00   0.94789356   0.00915786
5470.00   0.95042521   0.00881891
5472.00   0.94968355   0.00853792
5474.00   0.94288927   0.00829287
5476.00   0.93570453   0.00814574
5478.00   0.93671775   0.00823023
5480.00   0.94285846   0.00853277
5482.00   0.94919848   0.00865440
5484.00   0.96174955   0.00885571
5486.00   0.96641719   0.00872845
5488.00   0.96314687   0.00791507
5490.00   0.95846170   0.00741998
5492.00   0.95526874   0.00812418
5494.00   0.95190436   0.00927858
5496.00   0.94801831   0.00952275
5498.00   0.93790066   0.00934852
5500.00   0.94285697   0.00898737
5502.00   0.96430457   0.00794604
5504.00   0.97998554   0.00726183
5506.00   0.98730332   0.00734352
5508.00   0.99051899   0.00766691
5510.00   0.99083573   0.00769699
5512.00   0.98677939   0.00764388
5514.00   0.98587006   0.00763438
5516.00   0.98865974   0.00754214
5518.00   0.98571920   0.00763850
5520.00   0.97392005   0.00804917
5522.00   0.96501261   0.00831908
5524.00   0.96596771   0.00817655
5526.00   0.97252655   0.00780025
5528.00   0.97889721   0.00761328
5530.00   0.98910695   0.00746884
5532.00   0.99622285   0.00737074
5534.00   1.00553656   0.00735432
5536.00   1.00776124   0.00732379
5538.00   0.99840021   0.00725906
5540.00   0.98548371   0.00719116
5542.00   0.98029649   0.00714487
5544.00   0.97983623   0.00710397
5546.00   0.97246504   0.00711358
5548.00   0.95364529   0.00709484
5550.00   0.94940400   0.00724990
5552.00   0.96430844   0.00774285
5554.00   0.97712249   0.00805035
5556.00   0.97465259   0.00779081
5558.00   0.96458095   0.00719725
5560.00   0.95830297   0.00717019
5562.00   0.94850820   0.00768013
5564.00   0.94644201   0.00776507
5566.00   0.94895959   0.00738835
5568.00   0.95564580   0.00747014
5570.00   0.97060037   0.00827264
5572.00   0.98606557   0.00924379
5574.00   0.98827684   0.00997424
5576.00   0.98175389   0.01077455
5578.00   0.97350198   0.01089524
5580.00   0.95173317   0.01043810
5582.00   0.94638735   0.00991054
5584.00   0.96505094   0.00907151
5586.00   0.97884077   0.00821163
5588.00   0.96634656   0.00763861
5590.00   0.93988842   0.00724624
5592.00   0.93008089   0.00690217
5594.00   0.92898184   0.00665744
5596.00   0.92711866   0.00657985
5598.00   0.93051255   0.00674329
5600.00   0.92981738   0.00690633
5602.00   0.92247528   0.00711073
5604.00   0.91193753   0.00725069
5606.00   0.90160084   0.00703092
5608.00   0.88963407   0.00641116
5610.00   0.87884998   0.00618267
5612.00   0.86452436   0.00621922
5614.00   0.85858887   0.00621431
5616.00   0.86379015   0.00620681
5618.00   0.86979920   0.00620082
5620.00   0.87022227   0.00618380
5622.00   0.86829072   0.00616214
5624.00   0.86374372   0.00614046
5626.00   0.85201585   0.00611513
5628.00   0.84884393   0.00609285
5630.00   0.85513115   0.00605769
5632.00   0.85630834   0.00604894
5634.00   0.84703577   0.00609345
5636.00   0.83449346   0.00614949
5638.00   0.82860202   0.00613856
5640.00   0.82726729   0.00605414
5642.00   0.82013333   0.00610764
5644.00   0.80991006   0.00631970
5646.00   0.79825491   0.00641278
5648.00   0.78107899   0.00638479
5650.00   0.76758009   0.00632786
5652.00   0.76641101   0.00626967
5654.00   0.77320957   0.00619715
5656.00   0.77395737   0.00630310
5658.00   0.77333963   0.00671429
5660.00   0.77185088   0.00675545
5662.00   0.77061301   0.00647376
5664.00   0.76616907   0.00624093
5666.00   0.75628537   0.00616185
5668.00   0.74415767   0.00614786
5670.00   0.73523134   0.00615310
5672.00   0.72668409   0.00620346
5674.00   0.72215492   0.00625693
5676.00   0.72371233   0.00629259
5678.00   0.72153407   0.00641271
5680.00   0.71750683   0.00656259
5682.00   0.70963585   0.00683013
5684.00   0.69175702   0.00728514
5686.00   0.66652781   0.00785923
5688.00   0.66593629   0.00845330
5690.00   0.69447160   0.00956919
5692.00   0.70060009   0.00959586
5694.00   0.69330490   0.00853081
5696.00   0.68414754   0.00743488
5698.00   0.67403382   0.00664183
5700.00   0.66369987   0.00601591
5702.00   0.66031343   0.00585396
5704.00   0.66365182   0.00629891
5706.00   0.66095829   0.00635891
5708.00   0.65493006   0.00635858
5710.00   0.64937925   0.00625503
5712.00   0.64697754   0.00585386
5714.00   0.64080900   0.00557883
5716.00   0.62200969   0.00600227
5718.00   0.59405202   0.00681187
5720.00   0.58503878   0.00677389
5722.00   0.59241593   0.00593339
5724.00   0.59300125   0.00551208
5726.00   0.59227568   0.00529752
5728.00   0.59088343   0.00516059
5730.00   0.59027737   0.00509798
5732.00   0.58819038   0.00509850
5734.00   0.57783347   0.00505818
5736.00   0.55589521   0.00501241
5738.00   0.55038863   0.00498177
5740.00   0.56100327   0.00495101
5742.00   0.56261706   0.00494791
5744.00   0.55244714   0.00496119
5746.00   0.54113382   0.00501132
5748.00   0.53680360   0.00513752
5750.00   0.53589189   0.00532347
5752.00   0.53334206   0.00539643
5754.00   0.53131777   0.00543802
5756.00   0.52829820   0.00538306
5758.00   0.52601582   0.00514077
5760.00   0.52079415   0.00498118
5762.00   0.50913852   0.00502705
5764.00   0.49545732   0.00517452
5766.00   0.49049681   0.00531325
5768.00   0.49293226   0.00555211
5770.00   0.49036372   0.00557363
5772.00   0.48622444   0.00538271
5774.00   0.48158860   0.00526170
5776.00   0.47801569   0.00516138
5778.00   0.47190365   0.00516167
5780.00   0.45706746   0.00544097
5782.00   0.43482953   0.00592403
5784.00   0.43189526   0.00593713
5786.00   0.44777435   0.00548451
5788.00   0.45479506   0.00530801
5790.00   0.45949808   0.00533419
5792.00   0.46116212   0.00535004
5794.00   0.45784077   0.00528426
5796.00   0.45196918   0.00518887
5798.00   0.45022598   0.00509441
5800.00   0.45046842   0.00496805
5802.00   0.45113444   0.00489838
5804.00   0.45254573   0.00487226
5806.00   0.45515829   0.00485465
5808.00   0.45960054   0.00485252
5810.00   0.46445885   0.00485470
5812.00   0.46803063   0.00481987
5814.00   0.47088879   0.00474716
5816.00   0.47571447   0.00490155
5818.00   0.48110744   0.00524590
5820.00   0.48873234   0.00555478
5822.00   0.50247431   0.00606099
5824.00   0.51119691   0.00626872
5826.00   0.50710523   0.00587007
5828.00   0.49794278   0.00512224
5830.00   0.50226283   0.00488887
5832.00   0.51908219   0.00496776
5834.00   0.52399933   0.00507949
5836.00   0.52215010   0.00535234
5838.00   0.52014267   0.00562259
5840.00   0.51604033   0.00596961
5842.00   0.51350617   0.00623144
5844.00   0.51844352   0.00619967
5846.00   0.52907991   0.00593998
5848.00   0.53567076   0.00582212
5850.00   0.53728348   0.00572118
5852.00   0.54734010   0.00565386
5854.00   0.56807429   0.00560624
5856.00   0.58653677   0.00560972
5858.00   0.59699667   0.00571712
5860.00   0.60347408   0.00586465
5862.00   0.60965687   0.00584705
5864.00   0.61444277   0.00566286
5866.00   0.61682457   0.00561640
5868.00   0.61311406   0.00564919
5870.00   0.61502326   0.00566968
5872.00   0.62591869   0.00567136
5874.00   0.63833839   0.00567148
5876.00   0.64548010   0.00561655
5878.00   0.65101165   0.00545493
5880.00   0.64758742   0.00591780
5882.00   0.62983400   0.00674645
5884.00   0.62278885   0.00764525
5886.00   0.62535936   0.00875955
5888.00   0.62786114   0.00971062
5890.00   0.62330335   0.01050222
5892.00   0.61781830   0.01113900
5894.00   0.62843478   0.01119852
5896.00   0.64650840   0.01065662
5898.00   0.68138111   0.01027413
5900.00   0.74997771   0.00983377
5902.00   0.79489601   0.00926619
5904.00   0.80830574   0.00844447
5906.00   0.80640829   0.00752167
5908.00   0.79802245   0.00677721
5910.00   0.77525353   0.00610412
5912.00   0.77507544   0.00576158
5914.00   0.79301304   0.00591904
5916.00   0.80496049   0.00599092
5918.00   0.81560761   0.00612095
5920.00   0.82425696   0.00621629
5922.00   0.82926321   0.00620250
5924.00   0.83199406   0.00613502
5926.00   0.83677560   0.00613325
5928.00   0.84131289   0.00618019
5930.00   0.84831566   0.00617992
5932.00   0.85659099   0.00614113
5934.00   0.86726242   0.00612082
5936.00   0.88304019   0.00614106
5938.00   0.89854294   0.00615974
5940.00   0.90625769   0.00611090
5942.00   0.90923303   0.00599082
5944.00   0.90832621   0.00604218
5946.00   0.89588505   0.00632083
5948.00   0.89535660   0.00638924
5950.00   0.90886885   0.00626576
5952.00   0.92101234   0.00610151
5954.00   0.92426693   0.00593655
5956.00   0.92286682   0.00576105
5958.00   0.91754651   0.00576748
5960.00   0.90530223   0.00602914
5962.00   0.89592212   0.00604040
5964.00   0.88789934   0.00589417
5966.00   0.87727946   0.00575240
5968.00   0.85912937   0.00551443
5970.00   0.84282404   0.00538604
5972.00   0.84349942   0.00582689
5974.00   0.85816187   0.00673406
5976.00   0.86302149   0.00686833
5978.00   0.86270130   0.00644519
5980.00   0.86667579   0.00616437
5982.00   0.88110590   0.00592312
5984.00   0.88700825   0.00571383
5986.00   0.86838472   0.00556566
5988.00   0.83604246   0.00546758
5990.00   0.82525516   0.00538928
5992.00   0.83062738   0.00535701
5994.00   0.82756937   0.00532480
5996.00   0.82322824   0.00529224
5998.00   0.81778514   0.00529997
6000.00   0.80982125   0.00539396
6002.00   0.80204767   0.00548828
6004.00   0.80001253   0.00544624
6006.00   0.80388266   0.00529603
6008.00   0.79744041   0.00521252
6010.00   0.78048211   0.00513036
6012.00   0.76984310   0.00508263
6014.00   0.76361233   0.00497675
6016.00   0.76038849   0.00502983
6018.00   0.76169527   0.00549908
6020.00   0.76621443   0.00613807
6022.00   0.76236534   0.00614775
6024.00   0.75282210   0.00554394
6026.00   0.74233788   0.00526972
6028.00   0.72612858   0.00495649
6030.00   0.71382278   0.00492007
6032.00   0.70873082   0.00543856
6034.00   0.70590985   0.00597704
6036.00   0.69929385   0.00583151
6038.00   0.69147092   0.00511015
6040.00   0.68156582   0.00480714
6042.00   0.66518730   0.00466973
6044.00   0.65688425   0.00460779
6046.00   0.65859669   0.00460329
6048.00   0.66091841   0.00474001
6050.00   0.65858424   0.00517671
6052.00   0.65422416   0.00574882
6054.00   0.64577740   0.00568719
6056.00   0.62907737   0.00487269
6058.00   0.62066561   0.00457229
6060.00   0.61621362   0.00447234
6062.00   0.61495650   0.00459497
6064.00   0.62043798   0.00512802
6066.00   0.62620944   0.00564738
6068.00   0.61841178   0.00549876
6070.00   0.59898156   0.00473276
6072.00   0.58851767   0.00444638
6074.00   0.58072734   0.00440223
6076.00   0.57505763   0.00439843
6078.00   0.57161868   0.00452369
6080.00   0.57030964   0.00462537
6082.00   0.57272637   0.00456816
6084.00   0.57793003   0.00442001
6086.00   0.57326221   0.00436071
6088.00   0.55907410   0.00434138
6090.00   0.54891264   0.00432368
6092.00   0.53647763   0.00432295
6094.00   0.52911597   0.00432601
6096.00   0.53072000   0.00430945
6098.00   0.53585416   0.00431150
6100.00   0.53537172   0.00439501
6102.00   0.53107429   0.00448339
6104.00   0.53265452   0.00482636
6106.00   0.54395908   0.00564121
6108.00   0.54385918   0.00586775
6110.00   0.52967894   0.00541139
6112.00   0.51307338   0.00485203
6114.00   0.50088722   0.00474694
6116.00   0.48975506   0.00486646
6118.00   0.48617807   0.00479062
6120.00   0.49504343   0.00460644
6122.00   0.49253526   0.00449108
6124.00   0.47942722   0.00440467
6126.00   0.47054264   0.00433775
6128.00   0.47028890   0.00429350
6130.00   0.47418445   0.00426709
6132.00   0.47878161   0.00424208
6134.00   0.48834342   0.00422432
6136.00   0.48800558   0.00421762
6138.00   0.47839546   0.00421775
6140.00   0.47167453   0.00423427
6142.00   0.46847981   0.00429221
6144.00   0.46466386   0.00433087
6146.00   0.45673883   0.00428270
6148.00   0.44620904   0.00417488
6150.00   0.44074184   0.00417382
6152.00   0.44017878   0.00425566
6154.00   0.43636924   0.00431215
6156.00   0.43100363   0.00440071
6158.00   0.42502293   0.00443843
6160.00   0.41840437   0.00438535
6162.00   0.41136047   0.00428748
6164.00   0.40489718   0.00422770
6166.00   0.39902961   0.00419255
6168.00   0.39182109   0.00409519
6170.00   0.38198766   0.00390808
6172.00   0.37523121   0.00378236
6174.00   0.37299120   0.00372910
6176.00   0.37094915   0.00371010
6178.00   0.36532027   0.00370375
6180.00   0.35774368   0.00372093
6182.00   0.35179618   0.00374851
6184.00   0.34744525   0.00384721
6186.00   0.34080526   0.00382924
6188.00   0.33044255   0.00367343
6190.00   0.32271752   0.00355011
6192.00   0.32009315   0.00353245
6194.00   0.32027319   0.00355989
6196.00   0.32072672   0.00356327
6198.00   0.32382402   0.00357615
6200.00   0.32311347   0.00356518
6202.00   0.31918445   0.00348668
6204.00   0.31621146   0.00350221
6206.00   0.31436753   0.00363691
6208.00   0.31263849   0.00380067
6210.00   0.30985978   0.00395531
6212.00   0.30628175   0.00412845
6214.00   0.30744830   0.00410241
6216.00   0.31530106   0.00377201
6218.00   0.31735265   0.00371204
6220.00   0.31373549   0.00396200
6222.00   0.31173614   0.00407865
6224.00   0.31393462   0.00385433
6226.00   0.31830385   0.00347799
6228.00   0.32340443   0.00340019
6230.00   0.33048320   0.00354052
6232.00   0.33645567   0.00358764
6234.00   0.34344393   0.00364658
6236.00   0.34791413   0.00368655
6238.00   0.34835431   0.00371029
6240.00   0.34848133   0.00371692
6242.00   0.35225451   0.00369396
6244.00   0.35822684   0.00364110
6246.00   0.36130348   0.00364143
6248.00   0.36211702   0.00365014
6250.00   0.36413661   0.00372323
6252.00   0.36713612   0.00390952
6254.00   0.36970550   0.00403442
6256.00   0.37083757   0.00403337
6258.00   0.37159684   0.00396384
6260.00   0.37464458   0.00388570
6262.00   0.37975731   0.00373863
6264.00   0.38371834   0.00367023
6266.00   0.38750210   0.00365599
6268.00   0.39110574   0.00364500
6270.00   0.39545575   0.00363879
6272.00   0.39856431   0.00363844
6274.00   0.39755601   0.00363970
6276.00   0.39312482   0.00364536
6278.00   0.39249384   0.00364421
6280.00   0.39425802   0.00363362
6282.00   0.39523581   0.00363412
6284.00   0.39438048   0.00362190
6286.00   0.39614934   0.00364780
6288.00   0.40292269   0.00371201
6290.00   0.41273636   0.00382476
6292.00   0.42233959   0.00407540
6294.00   0.43521777   0.00449484
6296.00   0.44217601   0.00472741
6298.00   0.44473469   0.00494590
6300.00   0.44655916   0.00500822
6302.00   0.44674399   0.00486159
6304.00   0.44701856   0.00462582
6306.00   0.45025691   0.00442433
6308.00   0.45552090   0.00418458
6310.00   0.45948276   0.00407356
6312.00   0.46334156   0.00410226
6314.00   0.46674851   0.00409056
6316.00   0.47063121   0.00409657
6318.00   0.47277856   0.00406289
6320.00   0.47073963   0.00391373
6322.00   0.46694961   0.00371506
6324.00   0.46934503   0.00373162
6326.00   0.47541270   0.00395655
6328.00   0.48365763   0.00404207
6330.00   0.49846613   0.00412283
6332.00   0.50833744   0.00411914
6334.00   0.51035029   0.00396900
6336.00   0.51068413   0.00379235
6338.00   0.51599109   0.00375657
6340.00   0.52415454   0.00380244
6342.00   0.52835220   0.00386178
6344.00   0.53023964   0.00400193
6346.00   0.53162974   0.00407029
6348.00   0.52953708   0.00410582
6350.00   0.53069901   0.00408916
6352.00   0.54091346   0.00393027
6354.00   0.55531120   0.00371452
6356.00   0.55925959   0.00390136
6358.00   0.55658960   0.00448149
6360.00   0.55277091   0.00472800
6362.00   0.53654641   0.00490521
6364.00   0.53581041   0.00495184
6366.00   0.56207234   0.00474630
6368.00   0.59267950   0.00452720
6370.00   0.59887600   0.00472343
6372.00   0.58884794   0.00523451
6374.00   0.59533644   0.00518848
6376.00   0.61495078   0.00461832
6378.00   0.62476939   0.00427518
6380.00   0.62423742   0.00409199
6382.00   0.62486434   0.00399021
6384.00   0.63290769   0.00395688
6386.00   0.64435273   0.00400046
6388.00   0.65329248   0.00407380
6390.00   0.66264856   0.00419545
6392.00   0.66952199   0.00434603
6394.00   0.67406929   0.00462720
6396.00   0.67830205   0.00474721
6398.00   0.68220156   0.00463755
6400.00   0.68590635   0.00443580
6402.00   0.69016731   0.00429536
6404.00   0.69490242   0.00413696
6406.00   0.69838625   0.00407869
6408.00   0.69876534   0.00413792
6410.00   0.70366013   0.00415318
6412.00   0.71272504   0.00410491
6414.00   0.72371995   0.00410795
6416.00   0.73718846   0.00425238
6418.00   0.75218517   0.00446577
6420.00   0.75911403   0.00455356
6422.00   0.75734210   0.00458420
6424.00   0.76100469   0.00457998
6426.00   0.76658207   0.00447481
6428.00   0.77227008   0.00443745
6430.00   0.77907628   0.00455964
6432.00   0.78492284   0.00467862
6434.00   0.78511590   0.00456026
6436.00   0.77951908   0.00422507
6438.00   0.78225917   0.00410846
6440.00   0.79615992   0.00404569
6442.00   0.79817188   0.00415184
6444.00   0.78498572   0.00449196
6446.00   0.77328610   0.00481230
6448.00   0.77173686   0.00504474
6450.00   0.77590388   0.00522397
6452.00   0.78864193   0.00507626
6454.00   0.81981874   0.00435266
6456.00   0.83232588   0.00411598
6458.00   0.83279276   0.00423415
6460.00   0.83290958   0.00433274
6462.00   0.83342612   0.00435845
6464.00   0.83424699   0.00437522
6466.00   0.83882701   0.00439554
6468.00   0.84687704   0.00441941
6470.00   0.85138088   0.00441503
6472.00   0.85362214   0.00437362
6474.00   0.85653627   0.00435381
6476.00   0.85993028   0.00435512
6478.00   0.86328208   0.00435952
6480.00   0.86590916   0.00435490
6482.00   0.86827201   0.00434817
6484.00   0.87363178   0.00436016
6486.00   0.88417631   0.00438720
6488.00   0.88861620   0.00441654
6490.00   0.88787347   0.00446163
6492.00   0.88825601   0.00449426
6494.00   0.89159709   0.00450927
6496.00   0.89545602   0.00451276
6498.00   0.89697510   0.00449744
6500.00   0.89666528   0.00443407
6502.00   0.89824063   0.00451013
6504.00   0.89950788   0.00468941
6506.00   0.90364403   0.00488199
6508.00   0.91296023   0.00518824
6510.00   0.92098445   0.00538330
6512.00   0.92306131   0.00529499
6514.00   0.92156732   0.00501302
6516.00   0.91881734   0.00479480
6518.00   0.91110438   0.00444148
6520.00   0.90822601   0.00430374
6522.00   0.90874416   0.00438741
6524.00   0.90925223   0.00445630
6526.00   0.90861201   0.00444137
6528.00   0.90826392   0.00442800
6530.00   0.91027659   0.00451638
6532.00   0.91496879   0.00468966
6534.00   0.91608721   0.00479810
6536.00   0.91303360   0.00496137
6538.00   0.91367900   0.00496083
6540.00   0.91894764   0.00468004
6542.00   0.92456603   0.00443442
6544.00   0.92795074   0.00453713
6546.00   0.93036878   0.00483167
6548.00   0.93055606   0.00495157
6550.00   0.92672467   0.00509483
6552.00   0.92632711   0.00503963
6554.00   0.92708576   0.00464891
6556.00   0.92987961   0.00442844
6558.00   0.93533719   0.00461944
6560.00   0.94258070   0.00494557
6562.00   0.95053917   0.00508695
6564.00   0.96187633   0.00521717
6566.00   0.96495360   0.00513037
6568.00   0.95979559   0.00466734
6570.00   0.95739734   0.00446614
6572.00   0.95725048   0.00460575
6574.00   0.95798182   0.00481413
6576.00   0.95995742   0.00496096
6578.00   0.96309555   0.00511314
6580.00   0.96133810   0.00503468
6582.00   0.95567960   0.00453386
6584.00   0.94969237   0.00448138
6586.00   0.94108987   0.00474037
6588.00   0.93363619   0.00509494
6590.00   0.92722380   0.00561994
6592.00   0.92285049   0.00610753
6594.00   0.92496669   0.00608786
6596.00   0.93276840   0.00564259
6598.00   0.94177663   0.00532002
6600.00   0.95830351   0.00479761
6602.00   0.96737313   0.00449039
6604.00   0.96838200   0.00452904
6606.00   0.96565443   0.00463523
6608.00   0.96183515   0.00458948
6610.00   0.95569330   0.00449088
6612.00   0.94681400   0.00443838
6614.00   0.92842805   0.00439490
6616.00   0.92342997   0.00437483
6618.00   0.93217283   0.00439009
6620.00   0.93868184   0.00440014
6622.00   0.93757224   0.00436650
6624.00   0.93364638   0.00433993
6626.00   0.93106359   0.00444336
6628.00   0.92693663   0.00467151
6630.00   0.92731851   0.00479729
6632.00   0.93551278   0.00496705
6634.00   0.93594801   0.00496135
6636.00   0.92465627   0.00467406
6638.00   0.91304851   0.00435366
6640.00   0.91151667   0.00427514
6642.00   0.91574222   0.00433403
6644.00   0.91546696   0.00440791
6646.00   0.91783357   0.00458183
6648.00   0.91066593   0.00469746
6650.00   0.88905680   0.00480995
6652.00   0.87368953   0.00487630
6654.00   0.87338042   0.00483652
6656.00   0.88003576   0.00477115
6658.00   0.88316184   0.00491462
6660.00   0.89006019   0.00533229
6662.00   0.88590544   0.00528577
6664.00   0.86834830   0.00472377
6666.00   0.85796976   0.00443064
6668.00   0.85643137   0.00457273
6670.00   0.85745478   0.00478301
6672.00   0.85725963   0.00475409
6674.00   0.85781699   0.00459674
6676.00   0.85487175   0.00480069
6678.00   0.85019243   0.00550094
6680.00   0.84263390   0.00561421
6682.00   0.82851797   0.00521795
6684.00   0.81823713   0.00479030
6686.00   0.81804544   0.00449750
6688.00   0.82175428   0.00427091
6690.00   0.81650740   0.00427810
6692.00   0.80412257   0.00459993
6694.00   0.79729044   0.00464202
6696.00   0.79150516   0.00450664
6698.00   0.78872102   0.00443732
6700.00   0.79193634   0.00443824
6702.00   0.79449421   0.00448383
6704.00   0.78872240   0.00461578
6706.00   0.77748895   0.00484016
6708.00   0.76802629   0.00473822
6710.00   0.75590134   0.00413518
6712.00   0.74774861   0.00398174
6714.00   0.74214917   0.00415310
6716.00   0.73912746   0.00451713
6718.00   0.74075246   0.00517575
6720.00   0.74429744   0.00585323
6722.00   0.74004549   0.00585988
6724.00   0.73156917   0.00529586
6726.00   0.71896327   0.00489905
6728.00   0.69568992   0.00426961
6730.00   0.68095112   0.00384567
6732.00   0.67797208   0.00381812
6734.00   0.67879277   0.00393126
6736.00   0.67751849   0.00393281
6738.00   0.67754483   0.00393302
6740.00   0.66973794   0.00393208
6742.00   0.65179652   0.00395263
6744.00   0.64086539   0.00392123
6746.00   0.63429826   0.00377111
6748.00   0.62999839   0.00370795
6750.00   0.62799567   0.00383637
6752.00   0.62785876   0.00407371
6754.00   0.62649077   0.00435299
6756.00   0.62717819   0.00489741
6758.00   0.62148935   0.00486587
6760.00   0.60860348   0.00419237
6762.00   0.59831780   0.00374637
6764.00   0.59182554   0.00378042
6766.00   0.58640480   0.00394571
6768.00   0.58036172   0.00394310
6770.00   0.57469469   0.00388319
6772.00   0.56679326   0.00395056
6774.00   0.55330616   0.00423174
6776.00   0.54773736   0.00423936
6778.00   0.55139208   0.00392890
6780.00   0.55435783   0.00363091
6782.00   0.55218405   0.00355574
6784.00   0.54761410   0.00358566
6786.00   0.54176039   0.00356594
6788.00   0.53126627   0.00354866
6790.00   0.52728683   0.00354965
6792.00   0.52951014   0.00357541
6794.00   0.52919358   0.00359328
6796.00   0.52501380   0.00360744
6798.00   0.51958686   0.00360946
6800.00   0.51492542   0.00357654
6802.00   0.51019520   0.00350897
6804.00   0.50523043   0.00348024
6806.00   0.49884149   0.00347925
6808.00   0.49499765   0.00346734
6810.00   0.49507514   0.00343056
6812.00   0.49380195   0.00342143
6814.00   0.48844102   0.00345765
6816.00   0.48066545   0.00353202
6818.00   0.47168964   0.00368747
6820.00   0.45663741   0.00405063
6822.00   0.45170921   0.00406314
6824.00   0.45620245   0.00373977
6826.00   0.45832327   0.00351369
6828.00   0.45628482   0.00347771
6830.00   0.45315400   0.00351735
6832.00   0.45129248   0.00355089
6834.00   0.45019224   0.00360608
6836.00   0.44614840   0.00372348
6838.00   0.43785435   0.00402000
6840.00   0.43323690   0.00406216
6842.00   0.43304315   0.00376681
6844.00   0.43209592   0.00351869
6846.00   0.42638871   0.00364694
6848.00   0.41877782   0.00392982
6850.00   0.41823956   0.00386817
6852.00   0.42697611   0.00344228
6854.00   0.42590770   0.00331352
6856.00   0.41570666   0.00331766
6858.00   0.41049728   0.00341715
6860.00   0.41346002   0.00359242
6862.00   0.41946065   0.00385185
6864.00   0.42452559   0.00426336
6866.00   0.43220004   0.00487926
6868.00   0.42904407   0.00484323
6870.00   0.41300008   0.00407042
6872.00   0.40409192   0.00363746
6874.00   0.40113235   0.00352000
6876.00   0.39937010   0.00357447
6878.00   0.39639190   0.00383918
6880.00   0.39360818   0.00422185
6882.00   0.39321497   0.00415615
6884.00   0.39647591   0.00354256
6886.00   0.39640680   0.00335442
6888.00   0.39441410   0.00347267
6890.00   0.39230376   0.00352339
6892.00   0.38970447   0.00341370
6894.00   0.38749897   0.00328076
6896.00   0.38765746   0.00326514
6898.00   0.38934115   0.00327614
6900.00   0.39279312   0.00354114
6902.00   0.40137923   0.00424159
6904.00   0.40432087   0.00442218
6906.00   0.40093532   0.00407405
6908.00   0.39663726   0.00364506
6910.00   0.39503044   0.00344148
6912.00   0.39407402   0.00333765
6914.00   0.38941360   0.00343228
6916.00   0.37703943   0.00392125
6918.00   0.37576887   0.00396619
6920.00   0.38503441   0.00366948
6922.00   0.39141259   0.00343222
6924.00   0.39169431   0.00337089
6926.00   0.38999501   0.00337257
6928.00   0.39026499   0.00333657
6930.00   0.39205629   0.00326167
6932.00   0.38852066   0.00339659
6934.00   0.37756953   0.00377697
6936.00   0.37241623   0.00398109
6938.00   0.37204668   0.00408803
6940.00   0.37474895   0.00409510
6942.00   0.38162154   0.00391336
6944.00   0.39184731   0.00357572
6946.00   0.39368445   0.00358500
6948.00   0.38585278   0.00401482
6950.00   0.38646829   0.00402898
6952.00   0.39411467   0.00371856
6954.00   0.39886281   0.00346469
6956.00   0.39652833   0.00332723
6958.00   0.39297411   0.00331123
6960.00   0.39742896   0.00360385
6962.00   0.40928444   0.00423847
6964.00   0.41138554   0.00428495
6966.00   0.40832904   0.00384299
6968.00   0.40252668   0.00355708
6970.00   0.38953987   0.00341397
6972.00   0.37918127   0.00333170
6974.00   0.38045827   0.00329743
6976.00   0.38884360   0.00332069
6978.00   0.39139360   0.00331208
6980.00   0.39162678   0.00329673
6982.00   0.39271131   0.00329363
6984.00   0.39344943   0.00329493
6986.00   0.39482179   0.00330843
6988.00   0.39789897   0.00335064
6990.00   0.40103316   0.00339390
6992.00   0.40089017   0.00337796
6994.00   0.39818940   0.00330352
6996.00   0.39603311   0.00328965
6998.00   0.39329362   0.00331322
7000.00   0.39046597   0.00333279
7002.00   0.38598487   0.00335990
7004.00   0.38337147   0.00337777
7006.00   0.38633072   0.00336449
7008.00   0.39314619   0.00332998
7010.00   0.39656574   0.00332611
7012.00   0.39991558   0.00334810
7014.00   0.40036926   0.00335299
7016.00   0.39674371   0.00335488
7018.00   0.39424989   0.00334542
7020.00   0.39539406   0.00327400
7022.00   0.39710614   0.00322112
7024.00   0.39403331   0.00340722
7026.00   0.38625321   0.00385080
7028.00   0.38372713   0.00389795
7030.00   0.38429809   0.00362956
7032.00   0.38514498   0.00345018
7034.00   0.38757747   0.00335439
7036.00   0.38918439   0.00329657
7038.00   0.38702297   0.00327957
7040.00   0.38233331   0.00330602
7042.00   0.38100535   0.00328375
7044.00   0.38509628   0.00308001
7046.00   0.38114133   0.00323665
7048.00   0.36721224   0.00382102
7050.00   0.35750842   0.00415581
7052.00   0.35671774   0.00409811
7054.00   0.36057582   0.00385081
7056.00   0.36562273   0.00363832
7058.00   0.37516803   0.00329071
7060.00   0.37981698   0.00314085
7062.00   0.38314825   0.00309230
7064.00   0.38307890   0.00319157
7066.00   0.37712771   0.00355342
7068.00   0.37124488   0.00385131
7070.00   0.37114471   0.00383815
7072.00   0.37434620   0.00363350
7074.00   0.37670469   0.00349978
7076.00   0.38169643   0.00328140
7078.00   0.38245523   0.00318928
7080.00   0.37821916   0.00323440
7082.00   0.37538087   0.00327706
7084.00   0.37705529   0.00327296
7086.00   0.38003573   0.00325781
7088.00   0.37878621   0.00325424
7090.00   0.37440428   0.00326243
7092.00   0.37140134   0.00324295
7094.00   0.36914703   0.00311869
7096.00   0.36539334   0.00315588
7098.00   0.35798562   0.00344699
7100.00   0.35200492   0.00371306
7102.00   0.35291651   0.00374950
7104.00   0.35860679   0.00365746
7106.00   0.36238760   0.00357070
7108.00   0.36889195   0.00337470
7110.00   0.37025502   0.00328257
7112.00   0.36590463   0.00329494
7114.00   0.36207864   0.00329911
7116.00   0.36058223   0.00323562
7118.00   0.36036256   0.00316096
7120.00   0.36255068   0.00319198
7122.00   0.36852697   0.00333325
7124.00   0.37051573   0.00336893
7126.00   0.37042463   0.00334258
7128.00   0.36960950   0.00332560
7130.00   0.36763683   0.00332325
7132.00   0.36530736   0.00331693
7134.00   0.36360449   0.00327249
7136.00   0.36207536   0.00318714
7138.00   0.36090189   0.00329792
7140.00   0.35927433   0.00362692
7142.00   0.35963559   0.00379396
7144.00   0.36243770   0.00394272
7146.00   0.36511099   0.00394809
7148.00   0.36751434   0.00364026
7150.00   0.36916915   0.00316015
7152.00   0.36604238   0.00317523
7154.00   0.35639510   0.00362934
7156.00   0.35359201   0.00376714
7158.00   0.35372287   0.00386921
7160.00   0.35641471   0.00382358
7162.00   0.36423826   0.00350167
7164.00   0.37174019   0.00313491
7166.00   0.37190691   0.00308371
7168.00   0.36711743   0.00323143
7170.00   0.36569732   0.00338398
7172.00   0.36461061   0.00362884
7174.00   0.36480877   0.00384719
7176.00   0.36530221   0.00410629
7178.00   0.36815184   0.00429435
7180.00   0.37550357   0.00438496
7182.00   0.38514924   0.00440093
7184.00   0.39050078   0.00430025
7186.00   0.39463213   0.00402993
7188.00   0.39495629   0.00381825
7190.00   0.39079407   0.00347101
7192.00   0.38641781   0.00334670
7194.00   0.38097224   0.00360103
7196.00   0.37608841   0.00391311
7198.00   0.37445733   0.00402123
7200.00   0.37498072   0.00406209
7202.00   0.37698433   0.00395419
7204.00   0.38332510   0.00355799
7206.00   0.38551491   0.00335023
7208.00   0.38245711   0.00330738
7210.00   0.38119507   0.00331462
7212.00   0.38577652   0.00335018
7214.00   0.39311662   0.00341226
7216.00   0.39737114   0.00337930
7218.00   0.40239793   0.00319251
7220.00   0.40158492   0.00323846
7222.00   0.39168859   0.00344232
7224.00   0.38789830   0.00366223
7226.00   0.39275062   0.00397868
7228.00   0.40101629   0.00421510
7230.00   0.40928632   0.00411160
7232.00   0.42035681   0.00369491
7234.00   0.42223549   0.00363156
7236.00   0.41326350   0.00381397
7238.00   0.41120857   0.00392895
7240.00   0.41457653   0.00405003
7242.00   0.41891181   0.00413869
7244.00   0.42302433   0.00417104
7246.00   0.42729363   0.00416430
7248.00   0.42860296   0.00412756
7250.00   0.42739290   0.00404459
7252.00   0.42618734   0.00395807
7254.00   0.42394969   0.00384937
7256.00   0.42151120   0.00373029
7258.00   0.41811404   0.00357047
7260.00   0.41529632   0.00342640
7262.00   0.41581863   0.00339978
7264.00   0.41922423   0.00346405
7266.00   0.41989571   0.00352835
7268.00   0.41909707   0.00364326
7270.00   0.41857013   0.00373346
7272.00   0.41780394   0.00377209
7274.00   0.41733024   0.00386200
7276.00   0.41751251   0.00406610
7278.00   0.41813052   0.00432620
7280.00   0.41896689   0.00454038
7282.00   0.42099983   0.00493434
7284.00   0.42101511   0.00484140
7286.00   0.41966531   0.00415083
7288.00   0.41779673   0.00361652
7290.00   0.41413283   0.00351894
7292.00   0.41121328   0.00358817
7294.00   0.41382650   0.00356202
7296.00   0.42141771   0.00354697
7298.00   0.42362484   0.00355759
7300.00   0.42259863   0.00362673
7302.00   0.42203140   0.00363502
7304.00   0.42003641   0.00354491
7306.00   0.41982225   0.00349574
7308.00   0.42464781   0.00355115
7310.00   0.43223968   0.00368032
7312.00   0.43421677   0.00396280
7314.00   0.43168825   0.00462812
7316.00   0.43109110   0.00466821
7318.00   0.43116215   0.00415018
7320.00   0.43012795   0.00373970
7322.00   0.42779827   0.00356742
7324.00   0.42437080   0.00357640
7326.00   0.41884083   0.00389466
7328.00   0.40944818   0.00454729
7330.00   0.41064432   0.00460201
7332.00   0.42197964   0.00415258
7334.00   0.43043476   0.00389910
7336.00   0.43818742   0.00380001
7338.00   0.44460821   0.00376560
7340.00   0.44944951   0.00378892
7342.00   0.45265183   0.00386700
7344.00   0.44998443   0.00385536
7346.00   0.43758017   0.00379467
7348.00   0.43367332   0.00371775
7350.00   0.43449521   0.00356704
7352.00   0.43591359   0.00346985
7354.00   0.43783638   0.00346877
7356.00   0.43993583   0.00351150
7358.00   0.44021681   0.00353890
7360.00   0.43883869   0.00356916
7362.00   0.43977630   0.00363503
7364.00   0.44413087   0.00363220
7366.00   0.44455376   0.00384641
7368.00   0.43833357   0.00435760
7370.00   0.43438688   0.00476995
7372.00   0.43937305   0.00488364
7374.00   0.44967911   0.00484643
7376.00   0.45756498   0.00490159
7378.00   0.46795779   0.00512641
7380.00   0.47330594   0.00497003
7382.00   0.47530580   0.00432969
7384.00   0.47508496   0.00377345
7386.00   0.47231779   0.00353743
7388.00   0.46774951   0.00347091
7390.00   0.46285787   0.00344272
7392.00   0.45590448   0.00354463
7394.00   0.45349666   0.00357651
7396.00   0.45511708   0.00359814
7398.00   0.45594215   0.00362001
7400.00   0.45529047   0.00364927
7402.00   0.45617831   0.00366597
7404.00   0.46131113   0.00365352
7406.00   0.46927407   0.00362035
7408.00   0.47403717   0.00358986
7410.00   0.47699466   0.00354473
7412.00   0.48046824   0.00351534
7414.00   0.48408514   0.00341671
7416.00   0.48714957   0.00346220
7418.00   0.49064356   0.00374548
7420.00   0.49274606   0.00409750
7422.00   0.48865247   0.00432805
7424.00   0.47750461   0.00454482
7426.00   0.47411445   0.00463809
7428.00   0.47468787   0.00467246
7430.00   0.47667575   0.00458147
7432.00   0.48230940   0.00427914
7434.00   0.48702115   0.00394113
7436.00   0.48667443   0.00373955
7438.00   0.48326468   0.00360832
7440.00   0.48050648   0.00351870
7442.00   0.47553018   0.00342813
7444.00   0.47367713   0.00353362
7446.00   0.47368354   0.00385560
7448.00   0.47521481   0.00414202
7450.00   0.47959551   0.00440520
7452.00   0.48455676   0.00460343
7454.00   0.48441011   0.00454199
7456.00   0.47983038   0.00420663
7458.00   0.47862977   0.00402954
7460.00   0.47901669   0.00388043
7462.00   0.47906321   0.00376383
7464.00   0.47829667   0.00368450
7466.00   0.47822928   0.00364073
7468.00   0.48025677   0.00363778
7470.00   0.48376286   0.00367514
7472.00   0.48639983   0.00369155
7474.00   0.49023625   0.00371079
7476.00   0.49104759   0.00372308
7478.00   0.48851791   0.00372218
7480.00   0.48636907   0.00373187
7482.00   0.48577866   0.00377683
7484.00   0.48565930   0.00382180
7486.00   0.48509258   0.00378778
7488.00   0.48445067   0.00367972
7490.00   0.48364162   0.00361275
7492.00   0.48283809   0.00353964
7494.00   0.48160264   0.00349746
7496.00   0.47967637   0.00350544
7498.00   0.47772658   0.00351592
7500.00   0.47671998   0.00346039
7502.00   0.47633699   0.00335920
7504.00   0.47293982   0.00347720
7506.00   0.46684492   0.00383970
7508.00   0.46106637   0.00400987
7510.00   0.45236892   0.00414506
7512.00   0.44750372   0.00414465
7514.00   0.44992489   0.00387924
7516.00   0.45593992   0.00348445
7518.00   0.45954236   0.00342832
7520.00   0.46503603   0.00364562
7522.00   0.46317026   0.00370547
7524.00   0.45210713   0.00374272
7526.00   0.44590485   0.00375446
7528.00   0.44522247   0.00373502
7530.00   0.44648057   0.00369778
7532.00   0.44807041   0.00364766
7534.00   0.45097697   0.00357775
7536.00   0.45037064   0.00356256
7538.00   0.44385949   0.00362150
7540.00   0.44462305   0.00361090
7542.00   0.45383349   0.00353164
7544.00   0.46031561   0.00346691
7546.00   0.45891374   0.00344956
7548.00   0.45445931   0.00345478
7550.00   0.45477057   0.00346145
7552.00   0.45952663   0.00348741
7554.00   0.45726627   0.00348912
7556.00   0.44867235   0.00347068
7558.00   0.44212875   0.00345951
7560.00   0.43680277   0.00344841
7562.00   0.43354580   0.00345011
7564.00   0.43491441   0.00348663
7566.00   0.44027507   0.00355116
7568.00   0.44178852   0.00358333
7570.00   0.44053113   0.00360220
7572.00   0.44150299   0.00361289
7574.00   0.44477099   0.00361969
7576.00   0.44727081   0.00360870
7578.00   0.44847840   0.00356654
7580.00   0.44835025   0.00350722
7582.00   0.44399828   0.00346891
7584.00   0.43178093   0.00341941
7586.00   0.43144760   0.00343568
7588.00   0.44178113   0.00347128
7590.00   0.44867086   0.00359180
7592.00   0.45305052   0.00373188
7594.00   0.45406416   0.00400162
7596.00   0.44797421   0.00439884
7598.00   0.43552828   0.00480736
7600.00   0.42801586   0.00604580
7602.00   0.41711196   0.00839041
7604.00   0.41774264   0.00893919
7606.00   0.43340528   0.00814352
7608.00   0.44687673   0.00712286
7610.00   0.45012909   0.00635831
7612.00   0.44921967   0.00557869
7614.00   0.45177847   0.00496616
7616.00   0.45638040   0.00454595
7618.00   0.45744193   0.00423574
7620.00   0.45805210   0.00415754
7622.00   0.45406392   0.00417252
7624.00   0.44038072   0.00431853
7626.00   0.42791581   0.00451257
7628.00   0.43104461   0.00466037
7630.00   0.44558328   0.00481757
7632.00   0.44952357   0.00484255
7634.00   0.44828355   0.00472526
7636.00   0.44765946   0.00465574
7638.00   0.44663009   0.00462560
7640.00   0.44487119   0.00456134
7642.00   0.44088671   0.00440157
7644.00   0.43651032   0.00419432
7646.00   0.43954223   0.00410609
7648.00   0.44893989   0.00401623
7650.00   0.45771262   0.00418038
7652.00   0.47477871   0.00477363
7654.00   0.48020577   0.00497352
7656.00   0.46585479   0.00457866
7658.00   0.44875690   0.00405277
7660.00   0.44976592   0.00411527
7662.00   0.46278572   0.00456400
7664.00   0.46146291   0.00452020
7666.00   0.44749096   0.00408578
7668.00   0.44294360   0.00381765
7670.00   0.44561949   0.00363616
7672.00   0.45062977   0.00352832
7674.00   0.45756766   0.00353016
7676.00   0.46585870   0.00361023
7678.00   0.46755677   0.00362143
7680.00   0.46247783   0.00359173
7682.00   0.46204188   0.00361653
7684.00   0.46414414   0.00370377
7686.00   0.46504933   0.00374569
7688.00   0.46375698   0.00371674
7690.00   0.46220976   0.00366895
7692.00   0.46289709   0.00365213
7694.00   0.46554834   0.00363840
7696.00   0.46370849   0.00368661
7698.00   0.45494121   0.00383860
7700.00   0.45365512   0.00389249
7702.00   0.46017271   0.00383971
7704.00   0.46733132   0.00379802
7706.00   0.47239947   0.00381193
7708.00   0.47663945   0.00386251
7710.00   0.47681960   0.00401780
7712.00   0.46990010   0.00435063
7714.00   0.47102991   0.00446538
7716.00   0.47721398   0.00438766
7718.00   0.48419663   0.00441391
7720.00   0.49420756   0.00467188
7722.00   0.50264859   0.00490623
7724.00   0.50068682   0.00482058
7726.00   0.48998737   0.00448925
7728.00   0.48558336   0.00423153
7730.00   0.48124537   0.00381374
7732.00   0.48141140   0.00362009
7734.00   0.48853207   0.00373564
7736.00   0.49471831   0.00386628
7738.00   0.49543375   0.00384290
7740.00   0.49328250   0.00377167
7742.00   0.49029347   0.00383878
7744.00   0.48362428   0.00401046
7746.00   0.48068672   0.00415526
7748.00   0.48067638   0.00437669
7750.00   0.47968194   0.00448401
7752.00   0.47641987   0.00443203
7754.00   0.47302708   0.00430605
7756.00   0.47218290   0.00419762
7758.00   0.47315747   0.00405399
7760.00   0.47342294   0.00396480
7762.00   0.47321454   0.00390346
7764.00   0.47432792   0.00387278
7766.00   0.47696114   0.00389693
7768.00   0.47996181   0.00391779
7770.00   0.48359999   0.00389233
7772.00   0.48743898   0.00384584
7774.00   0.48564136   0.00383709
7776.00   0.47674692   0.00386587
7778.00   0.47275755   0.00386301
7780.00   0.47033894   0.00377889
7782.00   0.46907556   0.00381016
7784.00   0.46887028   0.00401033
7786.00   0.46985903   0.00427901
7788.00   0.47273579   0.00455517
7790.00   0.47877410   0.00494177
7792.00   0.47815609   0.00490260
7794.00   0.47089648   0.00436516
7796.00   0.46666598   0.00404891
7798.00   0.46424299   0.00395976
7800.00   0.46332780   0.00393541
7802.00   0.46481869   0.00389804
7804.00   0.46809688   0.00388860
7806.00   0.46845791   0.00390601
7808.00   0.46593991   0.00398779
7810.00   0.46599007   0.00400620
7812.00   0.46882847   0.00394709
7814.00   0.46955201   0.00395202
7816.00   0.46637645   0.00408512
7818.00   0.46184412   0.00424294
7820.00   0.45938838   0.00429067
7822.00   0.45809108   0.00428202
7824.00   0.45528212   0.00424087
7826.00   0.45005322   0.00414948
7828.00   0.44783005   0.00403336
7830.00   0.44912359   0.00383274
7832.00   0.45107922   0.00367067
7834.00   0.45227873   0.00366642
7836.00   0.45339805   0.00376409
7838.00   0.45226273   0.00384046
7840.00   0.44734141   0.00399274
7842.00   0.44634041   0.00403078
7844.00   0.44985223   0.00394299
7846.00   0.45041808   0.00391149
7848.00   0.44478112   0.00399673
7850.00   0.43741125   0.00412188
7852.00   0.43486714   0.00420772
7854.00   0.43457019   0.00429988
7856.00   0.43645644   0.00432466
7858.00   0.44336390   0.00430836
7860.00   0.44660956   0.00424478
7862.00   0.44730988   0.00407978
7864.00   0.44515526   0.00393152
7866.00   0.43716842   0.00392103
7868.00   0.42481393   0.00399327
7870.00   0.42549089   0.00399066
7872.00   0.44061434   0.00395563
7874.00   0.44538608   0.00392743
7876.00   0.44409421   0.00387892
7878.00   0.44285211   0.00385600
7880.00   0.44332600   0.00387754
7882.00   0.44380993   0.00392098
7884.00   0.44268113   0.00395778
7886.00   0.43967694   0.00400732
7888.00   0.43943796   0.00402613
7890.00   0.44212499   0.00403939
7892.00   0.44283262   0.00401254
7894.00   0.44156656   0.00391176
7896.00   0.43944931   0.00381908
7898.00   0.43607304   0.00381520
7900.00   0.43150610   0.00386444
7902.00   0.43386140   0.00387420
7904.00   0.44577968   0.00380540
7906.00   0.44923705   0.00389366
7908.00   0.44676578   0.00415149
7910.00   0.44388801   0.00435280
7912.00   0.44218406   0.00446320
7914.00   0.44019803   0.00451635
7916.00   0.43667787   0.00448302
7918.00   0.43116388   0.00434236
7920.00   0.42827591   0.00424378
7922.00   0.42774701   0.00410560
7924.00   0.42605284   0.00403416
7926.00   0.42160100   0.00406944
7928.00   0.41871053   0.00410714
7930.00   0.42229405   0.00406040
7932.00   0.43043217   0.00396705
7934.00   0.43063331   0.00387516
7936.00   0.42397350   0.00373126
7938.00   0.42089361   0.00365286
7940.00   0.41776678   0.00361121
7942.00   0.41752541   0.00361617
7944.00   0.42289668   0.00369153
7946.00   0.43034881   0.00379940
7948.00   0.43187523   0.00385394
7950.00   0.42900273   0.00389050
7952.00   0.42884812   0.00390420
7954.00   0.42886701   0.00387350
7956.00   0.43014506   0.00386898
7958.00   0.43332502   0.00380505
7960.00   0.43679211   0.00386262
7962.00   0.43963221   0.00428721
7964.00   0.44248375   0.00492096
7966.00   0.44067067   0.00505540
7968.00   0.43394375   0.00488953
7970.00   0.42829579   0.00468123
7972.00   0.42127231   0.00420151
7974.00   0.41569537   0.00382247
7976.00   0.41227174   0.00379245
7978.00   0.41069105   0.00393376
7980.00   0.41213611   0.00396837
7982.00   0.41768256   0.00400758
7984.00   0.42057413   0.00402379
7986.00   0.42534310   0.00400445
7988.00   0.42458987   0.00401319
7990.00   0.41575998   0.00407309
7992.00   0.40541261   0.00412411
7994.00   0.39902854   0.00411438
7996.00   0.39390045   0.00406754
7998.00   0.39372933   0.00398275
8000.00   0.40103897   0.00381293
8002.00   0.40352997   0.00369973
8004.00   0.40289390   0.00360896
8006.00   0.40190345   0.00355645
8008.00   0.40124837   0.00355272
8010.00   0.40058091   0.00359042
8012.00   0.40068930   0.00366084
8014.00   0.40254635   0.00379300
8016.00   0.40077132   0.00386563
8018.00   0.39506048   0.00391857
8020.00   0.39116585   0.00394857
8022.00   0.38945073   0.00394939
8024.00   0.38859823   0.00393610
8026.00   0.38824645   0.00392794
8028.00   0.38886711   0.00391914
8030.00   0.38634726   0.00387222
8032.00   0.38064414   0.00376745
8034.00   0.37632483   0.00370440
8036.00   0.37152848   0.00368209
8038.00   0.36858392   0.00365173
8040.00   0.36954027   0.00358129
8042.00   0.37230831   0.00349948
8044.00   0.37141037   0.00347969
8046.00   0.36851138   0.00351970
8048.00   0.36508512   0.00352279
8050.00   0.35934529   0.00350883
8052.00   0.35525072   0.00350532
8054.00   0.35307738   0.00351298
8056.00   0.35200951   0.00352868
8058.00   0.35221455   0.00355783
8060.00   0.35421455   0.00360310
8062.00   0.35136259   0.00360440
8064.00   0.34206563   0.00357032
8066.00   0.33853480   0.00353717
8068.00   0.33877137   0.00347283
8070.00   0.34158096   0.00344050
8072.00   0.34855399   0.00348847
8074.00   0.35747373   0.00357289
8076.00   0.35841706   0.00359147
8078.00   0.35306588   0.00358176
8080.00   0.34907517   0.00354690
8082.00   0.34359473   0.00345408
8084.00   0.33825409   0.00339258
8086.00   0.33213672   0.00337654
8088.00   0.32710233   0.00337871
8090.00   0.32643750   0.00337944
8092.00   0.32960027   0.00338861
8094.00   0.32813233   0.00339237
8096.00   0.32298875   0.00339267
8098.00   0.31996733   0.00339777
8100.00   0.31906754   0.00339533
8102.00   0.31746933   0.00341280
8104.00   0.31313533   0.00344413
8106.00   0.30778149   0.00350299
8108.00   0.30622220   0.00369138
8110.00   0.30749232   0.00414014
8112.00   0.30863744   0.00414777
8114.00   0.31103513   0.00374870
8116.00   0.31324038   0.00344257
8118.00   0.31584731   0.00331561
8120.00   0.31763920   0.00327332
8122.00   0.31611231   0.00328684
8124.00   0.31141418   0.00338854
8126.00   0.31139076   0.00340740
8128.00   0.31711629   0.00326566
8130.00   0.31704599   0.00339048
8132.00   0.31057733   0.00388088
8134.00   0.30445215   0.00420158
8136.00   0.30129135   0.00409342
8138.00   0.29983735   0.00376710
8140.00   0.30272713   0.00378786
8142.00   0.31467283   0.00413903
8144.00   0.31502602   0.00413877
8146.00   0.30715033   0.00376462
8148.00   0.29896635   0.00365556
8150.00   0.28871557   0.00407241
8152.00   0.28020230   0.00450710
8154.00   0.28167066   0.00449338
8156.00   0.29164752   0.00419515
8158.00   0.29489887   0.00398973
8160.00   0.29830441   0.00365188
8162.00   0.29559320   0.00348543
8164.00   0.28418779   0.00354229
8166.00   0.27313510   0.00361849
8168.00   0.26724362   0.00360154
8170.00   0.26381129   0.00356030
8172.00   0.26200089   0.00358612
8174.00   0.26380736   0.00362547
8176.00   0.26324105   0.00374823
8178.00   0.26309001   0.00398227
8180.00   0.26042643   0.00416239
8182.00   0.25421721   0.00426666
8184.00   0.24624723   0.00434517
8186.00   0.23828790   0.00443479
8188.00   0.22879221   0.00451869
8190.00   0.22351059   0.00461027
8192.00   0.22371343   0.00478418
8194.00   0.21960543   0.00479083
8196.00   0.21059124   0.00461723
8198.00   0.20188715   0.00438260
8200.00   0.19601467   0.00411286
8202.00   0.19169144   0.00379515
8204.00   0.19002229   0.00371192
8206.00   0.19329135   0.00392929
8208.00   0.19234402   0.00393356
8210.00   0.18889794   0.00385178
8212.00   0.18567616   0.00374991
8214.00   0.18359853   0.00361038
8216.00   0.18121384   0.00346786
8218.00   0.17642853   0.00342207
8220.00   0.16922966   0.00346399
8222.00   0.16521612   0.00341923
8224.00   0.16364498   0.00324150
8226.00   0.16127649   0.00324263
8228.00   0.15894261   0.00353942
8230.00   0.15574950   0.00372127
8232.00   0.15042926   0.00351704
8234.00   0.14379196   0.00305228
8236.00   0.13975067   0.00283806
8238.00   0.13891660   0.00272602
8240.00   0.13455196   0.00271219
8242.00   0.12761714   0.00284831
8244.00   0.12079007   0.00299613
8246.00   0.11370119   0.00320798
8248.00   0.10737465   0.00336646
8250.00   0.10486462   0.00321145
8252.00   0.10603128   0.00269113
8254.00   0.10434408   0.00252535
8256.00   0.10120882   0.00265354
8258.00   0.09866041   0.00267663
8260.00   0.09707140   0.00261187
8262.00   0.09491205   0.00254590
8264.00   0.09052830   0.00252566
8266.00   0.08487007   0.00252831
8268.00   0.08306292   0.00253110
8270.00   0.08530251   0.00250602
8272.00   0.08490919   0.00257409
8274.00   0.08268200   0.00270437
8276.00   0.08150916   0.00287000
8278.00   0.08281427   0.00308197
8280.00   0.08452619   0.00330155
8282.00   0.08316207   0.00347375
8284.00   0.07900524   0.00365536
8286.00   0.07822186   0.00368519
8288.00   0.08117854   0.00351170
8290.00   0.08077424   0.00346281
8292.00   0.07707687   0.00347045
8294.00   0.07190059   0.00361158
8296.00   0.06486599   0.00406604
8298.00   0.05621642   0.00465898
8300.00   0.05596449   0.00457062
8302.00   0.06523645   0.00368505
8304.00   0.06865547   0.00321854
8306.00   0.06833811   0.00296191
8308.00   0.06971420   0.00279953
8310.00   0.07606059   0.00276178
8312.00   0.08273198   0.00280274
8314.00   0.08095870   0.00274392
8316.00   0.07118563   0.00263692
8318.00   0.06920568   0.00256358
8320.00   0.07169182   0.00249664
8322.00   0.07376216   0.00244506
8324.00   0.07619011   0.00240312
8326.00   0.07836305   0.00238498
8328.00   0.07947475   0.00240490
8330.00   0.07991406   0.00245570
8332.00   0.07976003   0.00251624
8334.00   0.07802487   0.00246474
8336.00   0.07791723   0.00272300
8338.00   0.07934882   0.00323177
8340.00   0.08031536   0.00366074
8342.00   0.08103823   0.00403678
8344.00   0.08074488   0.00433017
8346.00   0.07599083   0.00435708
8348.00   0.06452306   0.00415150
8350.00   0.06423304   0.00396943
8352.00   0.07459172   0.00366385
8354.00   0.08034651   0.00339675
8356.00   0.08183947   0.00315048
8358.00   0.08146071   0.00295169
8360.00   0.07924288   0.00286451
8362.00   0.07497620   0.00287791
8364.00   0.07608695   0.00283872
8366.00   0.08346032   0.00281669
8368.00   0.08579355   0.00275243
8370.00   0.08485275   0.00260907
8372.00   0.08339612   0.00251588
8374.00   0.08100048   0.00252255
8376.00   0.07891849   0.00259181
8378.00   0.08216633   0.00270275
8380.00   0.09128074   0.00290243
8382.00   0.09462991   0.00296992
8384.00   0.09570530   0.00296008
8386.00   0.09476770   0.00293346
8388.00   0.08971976   0.00281669
8390.00   0.08523933   0.00276094
8392.00   0.08646282   0.00293923
8394.00   0.09132294   0.00325351
8396.00   0.09219681   0.00349602
8398.00   0.09101247   0.00388259
8400.00   0.08987693   0.00393539
8402.00   0.08675217   0.00366070
8404.00   0.08576200   0.00336007
8406.00   0.08917499   0.00311216
8408.00   0.09456941   0.00289295
8410.00   0.09749355   0.00287198
8412.00   0.09928454   0.00308593
8414.00   0.10151853   0.00312119
8416.00   0.10403968   0.00305695
8418.00   0.10586958   0.00304316
8420.00   0.10681398   0.00303721
8422.00   0.10743816   0.00311351
8424.00   0.10792599   0.00338840
8426.00   0.10804232   0.00379009
8428.00   0.11047430   0.00396393
8430.00   0.11622747   0.00409679
8432.00   0.11905857   0.00404159
8434.00   0.12049598   0.00372893
8436.00   0.12023326   0.00338536
8438.00   0.11665765   0.00307302
8440.00   0.11198238   0.00277775
8442.00   0.11318092   0.00269485
8444.00   0.12033127   0.00285531
8446.00   0.12183569   0.00291463
8448.00   0.11888958   0.00298802
8450.00   0.11843026   0.00304321
8452.00   0.12161122   0.00307729
8454.00   0.12520573   0.00310252
8456.00   0.12592432   0.00310124
8458.00   0.12475690   0.00306169
8460.00   0.12849952   0.00325760
8462.00   0.13935387   0.00366843
8464.00   0.14279403   0.00395516
8466.00   0.13927497   0.00434108
8468.00   0.13582626   0.00446671
8470.00   0.13427174   0.00408372
8472.00   0.13387387   0.00336221
8474.00   0.13768008   0.00304663
8476.00   0.14687814   0.00302993
8478.00   0.15189593   0.00292411
8480.00   0.15545204   0.00283726
8482.00   0.15805547   0.00281430
8484.00   0.15828013   0.00282857
8486.00   0.15912955   0.00293536
8488.00   0.16506496   0.00324751
8490.00   0.17503944   0.00371547
8492.00   0.17828566   0.00376752
8494.00   0.17403319   0.00341864
8496.00   0.17626624   0.00329416
8498.00   0.18428527   0.00332359
8500.00   0.19246393   0.00339174
8502.00   0.19897459   0.00348842
8504.00   0.20478418   0.00359857
8506.00   0.20870139   0.00358995
8508.00   0.21094216   0.00348268
8510.00   0.21238703   0.00338998
8512.00   0.21024960   0.00323462
8514.00   0.21193057   0.00313496
8516.00   0.21963452   0.00311888
8518.00   0.22849323   0.00313700
8520.00   0.23323852   0.00314037
8522.00   0.23569693   0.00314469
8524.00   0.24045812   0.00320460
8526.00   0.24661325   0.00331849
8528.00   0.25225610   0.00342377
8530.00   0.25823149   0.00357481
8532.00   0.26332173   0.00366126
8534.00   0.26646116   0.00360626
8536.00   0.26858720   0.00347599
8538.00   0.27233878   0.00345682
8540.00   0.27649215   0.00350079
8542.00   0.28205192   0.00353761
8544.00   0.28945684   0.00360581
8546.00   0.29655677   0.00365223
8548.00   0.30310351   0.00367256
8550.00   0.30960980   0.00367787
8552.00   0.31658402   0.00367304
8554.00   0.32408890   0.00365519
8556.00   0.32963413   0.00363118
8558.00   0.33229432   0.00357886
8560.00   0.33761689   0.00356108
8562.00   0.34592518   0.00357468
8564.00   0.35382801   0.00359946
8566.00   0.35934207   0.00362907
8568.00   0.36386740   0.00366580
8570.00   0.37009594   0.00369863
8572.00   0.37610623   0.00373005
8574.00   0.38540375   0.00376550
8576.00   0.39926720   0.00380473
8578.00   0.41100040   0.00384349
8580.00   0.41974947   0.00388066
8582.00   0.42701840   0.00391840
8584.00   0.43370935   0.00396057
8586.00   0.43953526   0.00400826
8588.00   0.44376379   0.00403894
8590.00   0.44652665   0.00405758
8592.00   0.44815603   0.00407260
8594.00   0.44713923   0.00408092
8596.00   0.44712192   0.00408689
8598.00   0.45020720   0.00409184
8600.00   0.45513794   0.00409558
8602.00   0.46076372   0.00410443
8604.00   0.46751300   0.00409729
8606.00   0.47532451   0.00414121
8608.00   0.48525900   0.00421432
8610.00   0.49432999   0.00431802
8612.00   0.50329942   0.00445544
8614.00   0.51049852   0.00461384
8616.00   0.51187134   0.00477787
8618.00   0.50739270   0.00495349
8620.00   0.50941706   0.00513096
8622.00   0.51608306   0.00534599
8624.00   0.52077001   0.00549333
8626.00   0.52597773   0.00556463
8628.00   0.52813554   0.00563599
8630.00   0.52325952   0.00571776
8632.00   0.51417649   0.00581439
8634.00   0.51194370   0.00608881
8636.00   0.51390964   0.00669666
8638.00   0.51569438   0.00682476
8640.00   0.51664454   0.00669405
8642.00   0.52226353   0.00641172
8644.00   0.53457344   0.00579979
8646.00   0.55024588   0.00510181
8648.00   0.56577843   0.00502043
8650.00   0.58419579   0.00543042
8652.00   0.59489346   0.00558873
8654.00   0.60032719   0.00576279
8656.00   0.60338002   0.00586158
8658.00   0.60036272   0.00587944
8660.00   0.59924197   0.00587294
8662.00   0.60741234   0.00587840
8664.00   0.62028801   0.00587512
8666.00   0.62180090   0.00582450
8668.00   0.61134201   0.00571645
8670.00   0.61021173   0.00562673
8672.00   0.61512965   0.00552540
8674.00   0.61811674   0.00543459
8676.00   0.61648285   0.00533326
8678.00   0.61422455   0.00526426
8680.00   0.61677521   0.00534165
8682.00   0.62345678   0.00559380
8684.00   0.62495828   0.00553699
8686.00   0.62260181   0.00517347
8688.00   0.62144071   0.00494547
8690.00   0.61975986   0.00483263
8692.00   0.62004763   0.00477520
8694.00   0.62439030   0.00476163
8696.00   0.63168222   0.00479748
8698.00   0.64041638   0.00482045
8700.00   0.65222138   0.00482283
8702.00   0.66336095   0.00490337
8704.00   0.67660785   0.00510256
8706.00   0.68712240   0.00521933
8708.00   0.69510031   0.00520971
8710.00   0.69946110   0.00513453
8712.00   0.69558299   0.00503973
8714.00   0.68223578   0.00487691
8716.00   0.67704374   0.00480196
8718.00   0.67395717   0.00477856
8720.00   0.67456603   0.00477662
8722.00   0.68152684   0.00477197
8724.00   0.68807507   0.00483076
8726.00   0.68863410   0.00504651
8728.00   0.68604904   0.00535213
8730.00   0.68653524   0.00538385
8732.00   0.68845224   0.00516029
8734.00   0.69009215   0.00506181
8736.00   0.69303256   0.00490322
8738.00   0.69418001   0.00491936
8740.00   0.69017845   0.00528166
8742.00   0.68629545   0.00569452
8744.00   0.69317830   0.00572299
8746.00   0.70917779   0.00548424
8748.00   0.72062212   0.00534674
8750.00   0.73340768   0.00508231
8752.00   0.74252635   0.00503313
8754.00   0.74689651   0.00522702
8756.00   0.75032187   0.00551089
8758.00   0.75632006   0.00582822
8760.00   0.76321596   0.00619513
8762.00   0.76390892   0.00637459
8764.00   0.75859922   0.00641460
8766.00   0.75476229   0.00647639
8768.00   0.74979150   0.00651940
8770.00   0.74551684   0.00654323
8772.00   0.74168736   0.00656529
8774.00   0.73911142   0.00655720
8776.00   0.74087244   0.00644197
8778.00   0.74751389   0.00619094
8780.00   0.75018638   0.00607298
8782.00   0.75244498   0.00606851
8784.00   0.75181568   0.00599686
8786.00   0.74699664   0.00578813
8788.00   0.74152774   0.00563367
8790.00   0.73813385   0.00572672
8792.00   0.73551041   0.00597735
8794.00   0.73394978   0.00610934
8796.00   0.72895646   0.00638034
8798.00   0.73515308   0.00625431
8800.00   0.75423044   0.00551053
8802.00   0.77169102   0.00499614
8804.00   0.77943099   0.00512682
8806.00   0.78733373   0.00558557
8808.00   0.81509203   0.00612207
8810.00   0.86543500   0.00698819
8812.00   0.88879550   0.00717903
8814.00   0.90303379   0.00687509
8816.00   0.90032041   0.00661524
8818.00   0.86923248   0.00620409
8820.00   0.83708173   0.00597980
8822.00   0.83038121   0.00645796
8824.00   0.83765310   0.00734900
8826.00   0.83412880   0.00759987
8828.00   0.82349586   0.00747647
8830.00   0.82120401   0.00743888
8832.00   0.82681137   0.00742853
8834.00   0.83154964   0.00730632
8836.00   0.83236706   0.00695728
8838.00   0.83194476   0.00649259
8840.00   0.83304840   0.00623626
8842.00   0.83603877   0.00611556
8844.00   0.83444977   0.00598598
8846.00   0.82972878   0.00584337
8848.00   0.82348025   0.00584540
8850.00   0.81101900   0.00610914
8852.00   0.80253327   0.00633814
8854.00   0.81107837   0.00625241
8856.00   0.83219928   0.00595815
8858.00   0.83625305   0.00584531
8860.00   0.82761407   0.00567472
8862.00   0.82454157   0.00581892
8864.00   0.82721859   0.00634570
8866.00   0.82400334   0.00676949
8868.00   0.80712855   0.00704246
8870.00   0.78518498   0.00718011
8872.00   0.77675825   0.00688655
8874.00   0.77290910   0.00588958
8876.00   0.78214186   0.00560237
8878.00   0.81454068   0.00577078
8880.00   0.83225226   0.00605243
8882.00   0.83272201   0.00659705
8884.00   0.82589579   0.00705119
8886.00   0.81640917   0.00707013
8888.00   0.80112779   0.00681101
8890.00   0.79591221   0.00658255
8892.00   0.79652846   0.00613558
8894.00   0.79957861   0.00590618
8896.00   0.80986291   0.00586186
8898.00   0.81670785   0.00588835
8900.00   0.81395990   0.00597772
8902.00   0.80735302   0.00610980
8904.00   0.80809557   0.00614452
8906.00   0.81424671   0.00612618
8908.00   0.81645977   0.00609399
8910.00   0.81549752   0.00576785
8912.00   0.81748331   0.00594096
8914.00   0.82694906   0.00688403
8916.00   0.83367926   0.00773598
8918.00   0.82515609   0.00791697
8920.00   0.80525351   0.00774660
8922.00   0.79464424   0.00744964
8924.00   0.78667164   0.00667036
8926.00   0.78079009   0.00617770
8928.00   0.77689344   0.00590464
8930.00   0.77555430   0.00572789
8932.00   0.77864474   0.00559280
8934.00   0.78383934   0.00555382
8936.00   0.78258401   0.00569841
8938.00   0.77465904   0.00608743
8940.00   0.77362138   0.00629009
8942.00   0.77793932   0.00649348
8944.00   0.78012311   0.00655237
8946.00   0.78079015   0.00636836
8948.00   0.77899420   0.00615512
8950.00   0.77117288   0.00617825
8952.00   0.75737655   0.00633324
8954.00   0.75350988   0.00652078
8956.00   0.75733101   0.00685198
8958.00   0.75925368   0.00704678
8960.00   0.76300281   0.00719865
8962.00   0.76386940   0.00723277
8964.00   0.75878721   0.00708751
8966.00   0.75016087   0.00680790
8968.00   0.74241728   0.00651340
8970.00   0.72972804   0.00599913
8972.00   0.72838098   0.00584072
8974.00   0.73845035   0.00602071
8976.00   0.74550438   0.00615026
8978.00   0.74941832   0.00622355
8980.00   0.75064373   0.00626588
8982.00   0.74661571   0.00622322
8984.00   0.73734456   0.00608249
8986.00   0.73292494   0.00616882
8988.00   0.73078489   0.00651531
8990.00   0.72863615   0.00665309
8992.00   0.72600478   0.00660962
8994.00   0.72518367   0.00656103
8996.00   0.72830236   0.00656473
8998.00   0.73349166   0.00659681
9000.00   0.73451561   0.00675113
9002.00   0.73189437   0.00716988
9004.00   0.73210555   0.00716558
9006.00   0.73463231   0.00680069
9008.00   0.73539627   0.00647712
9010.00   0.73174304   0.00621716
9012.00   0.72893435   0.00600557
9014.00   0.73563749   0.00592227
9016.00   0.75162095   0.00596765
9018.00   0.74856913   0.00592562
9020.00   0.73149753   0.00585985
9022.00   0.71358651   0.00578809
9024.00   0.68583018   0.00568019
9026.00   0.66506851   0.00560251
9028.00   0.66333741   0.00559674
9030.00   0.67231911   0.00563820
9032.00   0.67355883   0.00569792
9034.00   0.67550176   0.00586468
9036.00   0.67155468   0.00585115
9038.00   0.65819770   0.00561653
9040.00   0.65113604   0.00551680
9042.00   0.65622866   0.00557781
9044.00   0.66277409   0.00577764
9046.00   0.65713960   0.00622218
9048.00   0.64327073   0.00694622
9050.00   0.63405377   0.00699456
9052.00   0.62333989   0.00644434
9054.00   0.61749434   0.00606880
9056.00   0.61666667   0.00573200
9058.00   0.61790264   0.00548922
9060.00   0.62068009   0.00544816
9062.00   0.62490100   0.00554810
9064.00   0.62490481   0.00555951
9066.00   0.62127095   0.00555736
9068.00   0.61900187   0.00556493
9070.00   0.61648792   0.00558170
9072.00   0.61412805   0.00558965
9074.00   0.61106187   0.00545756
9076.00   0.60896951   0.00543480
9078.00   0.61084962   0.00601503
9080.00   0.61587816   0.00709146
9082.00   0.62127936   0.00721226
9084.00   0.63181859   0.00654410
9086.00   0.63529694   0.00616607
9088.00   0.63286817   0.00600846
9090.00   0.62622964   0.00592190
9092.00   0.61362326   0.00584992
9094.00   0.59674251   0.00582669
9096.00   0.59084040   0.00588779
9098.00   0.59595817   0.00613271
9100.00   0.59361792   0.00616867
9102.00   0.58550191   0.00606634
9104.00   0.58199006   0.00595377
9106.00   0.58530456   0.00583712
9108.00   0.59247112   0.00571895
9110.00   0.60260350   0.00564220
9112.00   0.62009895   0.00558796
9114.00   0.61947519   0.00557671
9116.00   0.59976906   0.00563223
9118.00   0.58920437   0.00566111
9120.00   0.58676636   0.00569308
9122.00   0.58542335   0.00568831
9124.00   0.58111525   0.00552704
9126.00   0.57609797   0.00528224
9128.00   0.57543176   0.00559842
9130.00   0.58085907   0.00659851
9132.00   0.58047158   0.00687225
9134.00   0.57629842   0.00681894
9136.00   0.57202703   0.00659365
9138.00   0.56780285   0.00603426
9140.00   0.56387454   0.00536281
9142.00   0.56166828   0.00530318
9144.00   0.55997282   0.00571882
9146.00   0.56255168   0.00593473
9148.00   0.57240862   0.00624981
9150.00   0.57655048   0.00638929
9152.00   0.57612908   0.00635117
9154.00   0.57231033   0.00624801
9156.00   0.56345981   0.00613922
9158.00   0.55061346   0.00599312
9160.00   0.54694790   0.00584629
9162.00   0.55022055   0.00550775
9164.00   0.55259663   0.00557364
9166.00   0.55819833   0.00603703
9168.00   0.56149882   0.00642087
9170.00   0.56259978   0.00675628
9172.00   0.56038314   0.00695840
9174.00   0.54912060   0.00665352
9176.00   0.52578020   0.00569984
9178.00   0.51946098   0.00533114
9180.00   0.52579904   0.00531771
9182.00   0.53019881   0.00538042
9184.00   0.53505284   0.00559914
9186.00   0.53862351   0.00584433
9188.00   0.53843397   0.00606505
9190.00   0.53569901   0.00628660
9192.00   0.53293163   0.00614372
9194.00   0.52653509   0.00543072
9196.00   0.52567255   0.00516455
9198.00   0.53160328   0.00524768
9200.00   0.53425527   0.00531963
9202.00   0.52933913   0.00529016
9204.00   0.52219695   0.00524755
9206.00   0.52102172   0.00524545
9208.00   0.52403235   0.00525088
9210.00   0.52389938   0.00532640
9212.00   0.51913005   0.00546825
9214.00   0.52126104   0.00561818
9216.00   0.53402871   0.00584113
9218.00   0.54612195   0.00599523
9220.00   0.54825133   0.00592481
9222.00   0.54475391   0.00569666
9224.00   0.54318500   0.00572340
9226.00   0.53728354   0.00588975
9228.00   0.53933001   0.00610421
9230.00   0.55598259   0.00659801
9232.00   0.56065857   0.00677163
9234.00   0.53915334   0.00632768
9236.00   0.50895232   0.00559126
9238.00   0.50074309   0.00536115
9240.00   0.50446796   0.00546223
9242.00   0.51139897   0.00548345
9244.00   0.53384626   0.00561301
9246.00   0.54260039   0.00566291
9248.00   0.53416681   0.00562187
9250.00   0.52223092   0.00555589
9252.00   0.51700294   0.00549659
9254.00   0.51383889   0.00542534
9256.00   0.50780320   0.00545208
9258.00   0.49747190   0.00563791
9260.00   0.49309584   0.00565315
9262.00   0.49392983   0.00551235
9264.00   0.49526489   0.00539235
9266.00   0.49514374   0.00534634
9268.00   0.49557438   0.00533808
9270.00   0.49999022   0.00536663
9272.00   0.51037037   0.00544320
9274.00   0.51141280   0.00551385
9276.00   0.50441635   0.00559415
9278.00   0.49962950   0.00568507
9280.00   0.49568075   0.00576940
9282.00   0.49398792   0.00588410
9284.00   0.49774504   0.00608538
9286.00   0.50588948   0.00634975
9288.00   0.50962454   0.00645865
9290.00   0.51464230   0.00640170
9292.00   0.51192695   0.00647756
9294.00   0.49734235   0.00656954
9296.00   0.48753512   0.00679433
9298.00   0.48858103   0.00719227
9300.00   0.49551606   0.00769055
9302.00   0.50499743   0.00819997
9304.00   0.52488369   0.00868203
9306.00   0.52591419   0.00939904
9308.00   0.50950009   0.01041874
9310.00   0.49814221   0.01115323
9312.00   0.49232957   0.01171409
9314.00   0.48813868   0.01206389
9316.00   0.48423207   0.01206745
9318.00   0.48139796   0.01177030
9320.00   0.47665393   0.01159490
9322.00   0.46761885   0.01145443
9324.00   0.46533999   0.01116698
9326.00   0.47094753   0.01066547
9328.00   0.47495657   0.01019341
9330.00   0.47166878   0.00978077
9332.00   0.46678504   0.00947343
9334.00   0.47302333   0.00964752
9336.00   0.49386171   0.01038524
9338.00   0.49437499   0.01066565
9340.00   0.47880480   0.01095765
9342.00   0.46601576   0.01084023
9344.00   0.45258179   0.01002999
9346.00   0.44415987   0.00905637
9348.00   0.45197403   0.00866239
9350.00   0.47331938   0.00861610
9352.00   0.47800234   0.00855873
9354.00   0.47328568   0.00874537
9356.00   0.46804583   0.00874445
9358.00   0.45678470   0.00856817
9360.00   0.44894749   0.00842110
9362.00   0.44781843   0.00806187
9364.00   0.45162410   0.00786907
9366.00   0.46322086   0.00939048
9368.00   0.49121475   0.01191165
9370.00   0.49627081   0.01381391
9372.00   0.48751283   0.01631729
9374.00   0.47299504   0.01745301
9376.00   0.44889238   0.01717947
9378.00   0.42283255   0.01625662
9380.00   0.40447554   0.01527507
9382.00   0.38923240   0.01385392
9384.00   0.38116258   0.01231691
9386.00   0.37450808   0.00990206
9388.00   0.38357115   0.00811353
9390.00   0.41654730   0.00722918
9392.00   0.44481316   0.00681080
9394.00   0.45828813   0.00670591
9396.00   0.46203738   0.00703383
9398.00   0.44689754   0.00749748
9400.00   0.40185550   0.00837043
9402.00   0.38317618   0.00878686
9404.00   0.37145779   0.00909116
9406.00   0.37415132   0.00915765
9408.00   0.39976138   0.00870423
9410.00   0.43047833   0.00830387
9412.00   0.44540918   0.00893489
9414.00   0.45404339   0.01027975
9416.00   0.45158058   0.01022523
9418.00   0.42905021   0.00873548
9420.00   0.42030016   0.00808793
9422.00   0.42385408   0.00829303
9424.00   0.42702639   0.00852507
9426.00   0.42214867   0.00838590
9428.00   0.41525352   0.00815879
9430.00   0.42091903   0.00831886
9432.00   0.44364664   0.00843164
9434.00   0.44647482   0.00940811
9436.00   0.43390712   0.01137841
9438.00   0.42482674   0.01251567
9440.00   0.42029265   0.01302339
9442.00   0.41832036   0.01299652
9444.00   0.42098290   0.01200638
9446.00   0.42957744   0.00963489
9448.00   0.42545164   0.00861439
9450.00   0.40705800   0.00854655
9452.00   0.39862609   0.00875742
9454.00   0.39984417   0.00959924
9456.00   0.40055266   0.01036665
9458.00   0.39697373   0.01082487
9460.00   0.39089900   0.01113548
9462.00   0.37812218   0.01112250
9464.00   0.34577408   0.01075748
9466.00   0.34629512   0.01037869
9468.00   0.37851843   0.00946616
9470.00   0.40109220   0.00915905
9472.00   0.41337982   0.00996013
9474.00   0.41494939   0.01092490
9476.00   0.39124501   0.01119157
9478.00   0.33813807   0.01118223
9480.00   0.33440822   0.01083549
9482.00   0.37285817   0.00983611
9484.00   0.39591536   0.00906463
9486.00   0.41520363   0.00836313
9488.00   0.42575675   0.00783471
9490.00   0.41986910   0.00754120
9492.00   0.40327844   0.00752235
9494.00   0.39663440   0.00812394
9496.00   0.39706907   0.00965218
9498.00   0.38872933   0.01013771
9500.00   0.37033549   0.01027335
9502.00   0.35886952   0.01002716
9504.00   0.35754347   0.00910229
9506.00   0.36138347   0.00786860
9508.00   0.36717010   0.00723220
9510.00   0.37779975   0.00690284
9512.00   0.38223404   0.00710883
9514.00   0.37706521   0.00778018
9516.00   0.38414741   0.00874029
9518.00   0.40662986   0.01033903
9520.00   0.42840147   0.01144163
9522.00   0.44400248   0.01163239
9524.00   0.45520937   0.01128651
9526.00   0.44172621   0.01059720
9528.00   0.38668153   0.00864824
9530.00   0.37233955   0.00780029
9532.00   0.38396686   0.00786778
9534.00   0.39511478   0.00800542
9536.00   0.40570343   0.00817482
9538.00   0.41316563   0.00835299
9540.00   0.40424231   0.00824005
9542.00   0.37949190   0.00783064
9544.00   0.37019113   0.00790678
9546.00   0.37442121   0.00809846
9548.00   0.36710340   0.00875265
9550.00   0.34043679   0.01027311
9552.00   0.32208866   0.01122884
9554.00   0.33221635   0.01076926
9556.00   0.35936850   0.00939926
9558.00   0.37782839   0.00916826
9560.00   0.40780154   0.00976652
9562.00   0.41123313   0.00999644
9564.00   0.38595259   0.01039469
9566.00   0.36839327   0.01041724
9568.00   0.36889327   0.00981437
9570.00   0.37335050   0.00889542
9572.00   0.36591730   0.00818380
9574.00   0.35077992   0.00731571
9576.00   0.34100148   0.00725631
9578.00   0.32892844   0.00830394
9580.00   0.32554442   0.00863526
9582.00   0.33179137   0.00826516
9584.00   0.34197876   0.00785638
9586.00   0.35473338   0.00789645
9588.00   0.37044057   0.00813750
9590.00   0.37493330   0.00810952
9592.00   0.36802486   0.00792700
9594.00   0.36697823   0.00775007
9596.00   0.36739850   0.00740144
9598.00   0.36831012   0.00723798
9600.00   0.37012526   0.00743499
9602.00   0.37197921   0.00775087
9604.00   0.37189871   0.00786551
9606.00   0.37088484   0.00791244
9608.00   0.36770961   0.00788959
9610.00   0.36169767   0.00768565
9612.00   0.35612309   0.00764328
9614.00   0.35053995   0.00778953
9616.00   0.34509221   0.00796625
9618.00   0.34034565   0.00810572
9620.00   0.33600932   0.00824105
9622.00   0.32995492   0.00819889
9624.00   0.31769848   0.00799356
9626.00   0.31676671   0.00776859
9628.00   0.33106762   0.00739646
9630.00   0.33699262   0.00709751
9632.00   0.32457945   0.00683958
9634.00   0.30656368   0.00674826
9636.00   0.30150083   0.00725436
9638.00   0.30211619   0.00838284
9640.00   0.30844006   0.00862288
9642.00   0.32941034   0.00836451
9644.00   0.33758870   0.00803280
9646.00   0.33001047   0.00741485
9648.00   0.32022756   0.00682904
9650.00   0.31789327   0.00668560
9652.00   0.31840521   0.00683345
9654.00   0.31595597   0.00694995
9656.00   0.30992326   0.00717605
9658.00   0.30901542   0.00738955
9660.00   0.31214687   0.00765887
9662.00   0.31619182   0.00787519
9664.00   0.32191932   0.00804460
9666.00   0.32743597   0.00814584
9668.00   0.32671449   0.00805652
9670.00   0.32141429   0.00771417
9672.00   0.31489825   0.00764119
9674.00   0.30171201   0.00774178
9676.00   0.29529566   0.00782932
9678.00   0.29649219   0.00799479
9680.00   0.30058125   0.00806765
9682.00   0.30463657   0.00782698
9684.00   0.31006277   0.00734060
9686.00   0.31610200   0.00720119
9688.00   0.32352474   0.00726362
9690.00   0.33062679   0.00738927
9692.00   0.34141451   0.00768933
9694.00   0.34618694   0.00793349
9696.00   0.33990380   0.00807730
9698.00   0.32833749   0.00815599
9700.00   0.32098573   0.00813191
9702.00   0.31144831   0.00798060
9704.00   0.31279105   0.00788371
9706.00   0.32835749   0.00772019
9708.00   0.33588925   0.00768676
9710.00   0.33331627   0.00779225
9712.00   0.32914364   0.00798262
9714.00   0.32945469   0.00824357
9716.00   0.33150575   0.00857933
9718.00   0.33341566   0.00882173
9720.00   0.33956823   0.00915732
9722.00   0.33758831   0.00917360
9724.00   0.32520905   0.00883390
9726.00   0.31633428   0.00849156
9728.00   0.31686947   0.00823076
9730.00   0.32119358   0.00802709
9732.00   0.32166958   0.00805662
9734.00   0.32262930   0.00838772
9736.00   0.31759429   0.00841234
9738.00   0.30554980   0.00827327
9740.00   0.29548526   0.00810391
9742.00   0.28314382   0.00775312
9744.00   0.27670324   0.00752412
9746.00   0.28906775   0.00779475
9748.00   0.31654018   0.00838587
9750.00   0.32059455   0.00892904
9752.00   0.30612150   0.00992906
9754.00   0.29930148   0.01007396
9756.00   0.29305962   0.00942734
9758.00   0.29045409   0.00864835
9760.00   0.29496819   0.00788880
9762.00   0.30254421   0.00709434
9764.00   0.30270654   0.00678705
9766.00   0.29668379   0.00700165
9768.00   0.29609421   0.00705124
9770.00   0.29842606   0.00714170
9772.00   0.30064660   0.00727826
9774.00   0.30286258   0.00745159
9776.00   0.30515596   0.00767291
9778.00   0.30696294   0.00793048
9780.00   0.30830881   0.00820819
9782.00   0.31238681   0.00871964
9784.00   0.32131410   0.00957896
9786.00   0.32473740   0.01005537
9788.00   0.32404733   0.01038537
9790.00   0.32145354   0.01047517
9792.00   0.31625134   0.01017990
9794.00   0.30991492   0.00964829
9796.00   0.30930796   0.00939922
9798.00   0.31316784   0.00928085
9800.00   0.31619313   0.00917840
9802.00   0.32429442   0.00924010
9804.00   0.32472867   0.00913857
9806.00   0.31228721   0.00873266
9808.00   0.29894942   0.00831370
9810.00   0.29850432   0.00826555
9812.00   0.30656019   0.00847461
9814.00   0.30348948   0.00845347
9816.00   0.28969848   0.00827830
9818.00   0.28480971   0.00821985
9820.00   0.28707793   0.00825057
9822.00   0.29059684   0.00830192
9824.00   0.29324251   0.00838141
9826.00   0.29634523   0.00846263
9828.00   0.30020863   0.00838075
9830.00   0.30646738   0.00806350
9832.00   0.30819780   0.00802207
9834.00   0.30668569   0.00815993
9836.00   0.30425617   0.00831718
9838.00   0.30006081   0.00847601
9840.00   0.29578802   0.00867577
9842.00   0.29437771   0.00898246
9844.00   0.29517013   0.00940549
9846.00   0.29197651   0.00945769
9848.00   0.28240910   0.00920977
9850.00   0.28066894   0.00896744
9852.00   0.28481069   0.00848281
9854.00   0.29275802   0.00821642
9856.00   0.30750191   0.00847028
9858.00   0.32501417   0.00901504
9860.00   0.32537374   0.00952701
9862.00   0.30927914   0.01022209
9864.00   0.30176270   0.01065630
9866.00   0.29231688   0.01096704
9868.00   0.28978598   0.01120878
9870.00   0.30150762   0.01143982
9872.00   0.31247538   0.01155243
9874.00   0.30122060   0.01140408
9876.00   0.27243567   0.01103690
9878.00   0.26577473   0.01054119
9880.00   0.27375761   0.00942061
9882.00   0.27912173   0.00903964
9884.00   0.28230232   0.00945241
9886.00   0.29019126   0.01004177
9888.00   0.30915913   0.01063452
9890.00   0.33366179   0.01127210
9892.00   0.34424359   0.01159324
9894.00   0.35115036   0.01192065
9896.00   0.34247956   0.01164074
9898.00   0.31098714   0.01025147
9900.00   0.28778720   0.00953487
9902.00   0.27510929   0.01007833
9904.00   0.26944840   0.01100526
9906.00   0.27315640   0.01165603
9908.00   0.28754178   0.01240524
9910.00   0.29429397   0.01251370
9912.00   0.29998788   0.01206243
9914.00   0.30249557   0.01161124
9916.00   0.30205315   0.01091534
9918.00   0.29898137   0.01029160
9920.00   0.29157174   0.00997769
9922.00   0.28163269   0.00987633
9924.00   0.28007558   0.00994762
9926.00   0.28477204   0.01001993
9928.00   0.28940201   0.01073131
9930.00   0.30017507   0.01186432
9932.00   0.30464467   0.01315598
9934.00   0.29901543   0.01480715
9936.00   0.28990564   0.01628257
9938.00   0.28424317   0.01695443
9940.00   0.27808085   0.01717114
9942.00   0.27923578   0.01716544
9944.00   0.29064626   0.01656803
9946.00   0.29512706   0.01630977
9948.00   0.29049921   0.01639572
9950.00   0.28891945   0.01647325
9952.00   0.29905096   0.01641658
9954.00   0.31532362   0.01627655
9956.00   0.32295141   0.01577719
9958.00   0.32497236   0.01463278
9960.00   0.32899359   0.01402327
9962.00   0.33693713   0.01372944
9964.00   0.33701059   0.01350399
9966.00   0.32256824   0.01339956
9968.00   0.30512270   0.01330024
9970.00   0.30222216   0.01287475
9972.00   0.31000340   0.01208149
9974.00   0.30652177   0.01192111
9976.00   0.29220915   0.01228349
9978.00   0.28761598   0.01257572
9980.00   0.29245111   0.01306729
9982.00   0.30004552   0.01330656
9984.00   0.30913514   0.01285016
9986.00   0.31978008   0.01193573
9988.00   0.31840405   0.01173298
9990.00   0.30536559   0.01191091
9992.00   0.29568556   0.01229014
9994.00   0.28188589   0.01272486
9996.00   0.27288646   0.01367370
9998.00   0.26818642   0.01530543
10000.00   0.26980576   0.01704204
10002.00   0.28598112   0.01836471
10004.00   0.31918961   0.01971420
10006.00   0.33377266   0.02010727
10008.00   0.34248951   0.01967451
10010.00   0.34070840   0.01917709
10012.00   0.32542625   0.01839618
10014.00   0.30537242   0.01755338
10016.00   0.28163841   0.01687942
10018.00   0.25453216   0.01626550
10020.00   0.25568029   0.01556802
10022.00   0.29793176   0.01439421
10024.00   0.30048236   0.01422095
10026.00   0.26948404   0.01504995
10028.00   0.25043789   0.01578801
10030.00   0.25487667   0.01655213
10032.00   0.26892871   0.01702552
10034.00   0.28264132   0.01612381
10036.00   0.30777076   0.01338650
10038.00   0.29960725   0.01269651
10040.00   0.24423476   0.01359293
10042.00   0.22818428   0.01432029
10044.00   0.25480765   0.01523747
10046.00   0.29112992   0.01597391
10048.00   0.32382560   0.01619537
10050.00   0.35907179   0.01610968
10052.00   0.35441214   0.01608059
10054.00   0.29567382   0.01597526
10056.00   0.27993652   0.01581568
10058.00   0.29313052   0.01546217
10060.00   0.30203208   0.01527551
10062.00   0.29752403   0.01525361
10064.00   0.28970438   0.01547600
10066.00   0.28733400   0.01627427
10068.00   0.28509122   0.01762202
10070.00   0.29307377   0.01853176
10072.00   0.31345066   0.01969966
10074.00   0.32986870   0.02002000
10076.00   0.34825543   0.01937615
10078.00   0.35891104   0.01837087
10080.00   0.34946406   0.01730042
10082.00   0.32576722   0.01595857
10084.00   0.31873015   0.01550192
10086.00   0.31560534   0.01578845
10088.00   0.32359445   0.01620683
10090.00   0.35362837   0.01724281
10092.00   0.37064436   0.01790283
10094.00   0.36290783   0.01795551
10096.00   0.34301853   0.01768694
10098.00   0.32406339   0.01726977
10100.00   0.29684928   0.01633152
10102.00   0.28221869   0.01631236
10104.00   0.27902749   0.01680709
10106.00   0.27103910   0.01769133
10108.00   0.24629034   0.01864850
10110.00   0.23587041   0.02025115
10112.00   0.27333111   0.02323841
10114.00   0.34428039   0.02687348
10116.00   0.37378755   0.02794162
10118.00   0.39160109   0.02783779
10120.00   0.38353753   0.02658209
10122.00   0.33199504   0.02266925
10124.00   0.29434243   0.01906240
10126.00   0.29007995   0.01757152
10128.00   0.30053946   0.01734064
10130.00   0.30864635   0.01725896
10132.00   0.32958207   0.01776438
10134.00   0.32189435   0.01888488
10136.00   0.27716818   0.02127193
10138.00   0.25962207   0.02247779
10140.00   0.27933121   0.02265135
10142.00   0.30165607   0.02231932
10144.00   0.29674533   0.02147465
10146.00   0.27717292   0.01995360
10148.00   0.28012273   0.02020588
10150.00   0.31157991   0.02208202
10152.00   0.31026578   0.02320620
10154.00   0.27095461   0.02412393
10156.00   0.24714983   0.02499017
10158.00   0.25925028   0.02608455
10160.00   0.28835911   0.02699500
10162.00   0.31434187   0.02663576
10164.00   0.35947621   0.02481457
10166.00   0.35686043   0.02415257
10168.00   0.29736954   0.02401201
10170.00   0.27010992   0.02403349
10172.00   0.28601983   0.02439762
10174.00   0.30744469   0.02474996
10176.00   0.30490726   0.02474769
10178.00   0.29109356   0.02455936
10180.00   0.28179091   0.02401278
10182.00   0.27516389   0.02269353
10184.00   0.25986576   0.02203925
10186.00   0.22721502   0.02138255
10188.00   0.20722827   0.02173306
10190.00   0.21679014   0.02362850
10192.00   0.23864871   0.02620094
10194.00   0.23833044   0.02838441
10196.00   0.21534058   0.03147098
10198.00   0.22848704   0.03161032
10200.00   0.28652519   0.02830802
10202.00   0.30983967   0.02660998
10204.00   0.27747092   0.02683635
10206.00   0.24436705   0.02828955
10208.00   0.27063510   0.03133539
10210.00   0.33721921   0.03571933
10212.00   0.32373509   0.03593359
10214.00   0.20238441   0.03239375
10216.00   0.19469717   0.03008311
10218.00   0.30688146   0.02784359
10220.00   0.39481640   0.02595504
10222.00   0.39976066   0.02482345
10224.00   0.36721167   0.02422946
10226.00   0.34225866   0.02347900
10228.00   0.29274499   0.02270198
10230.00   0.28293335   0.02250263
10232.00   0.31146857   0.02302090
10234.00   0.32473028   0.02334505
10236.00   0.31422675   0.02339536
10238.00   0.30248237   0.02343400
10240.00   0.31116006   0.02358267
10242.00   0.33349967   0.02373654
10244.00   0.33451959   0.02450072
10246.00   0.32338715   0.02577903
10248.00   0.30782861   0.02705369
10250.00   0.27487141   0.02881455
10252.00   0.25409314   0.03000176
10254.00   0.26853952   0.03010207
10256.00   0.29592320   0.02963782
10258.00   0.27695048   0.02950327
10260.00   0.20169148   0.02834336
10262.00   0.19782560   0.03024488
10264.00   0.24329495   0.03470499
10266.00   0.29002523   0.03824678
10268.00   0.35286811   0.04137825
10270.00   0.40284756   0.04376554
10272.00   0.38829893   0.04464640
10274.00   0.32061413   0.04443762
10276.00   0.31711656   0.04380399
10278.00   0.38201675   0.04234501
10280.00   0.37768927   0.04049448
10282.00   0.30777863   0.03752518
10284.00   0.23292528   0.03474656
10286.00   0.16576643   0.03292385
10288.00   0.10574988   0.03179252
10290.00   0.11233877   0.03153772
10292.00   0.19121592   0.03270177
10294.00   0.23646611   0.03308302
10296.00   0.29870418   0.03353627
10298.00   0.32262346   0.03350687
10300.00   0.28335473   0.03265154
10302.00   0.23278826   0.03164798
10304.00   0.23194852   0.03143528
10306.00   0.25867730   0.03173405
10308.00   0.27618715   0.03159625
10310.00   0.31338340   0.03113091
10312.00   0.31599158   0.03096911
10314.00   0.27589771   0.03098054
10316.00   0.23950045   0.03120582
10318.00   0.22909881   0.03174244
10320.00   0.23078039   0.03247833
10322.00   0.23511556   0.03300018
10324.00   0.25629121   0.03274916
10326.00   0.25412223   0.03437073
10328.00   0.22048762   0.03743955
10330.00   0.21348222   0.04027584
10332.00   0.25144318   0.04387801
10334.00   0.29863223   0.04628884
10336.00   0.32236597   0.04424942
10338.00   0.34679309   0.03748716
10340.00   0.28636205   0.03613375
10342.00   0.07373543   0.03865163
10344.00   0.01145882   0.04062983
10346.00   0.10317296   0.04328973
10348.00   0.20660642   0.04536671
10350.00   0.26185969   0.04626706
10352.00   0.30013919   0.04644248
10354.00   0.29376104   0.04592852
10356.00   0.23623683   0.04374164
10358.00   0.18673982   0.04325966
10360.00   0.09478420   0.04475255
10362.00   0.05514705   0.04467165
10364.00   0.10647523   0.04130557
10366.00   0.17778555   0.03742051
10368.00   0.17838669   0.03815399
10370.00   0.13804346   0.04245264
10372.00   0.11608057   0.04232520
10374.00   0.06959277   0.03852952
10376.00   0.07408068   0.03669528
10378.00   0.14510691   0.03671568
10380.00   0.21342790   0.03706237
10382.00   0.24771725   0.03699806
10384.00   0.26308936   0.03695154
10386.00   0.23085386   0.03734383
10388.00   0.10341636   0.03791914
10390.00   0.08254368   0.03899843
10392.00   0.12146859   0.04054741
10394.00   0.18458819   0.04224630
10396.00   0.29871592   0.04450445
10398.00   0.40958142   0.04644950
10400.00   0.41371781   0.04675125
10402.00   0.33809468   0.04593160
10404.00   0.28832665   0.04458675
10406.00   0.21221679   0.04143609
10408.00   0.16797303   0.03954259
10410.00   0.16464584   0.03878459
10412.00   0.15848458   0.03870481
10414.00   0.11420829   0.03941172
10416.00   0.05413561   0.04071961
10418.00   0.05218456   0.04077519
10420.00   0.10491031   0.03971748
10422.00   0.13521689   0.03932698
10424.00   0.16563770   0.03907061
10426.00   0.19564725   0.03901555
10428.00   0.23278743   0.03917387
10430.00   0.26294488   0.03952972
10432.00   0.25621015   0.04010836
10434.00   0.21113107   0.04098413
10436.00   0.21318282   0.04154708
10438.00   0.24407677   0.04179481
10440.00   0.27635962   0.04236190
10442.00   0.33751354   0.04368626
10444.00   0.37030533   0.04445511
10446.00   0.31553131   0.04356190
10448.00   0.20844281   0.04160497
10450.00   0.19524395   0.04103039
10452.00   0.27570060   0.04140498
10454.00   0.27735853   0.04143102
10456.00   0.22882076   0.04176466
10458.00   0.18561903   0.04159078
10460.00   0.14524803   0.04034115
10462.00   0.11996711   0.03885851
10464.00   0.16029374   0.03876830
10466.00   0.27786642   0.03979060
10468.00   0.28600219   0.03990426
10470.00   0.18172362   0.03926917
10472.00   0.15653291   0.03937398
10474.00   0.23864087   0.04056524
10476.00   0.30320761   0.04152660
10478.00   0.24836178   0.04122698
10480.00   0.12811692   0.04021865
10482.00   0.12197679   0.04042999
10484.00   0.21924537   0.04169244
10486.00   0.24626505   0.04228474
10488.00   0.24564517   0.04279133
10490.00   0.23009324   0.04292230
10492.00   0.18931445   0.04231701
10494.00   0.14321910   0.04154592
10496.00   0.13925077   0.04182449
10498.00   0.16694789   0.04300792
10500.00   0.18088840   0.04321106
10502.00   0.19076152   0.04249462
10504.00   0.21048015   0.04251435
10506.00   0.25166765   0.04348925
10508.00   0.28332177   0.04443830
10510.00   0.28107461   0.04485885
10512.00   0.25687015   0.04501434
10514.00   0.22533658   0.04418541
10516.00   0.14069226   0.04132538
10518.00   0.13956580   0.04054636
10520.00   0.23665844   0.04174893
10522.00   0.29304886   0.04243668
10524.00   0.25635085   0.04183573
10526.00   0.18872312   0.04082570
10528.00   0.17209540   0.04040441
10530.00   0.17033289   0.03989316
10532.00   0.20498572   0.04084133
10534.00   0.32671112   0.04419839
10536.00   0.36004323   0.04527912
10538.00   0.27113891   0.04359082
10540.00   0.17876354   0.04158363
10542.00   0.17134067   0.04101365
10544.00   0.20700020   0.04108504
10546.00   0.25184917   0.04288376
10548.00   0.36367813   0.04848946
10550.00   0.38840684   0.04898936
10552.00   0.33798450   0.04464940
10554.00   0.28591028   0.04094834
10556.00   0.25126442   0.03995052
10558.00   0.21823272   0.04033692
10560.00   0.17949899   0.04172545
10562.00   0.12456806   0.04548118
10564.00   0.11860961   0.04499660
10566.00   0.16779849   0.04007897
10568.00   0.19224037   0.03703744
10570.00   0.18313667   0.03661311
10572.00   0.17615180   0.03686400
10574.00   0.20127262   0.03655157
10576.00   0.24582797   0.03625335
10578.00   0.26489469   0.03605473
10580.00   0.28301013   0.03593121
10582.00   0.26924148   0.03587468
10584.00   0.20048790   0.03563582
10586.00   0.15928182   0.03589369
10588.00   0.17447947   0.03704125
10590.00   0.22020040   0.03854750
10592.00   0.27716699   0.03963408
10594.00   0.38589668   0.04130342
10596.00   0.39221033   0.04035362
10598.00   0.28284532   0.03590819
10600.00   0.24051253   0.03285342
10602.00   0.28204635   0.03170585
10604.00   0.34037954   0.03144322
10606.00   0.37160051   0.03170953
10608.00   0.39708558   0.03275848
10610.00   0.39248678   0.03250999
10612.00   0.34943354   0.03116570
10614.00   0.32240954   0.03029163
10616.00   0.29739732   0.02960480
10618.00   0.27793914   0.02892154
10620.00   0.26812029   0.02816373
10622.00   0.26306960   0.02740537
10624.00   0.24979304   0.02674491
10626.00   0.21988527   0.02583553
10628.00   0.23235789   0.02608654
10630.00   0.28727189   0.02755186
10632.00   0.33055353   0.02868056
10634.00   0.37575197   0.02981971
10636.00   0.39989683   0.03047899
10638.00   0.36508116   0.02981813
10640.00   0.28288418   0.02801706
10642.00   0.24387890   0.02749024
10644.00   0.21018884   0.02828528
10646.00   0.20697297   0.02775742
10648.00   0.24049503   0.02570394
10650.00   0.27942055   0.02395847
10652.00   0.32389647   0.02338783
10654.00   0.36562097   0.02353114
10656.00   0.35196614   0.02423662
10658.00   0.27928498   0.02631583
10660.00   0.24644202   0.02629285
10662.00   0.21506512   0.02449051
10664.00   0.21011245   0.02303293
10666.00   0.25539914   0.02204043
10668.00   0.29724032   0.02122127
10670.00   0.26807031   0.02049135
10672.00   0.18813454   0.01988650
10674.00   0.18648431   0.01971517
10676.00   0.24952006   0.01980918
10678.00   0.28258404   0.02042877
10680.00   0.30637643   0.02206435
10682.00   0.31926164   0.02310734
10684.00   0.32261032   0.02284896
10686.00   0.31323874   0.02196375
10688.00   0.27201995   0.02173071
10690.00   0.16700229   0.02214854
10692.00   0.15697980   0.02133401
10694.00   0.23494560   0.01882222
10696.00   0.28044012   0.01719202
10698.00   0.28334078   0.01710825
10700.00   0.27201226   0.01762096
10702.00   0.26088652   0.01808737
10704.00   0.24118546   0.01889516
10706.00   0.24035838   0.01861318
10708.00   0.26510248   0.01716765
10710.00   0.26462018   0.01615865
10712.00   0.24068575   0.01505189
10714.00   0.21513176   0.01447130
10716.00   0.18828815   0.01511977
10718.00   0.16519751   0.01630373
10720.00   0.18916212   0.01633534
10722.00   0.27790734   0.01561330
10724.00   0.29998147   0.01506816
10726.00   0.27297321   0.01410547
10728.00   0.26064160   0.01358802
10730.00   0.27890432   0.01375540
10732.00   0.29324424   0.01419210
10734.00   0.26164347   0.01453945
10736.00   0.19155045   0.01496613
10738.00   0.18567477   0.01527903
10740.00   0.22913870   0.01565192
10742.00   0.26210591   0.01574504
10744.00   0.30863759   0.01559331
10746.00   0.33633974   0.01528155
10748.00   0.31947643   0.01473241
10750.00   0.27896664   0.01402455
10752.00   0.26892641   0.01376209
10754.00   0.27712703   0.01393954
10756.00   0.27561063   0.01383724
10758.00   0.26844671   0.01348351
10760.00   0.26799065   0.01341137
10762.00   0.27962443   0.01392506
10764.00   0.29255113   0.01439877
10766.00   0.29457816   0.01408233
10768.00   0.29131776   0.01316511
10770.00   0.27896851   0.01249978
10772.00   0.23826770   0.01143904
10774.00   0.23462768   0.01114656
10776.00   0.28773528   0.01202886
10778.00   0.31837189   0.01261325
10780.00   0.27221245   0.01210211
