# File created by shivutils (I.Shivvers)
# 
# wl(A)   flm    er(optional)
3470.00   0.53937495   0.12734795
3472.00   0.52887726   0.12671204
3474.00   0.39442328   0.12381499
3476.00   0.35755196   0.12203214
3478.00   0.61223960   0.13719848
3480.00   0.52177751   0.14250773
3482.00   0.14121853   0.13898684
3484.00   0.35992464   0.14016482
3486.00   0.43915790   0.14128359
3488.00   0.33508545   0.13483737
3490.00   0.42213181   0.13189314
3492.00   0.23539683   0.12804836
3494.00   0.57345247   0.13376534
3496.00   0.34700418   0.12924397
3498.00   0.51041341   0.13281548
3500.00   0.35139680   0.13395554
3502.00   0.41717032   0.13063335
3504.00   0.52119148   0.13408713
3506.00   0.21948694   0.12938239
3508.00   0.35662612   0.12928696
3510.00   0.14260407   0.13343066
3512.00   0.49439502   0.13401712
3514.00   0.47996563   0.13285539
3516.00   0.39575547   0.13411957
3518.00   0.70533776   0.13968675
3520.00   0.55686563   0.13667984
3522.00   0.50809699   0.13511263
3524.00   0.56370175   0.13408512
3526.00   0.38075820   0.13086568
3528.00   0.74968225   0.14048138
3530.00   0.41892499   0.14045985
3532.00   0.49472791   0.14061707
3534.00   0.27654773   0.14099535
3536.00   0.56493342   0.14831609
3538.00   0.72652584   0.15061533
3540.00   0.65980196   0.15511508
3542.00   0.53147095   0.16207144
3544.00   0.75378358   0.16798432
3546.00   0.37790370   0.16609819
3548.00   0.69534707   0.16959511
3550.00   0.64326829   0.16385216
3552.00   0.40601224   0.15687987
3554.00   0.62293458   0.15951630
3556.00   0.46681070   0.15735416
3558.00   0.84781879   0.16283691
3560.00   0.65789604   0.16417654
3562.00   0.37322420   0.16554835
3564.00   0.81585997   0.16616744
3566.00   0.64297909   0.15037589
3568.00   0.52425247   0.14321375
3570.00   0.42441499   0.14051054
3572.00   0.34106806   0.14401212
3574.00   0.36151907   0.14718437
3576.00   0.53067207   0.14439547
3578.00   0.75467503   0.14427970
3580.00   0.75094968   0.15088920
3582.00   0.59715390   0.14691740
3584.00   0.70801544   0.12863426
3586.00   0.37131044   0.10848513
3588.00   0.55399811   0.11805046
3590.00   0.35095984   0.12219477
3592.00   0.45431045   0.11804828
3594.00   0.54370028   0.11193050
3596.00   0.68898338   0.11178996
3598.00   0.44035572   0.10850071
3600.00   0.34625459   0.10531871
3602.00   0.52411860   0.10527810
3604.00   0.59347731   0.10272565
3606.00   0.71865690   0.10276451
3608.00   0.76103795   0.10245707
3610.00   0.34886128   0.09883969
3612.00   0.53200233   0.10998949
3614.00   0.34302819   0.11626327
3616.00   0.68717557   0.11444234
3618.00   0.40504336   0.10150842
3620.00   0.47677377   0.09894179
3622.00   0.50040489   0.09983384
3624.00   0.57712847   0.10210797
3626.00   0.76856816   0.10326187
3628.00   0.65592259   0.10279945
3630.00   0.62671703   0.11905780
3632.00   0.67557538   0.11087752
3634.00   0.71538234   0.10559212
3636.00   0.59122795   0.10282172
3638.00   0.55177671   0.10028947
3640.00   0.86276376   0.10700309
3642.00   0.82488143   0.11483006
3644.00   0.62084299   0.11678148
3646.00   1.01049829   0.12309488
3648.00   0.84776151   0.16347881
3650.00   0.44658756   0.19607459
3652.00   0.81534421   0.18529736
3654.00   0.58863318   0.16075313
3656.00   0.68276888   0.14499211
3658.00   0.76243657   0.11709259
3660.00   0.59710383   0.11463311
3662.00   0.30823877   0.13356756
3664.00   0.75957638   0.13536473
3666.00   0.52323371   0.10529767
3668.00   0.46644649   0.09018550
3670.00   0.51411402   0.08851804
3672.00   0.59050739   0.08770724
3674.00   0.47190267   0.08537226
3676.00   0.56819886   0.08353461
3678.00   0.43085518   0.07894739
3680.00   0.47749561   0.07976492
3682.00   0.47123000   0.07863459
3684.00   0.66594028   0.07913063
3686.00   0.50165755   0.07554816
3688.00   0.63160759   0.07764752
3690.00   0.45866418   0.08004332
3692.00   0.45995969   0.08160417
3694.00   0.62611222   0.08035245
3696.00   0.57660288   0.07911505
3698.00   0.51799077   0.08109848
3700.00   0.49278140   0.08153025
3702.00   0.82398069   0.08413334
3704.00   0.67511773   0.08086215
3706.00   0.76804662   0.07965688
3708.00   0.50207412   0.07579587
3710.00   0.54917663   0.07517526
3712.00   0.45812070   0.07593247
3714.00   0.62555522   0.07636110
3716.00   0.63617414   0.07646455
3718.00   0.74444282   0.07725427
3720.00   0.85974866   0.07749750
3722.00   0.73997629   0.07572349
3724.00   0.77843088   0.07839039
3726.00   0.71720487   0.08091857
3728.00   0.77617133   0.08083143
3730.00   0.68977004   0.07703276
3732.00   1.09665537   0.07870108
3734.00   0.83307952   0.07362812
3736.00   0.87803066   0.07387422
3738.00   0.84214658   0.07638433
3740.00   0.83858818   0.07872473
3742.00   1.05364621   0.07912540
3744.00   1.06847656   0.07637632
3746.00   0.94522923   0.07270972
3748.00   0.93374032   0.07081129
3750.00   0.96599162   0.07119407
3752.00   0.98463482   0.07333882
3754.00   1.03766859   0.07466349
3756.00   1.07949162   0.07390574
3758.00   1.14368355   0.07256325
3760.00   0.86095709   0.06902762
3762.00   0.81672561   0.06734532
3764.00   1.10366011   0.06942994
3766.00   1.02172983   0.06803575
3768.00   1.10849440   0.06758236
3770.00   1.07953537   0.06962577
3772.00   1.07181489   0.07002652
3774.00   0.94354188   0.06710912
3776.00   0.85781932   0.06565039
3778.00   0.89216787   0.06602787
3780.00   0.89568883   0.06505500
3782.00   0.86163676   0.06516603
3784.00   1.01922023   0.06667678
3786.00   0.94985378   0.06389291
3788.00   0.92262959   0.06378205
3790.00   0.87851518   0.06629287
3792.00   0.88533765   0.06565712
3794.00   0.73901069   0.06185625
3796.00   0.74106485   0.05982240
3798.00   0.83612597   0.05983939
3800.00   0.71299958   0.06004838
3802.00   0.76389694   0.06345380
3804.00   0.68068045   0.06201655
3806.00   0.64838523   0.05877116
3808.00   0.68982542   0.05850031
3810.00   0.62395734   0.05801407
3812.00   0.64370173   0.05890420
3814.00   0.54550391   0.05725071
3816.00   0.49035275   0.05666690
3818.00   0.57969224   0.05724768
3820.00   0.52166396   0.05662543
3822.00   0.50634801   0.05695193
3824.00   0.43787670   0.05587026
3826.00   0.69901437   0.05869896
3828.00   0.34587476   0.06097581
3830.00   0.57404608   0.06187397
3832.00   0.55463278   0.06049242
3834.00   0.67239207   0.05976898
3836.00   0.42400774   0.05802907
3838.00   0.44648394   0.05942397
3840.00   0.48160961   0.05941414
3842.00   0.43555379   0.05885131
3844.00   0.39934868   0.05854905
3846.00   0.47495449   0.05781006
3848.00   0.40744504   0.05671726
3850.00   0.52857727   0.05665836
3852.00   0.49215847   0.05615590
3854.00   0.45959574   0.05660588
3856.00   0.41719672   0.05663648
3858.00   0.42865387   0.05518079
3860.00   0.37231621   0.05459791
3862.00   0.49145138   0.05731966
3864.00   0.56246710   0.05861273
3866.00   0.66312659   0.05826510
3868.00   0.42049661   0.05495719
3870.00   0.59502441   0.05620020
3872.00   0.65675551   0.06106806
3874.00   0.57845950   0.06463959
3876.00   0.48809505   0.06282947
3878.00   0.51336306   0.06125226
3880.00   0.59270626   0.06031047
3882.00   0.67325729   0.06263816
3884.00   0.52943367   0.06348980
3886.00   0.61772537   0.06428391
3888.00   0.67511255   0.06411268
3890.00   0.65662420   0.06234050
3892.00   0.62915069   0.06107387
3894.00   0.74063921   0.06467417
3896.00   0.75463963   0.06528921
3898.00   0.74101001   0.06345145
3900.00   0.71273124   0.06347195
3902.00   0.72897530   0.06595878
3904.00   0.85233998   0.07107461
3906.00   0.74198413   0.07968581
3908.00   0.97274607   0.08629537
3910.00   1.01368999   0.09234091
3912.00   1.11630952   0.10193582
3914.00   1.18934524   0.09584269
3916.00   0.93562907   0.07431182
3918.00   1.06498909   0.06189281
3920.00   0.93517327   0.05651152
3922.00   0.92997670   0.05450417
3924.00   1.10071409   0.05521861
3926.00   1.01501489   0.05335639
3928.00   0.97136128   0.05126747
3930.00   1.01659906   0.05304267
3932.00   1.10689652   0.05643365
3934.00   1.06759953   0.05593479
3936.00   1.20639336   0.05265614
3938.00   1.13973153   0.05157933
3940.00   1.16543353   0.05306673
3942.00   1.12140262   0.05650768
3944.00   1.18691647   0.05918404
3946.00   1.16228020   0.05692745
3948.00   1.25964296   0.05542114
3950.00   1.30685973   0.05441283
3952.00   1.35103607   0.05395976
3954.00   1.24269569   0.05269645
3956.00   1.35108232   0.05271336
3958.00   1.52385640   0.05546261
3960.00   1.41787410   0.05834859
3962.00   1.37755537   0.05795040
3964.00   1.38173151   0.05278679
3966.00   1.43824983   0.05113347
3968.00   1.43058753   0.05054966
3970.00   1.47751343   0.05083996
3972.00   1.53492999   0.05239710
3974.00   1.39766765   0.05202899
3976.00   1.33946848   0.05069602
3978.00   1.46013546   0.05198159
3980.00   1.51354945   0.05272201
3982.00   1.53707671   0.05309262
3984.00   1.53569245   0.05238352
3986.00   1.58043694   0.05297302
3988.00   1.67459130   0.05409228
3990.00   1.63621211   0.05454498
3992.00   1.57095218   0.05394188
3994.00   1.55586946   0.05646808
3996.00   1.64891183   0.06010692
3998.00   1.68739057   0.05930566
4000.00   1.60674632   0.05560946
4002.00   1.54750073   0.05322042
4004.00   1.65602922   0.05325315
4006.00   1.51370621   0.05332323
4008.00   1.53165233   0.05510276
4010.00   1.46388280   0.05534270
4012.00   1.39937425   0.05454681
4014.00   1.37492621   0.05374618
4016.00   1.43683946   0.05543099
4018.00   1.50238287   0.06330889
4020.00   1.41101789   0.07037278
4022.00   1.33791971   0.07241089
4024.00   1.55133998   0.07107038
4026.00   1.46901405   0.06438831
4028.00   1.51890922   0.06098963
4030.00   1.51423824   0.06006324
4032.00   1.51431954   0.05897664
4034.00   1.37728846   0.05693344
4036.00   1.43908679   0.05621906
4038.00   1.54801118   0.05537108
4040.00   1.62509191   0.05610688
4042.00   1.60714269   0.06206608
4044.00   1.85251391   0.10030539
4046.00   1.73661184   0.12056841
4048.00   1.52148604   0.10551909
4050.00   1.69390225   0.07446898
4052.00   1.62818444   0.06304128
4054.00   1.67383313   0.06282901
4056.00   1.74188256   0.06075987
4058.00   1.78734195   0.05702911
4060.00   1.89718044   0.05549283
4062.00   1.79750323   0.05439357
4064.00   1.67873049   0.05364302
4066.00   1.78850138   0.05427499
4068.00   1.90501952   0.05492435
4070.00   1.97223234   0.05422572
4072.00   2.01860499   0.05352903
4074.00   1.93704748   0.05619173
4076.00   2.00003695   0.06392625
4078.00   2.03525519   0.06624245
4080.00   2.01632309   0.06357878
4082.00   2.05193567   0.06245593
4084.00   1.83805382   0.06020018
4086.00   1.82931149   0.05870711
4088.00   1.93523908   0.05631458
4090.00   1.83300507   0.05184310
4092.00   1.82485628   0.05100162
4094.00   1.76026201   0.05058922
4096.00   1.74429882   0.05038285
4098.00   1.69108403   0.04970092
4100.00   1.70086992   0.04934549
4102.00   1.68782687   0.04817512
4104.00   1.57483160   0.04743352
4106.00   1.62125540   0.04821581
4108.00   1.69743216   0.04866644
4110.00   1.61866665   0.04799351
4112.00   1.61788487   0.04797147
4114.00   1.53586555   0.04799607
4116.00   1.53745818   0.04776755
4118.00   1.51793957   0.04646000
4120.00   1.46168768   0.04524346
4122.00   1.43856764   0.04534623
4124.00   1.47655952   0.04578525
4126.00   1.49794936   0.04623062
4128.00   1.47103453   0.04662862
4130.00   1.44132161   0.04812204
4132.00   1.51696134   0.05054664
4134.00   1.41288900   0.04914631
4136.00   1.34577143   0.04739561
4138.00   1.41858697   0.04931048
4140.00   1.33168161   0.04962087
4142.00   1.37392902   0.04739049
4144.00   1.33753550   0.04510756
4146.00   1.32344186   0.04450436
4148.00   1.35619164   0.04544902
4150.00   1.25605273   0.04775750
4152.00   1.19376612   0.04910529
4154.00   1.15523314   0.04746648
4156.00   1.22926927   0.04561067
4158.00   1.13787782   0.04466756
4160.00   1.10320461   0.04496991
4162.00   1.14495587   0.04872508
4164.00   1.05228901   0.05136117
4166.00   1.13375318   0.05064202
4168.00   1.08535743   0.04671507
4170.00   1.07274354   0.04432561
4172.00   0.98404521   0.04236587
4174.00   1.08163178   0.04215328
4176.00   0.98348147   0.04250286
4178.00   1.01753640   0.04320256
4180.00   1.03988302   0.04249000
4182.00   0.99366826   0.04120070
4184.00   0.99681300   0.04105552
4186.00   0.96774960   0.04111331
4188.00   0.98068804   0.04104674
4190.00   1.01356757   0.04156132
4192.00   1.01781380   0.04179174
4194.00   0.89899743   0.04112083
4196.00   0.97689807   0.04096907
4198.00   1.00921774   0.04078731
4200.00   1.00050104   0.04018090
4202.00   1.05527413   0.04013510
4204.00   1.03240097   0.04050006
4206.00   0.93587327   0.04090916
4208.00   1.07461715   0.04257365
4210.00   1.04015851   0.04300197
4212.00   1.05745804   0.04293180
4214.00   1.00624132   0.04195682
4216.00   0.97969061   0.04137358
4218.00   0.96606171   0.04098073
4220.00   0.97169894   0.04101081
4222.00   0.91323423   0.04024655
4224.00   1.01972950   0.04073621
4226.00   0.98137236   0.04062435
4228.00   1.06115556   0.04146673
4230.00   0.90969938   0.04177887
4232.00   0.87790245   0.04296379
4234.00   1.01752579   0.04439286
4236.00   0.98173177   0.04453201
4238.00   0.89783633   0.04327691
4240.00   0.92202270   0.04084766
4242.00   0.95947349   0.04073244
4244.00   0.83044958   0.04621446
4246.00   0.99685657   0.05055650
4248.00   0.99621451   0.04779622
4250.00   0.87863374   0.04221179
4252.00   0.92374724   0.04013326
4254.00   0.95504260   0.04068808
4256.00   0.95414716   0.04090713
4258.00   0.89437807   0.04017600
4260.00   0.89556372   0.03921070
4262.00   0.97833103   0.03912996
4264.00   0.98196137   0.03908326
4266.00   0.95102155   0.03897581
4268.00   0.91950047   0.03910683
4270.00   0.95129132   0.03970942
4272.00   0.95875633   0.03988471
4274.00   0.95613045   0.04154854
4276.00   0.92400736   0.04287118
4278.00   1.02686369   0.04228874
4280.00   1.03011143   0.04002135
4282.00   1.07981396   0.03927895
4284.00   0.96242231   0.03795367
4286.00   1.00323439   0.03749746
4288.00   0.99021596   0.03701207
4290.00   0.96956718   0.03686553
4292.00   1.08957136   0.03775167
4294.00   1.05165982   0.03766223
4296.00   1.03180337   0.03731505
4298.00   1.02083361   0.03660714
4300.00   1.03615606   0.03595822
4302.00   1.06355488   0.03615639
4304.00   1.01585400   0.03670583
4306.00   1.00026560   0.03678255
4308.00   0.99838871   0.03683151
4310.00   0.96397507   0.03871157
4312.00   1.06046069   0.04290871
4314.00   0.90985185   0.04327187
4316.00   0.88657928   0.04235431
4318.00   0.94709957   0.04255163
4320.00   0.95128125   0.04221142
4322.00   0.96580219   0.04180125
4324.00   0.99502850   0.04100475
4326.00   0.98924673   0.03941328
4328.00   0.96338665   0.03764712
4330.00   0.97824740   0.03694008
4332.00   0.96883154   0.03651496
4334.00   0.95208848   0.03688008
4336.00   0.95783514   0.03768329
4338.00   0.85531652   0.03770319
4340.00   0.97327179   0.03847665
4342.00   0.95824420   0.03863724
4344.00   1.04016650   0.04077565
4346.00   1.13692057   0.04327916
4348.00   0.94510019   0.04230550
4350.00   1.00739098   0.04118544
4352.00   1.02395844   0.04095070
4354.00   1.22381997   0.06238633
4356.00   1.39572120   0.09922598
4358.00   1.25129282   0.10858104
4360.00   1.16357267   0.08712460
4362.00   1.15646422   0.06357003
4364.00   1.02323270   0.04818425
4366.00   1.09874773   0.04366080
4368.00   1.13889873   0.04268460
4370.00   1.06112897   0.04215128
4372.00   1.02216709   0.04325348
4374.00   1.01253235   0.04383960
4376.00   1.09832311   0.04209490
4378.00   1.02472615   0.04011145
4380.00   1.07421362   0.03907451
4382.00   0.98589337   0.03791945
4384.00   1.13771272   0.03793057
4386.00   1.09201336   0.03739628
4388.00   1.09508371   0.03756526
4390.00   1.06193554   0.03769631
4392.00   1.06204247   0.03742116
4394.00   1.08187771   0.03707255
4396.00   1.09985447   0.03752482
4398.00   1.03325713   0.03888230
4400.00   1.09768343   0.03994582
4402.00   1.15657389   0.03899174
4404.00   1.05021000   0.03741952
4406.00   1.13475132   0.03763970
4408.00   1.17575049   0.03797511
4410.00   1.12679446   0.03801529
4412.00   1.08604419   0.03874125
4414.00   1.05190301   0.03964873
4416.00   1.14851999   0.03958376
4418.00   1.06603515   0.03821400
4420.00   1.05164814   0.03748182
4422.00   1.12701607   0.03761966
4424.00   1.03189552   0.03689742
4426.00   1.01002812   0.03681730
4428.00   1.07820892   0.03684072
4430.00   1.05117440   0.03686452
4432.00   0.98621041   0.03628061
4434.00   1.06973624   0.03626925
4436.00   1.02049565   0.03616632
4438.00   1.02521133   0.03647375
4440.00   1.01890945   0.03607875
4442.00   1.08621526   0.03618629
4444.00   1.09980357   0.03629255
4446.00   0.96100122   0.03551541
4448.00   1.00132239   0.03522860
4450.00   1.03484988   0.03540278
4452.00   1.09038305   0.03549081
4454.00   1.02886093   0.03526666
4456.00   1.01401579   0.03529249
4458.00   1.03398156   0.03529182
4460.00   1.03988826   0.03541709
4462.00   1.05555809   0.03532214
4464.00   1.07818973   0.03536348
4466.00   1.09519660   0.03511994
4468.00   1.06783319   0.03498063
4470.00   0.99501252   0.03441079
4472.00   1.05705273   0.03478763
4474.00   1.04051077   0.03488922
4476.00   1.06529975   0.03471101
4478.00   1.02298868   0.03469364
4480.00   1.03343248   0.03457634
4482.00   1.02594042   0.03480542
4484.00   1.10094571   0.03525654
4486.00   1.06330657   0.03521945
4488.00   1.08708262   0.03508133
4490.00   1.12394798   0.03564152
4492.00   0.98360354   0.03540815
4494.00   1.07711828   0.03590855
4496.00   1.05932307   0.03588665
4498.00   1.08778894   0.03597720
4500.00   1.06037402   0.03548316
4502.00   1.13832653   0.03546816
4504.00   1.14665842   0.03533930
4506.00   1.20352197   0.03540114
4508.00   1.11933589   0.03501822
4510.00   1.21375322   0.03523712
4512.00   1.26622427   0.03583891
4514.00   1.18860877   0.03531953
4516.00   1.26655996   0.03511666
4518.00   1.24130535   0.03493784
4520.00   1.24871075   0.03491830
4522.00   1.31719971   0.03497399
4524.00   1.29979622   0.03464425
4526.00   1.33439541   0.03467949
4528.00   1.33941603   0.03477373
4530.00   1.29030740   0.03463817
4532.00   1.45049024   0.03524981
4534.00   1.32888019   0.03483630
4536.00   1.34919655   0.03473917
4538.00   1.43255496   0.03507986
4540.00   1.43450832   0.03534422
4542.00   1.46447062   0.03608960
4544.00   1.53463221   0.03637597
4546.00   1.50144398   0.03584284
4548.00   1.54845440   0.03557301
4550.00   1.61374271   0.03556728
4552.00   1.68180728   0.03599092
4554.00   1.69996643   0.03602318
4556.00   1.65992999   0.03607418
4558.00   1.70086491   0.03613298
4560.00   1.74308848   0.03600676
4562.00   1.77441680   0.03578482
4564.00   1.85129917   0.03583270
4566.00   1.81002724   0.03561039
4568.00   1.81370103   0.03559460
4570.00   1.88081098   0.03613429
4572.00   1.90868616   0.03648892
4574.00   1.89619601   0.03641861
4576.00   1.99427831   0.03638632
4578.00   1.99437666   0.03613794
4580.00   1.99229383   0.03562124
4582.00   2.00847220   0.03539974
4584.00   1.95708919   0.03513860
4586.00   2.03360343   0.03548226
4588.00   1.99777508   0.03572597
4590.00   2.04964161   0.03595380
4592.00   2.03318548   0.03610528
4594.00   2.13404107   0.03649079
4596.00   2.07459521   0.03626326
4598.00   2.10373139   0.03599378
4600.00   2.03373170   0.03527996
4602.00   2.05782628   0.03527135
4604.00   2.09817648   0.03531056
4606.00   2.07073045   0.03537340
4608.00   2.06607413   0.03555819
4610.00   2.17368698   0.03589186
4612.00   2.07518458   0.03521174
4614.00   2.06327581   0.03501530
4616.00   2.10005379   0.03485740
4618.00   2.10220814   0.03488742
4620.00   2.17672873   0.03513420
4622.00   2.12901664   0.03493090
4624.00   2.18134546   0.03514059
4626.00   2.13479018   0.03494135
4628.00   2.18372202   0.03508341
4630.00   2.12961316   0.03500624
4632.00   2.20055270   0.03508239
4634.00   2.15976071   0.03483178
4636.00   2.21610713   0.03500678
4638.00   2.24525642   0.03519509
4640.00   2.23206592   0.03506439
4642.00   2.22499442   0.03500906
4644.00   2.18558979   0.03481949
4646.00   2.19092894   0.03488811
4648.00   2.22799802   0.03551893
4650.00   2.25786829   0.03559754
4652.00   2.23499250   0.03547301
4654.00   2.23549008   0.03539988
4656.00   2.32289910   0.03587809
4658.00   2.28794670   0.03597829
4660.00   2.28518200   0.03637013
4662.00   2.30129099   0.03682298
4664.00   2.31559157   0.03740234
4666.00   2.23622823   0.03777985
4668.00   2.26625204   0.03829307
4670.00   2.36824632   0.03867434
4672.00   2.36198330   0.03826787
4674.00   2.21599746   0.03726268
4676.00   2.32070470   0.03699676
4678.00   2.37418342   0.03686998
4680.00   2.32254791   0.03630919
4682.00   2.35530949   0.03603919
4684.00   2.32747006   0.03572163
4686.00   2.30496025   0.03536835
4688.00   2.33882308   0.03545250
4690.00   2.19675541   0.03488969
4692.00   2.33571053   0.03537833
4694.00   2.22529626   0.03486700
4696.00   2.23629665   0.03453830
4698.00   2.21690941   0.03435610
4700.00   2.23688340   0.03437167
4702.00   2.20987082   0.03453245
4704.00   2.15171766   0.03483083
4706.00   2.19963050   0.03551542
4708.00   2.16911817   0.03556481
4710.00   2.12372851   0.03525382
4712.00   2.12675071   0.03486683
4714.00   2.07350326   0.03432496
4716.00   2.06454611   0.03395317
4718.00   2.05614042   0.03383910
4720.00   2.08302069   0.03411275
4722.00   2.01859140   0.03378404
4724.00   2.02538681   0.03419968
4726.00   1.98464417   0.03591230
4728.00   2.08282113   0.03721510
4730.00   2.00757837   0.03717449
4732.00   2.05473018   0.03778949
4734.00   2.05909729   0.03859781
4736.00   2.07474613   0.03897392
4738.00   2.05837727   0.04000681
4740.00   1.95058429   0.04110921
4742.00   1.98590720   0.04102246
4744.00   1.87507796   0.03896422
4746.00   1.88190532   0.03659558
4748.00   1.94799137   0.03503887
4750.00   1.89632666   0.03479722
4752.00   1.85967267   0.03436195
4754.00   1.90110886   0.03367019
4756.00   2.00638700   0.03325975
4758.00   1.94322252   0.03234027
4760.00   1.89502835   0.03158804
4762.00   1.88896525   0.03140097
4764.00   1.92393756   0.03135857
4766.00   1.85083532   0.03072922
4768.00   1.88873899   0.03081540
4770.00   1.91816235   0.03085750
4772.00   1.87379444   0.03065374
4774.00   1.90424025   0.03116937
4776.00   1.90117598   0.03236235
4778.00   1.85207474   0.03264358
4780.00   1.89915061   0.03227869
4782.00   1.94983077   0.03174708
4784.00   1.84771216   0.03085016
4786.00   1.84000862   0.03056869
4788.00   1.82963872   0.03068433
4790.00   1.77644765   0.03058076
4792.00   1.80303776   0.03054481
4794.00   1.81187797   0.03027410
4796.00   1.79309702   0.03007587
4798.00   1.77104211   0.02979929
4800.00   1.87961841   0.03009714
4802.00   1.83402479   0.02990738
4804.00   1.78562510   0.02980980
4806.00   1.76428747   0.02984805
4808.00   1.77596366   0.02999570
4810.00   1.74862075   0.02992534
4812.00   1.67764652   0.02971721
4814.00   1.77146590   0.02992723
4816.00   1.78443801   0.02999530
4818.00   1.73958707   0.03003185
4820.00   1.67508054   0.03008026
4822.00   1.75348568   0.03057001
4824.00   1.76357639   0.03081986
4826.00   1.75332439   0.03090954
4828.00   1.73419738   0.03083836
4830.00   1.77929139   0.03123312
4832.00   1.68731701   0.03084542
4834.00   1.73959899   0.03079090
4836.00   1.72593331   0.03121967
4838.00   1.71117103   0.03167260
4840.00   1.74482262   0.03155398
4842.00   1.71099496   0.03089580
4844.00   1.76054931   0.03101852
4846.00   1.80515707   0.03110795
4848.00   1.76082480   0.03098330
4850.00   1.72314429   0.03087585
4852.00   1.72247863   0.03058239
4854.00   1.73744667   0.03025338
4856.00   1.72197735   0.02994411
4858.00   1.71253562   0.02971753
4860.00   1.71742678   0.02990743
4862.00   1.65013146   0.02988473
4864.00   1.74614370   0.03033650
4866.00   1.75299668   0.03030589
4868.00   1.77263093   0.03022038
4870.00   1.70583630   0.02990637
4872.00   1.74831605   0.03013955
4874.00   1.71004260   0.03012093
4876.00   1.68918943   0.03031603
4878.00   1.61749601   0.03023563
4880.00   1.66941798   0.03013136
4882.00   1.62332201   0.02982495
4884.00   1.64841354   0.02946921
4886.00   1.66952348   0.02922545
4888.00   1.68213093   0.02926253
4890.00   1.66745460   0.02923862
4892.00   1.66602540   0.02938796
4894.00   1.67280364   0.02949552
4896.00   1.65513873   0.02926961
4898.00   1.68838501   0.02922317
4900.00   1.69516933   0.02910837
4902.00   1.74562943   0.02926086
4904.00   1.77632987   0.02950801
4906.00   1.82180452   0.02986175
4908.00   1.76439488   0.02987488
4910.00   1.74860251   0.02969040
4912.00   1.87911296   0.03020422
4914.00   1.87952912   0.03022554
4916.00   1.87268436   0.03007185
4918.00   1.85744357   0.02993920
4920.00   1.84454942   0.02989518
4922.00   1.92431998   0.03005001
4924.00   1.85327685   0.02943400
4926.00   1.83487022   0.02928563
4928.00   1.89338315   0.02921627
4930.00   1.87206841   0.02915584
4932.00   1.86742473   0.02915067
4934.00   1.90538740   0.02941312
4936.00   1.87329817   0.02937515
4938.00   1.87849176   0.02955935
4940.00   1.84972799   0.02945952
4942.00   1.82471251   0.02917440
4944.00   1.84030068   0.02905974
4946.00   1.85194767   0.02887667
4948.00   1.82655013   0.02884717
4950.00   1.79769468   0.02919410
4952.00   1.78420138   0.02947250
4954.00   1.77808011   0.02928798
4956.00   1.81389451   0.02908179
4958.00   1.78185582   0.02876902
4960.00   1.83466971   0.02903465
4962.00   1.74349558   0.02873028
4964.00   1.83391225   0.02920576
4966.00   1.81448269   0.02935935
4968.00   1.76249015   0.02956802
4970.00   1.74854136   0.03028875
4972.00   1.80502474   0.03129990
4974.00   1.81986928   0.03209482
4976.00   1.70418334   0.03302235
4978.00   1.72789514   0.03461182
4980.00   1.73191023   0.03575935
4982.00   1.75393784   0.03614876
4984.00   1.79393995   0.03572207
4986.00   1.73790550   0.03454210
4988.00   1.75868094   0.03369801
4990.00   1.85052037   0.03310427
4992.00   1.80959165   0.03188299
4994.00   1.77316451   0.03083369
4996.00   1.80526793   0.03009044
4998.00   1.81463158   0.02952627
5000.00   1.77085221   0.02904314
5002.00   1.81411970   0.02889469
5004.00   1.79685283   0.02856746
5006.00   1.81226397   0.02838261
5008.00   1.85339594   0.02834580
5010.00   1.86047924   0.02819438
5012.00   1.88802218   0.02817512
5014.00   1.83930051   0.02827802
5016.00   1.87249947   0.02877108
5018.00   1.82324910   0.02882252
5020.00   1.85187125   0.02891169
5022.00   1.83062577   0.02842918
5024.00   1.80225050   0.02800721
5026.00   1.80508769   0.02815733
5028.00   1.83214879   0.02859699
5030.00   1.81067693   0.02863471
5032.00   1.80719662   0.02820268
5034.00   1.77769911   0.02777883
5036.00   1.84088469   0.02774717
5038.00   1.85083210   0.02755466
5040.00   1.78333235   0.02730687
5042.00   1.81630123   0.02758699
5044.00   1.84102285   0.02776074
5046.00   1.74979424   0.02742502
5048.00   1.75322413   0.02748307
5050.00   1.75474751   0.02744525
5052.00   1.76228130   0.02738224
5054.00   1.75622892   0.02730205
5056.00   1.72617602   0.02722907
5058.00   1.82073402   0.02766106
5060.00   1.82907057   0.02844145
5062.00   1.79086697   0.02895314
5064.00   1.71478033   0.02920883
5066.00   1.72192860   0.03017166
5068.00   1.67038643   0.03064002
5070.00   1.68089962   0.03021104
5072.00   1.68283212   0.02969346
5074.00   1.62908149   0.02923647
5076.00   1.61313534   0.02911217
5078.00   1.64698482   0.03140031
5080.00   1.60999489   0.03434422
5082.00   1.57217062   0.03670650
5084.00   1.60735142   0.03775934
5086.00   1.63168526   0.03700023
5088.00   1.54375803   0.03452704
5090.00   1.50105882   0.03180442
5092.00   1.51087940   0.03000344
5094.00   1.54442704   0.02974308
5096.00   1.53180766   0.03034745
5098.00   1.49296379   0.03066536
5100.00   1.52773046   0.03021097
5102.00   1.53152132   0.02909516
5104.00   1.49408042   0.02807788
5106.00   1.44389451   0.02733167
5108.00   1.45664036   0.02723120
5110.00   1.47482109   0.02721482
5112.00   1.47530580   0.02763897
5114.00   1.45462132   0.02772634
5116.00   1.43007553   0.02755407
5118.00   1.42967558   0.02708281
5120.00   1.44681489   0.02670161
5122.00   1.46400428   0.02645684
5124.00   1.44821107   0.02627951
5126.00   1.47020853   0.02626789
5128.00   1.47486162   0.02633030
5130.00   1.46788442   0.02644177
5132.00   1.45728385   0.02638487
5134.00   1.52302122   0.02682116
5136.00   1.53255212   0.02677797
5138.00   1.49104810   0.02652168
5140.00   1.51142251   0.02677454
5142.00   1.57690656   0.02716891
5144.00   1.56544137   0.02740566
5146.00   1.54891539   0.02799850
5148.00   1.57555628   0.02880944
5150.00   1.54253340   0.02937260
5152.00   1.61869895   0.03013342
5154.00   1.61535501   0.03020266
5156.00   1.69923258   0.02990504
5158.00   1.66969335   0.02943317
5160.00   1.59451294   0.02848689
5162.00   1.69651413   0.02838437
5164.00   1.66085076   0.02783049
5166.00   1.68400908   0.02767222
5168.00   1.69565856   0.02754085
5170.00   1.72685468   0.02759914
5172.00   1.78306329   0.02802110
5174.00   1.73435307   0.02811705
5176.00   1.70131171   0.02802388
5178.00   1.75570881   0.02838418
5180.00   1.72272372   0.02802116
5182.00   1.85083830   0.02845573
5184.00   1.79641962   0.02847865
5186.00   1.80939269   0.02855538
5188.00   1.77920651   0.02856549
5190.00   1.80572236   0.02877074
5192.00   1.82012177   0.02919181
5194.00   1.90177345   0.03079301
5196.00   1.82375884   0.03181932
5198.00   1.91465223   0.03246283
5200.00   1.85943317   0.03176260
5202.00   1.86347651   0.03108574
5204.00   1.85072637   0.03051144
5206.00   1.90048289   0.03058014
5208.00   1.94684327   0.03116101
5210.00   1.90421534   0.03102062
5212.00   1.87901688   0.03052623
5214.00   1.96536708   0.03082951
5216.00   1.94869781   0.03120804
5218.00   1.97117531   0.03135919
5220.00   2.00478792   0.03129055
5222.00   2.02096581   0.03108130
5224.00   1.96665859   0.03055326
5226.00   1.95160866   0.03045336
5228.00   1.99035668   0.03076207
5230.00   1.97194374   0.03078318
5232.00   1.99887764   0.03080028
5234.00   2.01204157   0.03090709
5236.00   2.05657840   0.03136657
5238.00   2.03346443   0.03137509
5240.00   2.04899740   0.03129701
5242.00   2.01285148   0.03103262
5244.00   1.96753967   0.03087315
5246.00   1.92543244   0.03057877
5248.00   1.97630584   0.03079790
5250.00   2.04145265   0.03105127
5252.00   2.02656794   0.03126288
5254.00   2.07870317   0.03211024
5256.00   2.02788281   0.03235197
5258.00   2.01362300   0.03226202
5260.00   2.03881407   0.03189648
5262.00   2.02591252   0.03163261
5264.00   1.92433035   0.03110859
5266.00   1.99370384   0.03112660
5268.00   2.06455588   0.03128095
5270.00   1.97361696   0.03108997
5272.00   2.05196524   0.03146855
5274.00   2.00173855   0.03164543
5276.00   2.04393005   0.03189775
5278.00   1.93185377   0.03136127
5280.00   2.01435447   0.03187169
5282.00   2.04539108   0.03247230
5284.00   2.04570937   0.03272507
5286.00   2.08307266   0.03279149
5288.00   2.09582520   0.03282072
5290.00   2.10818458   0.03287356
5292.00   2.10785031   0.03283722
5294.00   2.07232022   0.03282786
5296.00   2.09080124   0.03311571
5298.00   2.06499577   0.03324837
5300.00   2.14214921   0.03364246
5302.00   2.14141464   0.03374994
5304.00   2.19583678   0.03397121
5306.00   2.19479132   0.03416606
5308.00   2.20732260   0.03449570
5310.00   2.22978330   0.03478242
5312.00   2.27019525   0.03505219
5314.00   2.32800198   0.03532128
5316.00   2.23044729   0.03498175
5318.00   2.28197408   0.03522075
5320.00   2.29210329   0.03537272
5322.00   2.37158942   0.03590949
5324.00   2.36259651   0.03604358
5326.00   2.36667705   0.03623379
5328.00   2.35769176   0.03650818
5330.00   2.37884927   0.03694869
5332.00   2.44691110   0.03721550
5334.00   2.44978619   0.03741110
5336.00   2.42709827   0.03779350
5338.00   2.45167971   0.03841583
5340.00   2.47156262   0.03898746
5342.00   2.46050239   0.03900241
5344.00   2.43423128   0.03918939
5346.00   2.54525447   0.04075186
5348.00   2.44960976   0.04077585
5350.00   2.48939252   0.04086111
5352.00   2.64076209   0.04202268
5354.00   2.61729455   0.04254059
5356.00   2.50980783   0.04141294
5358.00   2.49157739   0.04071087
5360.00   2.45532227   0.03998028
5362.00   2.53155375   0.03979409
5364.00   2.52984762   0.03948254
5366.00   2.46096063   0.03917065
5368.00   2.58123136   0.03952200
5370.00   2.56084466   0.03988702
5372.00   2.49765778   0.04046127
5374.00   2.55332899   0.04105564
5376.00   2.47804284   0.04054098
5378.00   2.50638342   0.04051657
5380.00   2.56233549   0.04067092
5382.00   2.50008416   0.04028198
5384.00   2.42177391   0.03985059
5386.00   2.40364361   0.03993998
5388.00   2.32167220   0.04044263
5390.00   2.42506361   0.04154702
5392.00   2.42098880   0.04144112
5394.00   2.47466922   0.04137766
5396.00   2.43838358   0.04127473
5398.00   2.45053840   0.04123696
5400.00   2.51418042   0.04149344
5402.00   2.36056209   0.04084414
5404.00   2.40301061   0.04124633
5406.00   2.43790269   0.04159330
5408.00   2.28592682   0.04153560
5410.00   2.37974548   0.04235722
5412.00   2.37965345   0.04314991
5414.00   2.36040068   0.04381337
5416.00   2.50214005   0.04464302
5418.00   2.42314172   0.04467661
5420.00   2.36736989   0.04456844
5422.00   2.43013859   0.04481322
5424.00   2.38813233   0.04452318
5426.00   2.35329199   0.04417028
5428.00   2.34634829   0.04405330
5430.00   2.39520168   0.04441386
5432.00   2.34323263   0.04424759
5434.00   2.41762543   0.01972401
5436.00   2.43411422   0.02186236
5438.00   2.45312738   0.02240468
5440.00   2.49619174   0.02193774
5442.00   2.49951768   0.02152317
5444.00   2.45319986   0.02027766
5446.00   2.41940498   0.01979089
5448.00   2.43335772   0.02112191
5450.00   2.46895242   0.02331007
5452.00   2.46770358   0.02465711
5454.00   2.42099142   0.02593608
5456.00   2.42970276   0.02681915
5458.00   2.49254179   0.02739167
5460.00   2.53138375   0.02781118
5462.00   2.52029586   0.02819422
5464.00   2.49090552   0.02838498
5466.00   2.48669124   0.02803566
5468.00   2.48652077   0.02710301
5470.00   2.50872517   0.02627952
5472.00   2.57648826   0.02521609
5474.00   2.60553527   0.02425736
5476.00   2.57635856   0.02353334
5478.00   2.53372216   0.02279929
5480.00   2.52536392   0.02167155
5482.00   2.53094268   0.02009683
5484.00   2.54989672   0.01916952
5486.00   2.59361029   0.01872796
5488.00   2.62759113   0.01840813
5490.00   2.65824485   0.01845884
5492.00   2.68141079   0.01845169
5494.00   2.69110584   0.01786141
5496.00   2.68991351   0.01682569
5498.00   2.68427134   0.01683308
5500.00   2.66908813   0.01776674
5502.00   2.65374351   0.01838209
5504.00   2.63055182   0.01923673
5506.00   2.61383462   0.01961173
5508.00   2.61377621   0.01892730
5510.00   2.62298679   0.01756865
5512.00   2.61976838   0.01727268
5514.00   2.61309123   0.01747949
5516.00   2.59901929   0.01810790
5518.00   2.56902456   0.01973576
5520.00   2.54946184   0.02065116
5522.00   2.55196095   0.02050718
5524.00   2.56236148   0.01976390
5526.00   2.55463314   0.01881735
5528.00   2.52759957   0.01701382
5530.00   2.52850342   0.01609463
5532.00   2.56045175   0.01555321
5534.00   2.57242775   0.01559929
5536.00   2.54583192   0.01669783
5538.00   2.51913309   0.01782727
5540.00   2.54335141   0.01760397
5542.00   2.60740256   0.01608109
5544.00   2.64529228   0.01661461
5546.00   2.68689704   0.01943734
5548.00   2.70549130   0.02015679
5550.00   2.69620895   0.01858534
5552.00   2.67742324   0.01658259
5554.00   2.66264224   0.01598523
5556.00   2.64513350   0.01611708
5558.00   2.62928128   0.01619864
5560.00   2.61155987   0.01641897
5562.00   2.59854054   0.01699748
5564.00   2.58896971   0.01779913
5566.00   2.58258510   0.01892901
5568.00   2.57264137   0.01994616
5570.00   2.56504130   0.02120923
5572.00   2.60265064   0.02509421
5574.00   2.73530698   0.03338535
5576.00   2.74492383   0.03425745
5578.00   2.64212966   0.02920990
5580.00   2.56231880   0.02403598
5582.00   2.54401851   0.02150518
5584.00   2.55168962   0.02010030
5586.00   2.55785322   0.01836315
5588.00   2.58076739   0.01698899
5590.00   2.58895826   0.01585527
5592.00   2.58668470   0.01521707
5594.00   2.58930206   0.01475508
5596.00   2.60279250   0.01442530
5598.00   2.61550927   0.01435970
5600.00   2.61081600   0.01472348
5602.00   2.59103227   0.01557674
5604.00   2.58345389   0.01598449
5606.00   2.57632923   0.01644177
5608.00   2.57895899   0.01640257
5610.00   2.59282804   0.01539151
5612.00   2.61234593   0.01453236
5614.00   2.63636088   0.01524816
5616.00   2.66800308   0.01697211
5618.00   2.67353797   0.01721880
5620.00   2.65297222   0.01658836
5622.00   2.64228010   0.01598536
5624.00   2.62774110   0.01494621
5626.00   2.62579679   0.01408993
5628.00   2.65277338   0.01392982
5630.00   2.69804072   0.01421849
5632.00   2.71551824   0.01447141
5634.00   2.71624565   0.01512535
5636.00   2.71778369   0.01526199
5638.00   2.70898986   0.01472617
5640.00   2.70704579   0.01462193
5642.00   2.71786761   0.01559049
5644.00   2.73608160   0.01681923
5646.00   2.75645638   0.01686566
5648.00   2.79077268   0.01596905
5650.00   2.80062747   0.01544523
5652.00   2.78830457   0.01470382
5654.00   2.78056049   0.01427760
5656.00   2.78443384   0.01429724
5658.00   2.78714991   0.01458314
5660.00   2.77093816   0.01498568
5662.00   2.73443198   0.01567085
5664.00   2.72600937   0.01595557
5666.00   2.74380136   0.01592910
5668.00   2.74716067   0.01602297
5670.00   2.73050451   0.01598708
5672.00   2.71482277   0.01627516
5674.00   2.71986794   0.01753942
5676.00   2.73918915   0.01951110
5678.00   2.74299383   0.02001140
5680.00   2.75201106   0.01928236
5682.00   2.73191452   0.01916871
5684.00   2.66612291   0.01956361
5686.00   2.61094832   0.01989272
5688.00   2.60616660   0.01986823
5690.00   2.62898684   0.01965472
5692.00   2.61672163   0.01946126
5694.00   2.57938814   0.01943819
5696.00   2.55676913   0.01883342
5698.00   2.54354525   0.01728132
5700.00   2.52621031   0.01606630
5702.00   2.50000620   0.01583007
5704.00   2.46899366   0.01616376
5706.00   2.43726325   0.01659140
5708.00   2.39330125   0.01788776
5710.00   2.37494040   0.01768617
5712.00   2.38068819   0.01582601
5714.00   2.38240099   0.01459421
5716.00   2.38021827   0.01479539
5718.00   2.37275410   0.01541642
5720.00   2.34841394   0.01531582
5722.00   2.30472279   0.01490881
5724.00   2.27960205   0.01444199
5726.00   2.26343656   0.01350593
5728.00   2.24924636   0.01302362
5730.00   2.23711061   0.01318473
5732.00   2.22814989   0.01350616
5734.00   2.22590303   0.01357206
5736.00   2.23237729   0.01355483
5738.00   2.21194220   0.01364216
5740.00   2.15245295   0.01378966
5742.00   2.12930703   0.01393771
5744.00   2.14618111   0.01414787
5746.00   2.16195369   0.01429488
5748.00   2.15223098   0.01426035
5750.00   2.13001871   0.01410920
5752.00   2.10888720   0.01417149
5754.00   2.07486558   0.01458678
5756.00   2.05840325   0.01450969
5758.00   2.05610418   0.01375277
5760.00   2.05663800   0.01333794
5762.00   2.05797291   0.01378800
5764.00   2.06064844   0.01463486
5766.00   2.05726194   0.01517934
5768.00   2.04460788   0.01592950
5770.00   2.04457593   0.01600645
5772.00   2.05619836   0.01550835
5774.00   2.06370592   0.01492051
5776.00   2.06232381   0.01392179
5778.00   2.05949712   0.01306162
5780.00   2.06630182   0.01392163
5782.00   2.08423305   0.01630951
5784.00   2.08347988   0.01708937
5786.00   2.07837152   0.01734172
5788.00   2.05400348   0.01717675
5790.00   1.98799872   0.01631731
5792.00   1.93013597   0.01524422
5794.00   1.94309354   0.01461318
5796.00   2.01131845   0.01415336
5798.00   2.02499318   0.01401820
5800.00   1.99769366   0.01452142
5802.00   1.99985850   0.01456230
5804.00   2.03370523   0.01412972
5806.00   2.06596088   0.01367867
5808.00   2.07258749   0.01339061
5810.00   2.06565142   0.01317219
5812.00   2.08403397   0.01382113
5814.00   2.13105488   0.01584251
5816.00   2.15169954   0.01632452
5818.00   2.15611887   0.01547127
5820.00   2.15284657   0.01483798
5822.00   2.14038396   0.01532347
5824.00   2.12198591   0.01616365
5826.00   2.11911440   0.01590736
5828.00   2.12935996   0.01437977
5830.00   2.13310528   0.01398545
5832.00   2.13091588   0.01415625
5834.00   2.13757277   0.01461500
5836.00   2.16149426   0.01561071
5838.00   2.18948722   0.01659429
5840.00   2.19750929   0.01648585
5842.00   2.18785334   0.01534717
5844.00   2.19526601   0.01497410
5846.00   2.21657944   0.01491641
5848.00   2.22912359   0.01492341
5850.00   2.22998786   0.01490203
5852.00   2.22808671   0.01507780
5854.00   2.23263288   0.01582528
5856.00   2.24191570   0.01715160
5858.00   2.23718357   0.01714901
5860.00   2.21697044   0.01579027
5862.00   2.20490670   0.01510175
5864.00   2.19965267   0.01498303
5866.00   2.19570231   0.01507577
5868.00   2.19055247   0.01524754
5870.00   2.18553805   0.01556681
5872.00   2.17796636   0.01575029
5874.00   2.15512919   0.01531897
5876.00   2.16148233   0.01615515
5878.00   2.19133735   0.01640825
#5880.00   2.23240137   0.01931361
#5882.00   2.33557940   0.02538306
#5884.00   2.44072747   0.03198895
#5886.00   2.24329996   0.03684662
#5888.00   1.71892178   0.04185638
#5890.00   1.33790755   0.04513115
#5892.00   0.70161343   0.04904158
#5894.00   0.52915537   0.04960883
#5896.00   1.19550538   0.04477999
#5898.00   2.15414000   0.03642750
#5900.00   2.41851425   0.03051537
5902.00   2.24457622   0.02477712
5904.00   2.23780632   0.01996423
5906.00   2.18145919   0.01764691
5908.00   2.16174173   0.01593246
5910.00   2.19556141   0.01554611
5912.00   2.24003410   0.01587886
5914.00   2.25166106   0.01551431
5916.00   2.24747086   0.01495350
5918.00   2.24097061   0.01494257
5920.00   2.21116114   0.01538683
5922.00   2.20952511   0.01583334
5924.00   2.24274182   0.01654564
5926.00   2.27793884   0.01703743
5928.00   2.29371214   0.01690974
5930.00   2.30088472   0.01634680
5932.00   2.29432845   0.01584599
5934.00   2.26461315   0.01474010
5936.00   2.24799681   0.01458670
5938.00   2.23663378   0.01558404
5940.00   2.22965336   0.01633745
5942.00   2.22852612   0.01634414
5944.00   2.23173881   0.01597178
5946.00   2.23134780   0.01547021
5948.00   2.23607612   0.01432314
5950.00   2.22615075   0.01384775
5952.00   2.19161868   0.01378326
5954.00   2.17589569   0.01390373
5956.00   2.19466758   0.01431136
5958.00   2.22828913   0.01478923
5960.00   2.24745846   0.01472033
5962.00   2.26534486   0.01396103
5964.00   2.27429199   0.01419084
5966.00   2.26928043   0.01543801
5968.00   2.27187729   0.01600094
5970.00   2.28753090   0.01579162
5972.00   2.30386400   0.01523031
5974.00   2.30555058   0.01454836
5976.00   2.29488945   0.01337076
5978.00   2.30075932   0.01327083
5980.00   2.32272100   0.01419445
5982.00   2.33346844   0.01480368
5984.00   2.33473778   0.01535925
5986.00   2.33090019   0.01571919
5988.00   2.32189393   0.01566491
5990.00   2.30681109   0.01528475
5992.00   2.30407143   0.01504107
5994.00   2.31212831   0.01412535
5996.00   2.31582546   0.01463308
5998.00   2.32618999   0.01718896
6000.00   2.32360554   0.01859947
6002.00   2.29274035   0.01749799
6004.00   2.24505091   0.01475119
6006.00   2.21843505   0.01338967
6008.00   2.19400406   0.01238700
6010.00   2.18947172   0.01213956
6012.00   2.21573806   0.01299151
6014.00   2.22920179   0.01381771
6016.00   2.21262550   0.01463372
6018.00   2.18634677   0.01529556
6020.00   2.18507838   0.01493287
6022.00   2.21296406   0.01305007
6024.00   2.19612741   0.01290338
6026.00   2.12327647   0.01444865
6028.00   2.09287572   0.01498989
6030.00   2.12895703   0.01415504
6032.00   2.18048620   0.01288281
6034.00   2.18848944   0.01232614
6036.00   2.17228913   0.01198542
6038.00   2.16712976   0.01233917
6040.00   2.15781021   0.01397262
6042.00   2.15629363   0.01442759
6044.00   2.16442060   0.01340989
6046.00   2.17472649   0.01238326
6048.00   2.18278122   0.01297839
6050.00   2.19142699   0.01451056
6052.00   2.18930888   0.01450669
6054.00   2.16591740   0.01308714
6056.00   2.16722465   0.01255730
6058.00   2.19945312   0.01290634
6060.00   2.22320127   0.01312391
6062.00   2.21487403   0.01264754
6064.00   2.18965030   0.01180034
6066.00   2.18117142   0.01148392
6068.00   2.18458295   0.01155611
6070.00   2.17595267   0.01151804
6072.00   2.15886927   0.01154140
6074.00   2.14164019   0.01153944
6076.00   2.12563324   0.01147356
6078.00   2.11014056   0.01138588
6080.00   2.09790087   0.01135201
6082.00   2.09047222   0.01136285
6084.00   2.07728148   0.01133974
6086.00   2.05814600   0.01123772
6088.00   2.04287624   0.01125518
6090.00   2.03127480   0.01139488
6092.00   2.02359700   0.01164382
6094.00   2.02363491   0.01206738
6096.00   2.03407764   0.01275700
6098.00   2.02966094   0.01289461
6100.00   2.01263404   0.01248435
6102.00   2.00063014   0.01235299
6104.00   1.99551117   0.01240788
6106.00   1.98879766   0.01266468
6108.00   1.97110498   0.01328561
6110.00   1.94449520   0.01421992
6112.00   1.93951106   0.01450963
6114.00   1.96361542   0.01441225
6116.00   1.96041417   0.01423521
6118.00   1.92707109   0.01372882
6120.00   1.89813328   0.01333506
6122.00   1.89204788   0.01350150
6124.00   1.89814198   0.01394018
6126.00   1.90569782   0.01348108
6128.00   1.92676306   0.01173633
6130.00   1.93384349   0.01108587
6132.00   1.92601335   0.01131613
6134.00   1.92566967   0.01157175
6136.00   1.93982756   0.01163076
6138.00   1.96237350   0.01167281
6140.00   1.98892820   0.01173013
6142.00   2.03329730   0.01163473
6144.00   2.04786611   0.01199440
6146.00   2.03791475   0.01293220
6148.00   2.02961564   0.01346191
6150.00   2.02164531   0.01352879
6152.00   2.01684952   0.01332349
6154.00   2.02671218   0.01286847
6156.00   2.04887342   0.01187372
6158.00   2.07012200   0.01168911
6160.00   2.10618210   0.01210366
6162.00   2.12217641   0.01254254
6164.00   2.11320353   0.01328226
6166.00   2.09752989   0.01380474
6168.00   2.08812094   0.01355488
6170.00   2.07713699   0.01270247
6172.00   2.08544850   0.01205661
6174.00   2.12252808   0.01097076
6176.00   2.13633299   0.01058600
6178.00   2.12723756   0.01115092
6180.00   2.11815548   0.01165999
6182.00   2.12309599   0.01154074
6184.00   2.13411188   0.01112750
6186.00   2.13381815   0.01117371
6188.00   2.12378621   0.01165560
6190.00   2.11904883   0.01176651
6192.00   2.11074543   0.01159625
6194.00   2.11198616   0.01148191
6196.00   2.13423276   0.01156973
6198.00   2.16435957   0.01172380
6200.00   2.16618705   0.01172096
6202.00   2.15012193   0.01159672
6204.00   2.12817049   0.01153492
6206.00   2.08377194   0.01149416
6208.00   2.05369067   0.01143518
6210.00   2.04429150   0.01138857
6212.00   2.04543900   0.01129636
6214.00   2.04988003   0.01101456
6216.00   2.06668162   0.01048098
6218.00   2.06359673   0.01025684
6220.00   2.04027104   0.01027144
6222.00   2.02825856   0.01024821
6224.00   2.02954054   0.01017124
6226.00   2.03399158   0.01012600
6228.00   2.03449893   0.01018397
6230.00   2.03476739   0.01032159
6232.00   2.03008747   0.01044010
6234.00   2.01827192   0.01061966
6236.00   2.01112175   0.01070818
6238.00   2.00655246   0.01073016
6240.00   2.00456119   0.01069636
6242.00   2.00290227   0.01049746
6244.00   2.00284314   0.01018707
6246.00   2.02372837   0.01060127
6248.00   2.07688069   0.01201038
6250.00   2.10274100   0.01234715
6252.00   2.11412144   0.01185095
6254.00   2.11694193   0.01141895
6256.00   2.11082387   0.01146254
6258.00   2.09719014   0.01165347
6260.00   2.08579183   0.01149572
6262.00   2.07575822   0.01081669
6264.00   2.05696416   0.01089306
6266.00   2.01876664   0.01180050
6268.00   1.99972773   0.01220089
6270.00   2.01346564   0.01181754
6272.00   2.03831530   0.01111726
6274.00   2.04351711   0.01072387
6276.00   2.04149628   0.01036837
6278.00   2.03202534   0.01020573
6280.00   2.00410247   0.01016840
6282.00   1.99076259   0.01034592
6284.00   1.99403775   0.01075499
6286.00   2.00447679   0.01130317
6288.00   2.01682115   0.01182349
6290.00   2.03576255   0.01226769
6292.00   2.04060888   0.01360149
6294.00   2.04107618   0.01587547
6296.00   2.02800012   0.01727360
6298.00   1.99040163   0.01842555
6300.00   1.95816743   0.01896289
6302.00   1.95453882   0.01848647
6304.00   1.96778846   0.01715727
6306.00   1.96551681   0.01593496
6308.00   1.95755875   0.01382740
6310.00   1.94845104   0.01267077
6312.00   1.93319011   0.01258928
6314.00   1.92194521   0.01262946
6316.00   1.92073190   0.01253716
6318.00   1.92422986   0.01243274
6320.00   1.91968310   0.01184141
6322.00   1.90447104   0.01038576
6324.00   1.90471458   0.00974111
6326.00   1.92182195   0.00970884
6328.00   1.93006313   0.00971965
6330.00   1.92285621   0.00972675
6332.00   1.90927505   0.00975858
6334.00   1.89943886   0.00966954
6336.00   1.88757205   0.00947226
6338.00   1.88202202   0.00937216
6340.00   1.88672447   0.00933265
6342.00   1.88231266   0.00927766
6344.00   1.85706878   0.00917610
6346.00   1.83784580   0.00910144
6348.00   1.86257970   0.00913002
6350.00   1.92848861   0.00922205
6352.00   1.92411816   0.00942347
6354.00   1.84674466   0.00953435
6356.00   1.81817222   0.01010110
6358.00   1.84108341   0.01135717
6360.00   1.86443460   0.01232064
6362.00   1.85326302   0.01239800
6364.00   1.82439947   0.01194036
6366.00   1.81566012   0.01206704
6368.00   1.81061292   0.01299456
6370.00   1.82044363   0.01273326
6372.00   1.84992337   0.01099158
6374.00   1.87992513   0.00934578
6376.00   1.90395415   0.00893241
6378.00   1.92578471   0.00924555
6380.00   1.94148016   0.00958369
6382.00   1.95367527   0.01070418
6384.00   1.95822322   0.01073342
6386.00   1.95015073   0.00981743
6388.00   1.94667482   0.00907830
6390.00   1.95324385   0.00884768
6392.00   1.96265590   0.00885143
6394.00   1.96520865   0.00889565
6396.00   1.96531153   0.00907787
6398.00   1.96027827   0.00929210
6400.00   1.94260395   0.00974653
6402.00   1.93683040   0.00990404
6404.00   1.94832027   0.00961365
6406.00   1.96373332   0.00924884
6408.00   1.96791685   0.00929154
6410.00   1.96431684   0.00960861
6412.00   1.97589636   0.00966252
6414.00   2.00408340   0.00940943
6416.00   2.02138710   0.00953264
6418.00   2.03315878   0.01028458
6420.00   2.03619361   0.01078258
6422.00   2.02304220   0.01030015
6424.00   1.99619651   0.00905280
6426.00   1.98786461   0.00897898
6428.00   1.99014831   0.00992099
6430.00   1.99299848   0.01032257
6432.00   2.00276852   0.01058047
6434.00   2.00900960   0.01065368
6436.00   2.00176954   0.01044860
6438.00   1.98959219   0.01003818
6440.00   2.00407243   0.00976518
6442.00   2.05231023   0.00925071
6444.00   2.07152438   0.00936464
6446.00   2.07817984   0.01038387
6448.00   2.07782054   0.01076870
6450.00   2.06528068   0.00989311
6452.00   2.04961371   0.00852243
6454.00   2.05671453   0.00864850
6456.00   2.08660960   0.00979686
6458.00   2.09494686   0.01067277
6460.00   2.09313798   0.01228686
6462.00   2.08774781   0.01271872
6464.00   2.07346296   0.01140923
6466.00   2.06047487   0.00957056
6468.00   2.06650972   0.00953083
6470.00   2.09030676   0.01082434
6472.00   2.08894658   0.01064399
6474.00   2.05901599   0.00922848
6476.00   2.05362272   0.00844604
6478.00   2.07900953   0.00844772
6480.00   2.10456896   0.00862865
6482.00   2.10661077   0.00860655
6484.00   2.09560847   0.00856473
6486.00   2.09246898   0.00855744
6488.00   2.08653045   0.00854697
6490.00   2.08931422   0.00859583
6492.00   2.10312772   0.00871322
6494.00   2.11581230   0.00883796
6496.00   2.12029958   0.00895725
6498.00   2.12145591   0.00907395
6500.00   2.13000774   0.00911331
6502.00   2.14716792   0.00908503
6504.00   2.15586901   0.00905094
6506.00   2.16000009   0.00898426
6508.00   2.16228843   0.00890846
6510.00   2.16344547   0.00882064
6512.00   2.16275930   0.00872830
6514.00   2.15951180   0.00866367
6516.00   2.15277553   0.00860407
6518.00   2.14762712   0.00859516
6520.00   2.13744640   0.00864072
6522.00   2.13694072   0.00868960
6524.00   2.15152144   0.00871561
6526.00   2.16998911   0.00877212
6528.00   2.17863226   0.00894080
6530.00   2.18325233   0.00921958
6532.00   2.18378258   0.00936782
6534.00   2.17400217   0.00954342
6536.00   2.17301416   0.00951146
6538.00   2.18498135   0.00917150
6540.00   2.19520664   0.00879580
6542.00   2.18939304   0.00860497
6544.00   2.17251039   0.00848839
6546.00   2.17372680   0.00869823
6548.00   2.19225478   0.00936476
6550.00   2.19910717   0.00971942
6552.00   2.19769096   0.01002300
6554.00   2.19449472   0.01007563
6556.00   2.19144940   0.00963394
6558.00   2.18764758   0.00882570
6560.00   2.18741393   0.00854176
6562.00   2.19594765   0.00859927
6564.00   2.19067025   0.00866755
6566.00   2.16923547   0.00893770
6568.00   2.15500236   0.00913058
6570.00   2.15517640   0.00914007
6572.00   2.16279554   0.00909120
6574.00   2.17103338   0.00919440
6576.00   2.18694997   0.00940291
6578.00   2.19247293   0.00956646
6580.00   2.18945384   0.00986890
6582.00   2.18842554   0.00991165
6584.00   2.18995595   0.00953624
6586.00   2.19282222   0.00903109
6588.00   2.19809389   0.00885287
6590.00   2.20790339   0.00888910
6592.00   2.20698643   0.00877804
6594.00   2.19018340   0.00841884
6596.00   2.18797541   0.00846266
6598.00   2.20408988   0.00908412
6600.00   2.22272468   0.00967536
6602.00   2.23173237   0.00982686
6604.00   2.23681712   0.00975979
6606.00   2.23792863   0.00949533
6608.00   2.23059726   0.00868321
6610.00   2.22913098   0.00832075
6612.00   2.23059678   0.00840755
6614.00   2.23527503   0.00855988
6616.00   2.24414444   0.00860457
6618.00   2.25654507   0.00863898
6620.00   2.26906013   0.00864920
6622.00   2.28854704   0.00862071
6624.00   2.29619122   0.00861869
6626.00   2.29298162   0.00861330
6628.00   2.28989673   0.00863740
6630.00   2.28899050   0.00861875
6632.00   2.28923321   0.00866656
6634.00   2.29464197   0.00916486
6636.00   2.30888700   0.01030764
6638.00   2.31161404   0.01052585
6640.00   2.30733967   0.01006211
6642.00   2.30078721   0.00970614
6644.00   2.29295421   0.00957594
6646.00   2.28204012   0.00949599
6648.00   2.26491237   0.00933177
6650.00   2.23862958   0.00905393
6652.00   2.22678995   0.00912246
6654.00   2.22334003   0.00962181
6656.00   2.22398710   0.00983470
6658.00   2.23617029   0.00982810
6660.00   2.24448681   0.00964305
6662.00   2.22995925   0.00916212
6664.00   2.19783187   0.00829389
6666.00   2.18755841   0.00807872
6668.00   2.19493318   0.00850007
6670.00   2.19169545   0.00863722
6672.00   2.18101883   0.00862541
6674.00   2.16807866   0.00857215
6676.00   2.15377140   0.00849994
6678.00   2.13777161   0.00839732
6680.00   2.12898970   0.00836492
6682.00   2.12451625   0.00816942
6684.00   2.12361693   0.00846795
6686.00   2.13232350   0.00943604
6688.00   2.13510537   0.01000409
6690.00   2.12512016   0.00987532
6692.00   2.10878921   0.00937390
6694.00   2.09697843   0.00893482
6696.00   2.08466530   0.00798360
6698.00   2.07543755   0.00799206
6700.00   2.06981921   0.00896361
6702.00   2.06325006   0.00959454
6704.00   2.05246592   0.00984905
6706.00   2.04323864   0.00989921
6708.00   2.04633975   0.00970080
6710.00   2.06369114   0.00914868
6712.00   2.06201220   0.00879774
6714.00   2.04912019   0.00813401
6716.00   2.03301048   0.00819202
6718.00   2.00622272   0.00940706
6720.00   1.98337936   0.01045560
6722.00   1.98348260   0.01037085
6724.00   2.00144887   0.00954263
6726.00   2.00228190   0.00899762
6728.00   1.98884797   0.00815094
6730.00   1.98856461   0.00771825
6732.00   1.99949336   0.00769739
6734.00   2.01459122   0.00793661
6736.00   2.03233123   0.00847431
6738.00   2.05346918   0.00922579
6740.00   2.06411099   0.00932761
6742.00   2.07009244   0.00889923
6744.00   2.06815076   0.00862010
6746.00   2.05393028   0.00823965
6748.00   2.04108286   0.00795300
6750.00   2.03303576   0.00777076
6752.00   2.02798629   0.00774428
6754.00   2.03084660   0.00824740
6756.00   2.04528379   0.00958187
6758.00   2.05110097   0.00981560
6760.00   2.05608726   0.00933884
6762.00   2.05535293   0.00884508
6764.00   2.04403567   0.00835287
6766.00   2.03044820   0.00787842
6768.00   2.02979326   0.00774742
6770.00   2.03826809   0.00795236
6772.00   2.04425907   0.00798791
6774.00   2.06021953   0.00788507
6776.00   2.05984235   0.00802434
6778.00   2.03481865   0.00858530
6780.00   2.00688004   0.00907084
6782.00   1.99797654   0.00898925
6784.00   1.99917734   0.00846856
6786.00   2.00272918   0.00838321
6788.00   2.02012086   0.00863335
6790.00   2.02331591   0.00865489
6792.00   2.01121855   0.00847386
6794.00   1.99759889   0.00824981
6796.00   1.98992264   0.00805321
6798.00   1.98428071   0.00784544
6800.00   1.98419106   0.00777624
6802.00   1.99444067   0.00787429
6804.00   1.99534070   0.00788865
6806.00   1.99300241   0.00786269
6808.00   1.98402023   0.00784358
6810.00   1.96343219   0.00785267
6812.00   1.93653584   0.00787217
6814.00   1.92240775   0.00786703
6816.00   1.92135239   0.00781835
6818.00   1.90719056   0.00783960
6820.00   1.87919998   0.00788272
6822.00   1.86124384   0.00798605
6824.00   1.86307228   0.00819429
6826.00   1.86997914   0.00842477
6828.00   1.85825062   0.00853457
6830.00   1.83252287   0.00859271
6832.00   1.81575954   0.00856271
6834.00   1.80159914   0.00841946
6836.00   1.78770459   0.00826674
6838.00   1.77121806   0.00802680
6840.00   1.75838947   0.00784383
6842.00   1.75788784   0.00796900
6844.00   1.76842272   0.00836967
6846.00   1.76974714   0.00836738
6848.00   1.76676190   0.00791178
6850.00   1.76478052   0.00784942
6852.00   1.76574743   0.00826596
6854.00   1.76312125   0.00864188
6856.00   1.75432086   0.00863782
6858.00   1.74099827   0.00842551
6860.00   1.70879769   0.00851256
6862.00   1.64232659   0.00847716
6864.00   1.60787582   0.00910371
6866.00   1.58524704   0.01061887
6868.00   1.58635867   0.01159509
6870.00   1.62860477   0.01166563
6872.00   1.69477117   0.01122720
6874.00   1.71797633   0.01063615
6876.00   1.71615052   0.00900192
6878.00   1.71189654   0.00866639
6880.00   1.68538857   0.00958726
6882.00   1.67304265   0.01018049
6884.00   1.68707418   0.01025214
6886.00   1.71108150   0.01009481
6888.00   1.72135484   0.00978483
6890.00   1.72484398   0.00911570
6892.00   1.73247206   0.00877502
6894.00   1.74275351   0.00862894
6896.00   1.75010431   0.00850972
6898.00   1.75201809   0.00836837
6900.00   1.75416112   0.00832579
6902.00   1.76492822   0.00855159
6904.00   1.78450477   0.00903355
6906.00   1.78476942   0.00919902
6908.00   1.77099812   0.00927626
6910.00   1.75509751   0.00916903
6912.00   1.72622871   0.00867719
6914.00   1.70562303   0.00826044
6916.00   1.71468532   0.00838834
6918.00   1.74440348   0.00885232
6920.00   1.75137043   0.00903997
6922.00   1.74023759   0.00915099
6924.00   1.74398923   0.00923840
6926.00   1.76166117   0.00929308
6928.00   1.77664852   0.00931187
6930.00   1.78356576   0.00931962
6932.00   1.78523445   0.00928986
6934.00   1.77531993   0.00907247
6936.00   1.74050522   0.00838690
6938.00   1.73362672   0.00831365
6940.00   1.75060797   0.00885318
6942.00   1.75984383   0.00914696
6944.00   1.75211549   0.00891085
6946.00   1.73820031   0.00852722
6948.00   1.73057616   0.00868256
6950.00   1.72159982   0.00932779
6952.00   1.72345281   0.00944710
6954.00   1.73687744   0.00923785
6956.00   1.74873471   0.00907384
6958.00   1.75758588   0.00895468
6960.00   1.76721489   0.00886071
6962.00   1.78251457   0.00885050
6964.00   1.80553508   0.00895292
6966.00   1.80813515   0.00880622
6968.00   1.78863418   0.00821898
6970.00   1.78014064   0.00810393
6972.00   1.78073025   0.00859423
6974.00   1.78466940   0.00910426
6976.00   1.78991914   0.00927947
6978.00   1.79777980   0.00931034
6980.00   1.80218279   0.00928124
6982.00   1.80728889   0.00911456
6984.00   1.80631614   0.00896415
6986.00   1.79910839   0.00824043
6988.00   1.78978086   0.00834696
6990.00   1.77727759   0.01048093
6992.00   1.76328111   0.01300084
6994.00   1.76473033   0.01289589
6996.00   1.78228569   0.00995433
6998.00   1.79321635   0.00860688
7000.00   1.80461323   0.00792818
7002.00   1.81489468   0.00771703
7004.00   1.82454598   0.00815768
7006.00   1.83256507   0.00890676
7008.00   1.83567739   0.00911495
7010.00   1.83716786   0.00907848
7012.00   1.82851744   0.00905511
7014.00   1.80232310   0.00893379
7016.00   1.78765655   0.00880533
7018.00   1.78928900   0.00859578
7020.00   1.79668760   0.00844383
7022.00   1.80074584   0.00862618
7024.00   1.80806804   0.00913189
7026.00   1.80121899   0.00920791
7028.00   1.78004789   0.00905173
7030.00   1.76211488   0.00882085
7032.00   1.74176967   0.00830214
7034.00   1.72695220   0.00789610
7036.00   1.72762597   0.00809943
7038.00   1.74030149   0.00871198
7040.00   1.74500108   0.00897142
7042.00   1.75365877   0.00927364
7044.00   1.74958181   0.00921611
7046.00   1.73031509   0.00865024
7048.00   1.71066701   0.00810846
7050.00   1.69707561   0.00789692
7052.00   1.68596399   0.00787462
7054.00   1.68013942   0.00807879
7056.00   1.68510497   0.00885814
7058.00   1.67907596   0.00892807
7060.00   1.65221965   0.00827954
7062.00   1.64757311   0.00791842
7064.00   1.68944263   0.00830923
7066.00   1.74851847   0.00895358
7068.00   1.76304245   0.00919236
7070.00   1.74857807   0.00936153
7072.00   1.73779857   0.00920972
7074.00   1.71625900   0.00853635
7076.00   1.69690990   0.00806960
7078.00   1.67878509   0.00782793
7080.00   1.66356754   0.00785656
7082.00   1.65658879   0.00846022
7084.00   1.65582240   0.00970603
7086.00   1.66010034   0.00984727
7088.00   1.67517114   0.00905719
7090.00   1.68468130   0.00862725
7092.00   1.68569672   0.00857408
7094.00   1.68878508   0.00863516
7096.00   1.70541239   0.00867543
7098.00   1.73259735   0.00876337
7100.00   1.73891783   0.00882239
7102.00   1.71999896   0.00890018
7104.00   1.72333503   0.00892674
7106.00   1.74904537   0.00886085
7108.00   1.77362812   0.00883969
7110.00   1.78778052   0.00892001
7112.00   1.79628634   0.00907118
7114.00   1.78622341   0.00937823
7116.00   1.74729025   0.01022464
7118.00   1.72904909   0.01017455
7120.00   1.72318852   0.00910691
7122.00   1.71609008   0.00828895
7124.00   1.70026517   0.00843495
7126.00   1.68411613   0.00894615
7128.00   1.68660367   0.00889915
7130.00   1.71042740   0.00852181
7132.00   1.71683609   0.00828731
7134.00   1.71702516   0.00799851
7136.00   1.71255803   0.00780821
7138.00   1.69920659   0.00775328
7140.00   1.68490434   0.00778385
7142.00   1.68562615   0.00782464
7144.00   1.70290506   0.00782727
7146.00   1.69146502   0.00822329
7148.00   1.64639819   0.00930315
7150.00   1.62588120   0.00961891
7152.00   1.63396454   0.00893346
7154.00   1.64919448   0.00815539
7156.00   1.65603781   0.00839058
7158.00   1.66210079   0.00924678
7160.00   1.66243792   0.00931852
7162.00   1.65698612   0.00884487
7164.00   1.65116048   0.00859496
7166.00   1.64218247   0.00844279
7168.00   1.63437581   0.00836806
7170.00   1.63115573   0.00840653
7172.00   1.63055241   0.00853537
7174.00   1.62669015   0.00857579
7176.00   1.61965370   0.00857397
7178.00   1.61600447   0.00858718
7180.00   1.61237276   0.00858593
7182.00   1.61315513   0.00860884
7184.00   1.62387800   0.00863466
7186.00   1.63784218   0.00869926
7188.00   1.63425195   0.00896631
7190.00   1.60687423   0.00960968
7192.00   1.60897100   0.00967330
7194.00   1.63339090   0.00922698
7196.00   1.65484488   0.00891056
7198.00   1.67456603   0.00886621
7200.00   1.68930817   0.00889651
7202.00   1.68483102   0.00879756
7204.00   1.65950727   0.00858170
7206.00   1.65253925   0.00861067
7208.00   1.65951335   0.00875704
7210.00   1.65660954   0.00905456
7212.00   1.63757610   0.00976134
7214.00   1.62034130   0.01025330
7216.00   1.62320554   0.00986580
7218.00   1.64013016   0.00869380
7220.00   1.64866853   0.00819341
7222.00   1.65168464   0.00797616
7224.00   1.66353238   0.00793872
7226.00   1.68701744   0.00813680
7228.00   1.70920038   0.00848221
7230.00   1.71874797   0.00880322
7232.00   1.72180462   0.00918552
7234.00   1.74760532   0.01034185
7236.00   1.81586754   0.01268329
7238.00   1.82797730   0.01334395
7240.00   1.78978717   0.01275171
7242.00   1.75162911   0.01221305
7244.00   1.72463763   0.01236521
7246.00   1.70379305   0.01267464
7248.00   1.71213746   0.01224259
7250.00   1.76298094   0.01097103
7252.00   1.77586603   0.01018681
7254.00   1.76486647   0.00947867
7256.00   1.75831413   0.00898516
7258.00   1.76060879   0.00876628
7260.00   1.76575851   0.00880876
7262.00   1.77012885   0.00911401
7264.00   1.77359378   0.00980632
7266.00   1.78412247   0.01010658
7268.00   1.80941498   0.01017127
7270.00   1.81905031   0.01032278
7272.00   1.80781662   0.01060698
7274.00   1.79152620   0.01086565
7276.00   1.78432143   0.01097946
7278.00   1.77969205   0.01102161
7280.00   1.77932346   0.01086553
7282.00   1.78682065   0.01040614
7284.00   1.78914690   0.01006655
7286.00   1.78838742   0.00980327
7288.00   1.78474534   0.00956916
7290.00   1.77674317   0.00927248
7292.00   1.76506054   0.00895171
7294.00   1.75852513   0.00922516
7296.00   1.75059736   0.01019019
7298.00   1.75269616   0.01068171
7300.00   1.76782501   0.01111818
7302.00   1.78086352   0.01124178
7304.00   1.78456032   0.01078063
7306.00   1.78485274   0.00996997
7308.00   1.79241061   0.00981459
7310.00   1.80517447   0.01014095
7312.00   1.81645525   0.01034053
7314.00   1.83641326   0.01077406
7316.00   1.84220290   0.01092540
7318.00   1.82728589   0.01054066
7320.00   1.80093145   0.01000626
7322.00   1.77302182   0.01010671
7324.00   1.72894871   0.01076514
7326.00   1.71974921   0.01084129
7328.00   1.73710644   0.01042364
7330.00   1.75856650   0.01032344
7332.00   1.79392481   0.01064279
7334.00   1.82561362   0.01106497
7336.00   1.82866502   0.01136730
7338.00   1.81194830   0.01168725
7340.00   1.79249895   0.01173938
7342.00   1.74716151   0.01168048
7344.00   1.73078120   0.01132425
7346.00   1.74464822   0.01038617
7348.00   1.76555085   0.00946190
7350.00   1.78060567   0.00909438
7352.00   1.79653347   0.00908586
7354.00   1.80566752   0.00951859
7356.00   1.80962074   0.01067203
7358.00   1.81173086   0.01130300
7360.00   1.80711150   0.01170929
7362.00   1.80636513   0.01201049
7364.00   1.82067645   0.01230181
7366.00   1.83933723   0.01249919
7368.00   1.82312274   0.01227361
7370.00   1.75974822   0.01158366
7372.00   1.74157929   0.01089580
7374.00   1.74293506   0.00977469
7376.00   1.75903106   0.00889146
7378.00   1.79793537   0.00853070
7380.00   1.84564745   0.00850859
7382.00   1.86950505   0.00858476
7384.00   1.88782120   0.00886434
7386.00   1.87569189   0.00927219
7388.00   1.81404734   0.01009596
7390.00   1.78173947   0.01047017
7392.00   1.78726995   0.01031532
7394.00   1.80556226   0.00996714
7396.00   1.81701517   0.00974069
7398.00   1.83258033   0.00947809
7400.00   1.83428288   0.00933017
7402.00   1.82106090   0.00932214
7404.00   1.81426430   0.00924033
7406.00   1.81001389   0.00909570
7408.00   1.81014419   0.00893011
7410.00   1.81980205   0.00875781
7412.00   1.83731341   0.00856812
7414.00   1.83895624   0.00842663
7416.00   1.82583332   0.00799815
7418.00   1.82064140   0.00830336
7420.00   1.82106006   0.00942592
7422.00   1.81989765   0.01032426
7424.00   1.81231034   0.01076745
7426.00   1.80222797   0.01097428
7428.00   1.80198276   0.01078609
7430.00   1.81267917   0.00974365
7432.00   1.81544828   0.00950323
7434.00   1.81558025   0.00991818
7436.00   1.81380892   0.01013587
7438.00   1.80892611   0.00997634
7440.00   1.80297673   0.00963784
7442.00   1.80174780   0.00923866
7444.00   1.80659497   0.00845042
7446.00   1.80167615   0.00842021
7448.00   1.78272104   0.00925783
7450.00   1.77648294   0.00961541
7452.00   1.78914893   0.00929089
7454.00   1.80647957   0.00886453
7456.00   1.81284785   0.00906046
7458.00   1.81386089   0.00969979
7460.00   1.81687415   0.00979726
7462.00   1.82396972   0.00939592
7464.00   1.82143378   0.00937592
7466.00   1.80494130   0.00975977
7468.00   1.78863811   0.01020875
7470.00   1.78352988   0.01055944
7472.00   1.78449082   0.01090827
7474.00   1.78686285   0.01100717
7476.00   1.79887164   0.01090254
7478.00   1.79908061   0.01074151
7480.00   1.78560734   0.01047544
7482.00   1.77498364   0.01012852
7484.00   1.77445865   0.00965631
7486.00   1.77966559   0.00908349
7488.00   1.78969777   0.00875495
7490.00   1.81595826   0.00863353
7492.00   1.82115328   0.00850730
7494.00   1.81237268   0.00844913
7496.00   1.79943764   0.00843776
7498.00   1.78163421   0.00849254
7500.00   1.76150572   0.00857939
7502.00   1.75084758   0.00858536
7504.00   1.74775028   0.00842150
7506.00   1.74106562   0.00864638
7508.00   1.73334217   0.00916993
7510.00   1.72709441   0.00968196
7512.00   1.72322321   0.01031726
7514.00   1.71985912   0.01081966
7516.00   1.71500421   0.01075958
7518.00   1.71023583   0.01014927
7520.00   1.70091403   0.01010943
7522.00   1.68551850   0.01059081
7524.00   1.67325330   0.01065598
7526.00   1.66330755   0.01020673
7528.00   1.65497100   0.00971240
7530.00   1.64876366   0.00962050
7532.00   1.64476335   0.00976742
7534.00   1.63783205   0.00963429
7536.00   1.62971878   0.00929871
7538.00   1.62036538   0.00904883
7540.00   1.61389577   0.00880178
7542.00   1.60000658   0.00862300
7544.00   1.56983101   0.00855600
7546.00   1.52965057   0.00858052
7548.00   1.50400436   0.00868738
7550.00   1.48508298   0.00897132
7552.00   1.46971631   0.00911053
7554.00   1.46245050   0.00928721
7556.00   1.45336616   0.00926074
7558.00   1.43760335   0.00863520
7560.00   1.42080247   0.00789570
7562.00   1.41432524   0.00871420
7564.00   1.42034292   0.01096615
7566.00   1.41238320   0.01156127
7568.00   1.39827001   0.01146096
7570.00   1.37869728   0.01111985
7572.00   1.35029054   0.01032412
7574.00   1.31951046   0.00936125
7576.00   1.29707384   0.00903857
7578.00   1.27995014   0.00927376
7580.00   1.25960505   0.00895156
7582.00   1.22933829   0.00782106
7584.00   1.21780169   0.00760013
7586.00   1.22662890   0.00824973
7588.00   1.24511671   0.00944082
7590.00   1.26560915   0.01087728
7592.00   1.29167914   0.01245799
7594.00   1.32360470   0.01488609
7596.00   1.37998891   0.01620949
7598.00   1.40119576   0.02073684
7600.00   1.40468466   0.02920486
7602.00   1.37634552   0.03371193
7604.00   1.28702021   0.03182717
7606.00   1.15754724   0.02542730
7608.00   1.12434423   0.02163283
7610.00   1.18757713   0.01777376
7612.00   1.18575871   0.01482467
7614.00   1.14929056   0.01385572
7616.00   1.11367285   0.01333726
7618.00   1.08658612   0.01278870
7620.00   1.06300414   0.01262176
7622.00   1.04916883   0.01279088
7624.00   1.05034888   0.01361735
7626.00   1.03659606   0.01385001
7628.00   1.00850999   0.01389947
7630.00   0.99034953   0.01372307
7632.00   0.98806280   0.01320328
7634.00   0.99084133   0.01251312
7636.00   0.98454905   0.01199240
7638.00   0.96947718   0.01150938
7640.00   0.97651821   0.01106346
7642.00   1.00990701   0.01056946
7644.00   1.02726603   0.01030965
7646.00   1.03063142   0.01041963
7648.00   1.02469563   0.01057914
7650.00   1.00676250   0.01051427
7652.00   0.97449130   0.01035890
7654.00   0.96828330   0.01001231
7656.00   0.97973114   0.00919655
7658.00   0.99289191   0.00880596
7660.00   1.01471615   0.00891273
7662.00   1.03549039   0.00903547
7664.00   1.04828906   0.00888222
7666.00   1.05702305   0.00861278
7668.00   1.06897664   0.00857980
7670.00   1.08456957   0.00872428
7672.00   1.09392667   0.00883947
7674.00   1.09826303   0.00910915
7676.00   1.10122156   0.00918365
7678.00   1.10348773   0.00882964
7680.00   1.10478044   0.00827507
7682.00   1.10667074   0.00822098
7684.00   1.10790324   0.00869086
7686.00   1.11100543   0.00864386
7688.00   1.11175597   0.00802482
7690.00   1.11998379   0.00785860
7692.00   1.14020288   0.00837545
7694.00   1.16456270   0.00917204
7696.00   1.18170452   0.00998463
7698.00   1.19726896   0.01113714
7700.00   1.20589411   0.01130436
7702.00   1.19559813   0.01037356
7704.00   1.20743990   0.01006538
7706.00   1.25334716   0.01037011
7708.00   1.29991305   0.01105314
7710.00   1.31440866   0.01225010
7712.00   1.30944681   0.01398235
7714.00   1.30727756   0.01393452
7716.00   1.29025221   0.01202893
7718.00   1.29084420   0.01088129
7720.00   1.30777955   0.01037185
7722.00   1.33022439   0.01001637
7724.00   1.35397196   0.00956882
7726.00   1.38121641   0.00916480
7728.00   1.40213823   0.00886727
7730.00   1.42576170   0.00868496
7732.00   1.43362975   0.00856524
7734.00   1.42163086   0.00839259
7736.00   1.41291368   0.00852039
7738.00   1.41692162   0.00905963
7740.00   1.42584050   0.00985581
7742.00   1.42902911   0.01079081
7744.00   1.42903221   0.01217214
7746.00   1.43104684   0.01280892
7748.00   1.42739487   0.01324289
7750.00   1.43533337   0.01320348
7752.00   1.46206629   0.01240020
7754.00   1.49590647   0.01122142
7756.00   1.51920676   0.01061972
7758.00   1.53890646   0.01038319
7760.00   1.55583656   0.00996855
7762.00   1.56249475   0.00940717
7764.00   1.58049166   0.00910935
7766.00   1.61969876   0.00922084
7768.00   1.65578127   0.00942043
7770.00   1.66025341   0.00935977
7772.00   1.64054072   0.00912903
7774.00   1.64366341   0.00929937
7776.00   1.66794372   0.00970477
7778.00   1.67023826   0.01022324
7780.00   1.64842367   0.01113109
7782.00   1.62476242   0.01173650
7784.00   1.60840809   0.01146206
7786.00   1.59432638   0.01058424
7788.00   1.61140919   0.01093782
7790.00   1.67184663   0.01256642
7792.00   1.70285726   0.01301314
7794.00   1.71619844   0.01274822
7796.00   1.72759569   0.01231563
7798.00   1.74197590   0.01176576
7800.00   1.75608659   0.01110642
7802.00   1.77028120   0.01104576
7804.00   1.79383361   0.01181775
7806.00   1.79316819   0.01170597
7808.00   1.76739836   0.01069693
7810.00   1.74702585   0.01018666
7812.00   1.73424351   0.01075445
7814.00   1.72793412   0.01160219
7816.00   1.73758841   0.01174569
7818.00   1.76874125   0.01139125
7820.00   1.77683592   0.01156733
7822.00   1.76978099   0.01234193
7824.00   1.76526225   0.01251933
7826.00   1.76299524   0.01195703
7828.00   1.76132715   0.01109662
7830.00   1.75986135   0.01032402
7832.00   1.75774348   0.00931221
7834.00   1.76323891   0.00913684
7836.00   1.77910340   0.00978580
7838.00   1.78834057   0.01033190
7840.00   1.78650641   0.01105856
7842.00   1.79034758   0.01160884
7844.00   1.81634820   0.01159123
7846.00   1.85721731   0.01119426
7848.00   1.86724925   0.01178281
7850.00   1.84689212   0.01359693
7852.00   1.84594417   0.01399960
7854.00   1.85331869   0.01332935
7856.00   1.86738253   0.01251961
7858.00   1.89216530   0.01191025
7860.00   1.92299807   0.01131172
7862.00   1.93704247   0.01095827
7864.00   1.93966663   0.01085274
7866.00   1.94121671   0.01078171
7868.00   1.93594325   0.01075456
7870.00   1.93128490   0.01093004
7872.00   1.93098283   0.01141513
7874.00   1.92959893   0.01200567
7876.00   1.91668570   0.01239977
7878.00   1.89004362   0.01289074
7880.00   1.87856686   0.01273953
7882.00   1.87020028   0.01172230
7884.00   1.87409353   0.01108210
7886.00   1.89765143   0.01103467
7888.00   1.92483699   0.01115897
7890.00   1.93689334   0.01108718
7892.00   1.94266546   0.01096423
7894.00   1.93697584   0.01089086
7896.00   1.91451955   0.01084641
7898.00   1.89693582   0.01079538
7900.00   1.87972677   0.01068113
7902.00   1.86606479   0.01064741
7904.00   1.85939932   0.01077723
7906.00   1.85802484   0.01101793
7908.00   1.86169517   0.01154843
7910.00   1.87309158   0.01266665
7912.00   1.88378966   0.01306616
7914.00   1.89678085   0.01286695
7916.00   1.90928459   0.01264732
7918.00   1.91711986   0.01257057
7920.00   1.92415881   0.01256957
7922.00   1.94721878   0.01303031
7924.00   2.00418615   0.01440411
7926.00   2.01388931   0.01453509
7928.00   1.98621273   0.01384819
7930.00   1.95977914   0.01297184
7932.00   1.94158661   0.01183004
7934.00   1.92533076   0.01051741
7936.00   1.91225231   0.00991460
7938.00   1.90264714   0.00997446
7940.00   1.89309418   0.00993664
7942.00   1.89160752   0.00968509
7944.00   1.87783194   0.01025408
7946.00   1.83933973   0.01205708
7948.00   1.80244362   0.01370456
7950.00   1.80410051   0.01408156
7952.00   1.83837557   0.01374385
7954.00   1.83802891   0.01330034
7956.00   1.81352925   0.01208221
7958.00   1.79939401   0.01136970
7960.00   1.79006016   0.01113868
7962.00   1.78770363   0.01124289
7964.00   1.79927802   0.01178487
7966.00   1.82290971   0.01272979
7968.00   1.82855797   0.01264854
7970.00   1.81459808   0.01144340
7972.00   1.81913924   0.01094834
7974.00   1.84363592   0.01089427
7976.00   1.86347902   0.01109601
7978.00   1.86576176   0.01155645
7980.00   1.85908353   0.01221238
7982.00   1.85819185   0.01265514
7984.00   1.85632646   0.01325298
7986.00   1.85838926   0.01330054
7988.00   1.87926280   0.01264912
7990.00   1.87446761   0.01226099
7992.00   1.82149887   0.01264227
7994.00   1.74883008   0.01317787
7996.00   1.71085632   0.01279568
7998.00   1.69049954   0.01144940
8000.00   1.67121708   0.01082050
8002.00   1.65669632   0.01050449
8004.00   1.65094435   0.01034920
8006.00   1.66077459   0.01041600
8008.00   1.67265749   0.01060443
8010.00   1.66602302   0.01070298
8012.00   1.64545047   0.01070742
8014.00   1.63697278   0.01120327
8016.00   1.63265526   0.01239407
8018.00   1.63124919   0.01290832
8020.00   1.63707089   0.01287375
8022.00   1.64069092   0.01253820
8024.00   1.63346648   0.01190017
8026.00   1.61920214   0.01081826
8028.00   1.60305786   0.01046280
8030.00   1.57184780   0.01090107
8032.00   1.56229424   0.01083056
8034.00   1.57081115   0.01038550
8036.00   1.58731914   0.00987272
8038.00   1.61172891   0.00936772
8040.00   1.64284313   0.00884048
8042.00   1.65455139   0.00874971
8044.00   1.64969754   0.00925552
8046.00   1.64996421   0.00932759
8048.00   1.64675844   0.00875703
8050.00   1.64699543   0.00889789
8052.00   1.65821302   0.01037277
8054.00   1.67028987   0.01209490
8056.00   1.65768635   0.01279741
8058.00   1.62835526   0.01325971
8060.00   1.58966064   0.01293300
8062.00   1.52015436   0.01126559
8064.00   1.47521222   0.01001765
8066.00   1.46589625   0.00967346
8068.00   1.47024059   0.00971943
8070.00   1.46509576   0.00967503
8072.00   1.45997119   0.00978464
8074.00   1.45574462   0.00979925
8076.00   1.45182753   0.00990480
8078.00   1.44915926   0.00977728
8080.00   1.45067036   0.00929186
8082.00   1.44959164   0.00875909
8084.00   1.43748415   0.00849431
8086.00   1.41646945   0.00837537
8088.00   1.41072285   0.00836725
8090.00   1.41556823   0.00856917
8092.00   1.42011118   0.00870450
8094.00   1.43040776   0.00884759
8096.00   1.43677819   0.00895105
8098.00   1.43357468   0.00898319
8100.00   1.42403805   0.00896400
8102.00   1.41047764   0.00891210
8104.00   1.38433611   0.00879195
8106.00   1.37140155   0.00869633
8108.00   1.36879051   0.00858494
8110.00   1.36553586   0.00849842
8112.00   1.35884833   0.00845215
8114.00   1.35083342   0.00843338
8116.00   1.34110343   0.00842729
8118.00   1.32675862   0.00844492
8120.00   1.31975722   0.00846533
8122.00   1.31966865   0.00846500
8124.00   1.31735206   0.00852912
8126.00   1.30844748   0.00866547
8128.00   1.30099785   0.00885492
8130.00   1.30853665   0.00908827
8132.00   1.33304417   0.00937039
8134.00   1.33230555   0.00966564
8136.00   1.31384492   0.01000061
8138.00   1.29533947   0.01031858
8140.00   1.27267969   0.01075966
8142.00   1.25106204   0.01102879
8144.00   1.23723054   0.01076333
8146.00   1.22826290   0.01001217
8148.00   1.22201145   0.00984775
8150.00   1.22747958   0.01009625
8152.00   1.21837449   0.01023726
8154.00   1.18600237   0.01048579
8156.00   1.16373563   0.01055493
8158.00   1.17448008   0.01014391
8160.00   1.20510948   0.00939104
8162.00   1.22169673   0.00926006
8164.00   1.24730337   0.00965929
8166.00   1.24501479   0.00984181
8168.00   1.20825195   0.00978707
8170.00   1.18022668   0.01007598
8172.00   1.17401791   0.01108104
8174.00   1.17974138   0.01223857
8176.00   1.19532931   0.01249530
8178.00   1.23795164   0.01189361
8180.00   1.24535894   0.01203271
8182.00   1.22466898   0.01253341
8184.00   1.20897257   0.01306114
8186.00   1.20467448   0.01367978
8188.00   1.20137393   0.01425043
8190.00   1.18955779   0.01449849
8192.00   1.17575920   0.01460832
8194.00   1.14592695   0.01430282
8196.00   1.09069550   0.01341036
8198.00   1.05148828   0.01258928
8200.00   1.02847242   0.01179931
8202.00   1.01355958   0.01101170
8204.00   1.00235760   0.01023205
8206.00   0.99691224   0.00940158
8208.00   0.99671185   0.00912397
8210.00   1.01148796   0.00945425
8212.00   1.01108277   0.00975019
8214.00   0.99546629   0.01027110
8216.00   0.97764581   0.01063559
8218.00   0.96476406   0.01049694
8220.00   0.95301569   0.01004557
8222.00   0.94074219   0.01029922
8224.00   0.92628562   0.01158949
8226.00   0.91701967   0.01154262
8228.00   0.91591597   0.01015671
8230.00   0.91022056   0.00884209
8232.00   0.89170122   0.00844813
8234.00   0.86858153   0.00849722
8236.00   0.86232811   0.00827360
8238.00   0.88077199   0.00798040
8240.00   0.86571807   0.00784313
8242.00   0.81643099   0.00788616
8244.00   0.78419209   0.00787050
8246.00   0.78257227   0.00770704
8248.00   0.79073554   0.00753364
8250.00   0.78243697   0.00758666
8252.00   0.76402283   0.00788435
8254.00   0.75668627   0.00784919
8256.00   0.75628579   0.00751267
8258.00   0.75537449   0.00730833
8260.00   0.75696337   0.00724890
8262.00   0.75582761   0.00726210
8264.00   0.74451870   0.00729293
8266.00   0.72520381   0.00733626
8268.00   0.70819432   0.00764531
8270.00   0.68914831   0.00812882
8272.00   0.67106384   0.00871269
8274.00   0.65413576   0.00930405
8276.00   0.63670307   0.01008307
8278.00   0.62090284   0.01116385
8280.00   0.60585797   0.01240022
8282.00   0.56741309   0.01343828
8284.00   0.48316494   0.01479783
8286.00   0.45401236   0.01526613
8288.00   0.47379136   0.01505737
8290.00   0.49421164   0.01458406
8292.00   0.50157726   0.01389677
8294.00   0.50360548   0.01294996
8296.00   0.48711282   0.01212342
8298.00   0.44106787   0.01119375
8300.00   0.42222828   0.01043844
8302.00   0.41399920   0.00984931
8304.00   0.41544455   0.00931960
8306.00   0.43624884   0.00881735
8308.00   0.45962751   0.00841161
8310.00   0.44777098   0.00822299
8312.00   0.40237850   0.00834153
8314.00   0.38738310   0.00820766
8316.00   0.38915244   0.00797828
8318.00   0.38907734   0.00768506
8320.00   0.38955650   0.00723153
8322.00   0.38795820   0.00678033
8324.00   0.37680796   0.00659330
8326.00   0.35600540   0.00660480
8328.00   0.35281968   0.00662243
8330.00   0.37521201   0.00600331
8332.00   0.37062863   0.00693798
8334.00   0.32955131   0.00924911
8336.00   0.29380965   0.01119005
8338.00   0.29647055   0.01237151
8340.00   0.32194376   0.01327989
8342.00   0.31902164   0.01375122
8344.00   0.28708392   0.01396837
8346.00   0.28559086   0.01373495
8348.00   0.30868283   0.01287227
8350.00   0.33531821   0.01183673
8352.00   0.35886461   0.01070858
8354.00   0.38314247   0.00942604
8356.00   0.40369937   0.00872255
8358.00   0.42114016   0.00870202
8360.00   0.43901613   0.00854147
8362.00   0.46339107   0.00866723
8364.00   0.47450471   0.00860460
8366.00   0.46208793   0.00813361
8368.00   0.44114932   0.00751808
8370.00   0.43822229   0.00731332
8372.00   0.44339210   0.00734184
8374.00   0.45418668   0.00755665
8376.00   0.47978634   0.00808218
8378.00   0.49541250   0.00851984
8380.00   0.49977067   0.00901156
8382.00   0.49794099   0.00933013
8384.00   0.49038392   0.00907755
8386.00   0.47198722   0.00821275
8388.00   0.47892699   0.00809095
8390.00   0.51328057   0.00792794
8392.00   0.53225404   0.00885137
8394.00   0.54386652   0.01118676
8396.00   0.54389489   0.01289050
8398.00   0.52007288   0.01315743
8400.00   0.47624353   0.01263107
8402.00   0.47337890   0.01181613
8404.00   0.50378734   0.00958799
8406.00   0.52487242   0.00838110
8408.00   0.55227101   0.00826244
8410.00   0.57062423   0.00842454
8412.00   0.57030553   0.00861375
8414.00   0.55845469   0.00893729
8416.00   0.55078578   0.00894182
8418.00   0.53236485   0.00800708
8420.00   0.53445137   0.00878519
8422.00   0.55610383   0.01081358
8424.00   0.57455015   0.01237390
8426.00   0.59054655   0.01364454
8428.00   0.59992701   0.01454190
8430.00   0.58068931   0.01424419
8432.00   0.52552629   0.01253147
8434.00   0.50417352   0.01155837
8436.00   0.49876103   0.01080894
8438.00   0.49873653   0.00994971
8440.00   0.50615603   0.00863243
8442.00   0.51763195   0.00742281
8444.00   0.52733475   0.00759601
8446.00   0.53878111   0.00895598
8448.00   0.54502529   0.00935800
8450.00   0.54271775   0.00948977
8452.00   0.54907167   0.00953120
8454.00   0.55698735   0.00906501
8456.00   0.57748538   0.00899475
8458.00   0.62931162   0.01025822
8460.00   0.70748252   0.01218218
8462.00   0.72941631   0.01297122
8464.00   0.71665782   0.01360220
8466.00   0.69006926   0.01339924
8468.00   0.62014329   0.01182682
8470.00   0.57017052   0.01033414
8472.00   0.57723486   0.01019919
8474.00   0.61610323   0.01073687
8476.00   0.63624161   0.01029648
8478.00   0.65825522   0.00890621
8480.00   0.67396814   0.00816349
8482.00   0.68189287   0.00770900
8484.00   0.69249415   0.00751095
8486.00   0.70943183   0.00756616
8488.00   0.72854483   0.00789345
8490.00   0.74355561   0.00848876
8492.00   0.75390047   0.00929852
8494.00   0.77218598   0.01024381
8496.00   0.80261487   0.01173866
8498.00   0.82176626   0.01247383
8500.00   0.82349336   0.01240136
8502.00   0.82082450   0.01193811
8504.00   0.82906944   0.01140014
8506.00   0.84313256   0.01045326
8508.00   0.85430998   0.01009717
8510.00   0.86842734   0.01054179
8512.00   0.87619019   0.01030269
8514.00   0.87264901   0.00900659
8516.00   0.87159139   0.00760733
8518.00   0.88503873   0.00743142
8520.00   0.90778863   0.00809649
8522.00   0.93121904   0.00819714
8524.00   0.96775317   0.00820025
8526.00   0.98685592   0.00814532
8528.00   0.98711377   0.00791904
8530.00   0.98793244   0.00777740
8532.00   0.99909735   0.00789215
8534.00   1.01467550   0.00814993
8536.00   1.02865005   0.00831672
8538.00   1.04527450   0.00843467
8540.00   1.05749416   0.00864479
8542.00   1.05782545   0.00889857
8544.00   1.07185566   0.00920495
8546.00   1.11582148   0.00966394
8548.00   1.16959345   0.01010859
8550.00   1.18790901   0.01012127
8552.00   1.17395568   0.00977508
8554.00   1.18514657   0.00945190
8556.00   1.20969880   0.00880250
8558.00   1.23114908   0.00844567
8560.00   1.25193799   0.00850335
8562.00   1.26761246   0.00880408
8564.00   1.26521981   0.00926749
8566.00   1.24205661   0.01007322
8568.00   1.24624109   0.01014439
8570.00   1.27235913   0.00932697
8572.00   1.29024112   0.00917535
8574.00   1.29593050   0.00980984
8576.00   1.30570602   0.01056989
8578.00   1.33690417   0.01117085
8580.00   1.38510692   0.01183023
8582.00   1.40133774   0.01157320
8584.00   1.38601744   0.01000103
8586.00   1.39010036   0.00919243
8588.00   1.40754557   0.00899297
8590.00   1.42838407   0.00908845
8592.00   1.44934607   0.00931834
8594.00   1.47208536   0.00976049
8596.00   1.49124849   0.01053529
8598.00   1.50190306   0.01226715
8600.00   1.52680194   0.01245789
8602.00   1.57090151   0.01125299
8604.00   1.60438514   0.01016168
8606.00   1.61591804   0.00977411
8608.00   1.61651897   0.00975556
8610.00   1.62215281   0.01002075
8612.00   1.62666750   0.01073652
8614.00   1.63047493   0.01125289
8616.00   1.62671769   0.01175521
8618.00   1.63466990   0.01227664
8620.00   1.66789794   0.01240815
8622.00   1.70124400   0.01292843
8624.00   1.69198668   0.01521388
8626.00   1.64020765   0.01900016
8628.00   1.64386177   0.01954788
8630.00   1.68766379   0.01780005
8632.00   1.72401786   0.01627411
8634.00   1.75819242   0.01457231
8636.00   1.78893638   0.01296213
8638.00   1.81119287   0.01219145
8640.00   1.82746243   0.01210028
8642.00   1.83586907   0.01271583
8644.00   1.83444190   0.01479313
8646.00   1.83141160   0.01549781
8648.00   1.82077932   0.01506787
8650.00   1.81346357   0.01455600
8652.00   1.81849980   0.01458035
8654.00   1.83060467   0.01480481
8656.00   1.83096385   0.01482276
8658.00   1.81569159   0.01474353
8660.00   1.81958628   0.01468009
8662.00   1.84306014   0.01457746
8664.00   1.86076999   0.01450231
8666.00   1.86061287   0.01454819
8668.00   1.85448456   0.01460084
8670.00   1.86573768   0.01430470
8672.00   1.89045596   0.01361846
8674.00   1.91022372   0.01312641
8676.00   1.94080591   0.01258191
8678.00   1.95317864   0.01219361
8680.00   1.92982733   0.01199347
8682.00   1.90160131   0.01196871
8684.00   1.91917026   0.01218678
8686.00   1.97265601   0.01280559
8688.00   2.00515962   0.01277645
8690.00   2.04601407   0.01223867
8692.00   2.06093836   0.01175098
8694.00   2.04182100   0.01119682
8696.00   2.01259041   0.01071998
8698.00   1.99428380   0.01060654
8700.00   1.97670472   0.01079947
8702.00   1.96623671   0.01077152
8704.00   1.95784903   0.01061401
8706.00   1.96075583   0.01058663
8708.00   1.98074579   0.01072339
8710.00   1.99984658   0.01083072
8712.00   2.00794125   0.01079624
8714.00   2.01039553   0.01068020
8716.00   2.00392580   0.01053544
8718.00   1.97722507   0.01024307
8720.00   1.97134912   0.01012389
8722.00   1.98030376   0.01007096
8724.00   1.99247909   0.01016403
8726.00   2.00975299   0.01037189
8728.00   2.02759147   0.01073763
8730.00   2.01870537   0.01151151
8732.00   1.97771645   0.01302992
8734.00   1.96178377   0.01341589
8736.00   1.95269775   0.01297244
8738.00   1.95347643   0.01264865
8740.00   1.97024429   0.01257377
8742.00   1.99231350   0.01260526
8744.00   1.99881053   0.01276756
8746.00   1.99317253   0.01312654
8748.00   2.00035620   0.01327304
8750.00   2.02275157   0.01298408
8752.00   2.02990031   0.01332081
8754.00   2.02197766   0.01458816
8756.00   2.00339603   0.01577777
8758.00   1.97341871   0.01604427
8760.00   1.92912114   0.01571636
8762.00   1.89939761   0.01589803
8764.00   1.87201262   0.01652212
8766.00   1.85558081   0.01663855
8768.00   1.85372889   0.01614819
8770.00   1.85434580   0.01567134
8772.00   1.84997964   0.01563632
8774.00   1.84450638   0.01583325
8776.00   1.83731985   0.01606218
8778.00   1.82601488   0.01669363
8780.00   1.81916690   0.01671861
8782.00   1.81026256   0.01633732
8784.00   1.81083500   0.01566339
8786.00   1.83078671   0.01451884
8788.00   1.86030841   0.01299669
8790.00   1.86893082   0.01214764
8792.00   1.86040235   0.01174838
8794.00   1.86147070   0.01160801
8796.00   1.86284304   0.01189346
8798.00   1.86819744   0.01234325
8800.00   1.88405871   0.01325031
8802.00   1.89948976   0.01402090
8804.00   1.89107084   0.01341537
8806.00   1.85819149   0.01105331
8808.00   1.84843874   0.01038178
8810.00   1.85317302   0.01100812
8812.00   1.85407090   0.01142590
8814.00   1.84365368   0.01138838
8816.00   1.83985329   0.01164494
8818.00   1.87187696   0.01285943
8820.00   1.94369256   0.01458845
8822.00   1.91985571   0.01633831
8824.00   1.80084527   0.01892642
8826.00   1.72295797   0.02007003
8828.00   1.66269803   0.02019583
8830.00   1.62531257   0.01968349
8832.00   1.62928867   0.01844463
8834.00   1.66697454   0.01629093
8836.00   1.66380203   0.01498670
8838.00   1.63072145   0.01424196
8840.00   1.61566651   0.01341248
8842.00   1.61117673   0.01256014
8844.00   1.60735345   0.01198410
8846.00   1.59774685   0.01195735
8848.00   1.58806574   0.01228138
8850.00   1.59564793   0.01228499
8852.00   1.62180889   0.01193412
8854.00   1.63996899   0.01219975
8856.00   1.67047012   0.01319793
8858.00   1.67873192   0.01370855
8860.00   1.65328014   0.01336648
8862.00   1.60953438   0.01273240
8864.00   1.56811714   0.01278650
8866.00   1.51335907   0.01345760
8868.00   1.47979796   0.01331250
8870.00   1.45387852   0.01242435
8872.00   1.44401932   0.01181157
8874.00   1.45091295   0.01120311
8876.00   1.47231352   0.01115085
8878.00   1.51537025   0.01267891
8880.00   1.59409559   0.01533457
8882.00   1.58233452   0.01629085
8884.00   1.49068439   0.01669911
8886.00   1.41310692   0.01653093
8888.00   1.32171607   0.01546523
8890.00   1.24971414   0.01411967
8892.00   1.23219407   0.01294876
8894.00   1.25356662   0.01167282
8896.00   1.26333678   0.01145387
8898.00   1.29237556   0.01248598
8900.00   1.29648578   0.01305363
8902.00   1.27669489   0.01360261
8904.00   1.25598025   0.01401707
8906.00   1.24153316   0.01421382
8908.00   1.22972059   0.01427348
8910.00   1.23074496   0.01436565
8912.00   1.26164639   0.01400725
8914.00   1.25222564   0.01462452
8916.00   1.21302032   0.01639465
8918.00   1.17199063   0.01737999
8920.00   1.12829661   0.01722018
8922.00   1.08690441   0.01650352
8924.00   1.07244480   0.01593282
8926.00   1.07932770   0.01526607
8928.00   1.08991706   0.01425661
8930.00   1.11754036   0.01204134
8932.00   1.13910544   0.01101033
8934.00   1.15987206   0.01220523
8936.00   1.17090714   0.01377354
8938.00   1.15235198   0.01414708
8940.00   1.10353613   0.01402552
8942.00   1.08694696   0.01391670
8944.00   1.08081114   0.01269898
8946.00   1.09013915   0.01330379
8948.00   1.12112164   0.01609351
8950.00   1.15798807   0.01848587
8952.00   1.19731271   0.01935589
8954.00   1.24482465   0.01952272
8956.00   1.21956503   0.01965340
8958.00   1.10798407   0.01984000
8960.00   1.04239535   0.01908245
8962.00   0.98821253   0.01687824
8964.00   0.96033502   0.01449379
8966.00   0.97527248   0.01262143
8968.00   1.02023602   0.01106740
8970.00   1.04809010   0.01116362
8972.00   1.08447492   0.01393430
8974.00   1.10014880   0.01431908
8976.00   1.10187089   0.01319245
8978.00   1.09408498   0.01241127
8980.00   1.07108688   0.01255269
8982.00   1.04240441   0.01314604
8984.00   1.03608084   0.01397681
8986.00   1.04713154   0.01547902
8988.00   1.05088639   0.01587035
8990.00   1.05479133   0.01534499
8992.00   1.05917001   0.01511800
8994.00   1.06339502   0.01527937
8996.00   1.06868410   0.01562093
8998.00   1.08099556   0.01610487
9000.00   1.10864115   0.01683180
9002.00   1.08296025   0.01714908
9004.00   0.98781019   0.01762474
9006.00   0.93997818   0.01721482
9008.00   0.93751466   0.01526504
9010.00   0.95242321   0.01311806
9012.00   0.97269744   0.01265591
9014.00   1.00669587   0.01334919
9016.00   1.01298690   0.01323758
9018.00   0.98996478   0.01303852
9020.00   0.98757052   0.01254884
9022.00   1.00128376   0.01136821
9024.00   1.01647604   0.01043961
9026.00   1.02962637   0.01056655
9028.00   1.04196215   0.01129325
9030.00   1.03676903   0.01158147
9032.00   1.00947440   0.01185587
9034.00   0.99537814   0.01196487
9036.00   0.98140097   0.01178495
9038.00   0.97632247   0.01177851
9040.00   0.98489583   0.01209891
9042.00   1.00147867   0.01257439
9044.00   1.01528633   0.01303235
9046.00   1.03620505   0.01376944
9048.00   1.04079509   0.01382239
9050.00   1.02887905   0.01329738
9052.00   1.02156436   0.01274870
9054.00   1.02244031   0.01215017
9056.00   1.02432251   0.01153102
9058.00   1.02109444   0.01109562
9060.00   1.01782107   0.01078833
9062.00   0.99958009   0.01055769
9064.00   0.95233881   0.01040983
9066.00   0.93325645   0.01040704
9068.00   0.94302917   0.01057034
9070.00   0.96596950   0.01083304
9072.00   0.99517822   0.01117415
9074.00   1.03635502   0.01161893
9076.00   1.05709767   0.01182641
9078.00   1.05991828   0.01190306
9080.00   1.07140553   0.01190753
9082.00   1.08851612   0.01170956
9084.00   1.10577083   0.01160225
9086.00   1.12503040   0.01180599
9088.00   1.14433098   0.01217554
9090.00   1.13616323   0.01231372
9092.00   1.08926272   0.01222476
9094.00   1.07363176   0.01238090
9096.00   1.07458830   0.01270297
9098.00   1.08072913   0.01304096
9100.00   1.09544432   0.01348704
9102.00   1.11199212   0.01387987
9104.00   1.10129309   0.01364276
9106.00   1.06095111   0.01262967
9108.00   1.04364264   0.01216343
9110.00   1.03607202   0.01183099
9112.00   1.03059924   0.01174444
9114.00   1.02407181   0.01216432
9116.00   1.02229857   0.01259412
9118.00   1.03585720   0.01220624
9120.00   1.06952918   0.01095613
9122.00   1.07219303   0.01070832
9124.00   1.04092264   0.01121935
9126.00   1.03352678   0.01156485
9128.00   1.05415773   0.01177224
9130.00   1.08114302   0.01200222
9132.00   1.09900177   0.01237336
9134.00   1.11557448   0.01286071
9136.00   1.12301922   0.01300914
9138.00   1.12113273   0.01289203
9140.00   1.11883342   0.01279156
9142.00   1.11689985   0.01253998
9144.00   1.10932434   0.01241455
9146.00   1.08510494   0.01264835
9148.00   1.05129099   0.01309509
9150.00   1.06298220   0.01331861
9152.00   1.13136828   0.01338504
9154.00   1.15515935   0.01360276
9156.00   1.15267456   0.01393127
9158.00   1.14577556   0.01424913
9160.00   1.13661385   0.01467876
9162.00   1.12605834   0.01503043
9164.00   1.13269126   0.01456671
9166.00   1.15974689   0.01285184
9168.00   1.16843486   0.01229495
9170.00   1.16958869   0.01271006
9172.00   1.16565239   0.01280748
9174.00   1.15377724   0.01226905
9176.00   1.13925850   0.01160080
9178.00   1.13199615   0.01149900
9180.00   1.12688851   0.01170798
9182.00   1.12959051   0.01218151
9184.00   1.14572072   0.01329175
9186.00   1.15304983   0.01382238
9188.00   1.15482759   0.01330307
9190.00   1.14819193   0.01310309
9192.00   1.12209213   0.01500774
9194.00   1.07457519   0.01820924
9196.00   1.07497144   0.01801881
9198.00   1.12369585   0.01421262
9200.00   1.14717603   0.01202555
9202.00   1.15787137   0.01127655
9204.00   1.15720725   0.01154515
9206.00   1.13565195   0.01308149
9208.00   1.09855807   0.01535952
9210.00   1.10574102   0.01537678
9212.00   1.15693676   0.01308542
9214.00   1.18420196   0.01225184
9216.00   1.20548534   0.01237271
9218.00   1.21885109   0.01262980
9220.00   1.22041953   0.01283126
9222.00   1.21460903   0.01307775
9224.00   1.21573520   0.01313561
9226.00   1.21959364   0.01303944
9228.00   1.22205651   0.01299194
9230.00   1.22939718   0.01300177
9232.00   1.22741282   0.01287254
9234.00   1.21219742   0.01249311
9236.00   1.18979418   0.01202559
9238.00   1.16677713   0.01176730
9240.00   1.13588738   0.01161747
9242.00   1.12029791   0.01153548
9244.00   1.11919773   0.01160230
9246.00   1.11334610   0.01162253
9248.00   1.10390472   0.01159875
9250.00   1.09143436   0.01155653
9252.00   1.07208550   0.01149818
9254.00   1.04424989   0.01141541
9256.00   1.03752470   0.01136967
9258.00   1.04838789   0.01133493
9260.00   1.05740499   0.01133055
9262.00   1.07316244   0.01137160
9264.00   1.08287847   0.01141423
9266.00   1.07134640   0.01138503
9268.00   1.04601336   0.01131861
9270.00   1.05531061   0.01157269
9272.00   1.10134387   0.01210938
9274.00   1.12218761   0.01258473
9276.00   1.13524926   0.01318281
9278.00   1.13462114   0.01362959
9280.00   1.11458349   0.01377374
9282.00   1.08070922   0.01377806
9284.00   1.04932940   0.01403348
9286.00   1.00366759   0.01454329
9288.00   0.98215121   0.01475024
9290.00   0.96503645   0.01449443
9292.00   0.97549933   0.01471379
9294.00   1.03909194   0.01521582
9296.00   1.11372602   0.01632900
9298.00   1.11340714   0.01865496
9300.00   1.04017770   0.02066396
9302.00   1.04834676   0.02620433
9304.00   1.11381686   0.03333618
9306.00   1.16554308   0.03972962
9308.00   1.22185564   0.04701935
9310.00   1.25361204   0.05261319
9312.00   1.21015787   0.05406077
9314.00   1.10174239   0.05265925
9316.00   1.02553499   0.05182609
9318.00   0.91636646   0.05042059
9320.00   0.87853682   0.04837864
9322.00   0.93341434   0.04518234
9324.00   0.99205494   0.04169349
9326.00   0.99039149   0.03841003
9328.00   0.95968223   0.03501548
9330.00   0.95549703   0.03403921
9332.00   0.93344623   0.03550153
9334.00   0.97597659   0.03720360
9336.00   1.09747005   0.04120426
9338.00   1.21050096   0.04309120
9340.00   1.28719831   0.04075954
9342.00   1.34300363   0.03567801
9344.00   1.35219646   0.03254766
9346.00   1.29312193   0.02946711
9348.00   1.27365601   0.02759982
9350.00   1.26656413   0.02761326
9352.00   1.25857842   0.02749754
9354.00   1.24656260   0.02659784
9356.00   1.23432076   0.02574638
9358.00   1.22152746   0.02613054
9360.00   1.18277431   0.02712465
9362.00   1.23504174   0.02927279
9364.00   1.37232411   0.02727062
9366.00   1.50560343   0.03542734
9368.00   1.70374453   0.05170891
9370.00   1.83464134   0.06585316
9372.00   1.69356489   0.07525971
9374.00   1.32182705   0.08475561
9376.00   1.07046556   0.08282537
9378.00   0.71387440   0.06596768
9380.00   0.59832358   0.05257163
9382.00   0.78525138   0.04206438
9384.00   1.01424301   0.03284761
9386.00   1.10722637   0.02578445
9388.00   1.15227222   0.02349959
9390.00   1.16285014   0.02070357
9392.00   1.08536112   0.02131312
9394.00   1.07876098   0.02134660
9396.00   1.13118207   0.02181336
9398.00   1.18086421   0.02248021
9400.00   1.20510697   0.02335903
9402.00   1.21748865   0.02434240
9404.00   1.21291840   0.02457242
9406.00   1.17039502   0.02415359
9408.00   1.16725576   0.02386844
9410.00   1.18661666   0.02251182
9412.00   1.21218407   0.02274986
9414.00   1.25072110   0.02561354
9416.00   1.28919363   0.02916788
9418.00   1.28918266   0.03137106
9420.00   1.26868570   0.03372350
9422.00   1.21447313   0.03399079
9424.00   1.08380210   0.03204252
9426.00   1.01361394   0.03041472
9428.00   1.02566206   0.02878700
9430.00   1.06673408   0.02772958
9432.00   1.08613169   0.02843393
9434.00   1.10547686   0.03006878
9436.00   1.12539756   0.03416816
9438.00   1.14444041   0.04272885
9440.00   1.16645837   0.04547622
9442.00   1.20889974   0.04330805
9444.00   1.23047066   0.03926244
9446.00   1.18535566   0.03465433
9448.00   1.08983707   0.02763814
9450.00   1.06495166   0.02667718
9452.00   1.08354056   0.03213827
9454.00   1.10075068   0.03518054
9456.00   1.13137257   0.03836719
9458.00   1.16259682   0.04044123
9460.00   1.18884575   0.04067178
9462.00   1.21311963   0.03975195
9464.00   1.23033392   0.03927333
9466.00   1.23799825   0.03866038
9468.00   1.25065839   0.03789555
9470.00   1.27781260   0.03624586
9472.00   1.28211749   0.03567990
9474.00   1.27001762   0.03769640
9476.00   1.22597539   0.04015159
9478.00   1.08095253   0.03899701
9480.00   0.77176970   0.03427421
9482.00   0.67783445   0.03142494
9484.00   0.74188352   0.02879807
9486.00   0.79263037   0.02663353
9488.00   0.83681369   0.02478244
9490.00   0.86838406   0.02386901
9492.00   0.83591318   0.02464328
9494.00   0.72966158   0.02631347
9496.00   0.74932629   0.03098065
9498.00   0.87696761   0.04000393
9500.00   0.97154695   0.04356047
9502.00   1.07719231   0.04345483
9504.00   1.13310885   0.04108698
9506.00   1.05322528   0.03583205
9508.00   0.86323732   0.02534236
9510.00   0.80866730   0.01982634
9512.00   0.81798923   0.02036107
9514.00   0.85523778   0.02041201
9516.00   0.96745461   0.02181535
9518.00   1.05541849   0.02347753
9520.00   1.05797338   0.02509567
9522.00   1.01423395   0.02674326
9524.00   1.00331354   0.02697905
9526.00   0.98636830   0.02596409
9528.00   0.99892759   0.02505758
9530.00   1.04461324   0.02309899
9532.00   1.08679032   0.02204199
9534.00   1.11732388   0.02269691
9536.00   1.14246321   0.02431966
9538.00   1.16000402   0.02614579
9540.00   1.17071569   0.02886974
9542.00   1.17489779   0.03031843
9544.00   1.18149114   0.03141774
9546.00   1.16444635   0.03179253
9548.00   1.11189723   0.03115272
9550.00   1.04699016   0.03007668
9552.00   1.00104296   0.02936862
9554.00   0.96244562   0.02842766
9556.00   0.92252213   0.02886817
9558.00   0.85410601   0.02910435
9560.00   0.84826654   0.03221008
9562.00   0.92162758   0.03977391
9564.00   1.01454067   0.04514568
9566.00   1.08844090   0.04432046
9568.00   1.16840351   0.03906621
9570.00   1.16259420   0.03571314
9572.00   1.05685210   0.03155683
9574.00   0.99444103   0.02807265
9576.00   0.93821687   0.02518417
9578.00   0.91005510   0.02300841
9580.00   0.93754143   0.02195472
9582.00   1.00229716   0.02203090
9584.00   1.01773214   0.02191988
9586.00   0.99905610   0.02237017
9588.00   0.99778765   0.02246401
9590.00   0.99601519   0.02217099
9592.00   1.00441372   0.02224424
9594.00   1.02412474   0.02315559
9596.00   1.05549252   0.02429563
9598.00   1.10916007   0.02443231
9600.00   1.21539891   0.02375416
9602.00   1.23942912   0.02345141
9604.00   1.19776368   0.02309414
9606.00   1.16008162   0.02288269
9608.00   1.12297475   0.02259694
9610.00   1.09368885   0.02266150
9612.00   1.10539567   0.02398907
9614.00   1.16244745   0.02664231
9616.00   1.16397250   0.02724334
9618.00   1.11464977   0.02642208
9620.00   1.09695387   0.02583663
9622.00   1.10848260   0.02542892
9624.00   1.13658166   0.02498367
9626.00   1.18439746   0.02442471
9628.00   1.25868428   0.02377369
9630.00   1.26643634   0.02308776
9632.00   1.21716762   0.02196326
9634.00   1.17883062   0.02159541
9636.00   1.12602556   0.02182372
9638.00   1.08974910   0.02256101
9640.00   1.09414089   0.02419962
9642.00   1.12536120   0.02630135
9644.00   1.14866090   0.02602422
9646.00   1.17573345   0.02271659
9648.00   1.20830917   0.02166849
9650.00   1.25325596   0.02191074
9652.00   1.29109180   0.02277598
9654.00   1.31782544   0.02442482
9656.00   1.33528352   0.02633887
9658.00   1.33440089   0.02686208
9660.00   1.29774702   0.02626249
9662.00   1.30450475   0.02623053
9664.00   1.35456645   0.02643245
9666.00   1.38039303   0.02637032
9668.00   1.36321270   0.02563530
9670.00   1.33473206   0.02492802
9672.00   1.33880424   0.02564548
9674.00   1.37504351   0.02783415
9676.00   1.35091889   0.02786291
9678.00   1.26074553   0.02600287
9680.00   1.20916605   0.02487620
9682.00   1.18923140   0.02453337
9684.00   1.19634557   0.02456796
9686.00   1.24384153   0.02479953
9688.00   1.33513319   0.02529891
9690.00   1.37593186   0.02608738
9692.00   1.40342224   0.02770589
9694.00   1.39860296   0.02830718
9696.00   1.35837984   0.02815612
9698.00   1.29841411   0.02753019
9700.00   1.21657896   0.02614503
9702.00   1.11439872   0.02402976
9704.00   1.07280815   0.02417330
9706.00   1.06386209   0.02659171
9708.00   1.08658326   0.02774645
9710.00   1.16641963   0.02859240
9712.00   1.23692822   0.02914008
9714.00   1.28087389   0.02933530
9716.00   1.30777693   0.02926382
9718.00   1.29657388   0.02916411
9720.00   1.22728026   0.02887417
9722.00   1.20236075   0.02865731
9724.00   1.19307578   0.02857099
9726.00   1.19381714   0.02822989
9728.00   1.20740736   0.02718384
9730.00   1.22847676   0.02615253
9732.00   1.24634504   0.02673692
9734.00   1.27172530   0.02899684
9736.00   1.27238429   0.02911878
9738.00   1.25100732   0.02745384
9740.00   1.22971380   0.02656551
9742.00   1.19648373   0.02683471
9744.00   1.17336082   0.02718941
9746.00   1.19214427   0.02666719
9748.00   1.24551070   0.02555644
9750.00   1.27207685   0.02485146
9752.00   1.29689395   0.02429714
9754.00   1.30461931   0.02370538
9756.00   1.29612184   0.02303810
9758.00   1.27545226   0.02245970
9760.00   1.23772788   0.02204537
9762.00   1.18498862   0.02176602
9764.00   1.17120230   0.02191426
9766.00   1.17787409   0.02285511
9768.00   1.20434391   0.02302984
9770.00   1.27344441   0.02267518
9772.00   1.32596433   0.02219235
9774.00   1.33728170   0.02151760
9776.00   1.32593966   0.02078378
9778.00   1.31204510   0.02105420
9780.00   1.27427864   0.02195270
9782.00   1.26233697   0.02331789
9784.00   1.26603246   0.02534872
9786.00   1.27238381   0.02725950
9788.00   1.28593147   0.02925912
9790.00   1.29771543   0.03098227
9792.00   1.28140903   0.03153319
9794.00   1.22904682   0.03107868
9796.00   1.22906852   0.03095791
9798.00   1.27799642   0.03090447
9800.00   1.30446541   0.03046745
9802.00   1.30518115   0.02909420
9804.00   1.29616225   0.02790833
9806.00   1.28497279   0.02863498
9808.00   1.26391017   0.03089104
9810.00   1.26820564   0.03115976
9812.00   1.30782974   0.03045644
9814.00   1.31584764   0.02931154
9816.00   1.29668736   0.02698520
9818.00   1.26460171   0.02470334
9820.00   1.21895218   0.02379761
9822.00   1.15861046   0.02380699
9824.00   1.14667141   0.02351441
9826.00   1.19116783   0.02351680
9828.00   1.19510007   0.02325487
9830.00   1.16640294   0.02261152
9832.00   1.14368105   0.02220850
9834.00   1.13900983   0.02225785
9836.00   1.14552569   0.02265344
9838.00   1.17275286   0.02359469
9840.00   1.25146723   0.02499587
9842.00   1.26264989   0.02662125
9844.00   1.21421087   0.02908787
9846.00   1.18227005   0.03065185
9848.00   1.18622267   0.03126325
9850.00   1.20187473   0.03112063
9852.00   1.20265877   0.02981070
9854.00   1.19479120   0.02644389
9856.00   1.19777298   0.02492273
9858.00   1.19433117   0.02308657
9860.00   1.21754909   0.02430117
9862.00   1.29944289   0.02910943
9864.00   1.37121880   0.03432827
9866.00   1.34145534   0.03836269
9868.00   1.23292959   0.04270572
9870.00   1.17060709   0.04336657
9872.00   1.10249424   0.04074828
9874.00   1.06409216   0.03824838
9876.00   1.06760192   0.03486385
9878.00   1.07255411   0.03140013
9880.00   1.04771137   0.02877020
9882.00   1.00768471   0.02665578
9884.00   0.97784460   0.02711521
9886.00   0.93007028   0.03086904
9888.00   0.92747712   0.03295599
9890.00   0.96858215   0.03492894
9892.00   1.02057672   0.03602012
9894.00   1.07510877   0.03537309
9896.00   1.13533759   0.03377387
9898.00   1.17581129   0.03457510
9900.00   1.17486954   0.03744213
9902.00   1.23708439   0.03904085
9904.00   1.36680090   0.04039344
9906.00   1.46710908   0.04153056
9908.00   1.52489603   0.04259943
9910.00   1.54889619   0.04340037
9912.00   1.51828134   0.04347001
9914.00   1.43544030   0.04313447
9916.00   1.32558072   0.04178794
9918.00   1.11767125   0.03883353
9920.00   0.99677718   0.03611083
9922.00   0.98929769   0.03349652
9924.00   1.02926993   0.03122813
9926.00   1.06148303   0.03009206
9928.00   1.12116766   0.02989102
9930.00   1.12933505   0.03081646
9932.00   1.07102251   0.03206355
9934.00   1.07078433   0.03549472
9936.00   1.15277874   0.04111648
9938.00   1.22304606   0.04663780
9940.00   1.20794237   0.05129130
9942.00   1.14063263   0.05576298
9944.00   1.07612097   0.05814146
9946.00   0.94974077   0.05889075
9948.00   0.90992838   0.05954796
9950.00   0.94248736   0.05935951
9952.00   1.00171506   0.05945222
9954.00   1.09228671   0.06054586
9956.00   1.20270884   0.06209912
9958.00   1.19508576   0.06292347
9960.00   1.06278539   0.06510215
9962.00   0.99521941   0.06311996
9964.00   0.91898656   0.05565349
9966.00   0.88612944   0.04904667
9968.00   0.92555922   0.04643357
9970.00   0.99994457   0.04565905
9972.00   1.03532231   0.04348323
9974.00   1.05402398   0.04082533
9976.00   1.08238602   0.03889080
9978.00   1.13634729   0.03742259
9980.00   1.14616954   0.03636004
9982.00   1.07554638   0.03565817
9984.00   0.99869967   0.03550415
9986.00   1.01995814   0.03629597
9988.00   1.11838293   0.03825331
9990.00   1.14691591   0.03856974
9992.00   1.14977944   0.03757623
9994.00   1.13590038   0.03710574
9996.00   1.08211696   0.03651552
9998.00   1.03843200   0.03678578
10000.00   1.05153906   0.03864605
10002.00   1.10132372   0.04146430
10004.00   1.15241957   0.04639547
10006.00   1.25961173   0.05431388
10008.00   1.28535783   0.05896465
10010.00   1.23935890   0.06237013
10012.00   1.16886914   0.06423675
10014.00   1.07402802   0.06398394
10016.00   0.96093661   0.06213712
10018.00   0.95728850   0.06116821
10020.00   1.08478498   0.06092314
10022.00   1.11802030   0.05895659
10024.00   1.09659576   0.05455865
10026.00   1.08349359   0.05092346
10028.00   1.10420752   0.04988290
10030.00   1.13053703   0.04979478
10032.00   1.11412859   0.04730386
10034.00   1.06163406   0.04185126
10036.00   1.02125967   0.03973895
10038.00   0.97587878   0.04065620
10040.00   0.93252069   0.04095782
10042.00   0.88378912   0.04025968
10044.00   0.84377801   0.03935662
10046.00   0.83736831   0.03873301
10048.00   0.85871083   0.03799118
10050.00   0.88083613   0.03833698
10052.00   0.92223436   0.03954475
10054.00   0.95279402   0.04104102
10056.00   0.97891885   0.04304296
10058.00   0.99377847   0.04507297
10060.00   0.98977417   0.04662938
10062.00   0.97111386   0.04790752
10064.00   0.92936844   0.04995656
10066.00   0.82547677   0.05349590
10068.00   0.79307353   0.05487166
10070.00   0.82032645   0.05405670
10072.00   0.87103885   0.05324219
10074.00   0.94539493   0.05336089
10076.00   1.03967607   0.05393220
10078.00   1.04680812   0.05599286
10080.00   0.96809006   0.06163432
10082.00   0.92559135   0.06209554
10084.00   0.88980049   0.05832561
10086.00   0.85127068   0.05420985
10088.00   0.79257983   0.05030099
10090.00   0.73729587   0.04659671
10092.00   0.75966221   0.04647474
10094.00   0.90297246   0.04897360
10096.00   0.88650781   0.05317048
10098.00   0.69740832   0.06270227
10100.00   0.61613047   0.06612960
10102.00   0.70269042   0.06131737
10104.00   0.84800291   0.05300931
10106.00   0.93609673   0.04927594
10108.00   1.02348197   0.04765962
10110.00   1.06147957   0.04659560
10112.00   1.05672348   0.04574656
10114.00   1.03578782   0.04798193
10116.00   0.97998899   0.05408889
10118.00   0.92459595   0.06023448
10120.00   0.91344005   0.06434330
10122.00   0.93337452   0.06794958
10124.00   0.90386307   0.06859136
10126.00   0.83033073   0.06524327
10128.00   0.78055376   0.06411853
10130.00   0.74873668   0.06410046
10132.00   0.71788824   0.06522741
10134.00   0.66311616   0.06896676
10136.00   0.60032326   0.07399996
10138.00   0.64952606   0.07162911
10140.00   0.85759228   0.05837332
10142.00   0.92928028   0.05328381
10144.00   0.89261836   0.05391547
10146.00   0.87898672   0.05678621
10148.00   0.93457329   0.06162942
10150.00   1.01989782   0.06748688
10152.00   1.09386444   0.07063374
10154.00   1.22074950   0.07343809
10156.00   1.21483278   0.07334889
10158.00   1.04296076   0.06873958
10160.00   0.95851511   0.06631956
10162.00   1.03254294   0.06739957
10164.00   1.14485788   0.07023954
10166.00   1.13777232   0.07385504
10168.00   1.04661834   0.07940222
10170.00   1.02455735   0.08173609
10172.00   0.99020392   0.08150864
10174.00   1.04311800   0.08228415
10176.00   1.23665214   0.08357400
10178.00   1.43679583   0.08569732
10180.00   1.51660299   0.08976968
10182.00   1.53674078   0.09561656
10184.00   1.46740413   0.09749170
10186.00   1.28923893   0.09745365
10188.00   1.09437108   0.09563779
10190.00   0.80193806   0.09011107
10192.00   0.56819707   0.08492467
10194.00   0.49458832   0.08380641
10196.00   0.52695513   0.08502922
10198.00   0.63230777   0.08331238
10200.00   0.91484654   0.07661355
10202.00   1.06893313   0.07737368
10204.00   1.18709707   0.08634903
10206.00   1.22968376   0.09234715
10208.00   1.16665709   0.09209479
10210.00   1.02828205   0.08900021
10212.00   0.88959229   0.08781643
10214.00   0.65406930   0.08734072
10216.00   0.57444257   0.08552616
10218.00   0.60987777   0.08179577
10220.00   0.66175616   0.07926805
10222.00   0.72873247   0.07889163
10224.00   0.80701625   0.07945399
10226.00   0.86625791   0.07966257
10228.00   0.94607395   0.08081064
10230.00   0.90868127   0.07898812
10232.00   0.69004810   0.07307022
10234.00   0.61013538   0.06938323
10236.00   0.74235445   0.06928615
10238.00   0.88020641   0.06965812
10240.00   0.80004698   0.06745111
10242.00   0.56092995   0.06353985
10244.00   0.52789658   0.06081787
10246.00   0.61732638   0.05784461
10248.00   0.71546614   0.05633712
10250.00   0.87636775   0.05604195
10252.00   1.01617897   0.05716966
10254.00   1.06851661   0.06064917
10256.00   1.06731308   0.06568485
10258.00   1.07532060   0.06632108
10260.00   1.10753119   0.06253975
10262.00   1.04346609   0.06164206
10264.00   0.82289571   0.06208591
10266.00   0.68015766   0.06338369
10268.00   0.72320926   0.06563171
10270.00   0.86519015   0.06851103
10272.00   0.96664673   0.07068286
10274.00   1.14306116   0.06952757
10276.00   1.16544712   0.07619280
10278.00   0.97800821   0.08740491
10280.00   0.92815638   0.09878881
10282.00   1.15395176   0.11180472
10284.00   1.44693983   0.12342048
10286.00   1.48120427   0.12821867
10288.00   1.35169411   0.12909198
10290.00   1.22575903   0.12729228
10292.00   0.99915463   0.12010219
10294.00   0.82642817   0.11369385
10296.00   0.69483179   0.10776873
10298.00   0.61110729   0.10237096
10300.00   0.61749023   0.09849795
10302.00   0.72046280   0.09585197
10304.00   0.71754915   0.09513093
10306.00   0.65224284   0.09791920
10308.00   0.59499276   0.09876236
10310.00   0.51923227   0.09730727
10312.00   0.46169171   0.09646536
10314.00   0.46089903   0.09932493
10316.00   0.49917257   0.10435252
10318.00   0.49356967   0.10172188
10320.00   0.38836151   0.08686520
10322.00   0.45842597   0.08381529
10324.00   0.75011504   0.09258297
10326.00   0.97589731   0.09984878
10328.00   0.99641830   0.10241998
10330.00   0.91727406   0.10277657
10332.00   0.91720068   0.09900505
10334.00   0.93526071   0.08561704
10336.00   0.95604563   0.08176782
10338.00   1.01942778   0.08344459
10340.00   1.02737534   0.08809940
10342.00   0.94931626   0.09753937
10344.00   0.82580477   0.10701995
10346.00   0.69579720   0.10773616
10348.00   0.44265205   0.10067744
10350.00   0.53074622   0.09933978
10352.00   1.06850243   0.10178316
10354.00   1.31287634   0.10168129
10356.00   1.16415679   0.09765321
10358.00   0.90023261   0.09289790
10360.00   0.75900930   0.09061472
10362.00   0.61608881   0.08855649
10364.00   0.62709510   0.09411381
10366.00   0.85181087   0.10923690
10368.00   0.94847167   0.11675323
10370.00   0.93224996   0.11812104
10372.00   0.88368136   0.11859015
10374.00   0.86081654   0.12134920
10376.00   0.83948356   0.12481840
10378.00   0.69042319   0.12681948
10380.00   0.31442180   0.13127609
10382.00   0.17664196   0.12804838
10384.00   0.21150179   0.11420552
10386.00   0.31701913   0.10028232
10388.00   0.49940729   0.09296320
10390.00   0.73573947   0.08964846
10392.00   0.78143293   0.08930700
10394.00   0.66706115   0.09640704
10396.00   0.58945775   0.09741412
10398.00   0.39697412   0.09529777
10400.00   0.34742981   0.09311948
10402.00   0.56456470   0.09060305
10404.00   0.88130933   0.08860948
10406.00   1.00124598   0.09101998
10408.00   1.04790032   0.09797048
10410.00   0.98662007   0.10109425
10412.00   0.77446353   0.10070886
10414.00   0.56827945   0.10394641
10416.00   0.32471386   0.11381323
10418.00   0.11965600   0.12243611
10420.00   0.08905693   0.12189922
10422.00   0.19324830   0.11480056
10424.00   0.30543536   0.10834125
10426.00   0.54761773   0.09619180
10428.00   0.66991210   0.08887705
10430.00   0.63270420   0.08766222
10432.00   0.60423541   0.08899123
10434.00   0.74300212   0.09112433
10436.00   0.98944277   0.09508336
10438.00   0.98705238   0.09475312
10440.00   0.74696177   0.09112388
10442.00   0.62355137   0.08759365
10444.00   0.51440412   0.08105476
10446.00   0.48397842   0.07707711
10448.00   0.61542439   0.08073321
10450.00   0.84053725   0.08803656
10452.00   0.86440021   0.08851657
10454.00   0.71318686   0.08417977
10456.00   0.65612406   0.08143110
10458.00   0.63186342   0.07625653
10460.00   0.59689385   0.07444695
10462.00   0.54550707   0.07835867
10464.00   0.48035833   0.08503660
10466.00   0.37991926   0.09108029
10468.00   0.17933366   0.09938703
10470.00   0.18785077   0.10259400
10472.00   0.38658670   0.10323588
10474.00   0.55514657   0.10173530
10476.00   0.71795267   0.09694758
10478.00   0.83640420   0.09056071
10480.00   0.79468322   0.08550363
10482.00   0.58837014   0.07997695
10484.00   0.55661750   0.07794940
10486.00   0.67911685   0.07987839
10488.00   0.68516213   0.08130055
10490.00   0.54874575   0.08318986
10492.00   0.40418667   0.08457210
10494.00   0.34140646   0.08413087
10496.00   0.31330699   0.08232819
10498.00   0.38473153   0.08185674
10500.00   0.65240633   0.08225146
10502.00   0.73583251   0.08213229
10504.00   0.62771714   0.08131795
10506.00   0.54446912   0.08097558
10508.00   0.59967047   0.08190056
10510.00   0.72279710   0.08353324
10512.00   0.81230259   0.08432453
10514.00   0.99923664   0.08510303
10516.00   0.96599376   0.08499250
10518.00   0.68536562   0.08328260
10520.00   0.47103673   0.08253952
10522.00   0.42023382   0.08367684
10524.00   0.43791801   0.08574400
10526.00   0.42465052   0.08773661
10528.00   0.43930036   0.09189598
10530.00   0.39703345   0.09054429
10532.00   0.23463538   0.08294138
10534.00   0.20901650   0.07707869
10536.00   0.41491827   0.07364583
10538.00   0.66660613   0.07231001
10540.00   0.71226418   0.07457265
10542.00   0.61366403   0.08082129
10544.00   0.62869841   0.08348940
10546.00   0.71793997   0.08573526
10548.00   0.75127333   0.08581910
10550.00   0.72536707   0.08244690
10552.00   0.67995036   0.07878490
10554.00   0.63643306   0.07861333
10556.00   0.58081126   0.08074654
10558.00   0.56529003   0.07860892
10560.00   0.60320169   0.06906937
10562.00   0.59623349   0.06818634
10564.00   0.53047788   0.07669593
10566.00   0.48866552   0.08454794
10568.00   0.52500689   0.08916277
10570.00   0.60608810   0.09238634
10572.00   0.64341897   0.08936064
10574.00   0.69294202   0.07430640
10576.00   0.67268622   0.06945452
10578.00   0.54985356   0.07312311
10580.00   0.47209972   0.07668962
10582.00   0.50313956   0.07845948
10584.00   0.57736427   0.07970925
10586.00   0.57824147   0.07938366
10588.00   0.50809962   0.07748306
10590.00   0.53139180   0.07552414
10592.00   0.64931846   0.07210112
10594.00   0.71569693   0.06970946
10596.00   0.69871694   0.06885404
10598.00   0.65627974   0.06888590
10600.00   0.65635228   0.06933033
10602.00   0.68672830   0.07068886
10604.00   0.65878534   0.07117696
10606.00   0.56318450   0.07128871
10608.00   0.51307487   0.07126999
10610.00   0.50182277   0.07113800
10612.00   0.51933807   0.07080048
10614.00   0.57854933   0.07020397
10616.00   0.68620080   0.06938335
10618.00   0.69778520   0.06812338
10620.00   0.60937548   0.06589133
10622.00   0.58594471   0.06449501
10624.00   0.64128882   0.06355754
10626.00   0.66559839   0.06328186
10628.00   0.57735866   0.06429165
10630.00   0.42438549   0.06614356
10632.00   0.37682462   0.06567761
10634.00   0.39326525   0.06272689
10636.00   0.41267553   0.06140745
10638.00   0.44422653   0.06073386
10640.00   0.50610512   0.06059443
10642.00   0.63755918   0.06143515
10644.00   0.78808326   0.06261506
10646.00   0.79231507   0.06193995
10648.00   0.65784991   0.05937243
10650.00   0.59192610   0.05801831
10652.00   0.50771207   0.05642300
10654.00   0.47441879   0.05614640
10656.00   0.52536637   0.05869938
10658.00   0.60227394   0.06126819
10660.00   0.61421317   0.05929210
10662.00   0.58151710   0.05246349
10664.00   0.59278911   0.05062232
10666.00   0.65053684   0.05235809
10668.00   0.66335762   0.05352050
10670.00   0.58395612   0.05450338
10672.00   0.53176326   0.05527958
10674.00   0.65162057   0.05516285
10676.00   0.91238391   0.05412171
10678.00   0.96801555   0.05560691
10680.00   0.85372269   0.06099122
10682.00   0.81924838   0.06185035
10684.00   0.84603697   0.05746422
10686.00   0.87155157   0.05322649
10688.00   0.86187536   0.05324479
10690.00   0.83521581   0.05554038
10692.00   0.82094228   0.05758806
10694.00   0.80959195   0.06260523
10696.00   0.79857004   0.06257386
10698.00   0.77076453   0.05701816
10700.00   0.77303654   0.05216958
10702.00   0.84372407   0.05122594
10704.00   0.94206876   0.05218267
10706.00   0.95204598   0.05271227
10708.00   0.92653865   0.05406176
10710.00   0.82976788   0.05475491
10712.00   0.55833006   0.05564290
10714.00   0.43421248   0.05560839
10716.00   0.55301732   0.05346549
10718.00   0.76483899   0.05113540
10720.00   0.88384271   0.05282430
10722.00   1.03172004   0.05834951
10724.00   0.97282469   0.05907317
10726.00   0.60566866   0.05689647
10728.00   0.45356771   0.05458695
10730.00   0.59497750   0.05084230
10732.00   0.78037822   0.04776292
10734.00   0.76621169   0.04936251
10736.00   0.62834334   0.05473565
10738.00   0.66185814   0.05461317
10740.00   0.86739987   0.04867123
10742.00   0.93896532   0.04740833
10744.00   0.84163123   0.05221283
10746.00   0.78141451   0.05576795
10748.00   0.92957848   0.05395108
10750.00   1.20050716   0.04875024
10752.00   1.21181202   0.04607758
10754.00   0.96469271   0.04411066
10756.00   0.88978535   0.04261653
10758.00   0.92009282   0.04199628
10760.00   0.95520645   0.04159157
10762.00   0.99315470   0.04144765
10764.00   1.01855433   0.04138030
10766.00   0.87112147   0.03982272
10768.00   0.40589944   0.03555563
10770.00   0.35279468   0.03436444
10772.00   0.62076896   0.03504955
10774.00   0.85505152   0.03668464
10776.00   1.03705835   0.04033080
10778.00   1.16838968   0.04363092
10780.00   1.11889982   0.04212105
10782.00   0.85089713   0.03478012
10784.00   0.79395604   0.03341785
10786.00   0.90312296   0.03571663
10788.00   0.91488534   0.03873867
10790.00   0.78464162   0.04394463
10792.00   0.63938731   0.04795979
10794.00   0.60414922   0.04733381
10796.00   0.63526547   0.04321525
10798.00   0.64036125   0.03945314
10800.00   0.65006644   0.03225761
10802.00   0.66289520   0.02774755
10804.00   0.68217391   0.02735698
10806.00   0.70059282   0.02829521
10808.00   0.70789003   0.02887131
10810.00   0.70832431   0.02993743
