# File created by shivutils (I.Shivvers)
# wl(A)   flm    er(optional)
3430.00   1.42384030   0.26318113
3432.00   1.13121401   0.26153316
3434.00   0.67120571   0.26463694
3436.00   0.28881088   0.27308373
3438.00   0.49091189   0.27170446
3440.00   0.54017132   0.26385509
3442.00   0.82519231   0.26006739
3444.00   0.42132683   0.26148436
3446.00   0.18978654   0.27107457
3448.00   1.26652934   0.28063489
3450.00   1.13112667   0.29640814
3452.00   0.54010874   0.29474733
3454.00   1.18203205   0.30205446
3456.00   0.59799867   0.29667216
3458.00   0.66264936   0.28878836
3460.00   1.06976513   0.29049052
3462.00   0.62686713   0.28306855
3464.00   0.64128376   0.28998745
3466.00   0.57922648   0.28360480
3468.00   0.58268253   0.28141177
3470.00   0.92320602   0.28311374
3472.00   1.16240599   0.27897806
3474.00   0.85769227   0.27231281
3476.00   0.52410873   0.27008600
3478.00   0.92057705   0.29078845
3480.00   0.96738743   0.31356646
3482.00   1.61597928   0.31265801
3484.00   1.41202389   0.30040758
3486.00   1.47953403   0.30175069
3488.00   1.13927040   0.29166565
3490.00   0.77634849   0.28507372
3492.00   0.34883710   0.27700073
3494.00   0.44273160   0.27429893
3496.00   0.89348776   0.27687262
3498.00   0.98952251   0.27934465
3500.00   0.83466045   0.28117024
3502.00   1.23631264   0.27653292
3504.00   0.18394306   0.27820223
3506.00   1.00380357   0.27955618
3508.00   0.39157651   0.27511704
3510.00   0.64551357   0.27430396
3512.00   0.98373173   0.27657192
3514.00   0.92013854   0.26821016
3516.00   1.64559984   0.27242673
3518.00   0.59189611   0.27589271
3520.00   0.80246940   0.26864603
3522.00   0.75748273   0.26037673
3524.00   0.64466588   0.25623116
3526.00   1.05339405   0.26137626
3528.00   0.75530565   0.25889724
3530.00   0.91512826   0.26611338
3532.00   0.97187144   0.25978652
3534.00   0.65326413   0.26142859
3536.00   0.51741485   0.25894336
3538.00   0.95586048   0.26867479
3540.00   0.47185155   0.27410528
3542.00   0.32755766   0.28515724
3544.00   0.14814852   0.29160395
3546.00   1.71771897   0.29396720
3548.00   1.47461315   0.28476851
3550.00   0.72761223   0.27804047
3552.00   1.06398552   0.28068332
3554.00   0.96056507   0.27620653
3556.00   1.49531758   0.28090133
3558.00   0.61597307   0.27674609
3560.00   0.72356021   0.27026253
3562.00   0.86012274   0.26226859
3564.00   1.00694155   0.25282407
3566.00   0.89374798   0.25304104
3568.00   0.68155232   0.24480527
3570.00   0.98117377   0.24600360
3572.00   0.86176929   0.24362406
3574.00   1.29404707   0.25329002
3576.00   1.25299860   0.24801369
3578.00   0.47069852   0.24061697
3580.00   0.79133864   0.22692813
3582.00   0.74814679   0.22337330
3584.00   0.89754161   0.21833396
3586.00   1.13102070   0.21500374
3588.00   1.30397356   0.22137461
3590.00   0.90127321   0.22804295
3592.00   0.90021359   0.22896686
3594.00   0.91192083   0.22495673
3596.00   1.00445817   0.22338943
3598.00   0.80380792   0.22538535
3600.00   0.68008952   0.22610238
3602.00   0.66867871   0.21859890
3604.00   0.88551434   0.21088088
3606.00   1.09308905   0.21026417
3608.00   0.93642638   0.20719703
3610.00   0.55705518   0.20190396
3612.00   0.89322952   0.21670107
3614.00   1.22532486   0.22759607
3616.00   0.99173723   0.22623076
3618.00   1.04878449   0.21725651
3620.00   0.35937325   0.20797961
3622.00   1.18144232   0.21796266
3624.00   1.21408003   0.22028397
3626.00   1.30386442   0.21985135
3628.00   1.13766407   0.22061149
3630.00   0.73376795   0.21952881
3632.00   0.64664569   0.21648507
3634.00   0.63285724   0.21259911
3636.00   1.03519181   0.21601331
3638.00   0.77107580   0.21766933
3640.00   0.69008544   0.21955318
3642.00   0.88865623   0.22613120
3644.00   0.60861036   0.22407056
3646.00   0.89068853   0.22801064
3648.00   0.68972944   0.28023266
3650.00   1.58592085   0.33503057
3652.00   0.56473016   0.31859190
3654.00   0.42610694   0.28614302
3656.00   0.63337527   0.26695481
3658.00   1.53528570   0.23484078
3660.00   0.83515342   0.22520129
3662.00   1.00413866   0.25373424
3664.00   1.20605551   0.25357880
3666.00   1.13405010   0.22022715
3668.00   0.96172751   0.19597130
3670.00   0.93509943   0.19330150
3672.00   0.38258865   0.18923055
3674.00   1.40336524   0.19443437
3676.00   1.11190808   0.18509748
3678.00   1.44583504   0.18155995
3680.00   0.66784811   0.17627565
3682.00   1.46549094   0.18313141
3684.00   0.93266990   0.17836777
3686.00   0.84187216   0.17181272
3688.00   1.03214476   0.17146238
3690.00   0.59436600   0.17357006
3692.00   1.17956887   0.18082014
3694.00   0.42264212   0.17553554
3696.00   0.39293840   0.17263592
3698.00   0.78102232   0.17875697
3700.00   0.75513373   0.18016022
3702.00   0.88104760   0.17824066
3704.00   0.83542823   0.17294044
3706.00   1.12488745   0.17002295
3708.00   1.05251365   0.16776723
3710.00   0.93471205   0.16788570
3712.00   0.87323764   0.17186468
3714.00   0.96624692   0.17213935
3716.00   0.93338443   0.16899076
3718.00   0.61823893   0.16370489
3720.00   0.58150211   0.15571539
3722.00   0.64612275   0.15331346
3724.00   0.89570560   0.16035669
3726.00   0.83589434   0.16197030
3728.00   0.68666121   0.16184236
3730.00   0.67347160   0.16204356
3732.00   0.70219433   0.15964325
3734.00   0.77901615   0.15340434
3736.00   0.94389177   0.15205903
3738.00   0.65382091   0.15531979
3740.00   0.78322172   0.16549707
3742.00   0.99164518   0.16445528
3744.00   0.67490655   0.15559615
3746.00   0.32643505   0.14780913
3748.00   0.38302338   0.14532137
3750.00   0.69545511   0.14706116
3752.00   0.91933116   0.15352804
3754.00   0.74130703   0.15930656
3756.00   1.08732294   0.15855381
3758.00   0.83681432   0.15079217
3760.00   0.84481986   0.14873412
3762.00   0.55576139   0.14533064
3764.00   0.79920164   0.14694080
3766.00   0.80440901   0.14525100
3768.00   0.85712742   0.14382696
3770.00   0.82512699   0.14702517
3772.00   0.86958741   0.14962926
3774.00   0.56352951   0.15062116
3776.00   0.64496468   0.15036976
3778.00   1.00783133   0.15351066
3780.00   0.88072719   0.15163961
3782.00   0.89202437   0.15007368
3784.00   1.03853326   0.15351945
3786.00   2.15768746   0.16514863
3788.00   4.18860112   0.17783197
3790.00   3.87099070   0.17766499
3792.00   1.76151803   0.15908010
3794.00   0.59376418   0.14227085
3796.00   0.73197535   0.13819991
3798.00   0.62086545   0.13499232
3800.00   0.65455626   0.13810443
3802.00   0.41614845   0.14414187
3804.00   0.39849593   0.14530879
3806.00   0.60888155   0.14096095
3808.00   0.42840988   0.13648265
3810.00   0.46898523   0.14048027
3812.00   1.01049106   0.14371877
3814.00   0.67702653   0.13774439
3816.00   0.45348316   0.13526077
3818.00   0.60112893   0.13476165
3820.00   0.43692666   0.13288782
3822.00   0.42156543   0.13166173
3824.00   0.40947389   0.13066714
3826.00   0.57872225   0.12922903
3828.00   -0.01099850   0.13879266
3830.00   0.25861861   0.13892210
3832.00   0.53625447   0.13632602
3834.00   0.65882198   0.13269226
3836.00   0.68123840   0.13188368
3838.00   0.63315572   0.13110063
3840.00   0.58721733   0.13140195
3842.00   0.09748137   0.13193635
3844.00   0.53675515   0.13585738
3846.00   0.53887938   0.13504164
3848.00   0.33814165   0.13220737
3850.00   0.42883013   0.12884416
3852.00   0.56087132   0.12923406
3854.00   0.54350584   0.12866808
3856.00   0.44536190   0.12565887
3858.00   0.35365543   0.12010247
3860.00   0.34889075   0.11702722
3862.00   0.51548714   0.12576593
3864.00   0.35266073   0.12856860
3866.00   0.26433352   0.12487830
3868.00   0.66699430   0.12366110
3870.00   0.27540611   0.11752515
3872.00   0.67921702   0.12185717
3874.00   0.45461869   0.12947103
3876.00   0.64034214   0.12821744
3878.00   0.37502448   0.12058021
3880.00   0.56173900   0.11825843
3882.00   0.61684061   0.11920473
3884.00   0.64378870   0.11753030
3886.00   0.68592613   0.11652776
3888.00   0.51669493   0.11605287
3890.00   0.67073721   0.11767352
3892.00   0.35688084   0.11986010
3894.00   0.48920127   0.12402052
3896.00   0.79810386   0.12572831
3898.00   0.56474612   0.12364866
3900.00   0.51395096   0.12437501
3902.00   0.53075088   0.12575217
3904.00   0.41582660   0.12917798
3906.00   0.54017559   0.14304541
3908.00   0.86125844   0.15598633
3910.00   0.44970319   0.15706798
3912.00   0.62992236   0.15833640
3914.00   0.74840791   0.15043998
3916.00   0.71412507   0.13866796
3918.00   0.62798888   0.13185959
3920.00   0.38101240   0.12276503
3922.00   0.67436728   0.12099952
3924.00   0.42449897   0.11992838
3926.00   0.75819316   0.11814129
3928.00   0.76709439   0.11265472
3930.00   0.60292112   0.10915835
3932.00   0.45622326   0.11148346
3934.00   0.69049743   0.11269665
3936.00   0.55432662   0.10807996
3938.00   0.41072536   0.10835890
3940.00   0.49981660   0.11383951
3942.00   0.87742283   0.12257010
3944.00   0.94108678   0.12652561
3946.00   0.57312530   0.12426941
3948.00   0.41278346   0.11896584
3950.00   0.72487252   0.11992909
3952.00   1.06178271   0.12210564
3954.00   1.09468454   0.12119052
3956.00   0.99759089   0.11842417
3958.00   1.02733854   0.11945431
3960.00   0.85945605   0.12240281
3962.00   0.91739099   0.12149225
3964.00   0.79838362   0.11307137
3966.00   1.07020812   0.10688516
3968.00   1.17617087   0.10283280
3970.00   1.36326005   0.10464721
3972.00   1.17278392   0.10863745
3974.00   1.12024949   0.11155728
3976.00   1.23102171   0.11572010
3978.00   1.20766470   0.11912269
3980.00   1.15428509   0.12042940
3982.00   1.31879173   0.12054700
3984.00   1.12652333   0.11717831
3986.00   0.97688536   0.11691245
3988.00   1.26116631   0.12102416
3990.00   0.95931185   0.12015394
3992.00   1.11999338   0.12030725
3994.00   1.45908662   0.12309890
3996.00   1.44244775   0.12671894
3998.00   1.10470596   0.12526643
4000.00   1.51040749   0.12364754
4002.00   1.54541035   0.12268019
4004.00   1.13726956   0.11712869
4006.00   1.33295194   0.11853319
4008.00   0.92526788   0.11859659
4010.00   1.15271200   0.12179403
4012.00   1.01854625   0.12071503
4014.00   0.99496873   0.12049549
4016.00   0.99414081   0.11995606
4018.00   1.10271351   0.12874940
4020.00   1.18369721   0.14113566
4022.00   1.09601462   0.14557890
4024.00   0.91425778   0.14129292
4026.00   1.36874117   0.13497067
4028.00   1.27233323   0.12650079
4030.00   1.22581160   0.12323518
4032.00   1.13660480   0.12058088
4034.00   1.58570771   0.12029306
4036.00   1.28370019   0.11937196
4038.00   1.15983120   0.11870088
4040.00   1.20007916   0.11943916
4042.00   1.24681317   0.12234078
4044.00   1.15092671   0.17748330
4046.00   1.77622709   0.23334771
4048.00   1.22217993   0.21688700
4050.00   1.43322705   0.15098868
4052.00   1.42350874   0.12897967
4054.00   1.31766807   0.12752467
4056.00   1.40649933   0.12502172
4058.00   1.09089344   0.11666149
4060.00   1.42233308   0.11609827
4062.00   1.49364074   0.11424800
4064.00   1.16215347   0.11280733
4066.00   1.61997076   0.11677684
4068.00   1.53653495   0.11638024
4070.00   1.24235564   0.11295998
4072.00   1.46270038   0.11123804
4074.00   1.58440551   0.11600110
4076.00   1.51776630   0.12803787
4078.00   1.53590634   0.13434749
4080.00   1.56255057   0.12954787
4082.00   1.66298028   0.12571042
4084.00   1.76800014   0.12394243
4086.00   1.54192287   0.12141956
4088.00   1.41428076   0.11874065
4090.00   1.72424340   0.11389992
4092.00   1.46921890   0.11026175
4094.00   1.71993108   0.11154811
4096.00   1.76846953   0.11103520
4098.00   1.59145852   0.10844556
4100.00   1.74557189   0.10602153
4102.00   1.71750977   0.10444155
4104.00   2.05970570   0.10692476
4106.00   1.67709256   0.10687220
4108.00   2.02437331   0.10939880
4110.00   1.76688470   0.10800229
4112.00   1.94913421   0.10922084
4114.00   2.03041643   0.11081006
4116.00   1.63208177   0.10903855
4118.00   1.84986509   0.10819302
4120.00   2.00420317   0.10717342
4122.00   1.86059577   0.10672760
4124.00   1.81443751   0.10614458
4126.00   1.82425315   0.10779030
4128.00   1.69400524   0.10680446
4130.00   1.72720769   0.10665333
4132.00   1.84013007   0.11081233
4134.00   1.74512957   0.11037546
4136.00   2.06073881   0.10958469
4138.00   1.94793765   0.11119642
4140.00   1.82035496   0.11188392
4142.00   1.83858174   0.10804780
4144.00   1.81910845   0.10302263
4146.00   1.68873957   0.10289454
4148.00   1.88188511   0.10432220
4150.00   1.72802919   0.10666552
4152.00   1.79035239   0.10910198
4154.00   1.79789458   0.10710333
4156.00   1.66628982   0.10228321
4158.00   1.63538446   0.10172467
4160.00   1.59277048   0.10255081
4162.00   1.45396630   0.10554383
4164.00   1.37114038   0.10977744
4166.00   1.75006677   0.11084666
4168.00   1.61543604   0.10528073
4170.00   1.73859971   0.10156867
4172.00   1.52772038   0.09845860
4174.00   1.35944286   0.09546082
4176.00   1.67875431   0.09767465
4178.00   1.36610269   0.09774164
4180.00   1.31890653   0.09659035
4182.00   1.50644586   0.09619991
4184.00   1.33937972   0.09463553
4186.00   1.51747433   0.09516905
4188.00   1.43299672   0.09482373
4190.00   1.41727272   0.09550793
4192.00   1.50137192   0.09716934
4194.00   1.41745109   0.09626941
4196.00   1.41732490   0.09295088
4198.00   1.60060139   0.09267547
4200.00   1.54871257   0.09271837
4202.00   1.59482273   0.09422260
4204.00   1.76178837   0.09640284
4206.00   1.53622165   0.09684209
4208.00   1.51766212   0.09734127
4210.00   1.40443835   0.09742512
4212.00   1.35872622   0.09658905
4214.00   1.58370275   0.09661351
4216.00   1.54637594   0.09521829
4218.00   1.31259654   0.09414270
4220.00   1.19003012   0.09368280
4222.00   1.27824254   0.09263858
4224.00   1.26763081   0.09105780
4226.00   1.39149985   0.09016628
4228.00   1.31231005   0.09097348
4230.00   1.32615242   0.09396221
4232.00   1.47859663   0.09645262
4234.00   1.35017684   0.09522325
4236.00   1.31967229   0.09570710
4238.00   1.10844908   0.09480750
4240.00   1.30506137   0.09431441
4242.00   1.41120998   0.09318208
4244.00   1.53399336   0.10103415
4246.00   1.15916181   0.10817229
4248.00   1.21257796   0.10567424
4250.00   1.21607213   0.09569919
4252.00   1.44631531   0.09363188
4254.00   1.45064318   0.09404701
4256.00   1.60403747   0.09449077
4258.00   1.67986777   0.09454253
4260.00   1.23822383   0.09126346
4262.00   1.22785990   0.09087668
4264.00   1.20886692   0.09139641
4266.00   1.44273153   0.09292691
4268.00   1.49219856   0.09160087
4270.00   1.45204064   0.09080858
4272.00   1.52677779   0.09103885
4274.00   1.43150691   0.09131769
4276.00   1.48369913   0.09359414
4278.00   1.51968181   0.09412021
4280.00   1.37136038   0.09312904
4282.00   1.38959629   0.09391007
4284.00   1.29285993   0.09221383
4286.00   1.14742638   0.09065401
4288.00   1.34382929   0.09019166
4290.00   1.27832376   0.08963980
4292.00   1.29153842   0.09050570
4294.00   1.13839909   0.09079473
4296.00   1.22328740   0.09061076
4298.00   1.24177025   0.08813791
4300.00   1.10010364   0.08584690
4302.00   1.15603277   0.08634852
4304.00   1.40336477   0.08884739
4306.00   1.30108955   0.08868680
4308.00   1.28675842   0.08813019
4310.00   1.28090373   0.08923972
4312.00   1.24228445   0.09730955
4314.00   1.25716545   0.10243204
4316.00   1.31546111   0.10171241
4318.00   1.05491727   0.10049940
4320.00   1.18056094   0.10253084
4322.00   1.04547512   0.10046787
4324.00   1.42775959   0.09855963
4326.00   1.21392552   0.09610650
4328.00   1.11779888   0.09392698
4330.00   1.14186849   0.09387925
4332.00   1.24635651   0.09432575
4334.00   1.20179219   0.09452378
4336.00   1.20706360   0.09523619
4338.00   1.22704650   0.09409542
4340.00   0.99009231   0.09366891
4342.00   1.22521760   0.09498514
4344.00   1.48223442   0.09997200
4346.00   1.36995423   0.10520204
4348.00   1.39500387   0.10642481
4350.00   1.17094924   0.10162111
4352.00   1.53242503   0.10106158
4354.00   1.37443999   0.11608945
4356.00   1.49027478   0.20087213
4358.00   1.13651720   0.24243768
4360.00   1.50738978   0.20891755
4362.00   1.10504001   0.14141359
4364.00   1.47317333   0.11330205
4366.00   1.27870555   0.10551079
4368.00   1.05618533   0.10206542
4370.00   1.17146344   0.10128972
4372.00   1.29657770   0.10411775
4374.00   1.23877178   0.10534656
4376.00   1.26772578   0.10321922
4378.00   1.14134676   0.09855637
4380.00   1.31407920   0.09693481
4382.00   1.20696512   0.09408785
4384.00   1.15564905   0.09181566
4386.00   1.09277498   0.09226369
4388.00   1.34027661   0.09447835
4390.00   1.20092388   0.09383853
4392.00   1.20623366   0.09453144
4394.00   1.46224560   0.09483438
4396.00   1.18368406   0.09318324
4398.00   1.01160593   0.09534519
4400.00   1.28176266   0.09829521
4402.00   1.46818545   0.09720839
4404.00   1.03611958   0.09261835
4406.00   1.15818979   0.09316248
4408.00   1.15226926   0.09369651
4410.00   1.69018390   0.09726645
4412.00   1.66820722   0.09786449
4414.00   1.03775730   0.09653392
4416.00   0.91261852   0.09570755
4418.00   1.06504693   0.09474328
4420.00   1.18410822   0.09461032
4422.00   0.64423703   0.09147411
4424.00   0.87556236   0.09220477
4426.00   0.80443315   0.09149511
4428.00   1.01429552   0.09205054
4430.00   0.77578394   0.09130537
4432.00   0.85025108   0.09089183
4434.00   0.82749193   0.08995169
4436.00   0.63182153   0.08965326
4438.00   0.76236721   0.09094350
4440.00   1.03751742   0.09170817
4442.00   0.64353652   0.08932436
4444.00   0.90077859   0.08981553
4446.00   0.84009433   0.09007996
4448.00   0.87958623   0.08976842
4450.00   0.86013587   0.08990103
4452.00   0.73275885   0.08913601
4454.00   0.88416918   0.08759165
4456.00   0.76215933   0.08789704
4458.00   0.86311012   0.08821070
4460.00   1.09924025   0.08905922
4462.00   1.15519363   0.08970199
4464.00   1.15582254   0.08912895
4466.00   1.07369123   0.08928782
4468.00   1.09163997   0.08953633
4470.00   1.23854304   0.08976667
4472.00   1.05875579   0.08968101
4474.00   1.11380551   0.09032693
4476.00   0.92792018   0.08907366
4478.00   1.09239212   0.08948571
4480.00   1.19888222   0.08907872
4482.00   1.03240824   0.08940802
4484.00   1.02119450   0.08970359
4486.00   1.10564319   0.09052476
4488.00   1.05043451   0.08966116
4490.00   0.94872308   0.08923122
4492.00   0.96396005   0.09055452
4494.00   1.13818144   0.09101694
4496.00   1.28925118   0.09192169
4498.00   1.15255895   0.09262420
4500.00   1.06456024   0.09078720
4502.00   1.04619402   0.09028492
4504.00   1.21602454   0.09054719
4506.00   1.23133989   0.09041731
4508.00   1.11348489   0.08966591
4510.00   0.93238793   0.08834682
4512.00   1.10300098   0.08882908
4514.00   1.07258702   0.08810212
4516.00   1.15148190   0.08753430
4518.00   1.26107837   0.08763183
4520.00   1.04867089   0.08733942
4522.00   1.30474010   0.08824873
4524.00   1.17935486   0.08642812
4526.00   1.30639153   0.08599294
4528.00   1.09677118   0.08497089
4530.00   1.10901489   0.08505124
4532.00   1.19766496   0.08541400
4534.00   1.21458253   0.08554943
4536.00   1.24268162   0.08585277
4538.00   1.10605146   0.08550618
4540.00   1.03108642   0.08503114
4542.00   1.22875143   0.08730668
4544.00   1.27817293   0.08761734
4546.00   1.18428059   0.08602151
4548.00   1.01692279   0.08355427
4550.00   1.19432089   0.08367894
4552.00   1.27486425   0.08418613
4554.00   1.23362327   0.08352545
4556.00   0.99099935   0.08347119
4558.00   1.11993482   0.08417219
4560.00   1.05409145   0.08335249
4562.00   1.20919920   0.08368480
4564.00   1.38731492   0.08342484
4566.00   1.15317154   0.08161614
4568.00   1.05383876   0.08101522
4570.00   1.21722298   0.08251858
4572.00   1.48410440   0.08333952
4574.00   1.28470584   0.08322004
4576.00   1.30174720   0.08295285
4578.00   1.16525261   0.08092058
4580.00   1.25639626   0.08011758
4582.00   1.17932351   0.07943033
4584.00   1.17433700   0.07899945
4586.00   1.36009597   0.07976925
4588.00   1.14027403   0.07969163
4590.00   1.31038919   0.08008079
4592.00   1.37744621   0.08026074
4594.00   1.42705336   0.08073587
4596.00   1.43394707   0.08036548
4598.00   1.53645639   0.08103640
4600.00   1.56720780   0.07970749
4602.00   1.53999553   0.07940445
4604.00   1.53343688   0.07965178
4606.00   1.54030455   0.08026756
4608.00   1.77586573   0.08167693
4610.00   1.60936858   0.08125254
4612.00   1.74373956   0.08068922
4614.00   1.58944637   0.07982044
4616.00   1.78128483   0.07982493
4618.00   1.85177349   0.08004913
4620.00   1.58210791   0.07850905
4622.00   1.86687689   0.08062681
4624.00   1.77095089   0.07942745
4626.00   1.72009668   0.07955953
4628.00   1.83142850   0.07996633
4630.00   1.79569739   0.07960229
4632.00   1.90041149   0.07994120
4634.00   1.85572916   0.07928835
4636.00   1.87689719   0.07970053
4638.00   1.83087609   0.07883861
4640.00   1.89764038   0.07948944
4642.00   1.96478959   0.07955822
4644.00   1.91290442   0.07851221
4646.00   1.87919719   0.07833862
4648.00   1.93420746   0.07862053
4650.00   1.89276349   0.07927542
4652.00   1.85568436   0.07949628
4654.00   1.82312623   0.07912291
4656.00   1.89659203   0.08008269
4658.00   1.85412643   0.08076293
4660.00   1.82566534   0.08177035
4662.00   1.87469040   0.08257402
4664.00   1.97121438   0.08350279
4666.00   1.99180345   0.08447412
4668.00   2.03668247   0.08578532
4670.00   2.05341268   0.08623541
4672.00   2.05500290   0.08615275
4674.00   2.14396344   0.08515298
4676.00   1.98370311   0.08316672
4678.00   2.14718046   0.08298960
4680.00   2.15873641   0.08192386
4682.00   2.10241837   0.08113952
4684.00   2.01960248   0.08060460
4686.00   1.89807053   0.07915339
4688.00   1.95664985   0.07894327
4690.00   2.03917969   0.07904666
4692.00   1.88612727   0.07809258
4694.00   1.99466785   0.07828038
4696.00   1.82134934   0.07676793
4698.00   1.95460592   0.07670342
4700.00   1.90695570   0.07632244
4702.00   1.96677021   0.07699478
4704.00   2.11958790   0.07791679
4706.00   2.08816457   0.07850373
4708.00   2.05465953   0.07958194
4710.00   2.26196746   0.08031978
4712.00   2.33657045   0.08012844
4714.00   2.40033798   0.08003035
4716.00   2.33516948   0.07940635
4718.00   2.10788365   0.07836648
4720.00   2.24390396   0.07931283
4722.00   2.20228702   0.07931293
4724.00   2.23507269   0.07889053
4726.00   2.35403853   0.08157885
4728.00   2.31965811   0.08421657
4730.00   2.28772170   0.08483377
4732.00   2.15961659   0.08436399
4734.00   2.19841745   0.08567370
4736.00   2.35679268   0.08695329
4738.00   2.32634428   0.08897797
4740.00   2.10304608   0.08978293
4742.00   2.14279129   0.09194205
4744.00   2.22203746   0.08948615
4746.00   2.49542063   0.08531369
4748.00   2.47176738   0.08213136
4750.00   2.48516662   0.08266163
4752.00   2.39735647   0.08279334
4754.00   2.55098057   0.08251319
4756.00   2.48200495   0.07996180
4758.00   2.54525374   0.07900875
4760.00   2.51605254   0.07789010
4762.00   2.50536246   0.07719093
4764.00   2.48430623   0.07638016
4766.00   2.43126956   0.07580446
4768.00   2.49853948   0.07605420
4770.00   2.46996273   0.07601492
4772.00   2.45127007   0.07604619
4774.00   2.59303949   0.07689339
4776.00   2.26312153   0.07671772
4778.00   2.36019217   0.07880488
4780.00   2.45811661   0.07908081
4782.00   2.31371710   0.07662279
4784.00   2.47876342   0.07610741
4786.00   2.42883137   0.07540549
4788.00   2.36868017   0.07545601
4790.00   2.37839591   0.07604038
4792.00   2.38633922   0.07613564
4794.00   2.48612776   0.07652726
4796.00   2.40479765   0.07569244
4798.00   2.28275863   0.07432178
4800.00   2.20343175   0.07404674
4802.00   2.21752810   0.07413208
4804.00   2.24945148   0.07449964
4806.00   2.21784054   0.07455935
4808.00   2.26914589   0.07526633
4810.00   2.34732281   0.07551919
4812.00   2.37367349   0.07613887
4814.00   2.29546856   0.07592840
4816.00   2.19851700   0.07599640
4818.00   2.17295791   0.07597504
4820.00   2.28434987   0.07707080
4822.00   2.28580465   0.07735769
4824.00   2.26134044   0.07740278
4826.00   2.22733045   0.07738907
4828.00   2.26225386   0.07755126
4830.00   2.10521295   0.07770000
4832.00   2.21076816   0.07841047
4834.00   2.26500303   0.07848279
4836.00   2.11062443   0.07806972
4838.00   2.20771049   0.07946559
4840.00   2.13539225   0.07935228
4842.00   2.18118710   0.07867180
4844.00   2.32042589   0.07859529
4846.00   2.09823087   0.07767781
4848.00   2.12604532   0.07795201
4850.00   2.26620816   0.07923405
4852.00   2.08687514   0.07778006
4854.00   2.04633542   0.07598002
4856.00   2.10671382   0.07565897
4858.00   2.20134704   0.07519862
4860.00   2.06760086   0.07378639
4862.00   2.00524784   0.07429312
4864.00   2.07523258   0.07517257
4866.00   1.93781086   0.07561697
4868.00   1.93334605   0.07574716
4870.00   1.86515311   0.07471585
4872.00   1.94038115   0.07484254
4874.00   1.82603450   0.07468396
4876.00   1.83248027   0.07573440
4878.00   1.85240514   0.07589887
4880.00   1.73401363   0.07590186
4882.00   1.78265334   0.07536474
4884.00   1.57214492   0.07296523
4886.00   1.54283337   0.07226647
4888.00   1.50441559   0.07148417
4890.00   1.41941145   0.07128089
4892.00   1.28114866   0.07107953
4894.00   1.39134397   0.07200751
4896.00   1.34934151   0.07178656
4898.00   1.38662489   0.07139229
4900.00   1.37235917   0.07047859
4902.00   1.36039535   0.07020380
4904.00   1.28158618   0.07017041
4906.00   1.28432281   0.07076031
4908.00   1.20367339   0.07005698
4910.00   1.29509243   0.06999003
4912.00   1.12414357   0.06969159
4914.00   0.96199891   0.06883413
4916.00   1.14429075   0.06996065
4918.00   1.10264776   0.06786202
4920.00   1.00688269   0.06738887
4922.00   1.06413287   0.06757175
4924.00   0.99155578   0.06705667
4926.00   0.88008269   0.06646475
4928.00   0.91400220   0.06573635
4930.00   0.86231390   0.06511091
4932.00   0.97116088   0.06577750
4934.00   1.02838219   0.06619026
4936.00   1.00097394   0.06624495
4938.00   1.45554247   0.06905777
4940.00   2.29621458   0.07390897
4942.00   2.18545453   0.07326807
4944.00   1.47985830   0.06911156
4946.00   0.85993140   0.06513335
4948.00   1.06175516   0.06550213
4950.00   0.94054247   0.06530918
4952.00   0.79963713   0.06673910
4954.00   0.83648209   0.06737223
4956.00   0.79985867   0.06544016
4958.00   0.71250883   0.06463443
4960.00   0.75759520   0.06500695
4962.00   0.94015109   0.06669811
4964.00   0.79115325   0.06593543
4966.00   0.77423572   0.06689380
4968.00   0.82280938   0.06809013
4970.00   0.94218859   0.06997695
4972.00   0.97467955   0.07272582
4974.00   0.94403887   0.07501529
4976.00   1.12023810   0.07840736
4978.00   1.08182858   0.08174354
4980.00   0.81532352   0.08399997
4982.00   0.99406319   0.08671575
4984.00   0.99926965   0.08629890
4986.00   0.96210335   0.08368530
4988.00   1.05034982   0.08097756
4990.00   0.92714049   0.07774606
4992.00   1.09903944   0.07636385
4994.00   1.18765327   0.07402380
4996.00   1.12331222   0.07123328
4998.00   0.98531377   0.06892131
5000.00   1.03348250   0.06771322
5002.00   1.18123628   0.06755670
5004.00   1.27205673   0.06699193
5006.00   1.25571235   0.06639278
5008.00   1.24627430   0.06610916
5010.00   1.41513927   0.06653490
5012.00   1.36821288   0.06585223
5014.00   1.32911470   0.06541882
5016.00   1.52242935   0.06652304
5018.00   1.40139859   0.06704971
5020.00   1.43874347   0.06781525
5022.00   1.46998030   0.06709354
5024.00   1.63075250   0.06685918
5026.00   1.57985871   0.06717297
5028.00   1.71151145   0.06823658
5030.00   1.77679466   0.06945573
5032.00   1.86524281   0.06985576
5034.00   1.84663890   0.06862333
5036.00   1.90946217   0.06824663
5038.00   2.04944869   0.06892266
5040.00   2.17831045   0.06922660
5042.00   2.17686518   0.06935372
5044.00   2.07271857   0.06924520
5046.00   1.99683763   0.06889824
5048.00   2.18953991   0.06942292
5050.00   2.16894142   0.06922312
5052.00   2.26728924   0.07007918
5054.00   2.25568052   0.07013320
5056.00   2.21848495   0.07062824
5058.00   2.22821423   0.07050157
5060.00   2.34217905   0.07133490
5062.00   2.43025299   0.07306891
5064.00   2.39320032   0.07363466
5066.00   2.47809896   0.07487477
5068.00   2.38753526   0.07682439
5070.00   2.56830121   0.07809954
5072.00   2.74582538   0.07709885
5074.00   2.69557515   0.07636762
5076.00   2.50432362   0.07468152
5078.00   2.69849832   0.07694089
5080.00   2.90686420   0.08314031
5082.00   2.81268211   0.08895299
5084.00   2.78932520   0.09286668
5086.00   3.12256546   0.09415559
5088.00   3.59108362   0.09232590
5090.00   3.63499071   0.08702015
5092.00   3.26418924   0.08141397
5094.00   2.99008275   0.07841280
5096.00   2.79768434   0.07836091
5098.00   2.79981266   0.08012096
5100.00   2.78241388   0.07987482
5102.00   2.77249767   0.07819657
5104.00   2.83540404   0.07602576
5106.00   2.67749486   0.07401405
5108.00   2.58154967   0.07349443
5110.00   2.80801597   0.07419795
5112.00   2.88145316   0.07498420
5114.00   2.77863144   0.07559080
5116.00   2.75621596   0.07570097
5118.00   2.82679414   0.07529228
5120.00   2.71345051   0.07373349
5122.00   2.51577951   0.07166082
5124.00   2.36253218   0.07077387
5126.00   2.54424668   0.07120401
5128.00   2.26049153   0.06989147
5130.00   2.27124371   0.07052616
5132.00   2.32725573   0.07053598
5134.00   2.20765129   0.06977296
5136.00   2.21633068   0.06964142
5138.00   2.03703809   0.06852631
5140.00   2.09782428   0.06882978
5142.00   1.91530337   0.06836882
5144.00   1.95629937   0.06883078
5146.00   1.87063569   0.06949686
5148.00   1.81392392   0.07054830
5150.00   1.70947797   0.07191173
5152.00   1.68543328   0.07359956
5154.00   1.60106983   0.07371977
5156.00   1.79624671   0.07344134
5158.00   1.69182475   0.07102785
5160.00   1.66232875   0.06952055
5162.00   1.60887435   0.06766790
5164.00   1.65859788   0.06663336
5166.00   1.67873503   0.06578465
5168.00   1.50731173   0.06425466
5170.00   1.62012488   0.06456702
5172.00   1.35771026   0.06329973
5174.00   1.56431702   0.06501360
5176.00   1.62895025   0.06663533
5178.00   1.66093712   0.06720397
5180.00   1.62949888   0.06581441
5182.00   1.63841232   0.06560902
5184.00   1.66801986   0.06611826
5186.00   1.58657880   0.06616844
5188.00   1.73173230   0.06755884
5190.00   1.71461410   0.06766438
5192.00   1.67914368   0.06744290
5194.00   1.82393702   0.06872605
5196.00   1.78610116   0.06952682
5198.00   1.70309139   0.06965602
5200.00   1.65895932   0.07008747
5202.00   1.71726406   0.07010534
5204.00   1.77278476   0.06921067
5206.00   1.71500458   0.06878689
5208.00   1.90085166   0.07080840
5210.00   1.68812883   0.07100365
5212.00   1.84152068   0.07120110
5214.00   1.74225575   0.07023108
5216.00   1.67466225   0.07010898
5218.00   1.78553110   0.07133349
5220.00   1.72128270   0.07130520
5222.00   1.97201326   0.07232670
5224.00   1.92996000   0.07123321
5226.00   1.90131617   0.07024867
5228.00   1.77613663   0.06961205
5230.00   1.72638868   0.06970981
5232.00   1.84871067   0.07017554
5234.00   1.77250110   0.06949782
5236.00   1.77972083   0.07040412
5238.00   1.85179808   0.07219660
5240.00   1.62550175   0.07038292
5242.00   1.87572213   0.07161533
5244.00   1.93264295   0.07174175
5246.00   1.82074784   0.07054037
5248.00   1.82278329   0.06991758
5250.00   1.87595756   0.07071059
5252.00   2.04813776   0.07110710
5254.00   1.99841688   0.07226051
5256.00   1.81331300   0.07271807
5258.00   1.83660395   0.07352117
5260.00   1.67799176   0.07180135
5262.00   1.92328668   0.07238008
5264.00   1.78042624   0.07066073
5266.00   1.87812871   0.07051591
5268.00   1.90995786   0.07058562
5270.00   1.79618451   0.07020648
5272.00   2.06081043   0.07246991
5274.00   1.92166030   0.07214908
5276.00   1.67249007   0.07107356
5278.00   1.82979236   0.07224857
5280.00   1.94666904   0.07300259
5282.00   1.85365379   0.07287067
5284.00   1.78686722   0.07336882
5286.00   1.88271989   0.07451168
5288.00   1.79657560   0.07371559
5290.00   1.77719397   0.07311169
5292.00   1.96431172   0.07446203
5294.00   1.73192857   0.07273327
5296.00   1.92393452   0.07429353
5298.00   1.98014469   0.07418563
5300.00   2.02822772   0.07516604
5302.00   1.91337492   0.07484445
5304.00   1.82940127   0.07457028
5306.00   1.68839449   0.07365796
5308.00   1.77917357   0.07452085
5310.00   1.68902383   0.07470910
5312.00   1.71994872   0.07493197
5314.00   1.67314708   0.07505164
5316.00   1.73124381   0.07444397
5318.00   1.75465298   0.07466943
5320.00   1.59147823   0.07403678
5322.00   1.85233669   0.07543494
5324.00   1.91734490   0.07635993
5326.00   1.85643886   0.07588267
5328.00   1.96543923   0.07705507
5330.00   1.91785438   0.07684778
5332.00   1.93984365   0.07770398
5334.00   1.90224475   0.07762538
5336.00   1.96564227   0.07785427
5338.00   1.95958304   0.07864495
5340.00   1.73788963   0.07925629
5342.00   1.77225668   0.07977318
5344.00   1.74103468   0.07946824
5346.00   1.92045440   0.08136687
5348.00   1.86539222   0.08288538
5350.00   1.93042296   0.08418609
5352.00   2.04319842   0.08426832
5354.00   2.04809775   0.08555789
5356.00   2.14230425   0.08609278
5358.00   1.86985712   0.08390051
5360.00   2.06632222   0.08350519
5362.00   2.01189751   0.08168055
5364.00   2.16135468   0.08176759
5366.00   2.18297410   0.08127544
5368.00   2.05476345   0.08079088
5370.00   2.17747507   0.08220574
5372.00   2.06968197   0.08287427
5374.00   2.26764503   0.08491313
5376.00   2.14902683   0.08491119
5378.00   2.19452954   0.08517736
5380.00   2.16869691   0.08448863
5382.00   2.15043397   0.08409450
5384.00   2.28943854   0.08517581
5386.00   2.27711790   0.08528507
5388.00   2.27177581   0.08567455
5390.00   2.44054272   0.08834759
5392.00   2.38099345   0.08924742
5394.00   2.42287571   0.08891880
5396.00   2.30562294   0.08804445
5398.00   2.41608682   0.08822566
5400.00   2.25990699   0.08753001
5402.00   2.40953104   0.08871004
5404.00   2.47633295   0.08902537
5406.00   2.41227011   0.08970694
5408.00   2.63452013   0.09187464
5410.00   2.51488236   0.09222144
5412.00   2.56885233   0.09352552
5414.00   2.42605932   0.09403440
5416.00   2.28959575   0.09509022
5418.00   2.41477512   0.09667408
5420.00   2.38249166   0.09704176
5422.00   2.40118166   0.09703068
5424.00   2.40419616   0.09730907
5426.00   2.53516019   0.09744771
5428.00   2.38966889   0.09636954
5430.00   2.35897548   0.09588164
5432.00   2.53656690   0.09711502
5434.00   2.31940795   0.09662831
5436.00   2.51282806   0.09805930
5438.00   2.78452584   0.09987898
5440.00   2.63082515   0.10010654
5442.00   2.50007692   0.09946254
5444.00   2.39498921   0.10091812
5446.00   2.61994591   0.10186732
5448.00   2.42678778   0.10139046
5450.00   2.46971917   0.10148070
5452.00   2.46487226   0.10216310
5454.00   2.55738788   0.10257619
5456.00   2.41912539   0.11579309
5458.00   2.37982619   0.14822633
5460.00   2.87926812   0.16712008
5462.00   2.64093395   0.15946751
5464.00   2.65057075   0.06312270
5466.00   2.79043627   0.06041054
5468.00   2.86395049   0.05759589
5470.00   2.73254550   0.05327276
5472.00   2.52329338   0.04741925
5474.00   2.48212194   0.04400697
5476.00   2.52491140   0.04256052
5478.00   2.56069326   0.04206684
5480.00   2.63436723   0.04356340
5482.00   2.70484865   0.04480278
5484.00   2.76181376   0.04609698
5486.00   2.80417383   0.04719155
5488.00   2.79547143   0.04580405
5490.00   2.70259702   0.04076847
5492.00   2.67307627   0.03860757
5494.00   2.69179618   0.03812537
5496.00   2.68369591   0.03795770
5498.00   2.61849833   0.03765464
5500.00   2.53396356   0.03784067
5502.00   2.47003937   0.03881091
5504.00   2.40418315   0.03987096
5506.00   2.36929476   0.03976803
5508.00   2.37379277   0.03875076
5510.00   2.38132787   0.03814180
5512.00   2.38963962   0.03743699
5514.00   2.36263299   0.03687119
5516.00   2.33714783   0.03626565
5518.00   2.30777001   0.03536687
5520.00   2.24290907   0.03545658
5522.00   2.14816344   0.03699708
5524.00   2.09517860   0.03713174
5526.00   2.05100679   0.03601558
5528.00   2.03244901   0.03456928
5530.00   2.07712126   0.03301790
5532.00   2.12434840   0.03142849
5534.00   2.12721348   0.03075940
5536.00   2.11755466   0.03093324
5538.00   2.10032690   0.03073362
5540.00   2.05631638   0.03045034
5542.00   2.03134406   0.03030446
5544.00   2.02936673   0.02999354
5546.00   2.02909982   0.03010445
5548.00   2.01161027   0.03125812
5550.00   1.98944747   0.03278541
5552.00   1.99201339   0.03270938
5554.00   1.99838299   0.03104701
5556.00   2.03576326   0.03043267
5558.00   2.13264692   0.03010410
5560.00   2.22666562   0.03008853
5562.00   2.29388654   0.03029632
5564.00   2.36366308   0.03056668
5566.00   2.34339416   0.03391419
5568.00   2.16192448   0.03944948
5570.00   2.17302752   0.04512160
5572.00   2.42815578   0.05227097
5574.00   2.64784420   0.05636687
5576.00   2.69173479   0.05784965
5578.00   2.66344547   0.05772270
5580.00   2.64006209   0.05659777
5582.00   2.52772176   0.05481861
5584.00   2.49483001   0.05153773
5586.00   2.51209128   0.04421720
5588.00   2.60604429   0.03744545
5590.00   2.76233828   0.03498008
5592.00   2.92007244   0.03506154
5594.00   2.97238481   0.03438317
5596.00   2.94351506   0.03436214
5598.00   2.95950782   0.03423059
5600.00   2.99151003   0.03431827
5602.00   3.00669622   0.03433622
5604.00   3.00705278   0.03431840
5606.00   3.01179469   0.03426562
5608.00   3.02604067   0.03417613
5610.00   3.05455685   0.03413285
5612.00   3.09347129   0.03426273
5614.00   3.16598296   0.03465934
5616.00   3.17851043   0.03472477
5618.00   3.14038193   0.03461142
5620.00   3.10624588   0.03434182
5622.00   3.07703948   0.03390154
5624.00   3.04225492   0.03348082
5626.00   3.01922297   0.03339977
5628.00   2.99430609   0.03364257
5630.00   2.99209213   0.03363727
5632.00   3.02457130   0.03338787
5634.00   3.05415225   0.03332073
5636.00   3.06589639   0.03348405
5638.00   3.06654274   0.03374693
5640.00   3.05009794   0.03419566
5642.00   3.00981104   0.03452011
5644.00   3.00122857   0.03493119
5646.00   3.03521240   0.03548351
5648.00   3.03176939   0.03656841
5650.00   2.97992539   0.03730197
5652.00   2.91989470   0.03699799
5654.00   2.86766660   0.03683291
5656.00   2.80306411   0.03695524
5658.00   2.75766170   0.03714163
5660.00   2.72212493   0.03743327
5662.00   2.68519533   0.03794729
5664.00   2.66936791   0.03804261
5666.00   2.70003128   0.03761467
5668.00   2.74004579   0.03849113
5670.00   2.80742931   0.04095813
5672.00   2.80020416   0.04158632
5674.00   2.73849571   0.04061733
5676.00   2.65037310   0.04070049
5678.00   2.51147819   0.04147676
5680.00   2.40620339   0.04322016
5682.00   2.37631261   0.04665813
5684.00   2.38668382   0.05076047
5686.00   2.41450524   0.05203124
5688.00   2.49695110   0.05147480
5690.00   2.51894534   0.05098982
5692.00   2.47918606   0.04965403
5694.00   2.45994699   0.04867758
5696.00   2.46606994   0.04898078
5698.00   2.46681654   0.05047807
5700.00   2.43293536   0.05013738
5702.00   2.36200511   0.04783886
5704.00   2.34016144   0.04520321
5706.00   2.36201501   0.04088099
5708.00   2.36928689   0.03790577
5710.00   2.36171710   0.03638804
5712.00   2.34818840   0.03585823
5714.00   2.34747875   0.03535075
5716.00   2.36278474   0.03524301
5718.00   2.35082006   0.03486639
5720.00   2.31336308   0.03445005
5722.00   2.28703344   0.03400377
5724.00   2.27309036   0.03351788
5726.00   2.25517750   0.03296429
5728.00   2.21984649   0.03227100
5730.00   2.17669141   0.03164508
5732.00   2.15570915   0.03164440
5734.00   2.14912796   0.03220728
5736.00   2.14296615   0.03262214
5738.00   2.17101598   0.03362275
5740.00   2.15006125   0.03359468
5742.00   2.03880477   0.03206335
5744.00   1.90369499   0.03040289
5746.00   1.83879721   0.03007432
5748.00   1.80711609   0.03075594
5750.00   1.77427644   0.03081337
5752.00   1.77148259   0.03053926
5754.00   1.74519151   0.03025051
5756.00   1.68253881   0.03037918
5758.00   1.61311126   0.03076566
5760.00   1.56448579   0.03123293
5762.00   1.54136354   0.03199746
5764.00   1.48265445   0.03301005
5766.00   1.40360814   0.03474178
5768.00   1.29787821   0.03554777
5770.00   1.16375524   0.03556445
5772.00   1.05965012   0.03500142
5774.00   1.02105170   0.03422853
5776.00   1.03713483   0.03330531
5778.00   1.03758484   0.03249027
5780.00   1.05836862   0.03092276
5782.00   1.05178046   0.03093438
5784.00   1.02919611   0.03310962
5786.00   0.98854730   0.03541996
5788.00   0.93156639   0.03671118
5790.00   0.85045257   0.03718381
5792.00   0.82476503   0.03645360
5794.00   0.86140755   0.03387459
5796.00   0.86381909   0.03326843
5798.00   0.82886714   0.03473559
5800.00   0.78813991   0.03489003
5802.00   0.73520193   0.03355157
5804.00   0.66567895   0.03160363
5806.00   0.66285664   0.03055448
5808.00   0.71334553   0.03066125
5810.00   0.74246639   0.03037096
5812.00   0.77268925   0.02937007
5814.00   0.80247733   0.02854365
5816.00   0.81828883   0.02931189
5818.00   0.80510461   0.03095767
5820.00   0.78994504   0.03195051
5822.00   0.79476982   0.03326493
5824.00   0.79632759   0.03325051
5826.00   0.79964194   0.03179429
5828.00   0.79069415   0.03039379
5830.00   0.77162588   0.02963022
5832.00   0.76060653   0.02930529
5834.00   0.80012110   0.02919473
5836.00   0.87855235   0.02969052
5838.00   0.92646825   0.02980236
5840.00   0.97965604   0.02973564
5842.00   1.00083649   0.02971006
5844.00   0.95976821   0.02971917
5846.00   0.92919227   0.02983077
5848.00   0.96262810   0.03021947
5850.00   1.03617179   0.03071852
5852.00   1.09350139   0.03092808
5854.00   1.16089195   0.03076965
5856.00   1.19355237   0.03172937
5858.00   1.18256116   0.03438881
5860.00   1.19277436   0.03525142
5862.00   1.24212694   0.03404089
5864.00   1.30480635   0.03257743
5866.00   1.33468038   0.03228434
5868.00   1.33762491   0.03256188
5870.00   1.38113064   0.03244536
5872.00   1.47328824   0.03209467
5874.00   1.53827816   0.03196270
5876.00   1.55867952   0.03151676
5878.00   1.54487967   0.03184323
5880.00   1.54978889   0.03415357
5882.00   1.54039174   0.03768136
5884.00   1.58854204   0.04527953
5886.00   1.69839358   0.05610874
5888.00   1.80127805   0.06430796
5890.00   1.85435170   0.07392580
5892.00   1.93138742   0.07841438
5894.00   2.06666034   0.07468744
5896.00   2.18973696   0.06574047
5898.00   2.19422007   0.05980417
5900.00   2.05929112   0.05343197
5902.00   2.03445047   0.04698576
5904.00   2.09558082   0.04071565
5906.00   2.16339231   0.03604055
5908.00   2.19505262   0.03441321
5910.00   2.22260869   0.03512786
5912.00   2.28198266   0.03534324
5914.00   2.36933935   0.03650590
5916.00   2.41138315   0.03638681
5918.00   2.41118538   0.03481328
5920.00   2.43701148   0.03422059
5922.00   2.46685421   0.03479826
5924.00   2.49195278   0.03543560
5926.00   2.55102408   0.03532801
5928.00   2.64559197   0.03490518
5930.00   2.69496953   0.03502333
5932.00   2.69769061   0.03532182
5934.00   2.72929382   0.03593800
5936.00   2.78994584   0.03735412
5938.00   2.86452484   0.03823330
5940.00   2.94326293   0.03802002
5942.00   3.02190816   0.03706068
5944.00   3.08276033   0.03618048
5946.00   3.11807454   0.03446806
5948.00   3.18153548   0.03411608
5950.00   3.27226734   0.03499455
5952.00   3.36142623   0.03559062
5954.00   3.40807462   0.03561599
5956.00   3.40777302   0.03540503
5958.00   3.41331649   0.03506538
5960.00   3.38678837   0.03404956
5962.00   3.42544639   0.03406748
5964.00   3.54106379   0.03547956
5966.00   3.63757300   0.03674389
5968.00   3.68781650   0.03663601
5970.00   3.71216857   0.03617303
5972.00   3.70559931   0.03669484
5974.00   3.66469705   0.03758486
5976.00   3.64381528   0.03732344
5978.00   3.62594509   0.03608313
5980.00   3.59519804   0.03533870
5982.00   3.57469094   0.03478520
5984.00   3.59656513   0.03501591
5986.00   3.63097847   0.03542023
5988.00   3.67532647   0.03575259
5990.00   3.67140174   0.03539501
5992.00   3.60583770   0.03406427
5994.00   3.58368599   0.03354925
5996.00   3.63466096   0.03364207
5998.00   3.67822623   0.03436661
6000.00   3.63591576   0.03567364
6002.00   3.54595602   0.03672362
6004.00   3.54138541   0.03670146
6006.00   3.60364175   0.03569256
6008.00   3.64595497   0.03546403
6010.00   3.69367027   0.03490029
6012.00   3.69873691   0.03411699
6014.00   3.63689196   0.03327313
6016.00   3.52527678   0.03192970
6018.00   3.48534310   0.03128285
6020.00   3.48310184   0.03112753
6022.00   3.49753594   0.03125915
6024.00   3.56604159   0.03199540
6026.00   3.58663356   0.03222608
6028.00   3.51565278   0.03179495
6030.00   3.41037667   0.03134939
6032.00   3.37894976   0.03100306
6034.00   3.38872004   0.03047670
6036.00   3.37907314   0.03012001
6038.00   3.36293781   0.02993149
6040.00   3.36326432   0.02986298
6042.00   3.36847878   0.02978135
6044.00   3.34800708   0.02984066
6046.00   3.31334114   0.03021158
6048.00   3.27546251   0.03067806
6050.00   3.25113344   0.03038348
6052.00   3.22981310   0.02907204
6054.00   3.22209382   0.02860781
6056.00   3.23237896   0.02856264
6058.00   3.22687817   0.02870797
6060.00   3.21543658   0.02922024
6062.00   3.22081232   0.02976076
6064.00   3.20354199   0.02991293
6066.00   3.15924644   0.02979253
6068.00   3.12927330   0.03001225
6070.00   3.11949742   0.03036282
6072.00   3.11699796   0.03040747
6074.00   3.11953664   0.02969243
6076.00   3.12856174   0.02817202
6078.00   3.09701860   0.02754594
6080.00   3.00975382   0.02738693
6082.00   2.97986722   0.02752581
6084.00   3.00587416   0.02829424
6086.00   3.04087853   0.02864791
6088.00   3.06622410   0.02843949
6090.00   3.08197749   0.02831189
6092.00   3.05024278   0.02813524
6094.00   2.95400929   0.02755729
6096.00   2.90647781   0.02737781
6098.00   2.89206851   0.02749796
6100.00   2.88021314   0.02781821
6102.00   2.85294509   0.02827098
6104.00   2.84342682   0.02890682
6106.00   2.86360455   0.02970131
6108.00   2.90804458   0.03079600
6110.00   2.91450131   0.03132284
6112.00   2.89526093   0.03154858
6114.00   2.87706387   0.03152099
6116.00   2.85844135   0.03129213
6118.00   2.83416283   0.03094874
6120.00   2.80794179   0.03046023
6122.00   2.77931356   0.02978409
6124.00   2.76550686   0.02927276
6126.00   2.76659262   0.02872663
6128.00   2.76852894   0.02845243
6130.00   2.77407026   0.02860443
6132.00   2.76644349   0.02877133
6134.00   2.75018036   0.02843883
6136.00   2.73187232   0.02766129
6138.00   2.69559979   0.02732355
6140.00   2.63030541   0.02697705
6142.00   2.59819531   0.02718301
6144.00   2.59186769   0.02802506
6146.00   2.59371030   0.02904329
6148.00   2.61104524   0.03009209
6150.00   2.63231933   0.03119483
6152.00   2.62505794   0.03120236
6154.00   2.60923457   0.02992862
6156.00   2.58098221   0.02931809
6158.00   2.51785028   0.02900394
6160.00   2.48008800   0.02872183
6162.00   2.49990273   0.02816851
6164.00   2.50825000   0.02806159
6166.00   2.46441913   0.02894633
6168.00   2.41212559   0.03027593
6170.00   2.38006890   0.03037235
6172.00   2.34368706   0.02978668
6174.00   2.34067643   0.02880562
6176.00   2.39692783   0.02657560
6178.00   2.40985537   0.02482193
6180.00   2.36712432   0.02432586
6182.00   2.32229114   0.02445832
6184.00   2.31033552   0.02433231
6186.00   2.31778133   0.02430907
6188.00   2.32059300   0.02427520
6190.00   2.33118832   0.02421216
6192.00   2.33428156   0.02430927
6194.00   2.33590841   0.02463986
6196.00   2.35114050   0.02499512
6198.00   2.38497806   0.02510099
6200.00   2.44240773   0.02504434
6202.00   2.46515489   0.02499002
6204.00   2.46527624   0.02483382
6206.00   2.45723939   0.02478393
6208.00   2.42924333   0.02477804
6210.00   2.40524709   0.02472292
6212.00   2.41831779   0.02474566
6214.00   2.46628416   0.02505341
6216.00   2.50655341   0.02530627
6218.00   2.57642257   0.02578938
6220.00   2.58870530   0.02567374
6222.00   2.54982245   0.02499527
6224.00   2.50645733   0.02452662
6226.00   2.48971617   0.02479473
6228.00   2.50325513   0.02555917
6230.00   2.49970710   0.02589928
6232.00   2.49033070   0.02573864
6234.00   2.46678603   0.02609777
6236.00   2.44667518   0.02772094
6238.00   2.43622363   0.02943054
6240.00   2.41577554   0.02917232
6242.00   2.39521956   0.02731868
6244.00   2.37382281   0.02628499
6246.00   2.34206581   0.02507643
6248.00   2.32637966   0.02430781
6250.00   2.33601320   0.02415353
6252.00   2.33379066   0.02437343
6254.00   2.32690322   0.02453873
6256.00   2.33514142   0.02474266
6258.00   2.31624043   0.02486664
6260.00   2.25743282   0.02503817
6262.00   2.24103904   0.02491367
6264.00   2.27076757   0.02391706
6266.00   2.28662920   0.02409386
6268.00   2.26819491   0.02592067
6270.00   2.25640821   0.02718461
6272.00   2.27911437   0.02736058
6274.00   2.31873763   0.02775396
6276.00   2.31969059   0.02713260
6278.00   2.28654957   0.02477866
6280.00   2.26874149   0.02328880
6282.00   2.25196481   0.02292597
6284.00   2.24770427   0.02310701
6286.00   2.25982988   0.02415480
6288.00   2.26364076   0.02642249
6290.00   2.26166844   0.02697128
6292.00   2.24933028   0.02598204
6294.00   2.26471233   0.02615227
6296.00   2.28814995   0.02785105
6298.00   2.33331656   0.02905471
6300.00   2.39565909   0.02935076
6302.00   2.44140899   0.02938852
6304.00   2.44067621   0.02885828
6306.00   2.39150536   0.02716543
6308.00   2.37556803   0.02676868
6310.00   2.37911713   0.02826580
6312.00   2.38121426   0.02871532
6314.00   2.37376213   0.02683872
6316.00   2.38382471   0.02376160
6318.00   2.39773083   0.02256445
6320.00   2.41593039   0.02237749
6322.00   2.40994895   0.02255569
6324.00   2.38213515   0.02392930
6326.00   2.34528387   0.02469602
6328.00   2.32631063   0.02431914
6330.00   2.33735359   0.02340022
6332.00   2.32559812   0.02285178
6334.00   2.30423319   0.02209872
6336.00   2.30594099   0.02247862
6338.00   2.33129811   0.02460686
6340.00   2.33324206   0.02518211
6342.00   2.34488058   0.02382287
6344.00   2.36267459   0.02206360
6346.00   2.35780990   0.02150015
6348.00   2.34335721   0.02156107
6350.00   2.33991158   0.02160306
6352.00   2.35162580   0.02199308
6354.00   2.33409572   0.02222352
6356.00   2.26850915   0.02224053
6358.00   2.22479439   0.02228565
6360.00   2.25508654   0.02264303
6362.00   2.32977891   0.02314361
6364.00   2.34023237   0.02362040
6366.00   2.29269612   0.02462958
6368.00   2.28712606   0.02464581
6370.00   2.32040811   0.02319919
6372.00   2.36551571   0.02199031
6374.00   2.39305866   0.02233808
6376.00   2.41406763   0.02338189
6378.00   2.40818858   0.02319895
6380.00   2.34576130   0.02198533
6382.00   2.32940936   0.02156208
6384.00   2.35383654   0.02173777
6386.00   2.36955392   0.02176194
6388.00   2.35546494   0.02150296
6390.00   2.33837676   0.02126202
6392.00   2.33597064   0.02117377
6394.00   2.34873915   0.02107226
6396.00   2.33268356   0.02108980
6398.00   2.27452052   0.02098463
6400.00   2.25635445   0.02148290
6402.00   2.29636705   0.02276330
6404.00   2.34316397   0.02401077
6406.00   2.35341394   0.02440824
6408.00   2.33449602   0.02359174
6410.00   2.32453728   0.02271034
6412.00   2.31820619   0.02122388
6414.00   2.31950986   0.02075198
6416.00   2.31306791   0.02089180
6418.00   2.29707849   0.02090925
6420.00   2.29897690   0.02081483
6422.00   2.31751752   0.02070188
6424.00   2.33196378   0.02069506
6426.00   2.35104454   0.02079037
6428.00   2.34711480   0.02083503
6430.00   2.31979132   0.02083722
6432.00   2.29944313   0.02083669
6434.00   2.28148305   0.02087927
6436.00   2.26002383   0.02105293
6438.00   2.23556554   0.02142503
6440.00   2.18788040   0.02236579
6442.00   2.18369973   0.02235561
6444.00   2.23150992   0.02138330
6446.00   2.25888753   0.02054747
6448.00   2.24172449   0.02027415
6450.00   2.21419537   0.02042455
6452.00   2.20347881   0.02057908
6454.00   2.18882215   0.02080032
6456.00   2.17284787   0.02103662
6458.00   2.14467955   0.02142133
6460.00   2.14820087   0.02155501
6462.00   2.18461311   0.02132175
6464.00   2.21879160   0.02133641
6466.00   2.23402762   0.02179292
6468.00   2.23440397   0.02253884
6470.00   2.21368754   0.02307016
6472.00   2.15360081   0.02370186
6474.00   2.14596844   0.02364628
6476.00   2.19327641   0.02287344
6478.00   2.22440422   0.02208558
6480.00   2.23040092   0.02147681
6482.00   2.24024761   0.02126087
6484.00   2.25061285   0.02096962
6486.00   2.25536990   0.02041966
6488.00   2.24201620   0.02016680
6490.00   2.20188487   0.02007562
6492.00   2.18560207   0.02041286
6494.00   2.18696773   0.02136548
6496.00   2.19313335   0.02256761
6498.00   2.20510674   0.02330095
6500.00   2.20703840   0.02406342
6502.00   2.20597947   0.02402290
6504.00   2.20316839   0.02288053
6506.00   2.20907080   0.02225446
6508.00   2.18736446   0.02233656
6510.00   2.16086674   0.02249699
6512.00   2.15032017   0.02254804
6514.00   2.13409221   0.02265774
6516.00   2.13598263   0.02271918
6518.00   2.16401315   0.02294748
6520.00   2.16995299   0.02292872
6522.00   2.15265214   0.02242382
6524.00   2.13583970   0.02145631
6526.00   2.12234044   0.02073174
6528.00   2.10407627   0.02048541
6530.00   2.08809960   0.02074290
6532.00   2.07800651   0.02167795
6534.00   2.06182152   0.02216620
6536.00   2.03237700   0.02263232
6538.00   2.00921071   0.02262137
6540.00   1.99937475   0.02187446
6542.00   1.99660969   0.02061894
6544.00   1.99899131   0.02069339
6546.00   2.01294756   0.02228436
6548.00   1.99750209   0.02293286
6550.00   1.94058889   0.02334256
6552.00   1.91268063   0.02309507
6554.00   1.92690349   0.02182586
6556.00   1.96343201   0.02010207
6558.00   1.98010010   0.01994696
6560.00   1.98613590   0.02106957
6562.00   1.98081911   0.02203562
6564.00   1.95944077   0.02394027
6566.00   1.93780750   0.02446504
6568.00   1.92683947   0.02379111
6570.00   1.90957862   0.02266610
6572.00   1.86242026   0.02123385
6574.00   1.80610371   0.01949154
6576.00   1.77292138   0.01934537
6578.00   1.75137031   0.02085831
6580.00   1.72627610   0.02112568
6582.00   1.72048217   0.02079909
6584.00   1.69942814   0.02021895
6586.00   1.63894814   0.01920852
6588.00   1.55901396   0.01824171
6590.00   1.49424690   0.01804650
6592.00   1.42725211   0.01836732
6594.00   1.37355649   0.01848885
6596.00   1.33007437   0.01879861
6598.00   1.29672474   0.01904795
6600.00   1.28320259   0.01896193
6602.00   1.27352959   0.01869288
6604.00   1.23478395   0.01862682
6606.00   1.18166006   0.01870903
6608.00   1.14532280   0.01855218
6610.00   1.11047077   0.01804869
6612.00   1.08330464   0.01789963
6614.00   1.08406115   0.01791057
6616.00   1.09967673   0.01798662
6618.00   1.10462272   0.01870358
6620.00   1.11264157   0.01980267
6622.00   1.11560726   0.01979495
6624.00   1.11644524   0.01885591
6626.00   1.10652959   0.01821952
6628.00   1.09234148   0.01734728
6630.00   1.08404362   0.01672862
6632.00   1.07550520   0.01651248
6634.00   1.06808120   0.01659062
6636.00   1.09149170   0.01694699
6638.00   1.14613944   0.01778456
6640.00   1.19810212   0.01802583
6642.00   1.26344764   0.01794065
6644.00   1.30323446   0.01773823
6646.00   1.31266218   0.01727706
6648.00   1.31772953   0.01681173
6650.00   1.35347074   0.01676171
6652.00   1.41676337   0.01704379
6654.00   1.46119279   0.01717807
6656.00   1.43775165   0.01681398
6658.00   1.50729251   0.01727791
6660.00   1.71710008   0.01897613
6662.00   2.04712653   0.02113138
6664.00   2.44779694   0.02300165
6666.00   2.99376988   0.02507895
6668.00   3.26473272   0.02610876
6670.00   3.42166984   0.02662064
6672.00   3.36171281   0.02656415
6674.00   3.00235188   0.02570775
6676.00   2.58203173   0.02431471
6678.00   2.29323137   0.02282367
6680.00   2.02532148   0.02106630
6682.00   1.95204777   0.02052193
6684.00   2.10073316   0.02133920
6686.00   2.19529521   0.02164729
6688.00   2.28566122   0.02178424
6690.00   2.34199238   0.02133318
6692.00   2.33175623   0.02034697
6694.00   2.26532507   0.01910934
6696.00   2.19787407   0.01924480
6698.00   2.08708858   0.02085497
6700.00   2.02831972   0.02126551
6702.00   2.00717098   0.02053100
6704.00   2.01057100   0.02004728
6706.00   2.03315818   0.02032557
6708.00   2.08191216   0.02045657
6710.00   2.14112616   0.02046346
6712.00   2.22667265   0.02078852
6714.00   2.27521908   0.02069611
6716.00   2.30633819   0.02000615
6718.00   2.31114531   0.01949182
6720.00   2.27635860   0.01910362
6722.00   2.24649644   0.01863872
6724.00   2.27333272   0.01874408
6726.00   2.34569788   0.01967020
6728.00   2.38753986   0.01984395
6730.00   2.41802061   0.01939233
6732.00   2.44838858   0.01925196
6734.00   2.49760211   0.01985094
6736.00   2.53731859   0.02057516
6738.00   2.52742434   0.02046769
6740.00   2.48033476   0.01982942
6742.00   2.47502244   0.01978967
6744.00   2.49346817   0.02014619
6746.00   2.50810885   0.02003560
6748.00   2.52382350   0.01963991
6750.00   2.53344631   0.01944421
6752.00   2.54313529   0.01949946
6754.00   2.55992258   0.01993479
6756.00   2.57420003   0.02006099
6758.00   2.58989179   0.01989478
6760.00   2.58475864   0.01993533
6762.00   2.55820072   0.02038797
6764.00   2.53838360   0.02060192
6766.00   2.51643407   0.02026442
6768.00   2.49948156   0.01963461
6770.00   2.51618588   0.01928058
6772.00   2.56928313   0.01871202
6774.00   2.59874308   0.01890831
6776.00   2.62276697   0.02019096
6778.00   2.63269651   0.02100318
6780.00   2.63133585   0.02077259
6782.00   2.61745548   0.02000186
6784.00   2.60235655   0.01963979
6786.00   2.58511484   0.01913170
6788.00   2.57921576   0.01928037
6790.00   2.58282709   0.02017515
6792.00   2.58812034   0.02084551
6794.00   2.59167659   0.02126544
6796.00   2.58990192   0.02143349
6798.00   2.59488618   0.02099231
6800.00   2.60819781   0.01979015
6802.00   2.61336052   0.01930926
6804.00   2.60996187   0.01917658
6806.00   2.62052083   0.01910742
6808.00   2.64677608   0.01917305
6810.00   2.66902077   0.01942560
6812.00   2.67309546   0.01981885
6814.00   2.66114902   0.02046180
6816.00   2.69563329   0.02065520
6818.00   2.76913524   0.02017479
6820.00   2.83693409   0.02056541
6822.00   2.92244458   0.02176808
6824.00   2.98277879   0.02299670
6826.00   3.00842810   0.02439894
6828.00   3.01653254   0.02582723
6830.00   3.00085378   0.02580983
6832.00   2.94429982   0.02428747
6834.00   2.91824937   0.02341429
6836.00   2.91551387   0.02254394
6838.00   2.89949358   0.02198881
6840.00   2.88015831   0.02190842
6842.00   2.84523749   0.02186118
6844.00   2.76866341   0.02135626
6846.00   2.65574479   0.02072728
6848.00   2.58214283   0.02039445
6850.00   2.51826751   0.01994451
6852.00   2.48112726   0.02010322
6854.00   2.47026908   0.02131868
6856.00   2.47272146   0.02255162
6858.00   2.49050832   0.02305885
6860.00   2.51420009   0.02331165
6862.00   2.51830161   0.02401224
6864.00   2.51305890   0.02521675
6866.00   2.50218022   0.02555232
6868.00   2.47906780   0.02527359
6870.00   2.45895743   0.02463474
6872.00   2.43309927   0.02345302
6874.00   2.39789975   0.02188520
6876.00   2.37602854   0.02093411
6878.00   2.36748552   0.02027391
6880.00   2.36288834   0.02000643
6882.00   2.36061871   0.02029630
6884.00   2.35852754   0.02062214
6886.00   2.37385309   0.02092649
6888.00   2.39571869   0.02151984
6890.00   2.40258300   0.02226254
6892.00   2.41204405   0.02296530
6894.00   2.38594437   0.02291801
6896.00   2.30710685   0.02209731
6898.00   2.25515234   0.02147775
6900.00   2.24880672   0.02056173
6902.00   2.26185203   0.02015025
6904.00   2.25038540   0.02091456
6906.00   2.23086298   0.02259668
6908.00   2.22897029   0.02309724
6910.00   2.23944199   0.02307975
6912.00   2.24184203   0.02270667
6914.00   2.25914836   0.02141879
6916.00   2.26397431   0.02083853
6918.00   2.23351109   0.02227757
6920.00   2.19456553   0.02456786
6922.00   2.15223646   0.02432520
6924.00   2.09154761   0.02200317
6926.00   2.04827887   0.02055633
6928.00   2.01535892   0.01930787
6930.00   1.99324900   0.01856583
6932.00   1.99835420   0.01857469
6934.00   2.03279859   0.01904010
6936.00   2.06501675   0.01930825
6938.00   2.10941577   0.01960976
6940.00   2.09928334   0.02027624
6942.00   2.03333086   0.02134366
6944.00   1.98280680   0.02223098
6946.00   1.94018400   0.02334550
6948.00   1.90965873   0.02388330
6950.00   1.87985933   0.02343972
6952.00   1.82242483   0.02261300
6954.00   1.80594051   0.02191280
6956.00   1.84269774   0.02097863
6958.00   1.84548724   0.02015089
6960.00   1.78401953   0.01926110
6962.00   1.72323346   0.01827798
6964.00   1.70785326   0.01817450
6966.00   1.71018374   0.01908761
6968.00   1.70022219   0.01967434
6970.00   1.69508743   0.02054958
6972.00   1.67310447   0.02058920
6974.00   1.63177824   0.01999267
6976.00   1.59435159   0.01941738
6978.00   1.55378020   0.01890285
6980.00   1.49888146   0.01840132
6982.00   1.45482707   0.01787863
6984.00   1.41859287   0.01726160
6986.00   1.37646276   0.01677349
6988.00   1.31444800   0.01634122
6990.00   1.28097904   0.01613680
6992.00   1.29181582   0.01609345
6994.00   1.31119531   0.01641480
6996.00   1.28864413   0.01723246
6998.00   1.23727643   0.01843423
7000.00   1.22564489   0.01858879
7002.00   1.24756950   0.01771277
7004.00   1.25633001   0.01744104
7006.00   1.25784934   0.01761520
7008.00   1.25494742   0.01768609
7010.00   1.24520642   0.01742430
7012.00   1.23154223   0.01698606
7014.00   1.23993325   0.01673458
7016.00   1.27341133   0.01649614
7018.00   1.29105055   0.01642504
7020.00   1.29474598   0.01651113
7022.00   1.30378789   0.01670130
7024.00   1.33135635   0.01712324
7026.00   1.36728930   0.01792146
7028.00   1.39963824   0.01812636
7030.00   1.44119638   0.01790125
7032.00   1.46093911   0.01758333
7034.00   1.45188934   0.01707487
7036.00   1.45422566   0.01679366
7038.00   1.46521872   0.01684794
7040.00   1.47244394   0.01712068
7042.00   1.50622845   0.01785909
7044.00   1.56612915   0.01931831
7046.00   1.62197566   0.02005865
7048.00   1.70302618   0.02038351
7050.00   1.74464583   0.02040845
7052.00   1.71565872   0.02008811
7054.00   1.65444624   0.01952472
7056.00   1.63798279   0.01923343
7058.00   1.63297480   0.01917403
7060.00   1.65545881   0.01898014
7062.00   1.71087158   0.01847401
7064.00   1.77257806   0.01831839
7066.00   1.84021431   0.01892223
7068.00   1.91080457   0.02005239
7070.00   1.95795405   0.02079958
7072.00   1.97766268   0.02105786
7074.00   2.01927787   0.02083521
7076.00   2.08566439   0.01972608
7078.00   2.11960638   0.01926610
7080.00   2.11823916   0.01930323
7082.00   2.10800767   0.01967991
7084.00   2.10125530   0.01994308
7086.00   2.09731162   0.02024004
7088.00   2.11196077   0.02009997
7090.00   2.14194930   0.01934889
7092.00   2.17574251   0.01902132
7094.00   2.21886790   0.01924099
7096.00   2.26003385   0.01941863
7098.00   2.30960870   0.01919264
7100.00   2.35573626   0.01908063
7102.00   2.37820041   0.01961602
7104.00   2.39790106   0.02066088
7106.00   2.40935016   0.02067745
7108.00   2.40024567   0.01980159
7110.00   2.38052189   0.01921343
7112.00   2.37016034   0.01865733
7114.00   2.37798464   0.01831477
7116.00   2.41349995   0.01845864
7118.00   2.47791994   0.01897136
7120.00   2.51521945   0.01927769
7122.00   2.54466820   0.01965455
7124.00   2.56155920   0.01986288
7126.00   2.55645537   0.01981441
7128.00   2.55305147   0.01973813
7130.00   2.56651902   0.01980201
7132.00   2.58229744   0.01973104
7134.00   2.56958866   0.01986411
7136.00   2.52051377   0.02024694
7138.00   2.50551951   0.02058003
7140.00   2.51746273   0.02075549
7142.00   2.53802741   0.02084314
7144.00   2.55584502   0.02069860
7146.00   2.55473161   0.02007561
7148.00   2.55073822   0.01980947
7150.00   2.54190457   0.01976323
7152.00   2.54825926   0.01976333
7154.00   2.55507970   0.01975399
7156.00   2.57806945   0.01982593
7158.00   2.61539364   0.01993727
7160.00   2.64262056   0.02003276
7162.00   2.65393937   0.02018572
7164.00   2.66119874   0.02040042
7166.00   2.65830803   0.02046707
7168.00   2.64470041   0.02022846
7170.00   2.61354744   0.02035412
7172.00   2.57449353   0.02104060
7174.00   2.54395020   0.02183830
7176.00   2.50477898   0.02199670
7178.00   2.45271266   0.02159042
7180.00   2.42040920   0.02106700
7182.00   2.38916349   0.01990879
7184.00   2.38409221   0.01930953
7186.00   2.42130375   0.01923180
7188.00   2.46399188   0.01935368
7190.00   2.49381232   0.01939767
7192.00   2.52549958   0.01949425
7194.00   2.52905393   0.01955450
7196.00   2.50698590   0.01961303
7198.00   2.48534393   0.01957281
7200.00   2.45475483   0.01951081
7202.00   2.42604852   0.01945341
7204.00   2.40199983   0.01922468
7206.00   2.37567806   0.01884912
7208.00   2.36381364   0.01899591
7210.00   2.36803913   0.01980401
7212.00   2.37504315   0.02010990
7214.00   2.39171040   0.01999333
7216.00   2.39690709   0.01968705
7218.00   2.38924146   0.01938370
7220.00   2.36811459   0.01895318
7222.00   2.34731257   0.01877846
7224.00   2.32648838   0.01891697
7226.00   2.29575169   0.01895955
7228.00   2.24252880   0.01861074
7230.00   2.21196771   0.01896303
7232.00   2.21025324   0.02009716
7234.00   2.20826542   0.02164227
7236.00   2.19208622   0.02354283
7238.00   2.16781521   0.02593606
7240.00   2.13245785   0.02679625
7242.00   2.03673053   0.02565408
7244.00   2.05566210   0.02690647
7246.00   2.20650041   0.03056811
7248.00   2.30393076   0.03236753
7250.00   2.29486835   0.03210353
7252.00   2.24723530   0.03042184
7254.00   2.22901356   0.02818800
7256.00   2.21179056   0.02389625
7258.00   2.20783067   0.02213289
7260.00   2.21852636   0.02255559
7262.00   2.21635592   0.02285599
7264.00   2.21099222   0.02245858
7266.00   2.19697368   0.02153280
7268.00   2.16667700   0.02175635
7270.00   2.11494756   0.02271537
7272.00   2.08522689   0.02370518
7274.00   2.06680822   0.02531004
7276.00   2.06100816   0.02633237
7278.00   2.06066418   0.02645761
7280.00   2.06120527   0.02603366
7282.00   2.06919837   0.02540562
7284.00   2.08067966   0.02437295
7286.00   2.10218811   0.02347625
7288.00   2.14204085   0.02235092
7290.00   2.17523837   0.02148879
7292.00   2.19694054   0.02103147
7294.00   2.19121075   0.02111469
7296.00   2.16690147   0.02142740
7298.00   2.13812053   0.02191282
7300.00   2.12534058   0.02208749
7302.00   2.11630559   0.02214286
7304.00   2.11647069   0.02194205
7306.00   2.13856328   0.02135993
7308.00   2.16231394   0.02128256
7310.00   2.17698264   0.02186750
7312.00   2.18960285   0.02296477
7314.00   2.20291638   0.02386047
7316.00   2.21821725   0.02515439
7318.00   2.22073662   0.02516999
7320.00   2.21593130   0.02382783
7322.00   2.20531726   0.02250970
7324.00   2.17150593   0.02148404
7326.00   2.12881577   0.02067393
7328.00   2.13399851   0.02060268
7330.00   2.17647529   0.02120962
7332.00   2.21050549   0.02186437
7334.00   2.25152290   0.02262845
7336.00   2.28851545   0.02377104
7338.00   2.31677413   0.02559980
7340.00   2.34316921   0.02707815
7342.00   2.37875485   0.02723307
7344.00   2.42017770   0.02645722
7346.00   2.43621993   0.02540926
7348.00   2.42696118   0.02303749
7350.00   2.42708158   0.02166590
7352.00   2.42905509   0.02141553
7354.00   2.42704308   0.02154995
7356.00   2.42471480   0.02157821
7358.00   2.41054511   0.02171402
7360.00   2.37433553   0.02189104
7362.00   2.31032133   0.02189576
7364.00   2.26814079   0.02244113
7366.00   2.21855915   0.02392921
7368.00   2.18585873   0.02521002
7370.00   2.18747437   0.02554978
7372.00   2.20178688   0.02540892
7374.00   2.23434365   0.02450741
7376.00   2.30579269   0.02220830
7378.00   2.34225047   0.02060005
7380.00   2.34328938   0.01912935
7382.00   2.34961390   0.01871350
7384.00   2.35837293   0.01989729
7386.00   2.35391116   0.02166293
7388.00   2.38074875   0.02243488
7390.00   2.44869518   0.02292666
7392.00   2.48739660   0.02301371
7394.00   2.51017439   0.02222278
7396.00   2.52072453   0.02209359
7398.00   2.52406442   0.02294317
7400.00   2.50215805   0.02384460
7402.00   2.46291685   0.02385802
7404.00   2.41787744   0.02322357
7406.00   2.38555348   0.02287901
7408.00   2.34744525   0.02261488
7410.00   2.33118188   0.02213370
7412.00   2.35335624   0.02147161
7414.00   2.38576901   0.02084495
7416.00   2.40768683   0.02005054
7418.00   2.43483675   0.01909275
7420.00   2.44643319   0.01886908
7422.00   2.43845129   0.01933919
7424.00   2.44018853   0.01960184
7426.00   2.46087635   0.01983424
7428.00   2.47594333   0.02010920
7430.00   2.47345507   0.02044907
7432.00   2.46664143   0.02079987
7434.00   2.44840670   0.02100212
7436.00   2.40782964   0.02115155
7438.00   2.39105558   0.02116712
7440.00   2.39549625   0.02105442
7442.00   2.40208209   0.02079696
7444.00   2.41635454   0.02039626
7446.00   2.42858803   0.01989863
7448.00   2.41223550   0.01945062
7450.00   2.37009168   0.01902503
7452.00   2.37009072   0.01930455
7454.00   2.41404736   0.02039043
7456.00   2.43473911   0.02103007
7458.00   2.43530774   0.02175202
7460.00   2.40939426   0.02217909
7462.00   2.35675168   0.02180542
7464.00   2.27511799   0.02109929
7466.00   2.24121475   0.02090982
7468.00   2.24627435   0.02098902
7470.00   2.23750865   0.02095134
7472.00   2.21091855   0.02112718
7474.00   2.18971598   0.02149085
7476.00   2.19458127   0.02187485
7478.00   2.21207917   0.02215217
7480.00   2.22962630   0.02242147
7482.00   2.26405513   0.02291053
7484.00   2.27634919   0.02278617
7486.00   2.25891888   0.02177805
7488.00   2.24599588   0.02095314
7490.00   2.24655807   0.02062937
7492.00   2.24333906   0.02048459
7494.00   2.24562275   0.02049422
7496.00   2.26769853   0.02112024
7498.00   2.26984155   0.02101329
7500.00   2.24776208   0.01997460
7502.00   2.22100019   0.01894625
7504.00   2.20878947   0.01877931
7506.00   2.20163620   0.01902678
7508.00   2.18592703   0.01892649
7510.00   2.16175854   0.01845516
7512.00   2.15637934   0.01899118
7514.00   2.16548741   0.02031737
7516.00   2.17749894   0.02179665
7518.00   2.20420790   0.02333252
7520.00   2.22895634   0.02462621
7522.00   2.20876849   0.02551944
7524.00   2.13739502   0.02578719
7526.00   2.10653591   0.02572549
7528.00   2.08462119   0.02541714
7530.00   2.08484197   0.02488650
7532.00   2.10992956   0.02296895
7534.00   2.15204704   0.02059560
7536.00   2.18840325   0.01985143
7538.00   2.22232175   0.02024730
7540.00   2.24707901   0.01997207
7542.00   2.26939857   0.01940937
7544.00   2.27601087   0.01935163
7546.00   2.27731192   0.01974336
7548.00   2.24765348   0.02032034
7550.00   2.17424870   0.02103022
7552.00   2.08756924   0.02207262
7554.00   2.05890822   0.02256771
7556.00   2.08111191   0.02243156
7558.00   2.08174014   0.02180917
7560.00   2.07615089   0.02011426
7562.00   2.05755997   0.01962021
7564.00   2.03519291   0.02025926
7566.00   2.03239864   0.02114507
7568.00   2.05826217   0.02162828
7570.00   2.11620820   0.02221835
7572.00   2.12997091   0.02265900
7574.00   2.11229944   0.02317419
7576.00   2.09042108   0.02313952
7578.00   2.07363117   0.02285984
7580.00   2.07505929   0.02222846
7582.00   2.08151782   0.02107080
7584.00   2.08532786   0.01987959
7586.00   2.09624958   0.02019559
7588.00   2.13342655   0.02101863
7590.00   2.12648249   0.02344076
7592.00   2.04109162   0.02747663
7594.00   1.99591142   0.03107037
7596.00   2.04797494   0.03466174
7598.00   2.14238203   0.03893765
7600.00   2.17173934   0.04213869
7602.00   2.15860140   0.04593711
7604.00   2.16530383   0.04563171
7606.00   2.18930626   0.04040118
7608.00   2.20858419   0.03520468
7610.00   2.20965838   0.03149520
7612.00   2.21316290   0.02851256
7614.00   2.21561170   0.02665606
7616.00   2.22344553   0.02624786
7618.00   2.16153669   0.02586585
7620.00   1.97338784   0.02541663
7622.00   1.89639521   0.02662184
7624.00   1.96473122   0.03014486
7626.00   2.08120537   0.03387710
7628.00   2.18837214   0.03507387
7630.00   2.34208763   0.03433587
7632.00   2.38991117   0.03344906
7634.00   2.33924699   0.03135902
7636.00   2.31910694   0.02969352
7638.00   2.32441854   0.02787575
7640.00   2.30820668   0.02610491
7642.00   2.22993088   0.02467591
7644.00   2.09611201   0.02350330
7646.00   2.04489583   0.02262019
7648.00   2.04578710   0.02213077
7650.00   2.05480951   0.02184929
7652.00   2.07938087   0.02184126
7654.00   2.09916973   0.02201485
7656.00   2.12283707   0.02243438
7658.00   2.15735376   0.02302451
7660.00   2.17847574   0.02330690
7662.00   2.18982935   0.02349136
7664.00   2.20723772   0.02345761
7666.00   2.22930706   0.02314857
7668.00   2.24469328   0.02276663
7670.00   2.28347433   0.02243160
7672.00   2.31673563   0.02209105
7674.00   2.25132978   0.02143264
7676.00   2.08767080   0.02025729
7678.00   2.03375238   0.02020521
7680.00   2.06058943   0.02142291
7682.00   2.07549953   0.02192782
7684.00   2.08519375   0.02207254
7686.00   2.07590950   0.02240226
7688.00   2.04285228   0.02203210
7690.00   1.99345422   0.02051877
7692.00   1.97711945   0.02020273
7694.00   1.99204761   0.02075124
7696.00   1.98691005   0.02110713
7698.00   1.96396130   0.02142007
7700.00   1.94078946   0.02186449
7702.00   1.92626125   0.02176724
7704.00   1.92181402   0.02096440
7706.00   1.93528479   0.02200396
7708.00   1.97606838   0.02410015
7710.00   1.99196047   0.02672248
7712.00   1.98357433   0.03003877
7714.00   1.97774839   0.03305030
7716.00   2.00146663   0.03616522
7718.00   2.04239810   0.03805776
7720.00   2.02371132   0.03625290
7722.00   1.94641036   0.03013547
7724.00   1.91157109   0.02670704
7726.00   1.92080349   0.02489820
7728.00   1.90351850   0.02332558
7730.00   1.84052747   0.02226303
7732.00   1.76817620   0.02161451
7734.00   1.74033928   0.02124844
7736.00   1.76095408   0.02176048
7738.00   1.75417930   0.02173958
7740.00   1.72938031   0.02083908
7742.00   1.71008420   0.02106716
7744.00   1.73080039   0.02304872
7746.00   1.74031883   0.02521444
7748.00   1.68376511   0.02674673
7750.00   1.57415575   0.02820261
7752.00   1.52689070   0.02851066
7754.00   1.52511263   0.02760776
7756.00   1.50881869   0.02697747
7758.00   1.45844138   0.02666105
7760.00   1.40827227   0.02628892
7762.00   1.41900605   0.02509480
7764.00   1.47212774   0.02312513
7766.00   1.47322571   0.02167310
7768.00   1.44642103   0.02004856
7770.00   1.41855866   0.01940744
7772.00   1.36175609   0.02010211
7774.00   1.34003425   0.02084432
7776.00   1.37747329   0.02120816
7778.00   1.44512719   0.02145189
7780.00   1.49447960   0.02163485
7782.00   1.55798769   0.02103303
7784.00   1.56852537   0.02223212
7786.00   1.51029766   0.02551915
7788.00   1.47378874   0.02792475
7790.00   1.48926878   0.02865926
7792.00   1.53041464   0.02820821
7794.00   1.54415089   0.02756332
7796.00   1.54277128   0.02615364
7798.00   1.53606951   0.02482251
7800.00   1.51658618   0.02281049
7802.00   1.50668103   0.02164105
7804.00   1.48868448   0.02116593
7806.00   1.46143526   0.02118505
7808.00   1.45924509   0.02154309
7810.00   1.48454016   0.02215564
7812.00   1.51979703   0.02316405
7814.00   1.58010685   0.02442759
7816.00   1.62624454   0.02623909
7818.00   1.66816986   0.02918688
7820.00   1.69746536   0.03097489
7822.00   1.71361017   0.03087927
7824.00   1.70991689   0.02951924
7826.00   1.71082932   0.02758897
7828.00   1.71440017   0.02381051
7830.00   1.71222466   0.02146133
7832.00   1.68502790   0.02025711
7834.00   1.68293256   0.01977587
7836.00   1.72414052   0.01999253
7838.00   1.78116262   0.02056415
7840.00   1.79549158   0.02217483
7842.00   1.76746613   0.02552924
7844.00   1.77726775   0.02744869
7846.00   1.81001228   0.02852569
7848.00   1.85375530   0.02932775
7850.00   1.91607153   0.03052406
7852.00   1.98882049   0.03154249
7854.00   2.01935220   0.03212379
7856.00   2.00734335   0.03267287
7858.00   2.00771552   0.03224002
7860.00   2.00669557   0.03060475
7862.00   2.00083411   0.02908869
7864.00   1.97852045   0.02758802
7866.00   1.95153230   0.02643364
7868.00   1.95032799   0.02575043
7870.00   1.96937007   0.02536266
7872.00   1.94924277   0.02566772
7874.00   1.88310814   0.02717059
7876.00   1.87863684   0.02784948
7878.00   1.92499650   0.02771326
7880.00   1.97345108   0.02716410
7882.00   2.03128266   0.02665351
7884.00   2.07854378   0.02592168
7886.00   2.09289241   0.02562100
7888.00   2.09133852   0.02585885
7890.00   2.09408069   0.02616633
7892.00   2.08615685   0.02698593
7894.00   2.06661004   0.02665021
7896.00   2.04042011   0.02516687
7898.00   2.00542259   0.02321283
7900.00   1.98772293   0.02168128
7902.00   1.97716534   0.01995913
7904.00   2.00858212   0.02055253
7906.00   2.09324312   0.02318685
7908.00   2.16516161   0.02573660
7910.00   2.24437332   0.02897814
7912.00   2.28467107   0.03166600
7914.00   2.21751046   0.03243001
7916.00   2.03936231   0.03206219
7918.00   1.96406382   0.03199428
7920.00   1.92107481   0.03175707
7922.00   1.92294127   0.03103092
7924.00   1.98295498   0.03028897
7926.00   2.05376196   0.02946127
7928.00   2.08904999   0.02801858
7930.00   2.09995723   0.02649259
7932.00   2.11331487   0.02535520
7934.00   2.13767147   0.02419179
7936.00   2.11686671   0.02325057
7938.00   2.02339727   0.02287048
7940.00   1.95265967   0.02312636
7942.00   1.94442648   0.02353799
7944.00   1.96249723   0.02402820
7946.00   1.98571485   0.02502331
7948.00   2.04525232   0.02684992
7950.00   2.05008042   0.02743705
7952.00   1.99337018   0.02700402
7954.00   1.95287597   0.02655328
7956.00   1.94274735   0.02555514
7958.00   1.95138073   0.02434383
7960.00   1.95958549   0.02553635
7962.00   1.97300690   0.02912481
7964.00   1.98715788   0.02992052
7966.00   2.01290107   0.02908442
7968.00   2.02235818   0.02794124
7970.00   2.01583540   0.02628220
7972.00   1.99251157   0.02470000
7974.00   1.96780366   0.02415949
7976.00   1.95021629   0.02447962
7978.00   1.95470744   0.02456407
7980.00   1.98561442   0.02479160
7982.00   2.00848591   0.02506164
7984.00   2.03195703   0.02511840
7986.00   2.02453125   0.02560665
7988.00   2.00581169   0.02711766
7990.00   1.98890799   0.02926286
7992.00   1.96562976   0.03003879
7994.00   1.93368608   0.03016640
7996.00   1.91594225   0.02945277
7998.00   1.90822822   0.02757255
8000.00   1.89083654   0.02566148
8002.00   1.87713605   0.02379328
8004.00   1.86647367   0.02206087
8006.00   1.86727327   0.02126964
8008.00   1.89071333   0.02146062
8010.00   1.90546459   0.02167239
8012.00   1.91565716   0.02220811
8014.00   1.91771340   0.02280252
8016.00   1.92620862   0.02344465
8018.00   1.92360562   0.02426037
8020.00   1.89369446   0.02546628
8022.00   1.83089960   0.02708887
8024.00   1.81938964   0.02777767
8026.00   1.84852082   0.02818158
8028.00   1.87294447   0.02779476
8030.00   1.89634198   0.02633622
8032.00   1.90674514   0.02445329
8034.00   1.89657956   0.02265024
8036.00   1.88533992   0.02072266
8038.00   1.88641357   0.01969970
8040.00   1.89929837   0.01953859
8042.00   1.89539802   0.01962001
8044.00   1.87137252   0.01985138
8046.00   1.85334587   0.02073168
8048.00   1.89204270   0.02273231
8050.00   1.97460335   0.02483014
8052.00   1.99543047   0.02576273
8054.00   1.98227346   0.02610173
8056.00   1.97381169   0.02623767
8058.00   1.96105587   0.02589220
8060.00   1.93688303   0.02574603
8062.00   1.90413666   0.02543787
8064.00   1.86169696   0.02468415
8066.00   1.82552052   0.02351246
8068.00   1.79100740   0.02148673
8070.00   1.77824187   0.02059790
8072.00   1.77895230   0.02042104
8074.00   1.79352409   0.02106570
8076.00   1.84708041   0.02287313
8078.00   1.89354283   0.02393727
8080.00   1.88501370   0.02351172
8082.00   1.85346019   0.02226409
8084.00   1.82986164   0.02157558
8086.00   1.78816515   0.02074780
8088.00   1.76412207   0.02054586
8090.00   1.78305829   0.02088291
8092.00   1.81346989   0.02098097
8094.00   1.80826253   0.02085373
8096.00   1.77267736   0.02069387
8098.00   1.76358306   0.02090901
8100.00   1.76719648   0.02153376
8102.00   1.77341920   0.02185144
8104.00   1.78196776   0.02191457
8106.00   1.79808915   0.02195342
8108.00   1.81036913   0.02208646
8110.00   1.80743557   0.02200452
8112.00   1.82546747   0.02201329
8114.00   1.88660151   0.02221956
8116.00   1.88054883   0.02243150
8118.00   1.78669858   0.02279244
8120.00   1.71851075   0.02279647
8122.00   1.70449084   0.02186449
8124.00   1.69639820   0.02015447
8126.00   1.68972641   0.01982038
8128.00   1.71189469   0.02099576
8130.00   1.72124875   0.02119315
8132.00   1.72914511   0.02078702
8134.00   1.71834970   0.02025907
8136.00   1.69343477   0.02012056
8138.00   1.66824138   0.02032448
8140.00   1.66326320   0.02051571
8142.00   1.67535090   0.02091807
8144.00   1.68548530   0.02084983
8146.00   1.70976698   0.02030693
8148.00   1.71165609   0.01989096
8150.00   1.69198161   0.01963734
8152.00   1.67437291   0.01962710
8154.00   1.66512316   0.01985954
8156.00   1.64796013   0.02012314
8158.00   1.63981092   0.02000895
8160.00   1.64509076   0.01955254
8162.00   1.64853728   0.01942836
8164.00   1.63855654   0.01933611
8166.00   1.63139117   0.01951671
8168.00   1.63671190   0.02005583
8170.00   1.65233451   0.02070250
8172.00   1.68262148   0.02144862
8174.00   1.71700150   0.02221961
8176.00   1.75771767   0.02371667
8178.00   1.82352895   0.02597400
8180.00   1.88691902   0.02786914
8182.00   1.91841054   0.02956949
8184.00   1.90831214   0.03078436
8186.00   1.86695647   0.03123019
8188.00   1.78727353   0.03117008
8190.00   1.75925535   0.03147894
8192.00   1.75572467   0.03201710
8194.00   1.77041394   0.03218628
8196.00   1.83156812   0.03221912
8198.00   1.87682563   0.03190953
8200.00   1.85267150   0.03143434
8202.00   1.77745962   0.03143761
8204.00   1.73763734   0.03016515
8206.00   1.69797266   0.02693588
8208.00   1.68826503   0.02464444
8210.00   1.71437341   0.02415913
8212.00   1.72755259   0.02417324
8214.00   1.70869511   0.02327551
8216.00   1.66310000   0.02178357
8218.00   1.64225960   0.02148588
8220.00   1.64774281   0.02248829
8222.00   1.63784647   0.02251687
8224.00   1.59952301   0.02161089
8226.00   1.55818808   0.02065301
8228.00   1.53210199   0.01989049
8230.00   1.51970327   0.01914020
8232.00   1.53814590   0.01906708
8234.00   1.58544725   0.01975285
8236.00   1.63080919   0.02006226
8238.00   1.70675915   0.02024869
8240.00   1.74281514   0.02035776
8242.00   1.72137463   0.02036029
8244.00   1.69180942   0.02036703
8246.00   1.68478203   0.02048595
8248.00   1.68204951   0.02036997
8250.00   1.67001122   0.02089790
8252.00   1.65148318   0.02238565
8254.00   1.62908936   0.02311091
8256.00   1.61407453   0.02256052
8258.00   1.60574752   0.02186343
8260.00   1.58636081   0.02194598
8262.00   1.56642169   0.02187597
8264.00   1.55906868   0.02172195
8266.00   1.56957000   0.02142550
8268.00   1.55258292   0.02158082
8270.00   1.50419813   0.02116417
8272.00   1.47627878   0.02237376
8274.00   1.48119158   0.02572471
8276.00   1.50697422   0.02917804
8278.00   1.53932035   0.03120634
8280.00   1.59718317   0.03306129
8282.00   1.60743153   0.03367531
8284.00   1.57455122   0.03249878
8286.00   1.54649299   0.03185537
8288.00   1.51671225   0.03186491
8290.00   1.47906977   0.03171884
8292.00   1.47424823   0.03193329
8294.00   1.50956601   0.03290474
8296.00   1.52882838   0.03297938
8298.00   1.54479980   0.03252611
8300.00   1.55168325   0.03152033
8302.00   1.55106080   0.02977543
8304.00   1.54212570   0.02762466
8306.00   1.55161548   0.02598257
8308.00   1.58323497   0.02483810
8310.00   1.59934139   0.02399677
8312.00   1.60620695   0.02386096
8314.00   1.61402214   0.02332417
8316.00   1.62816727   0.02252335
8318.00   1.65690595   0.02199326
8320.00   1.69222736   0.02201912
8322.00   1.73237580   0.02227278
8324.00   1.73905087   0.02238240
8326.00   1.71877086   0.02269884
8328.00   1.69372410   0.02242105
8330.00   1.66292846   0.02071758
8332.00   1.62385613   0.02033828
8334.00   1.56122154   0.02171791
8336.00   1.50207704   0.02425544
8338.00   1.49123979   0.02874721
8340.00   1.50123441   0.03521237
8342.00   1.52984196   0.03867909
8344.00   1.63943315   0.04149096
8346.00   1.67405754   0.04209996
8348.00   1.57946146   0.03988148
8350.00   1.47708142   0.03620165
8352.00   1.44821215   0.03337587
8354.00   1.43345392   0.03009320
8356.00   1.44004178   0.02794382
8358.00   1.49922097   0.02714311
8360.00   1.52734572   0.02648453
8362.00   1.51502275   0.02620358
8364.00   1.50968456   0.02616367
8366.00   1.51382488   0.02574830
8368.00   1.51396453   0.02516744
8370.00   1.50395793   0.02450823
8372.00   1.47871852   0.02283733
8374.00   1.46094620   0.02286443
8376.00   1.44815600   0.02545808
8378.00   1.45858097   0.02812139
8380.00   1.50380504   0.02891664
8382.00   1.57237035   0.02822377
8384.00   1.56183070   0.02726870
8386.00   1.47865283   0.02493815
8388.00   1.42554784   0.02443926
8390.00   1.37703598   0.02422449
8392.00   1.36138582   0.02630671
8394.00   1.38475549   0.03235509
8396.00   1.43913847   0.03830645
8398.00   1.45553333   0.03865847
8400.00   1.45155042   0.03527804
8402.00   1.39005387   0.03274631
8404.00   1.24244040   0.02874776
8406.00   1.15350640   0.02541964
8408.00   1.11913711   0.02393305
8410.00   1.10603857   0.02376323
8412.00   1.11567932   0.02443025
8414.00   1.16457719   0.02647467
8416.00   1.14383197   0.02719332
8418.00   1.07418793   0.02706699
8420.00   1.00184897   0.02743939
8422.00   0.88849917   0.02745203
8424.00   0.76696733   0.02796644
8426.00   0.70865333   0.03099141
8428.00   0.70701584   0.03568154
8430.00   0.71443331   0.03647882
8432.00   0.77189556   0.03513041
8434.00   0.77831766   0.03279962
8436.00   0.73156682   0.02744276
8438.00   0.70066106   0.02202197
8440.00   0.71771008   0.02001707
8442.00   0.73530611   0.02030471
8444.00   0.71845248   0.02077212
8446.00   0.67915365   0.02273435
8448.00   0.64882618   0.02378412
8450.00   0.60212129   0.02439755
8452.00   0.58215716   0.02501182
8454.00   0.58320713   0.02491966
8456.00   0.59973124   0.02452735
8458.00   0.64500460   0.02612569
8460.00   0.73842776   0.02937919
8462.00   0.73504099   0.03090822
8464.00   0.62941536   0.03217463
8466.00   0.55818805   0.03196670
8468.00   0.53107572   0.02962433
8470.00   0.52695885   0.02610478
8472.00   0.51930520   0.02304279
8474.00   0.51242824   0.01938516
8476.00   0.49680899   0.01701608
8478.00   0.46144369   0.01615768
8480.00   0.45400421   0.01582032
8482.00   0.48089682   0.01660169
8484.00   0.50800098   0.01794360
8486.00   0.51413292   0.01878846
8488.00   0.51799381   0.01928363
8490.00   0.54041882   0.02004918
8492.00   0.58485010   0.02059393
8494.00   0.60596144   0.02179233
8496.00   0.61133653   0.02398049
8498.00   0.61279315   0.02623636
8500.00   0.60010740   0.02750244
8502.00   0.57710755   0.02786215
8504.00   0.58214468   0.02745053
8506.00   0.60221979   0.02605615
8508.00   0.61175013   0.02433955
8510.00   0.62474000   0.02136489
8512.00   0.64091042   0.01893513
8514.00   0.63869748   0.01764671
8516.00   0.63150492   0.01700395
8518.00   0.63161254   0.01642978
8520.00   0.62507308   0.01612772
8522.00   0.62272391   0.01625951
8524.00   0.62313226   0.01721479
8526.00   0.63307756   0.01787260
8528.00   0.64961252   0.01764239
8530.00   0.66286239   0.01709735
8532.00   0.65507028   0.01736676
8534.00   0.62173352   0.01810225
8536.00   0.61843207   0.01860627
8538.00   0.63133895   0.01904934
8540.00   0.65220198   0.01962115
8542.00   0.67725924   0.02034317
8544.00   0.71045026   0.02097678
8546.00   0.75679469   0.02147468
8548.00   0.80692062   0.02191445
8550.00   0.81416366   0.02178767
8552.00   0.77492052   0.02100912
8554.00   0.76747471   0.02052199
8556.00   0.78484780   0.02035154
8558.00   0.80548456   0.01986933
8560.00   0.81348744   0.01875146
8562.00   0.81245953   0.01728992
8564.00   0.82005638   0.01739132
8566.00   0.84535709   0.01895307
8568.00   0.84809399   0.01990763
8570.00   0.82127270   0.02103314
8572.00   0.79224908   0.02145942
8574.00   0.78952077   0.02047150
8576.00   0.79325470   0.01854027
8578.00   0.78505370   0.01788188
8580.00   0.78425500   0.01785126
8582.00   0.77943322   0.01785907
8584.00   0.76138437   0.01821843
8586.00   0.75667948   0.01860970
8588.00   0.78265673   0.01887770
8590.00   0.80036515   0.01908583
8592.00   0.79319295   0.01923918
8594.00   0.78064859   0.01929888
8596.00   0.78300175   0.01934557
8598.00   0.80150151   0.01944856
8600.00   0.80097026   0.01935291
8602.00   0.78355759   0.01882887
8604.00   0.76870137   0.01838444
8606.00   0.76310396   0.01828577
8608.00   0.77591127   0.01839546
8610.00   0.80116504   0.01919296
8612.00   0.83948448   0.02042475
8614.00   0.86597982   0.02200471
8616.00   0.91385376   0.02415991
8618.00   0.93395865   0.02616891
8620.00   0.89591277   0.02782079
8622.00   0.83891103   0.02922526
8624.00   0.80639568   0.03026248
8626.00   0.77036002   0.03105654
8628.00   0.76467991   0.03164590
8630.00   0.81104407   0.03228678
8632.00   0.82780921   0.03217633
8634.00   0.78486004   0.03111108
8636.00   0.73789534   0.02953500
8638.00   0.74943730   0.02814637
8640.00   0.78544158   0.02664096
8642.00   0.82594433   0.02594758
8644.00   0.90387544   0.02589307
8646.00   0.94507608   0.02613814
8648.00   0.93481764   0.02677537
8650.00   0.93194544   0.02831519
8652.00   0.94793761   0.03057748
8654.00   0.95547795   0.03313466
8656.00   0.98293057   0.03443104
8658.00   1.03790936   0.03543157
8660.00   1.06466067   0.03501060
8662.00   1.06416279   0.03259632
8664.00   1.08096844   0.03081296
8666.00   1.11435050   0.03029587
8668.00   1.16142905   0.03017249
8670.00   1.16421640   0.02937667
8672.00   1.10975152   0.02784910
8674.00   1.10375696   0.02712605
8676.00   1.14927280   0.02727934
8678.00   1.20201874   0.02768068
8680.00   1.25195038   0.02821515
8682.00   1.28939283   0.02894802
8684.00   1.26690578   0.02782947
8686.00   1.17413926   0.02409175
8688.00   1.17096430   0.02217285
8690.00   1.24796146   0.02188379
8692.00   1.30398232   0.02179412
8694.00   1.33239788   0.02160892
8696.00   1.34679461   0.02154855
8698.00   1.36436397   0.02151172
8700.00   1.38857234   0.02163320
8702.00   1.40937835   0.02175258
8704.00   1.42871594   0.02189538
8706.00   1.44826663   0.02207434
8708.00   1.46801555   0.02238369
8710.00   1.47361833   0.02259661
8712.00   1.46336204   0.02290866
8714.00   1.42597556   0.02403282
8716.00   1.44440061   0.02384735
8718.00   1.51918888   0.02209358
8720.00   1.56730610   0.02103194
8722.00   1.58428478   0.02134505
8724.00   1.59547377   0.02189423
8726.00   1.60780132   0.02191028
8728.00   1.62336469   0.02206486
8730.00   1.67905062   0.02236859
8732.00   1.77722293   0.02265052
8734.00   1.82988703   0.02279015
8736.00   1.85893196   0.02306668
8738.00   1.87990046   0.02335488
8740.00   1.86819535   0.02307427
8742.00   1.83296704   0.02234415
8744.00   1.81973368   0.02206147
8746.00   1.82001114   0.02188109
8748.00   1.81527442   0.02249724
8750.00   1.79792255   0.02287269
8752.00   1.80043626   0.02524279
8754.00   1.82596987   0.02963214
8756.00   1.86173046   0.03411034
8758.00   1.93524081   0.03787592
8760.00   2.07303971   0.04184999
8762.00   2.10681385   0.04414462
8764.00   2.04697722   0.04570710
8766.00   2.03125834   0.04617604
8768.00   2.04100180   0.04517208
8770.00   2.01963556   0.04406281
8772.00   2.01439428   0.04389443
8774.00   2.06392729   0.04428882
8776.00   2.12034917   0.04420231
8778.00   2.22821820   0.04455262
8780.00   2.24783444   0.04290601
8782.00   2.17895782   0.03812769
8784.00   2.10023814   0.03394316
8786.00   2.05184114   0.03256698
8788.00   2.01678932   0.03250337
8790.00   1.99053693   0.03162454
8792.00   1.95492190   0.03109747
8794.00   1.96322495   0.03007404
8796.00   2.02432799   0.02800326
8798.00   2.10224116   0.02637774
8800.00   2.16944563   0.02584654
8802.00   2.22494817   0.02604002
8804.00   2.28132749   0.02658431
8806.00   2.33464789   0.02772349
8808.00   2.34546876   0.02871330
8810.00   2.30925786   0.03025257
8812.00   2.29442644   0.03065508
8814.00   2.25491691   0.02870385
8816.00   2.21492577   0.02850586
8818.00   2.23970485   0.03344820
8820.00   2.28595853   0.04085518
8822.00   2.29067230   0.04751271
8824.00   2.29028380   0.05683496
8826.00   2.28045630   0.06053297
8828.00   2.19603097   0.05982373
8830.00   2.05703330   0.05718403
8832.00   1.95573515   0.05412096
8834.00   1.90174878   0.05063518
8836.00   1.90420318   0.04700914
8838.00   1.98067445   0.04207671
8840.00   2.00507575   0.03796378
8842.00   1.99459350   0.03519928
8844.00   1.99309832   0.03300676
8846.00   2.02888477   0.03154045
8848.00   2.10083652   0.03112504
8850.00   2.13619316   0.03033653
8852.00   2.14962494   0.02919698
8854.00   2.13415647   0.02889203
8856.00   2.07382929   0.02940491
8858.00   2.03706515   0.03061116
8860.00   2.03977406   0.03190105
8862.00   2.06129259   0.03302523
8864.00   2.04564071   0.03402044
8866.00   2.01222819   0.03503110
8868.00   1.96431071   0.03459427
8870.00   1.87229460   0.03223817
8872.00   1.81766725   0.03063214
8874.00   1.81258363   0.02847674
8876.00   1.84500974   0.02856721
8878.00   1.89226437   0.03347610
8880.00   1.96689522   0.04104024
8882.00   2.03863120   0.04583678
8884.00   2.14370728   0.05179794
8886.00   2.18571770   0.05294833
8888.00   2.17133212   0.04899464
8890.00   2.13597322   0.04394794
8892.00   2.09238267   0.03975561
8894.00   2.04115468   0.03528778
8896.00   2.04187793   0.03492253
8898.00   2.07933474   0.03914894
8900.00   2.12381542   0.04150984
8902.00   2.20645082   0.04410960
8904.00   2.26570368   0.04454062
8906.00   2.29452288   0.04090952
8908.00   2.28403115   0.03557641
8910.00   2.14863193   0.03679246
8912.00   1.84914261   0.04191773
8914.00   1.74710864   0.04652787
8916.00   1.79654598   0.05424525
8918.00   1.84611243   0.05721561
8920.00   1.92150348   0.05508222
8922.00   1.98900431   0.05091244
8924.00   1.95103174   0.04632051
8926.00   1.82166821   0.03881904
8928.00   1.79565012   0.03355489
8930.00   1.83861208   0.02924686
8932.00   1.85972983   0.02685537
8934.00   1.88493967   0.02755527
8936.00   1.90112263   0.02963598
8938.00   1.88852012   0.03200975
8940.00   1.85241324   0.03512675
8942.00   1.78578478   0.03585042
8944.00   1.65388602   0.03452320
8946.00   1.59932363   0.03411289
8948.00   1.60749936   0.03362039
8950.00   1.62940025   0.03450735
8952.00   1.67097622   0.03747146
8954.00   1.72258431   0.04196848
8956.00   1.73915416   0.04562828
8958.00   1.74752247   0.05012771
8960.00   1.74298316   0.05058917
8962.00   1.70288903   0.04778118
8964.00   1.66597807   0.04347007
8966.00   1.64360362   0.03648041
8968.00   1.63668102   0.02869656
8970.00   1.68489277   0.02596010
8972.00   1.79354435   0.02804758
8974.00   1.84685588   0.02835224
8976.00   1.88012534   0.02872258
8978.00   1.88967431   0.02971422
8980.00   1.86329526   0.03129232
8982.00   1.80330086   0.03314384
8984.00   1.73405677   0.03537099
8986.00   1.65355545   0.03814121
8988.00   1.65162879   0.03939207
8990.00   1.75161505   0.03951504
8992.00   1.77492541   0.03979850
8994.00   1.74615622   0.03975219
8996.00   1.68238419   0.04013662
8998.00   1.58575362   0.04168103
9000.00   1.45224082   0.04373075
9002.00   1.43453175   0.04401967
9004.00   1.52521485   0.04350950
9006.00   1.59627414   0.04188954
9008.00   1.66381884   0.03808178
9010.00   1.68346882   0.03422041
9012.00   1.68175197   0.03108013
9014.00   1.65907854   0.02821723
9016.00   1.62820220   0.02696255
9018.00   1.59557873   0.02793837
9020.00   1.54906601   0.02796996
9022.00   1.46383393   0.02788964
9024.00   1.39559650   0.02700767
9026.00   1.36713523   0.02547135
9028.00   1.35887581   0.02460429
9030.00   1.36713123   0.02500183
9032.00   1.40295869   0.02618239
9034.00   1.42353326   0.02713202
9036.00   1.44039255   0.02809715
9038.00   1.45277303   0.02930761
9040.00   1.47266001   0.03115962
9042.00   1.49778938   0.03326761
9044.00   1.48001504   0.03427110
9046.00   1.39398748   0.03402745
9048.00   1.34521544   0.03445992
9050.00   1.30392939   0.03608664
9052.00   1.28906417   0.03579367
9054.00   1.27484125   0.03210941
9056.00   1.25896776   0.02743343
9058.00   1.24369889   0.02524008
9060.00   1.20644319   0.02487486
9062.00   1.21696407   0.02499938
9064.00   1.28822881   0.02644367
9066.00   1.31829643   0.02735069
9068.00   1.30898064   0.02852069
9070.00   1.27506155   0.02906590
9072.00   1.23014587   0.02849852
9074.00   1.19086277   0.02752451
9076.00   1.16127998   0.02665971
9078.00   1.13120514   0.02522852
9080.00   1.11686885   0.02457477
9082.00   1.12208605   0.02456139
9084.00   1.12554342   0.02499477
9086.00   1.14189547   0.02581313
9088.00   1.15302277   0.02713261
9090.00   1.12604570   0.02860965
9092.00   1.05997941   0.02991667
9094.00   1.01475060   0.02970273
9096.00   0.96098068   0.02748347
9098.00   0.93804559   0.02664765
9100.00   0.94192684   0.02650694
9102.00   0.97005647   0.02646208
9104.00   0.99228212   0.02641067
9106.00   1.00350264   0.02659646
9108.00   1.00461647   0.02597167
9110.00   0.98620486   0.02416435
9112.00   0.98960701   0.02331082
9114.00   1.01472458   0.02359559
9116.00   1.03756231   0.02406483
9118.00   1.05483937   0.02429986
9120.00   1.07570815   0.02436770
9122.00   1.07350886   0.02502899
9124.00   1.03741843   0.02669667
9126.00   1.02774054   0.02734891
9128.00   1.03860444   0.02656571
9130.00   1.06813610   0.02590880
9132.00   1.11635280   0.02684440
9134.00   1.17555380   0.02904125
9136.00   1.17496985   0.02984266
9138.00   1.12611353   0.02958402
9140.00   1.12067014   0.02859413
9142.00   1.16223520   0.02611055
9144.00   1.14590240   0.02457701
9146.00   1.09531879   0.02415001
9148.00   1.05157548   0.02445683
9150.00   1.01265016   0.02478010
9152.00   0.97435999   0.02540703
9154.00   0.97847745   0.02581721
9156.00   1.02698085   0.02582621
9158.00   1.06958371   0.02667260
9160.00   1.12017947   0.02875022
9162.00   1.15308136   0.02968049
9164.00   1.17018753   0.02876967
9166.00   1.18316460   0.02688779
9168.00   1.18960977   0.02560538
9170.00   1.18176681   0.02403088
9172.00   1.18468267   0.02328753
9174.00   1.19769758   0.02349438
9176.00   1.21034789   0.02378766
9178.00   1.22228897   0.02416290
9180.00   1.23900878   0.02469199
9182.00   1.26650369   0.02512641
9184.00   1.31018919   0.02563572
9186.00   1.33588159   0.02610672
9188.00   1.33538729   0.02646883
9190.00   1.35148108   0.02678911
9192.00   1.39777517   0.02712733
9194.00   1.47583574   0.02777298
9196.00   1.55052346   0.02896761
9198.00   1.63403666   0.03060444
9200.00   1.65284783   0.03089278
9202.00   1.60782218   0.03002015
9204.00   1.56403309   0.02934750
9206.00   1.52280271   0.02849681
9208.00   1.51960754   0.02812220
9210.00   1.55228055   0.02849325
9212.00   1.61065149   0.02933968
9214.00   1.65076214   0.02974953
9216.00   1.72778535   0.02948983
9218.00   1.72079343   0.03009320
9220.00   1.59511453   0.03256701
9222.00   1.45611626   0.03519886
9224.00   1.38534987   0.03539685
9226.00   1.33302629   0.03400392
9228.00   1.33471459   0.03220395
9230.00   1.43066430   0.02821427
9232.00   1.45727348   0.02550830
9234.00   1.40295190   0.02478785
9236.00   1.33948827   0.02501861
9238.00   1.31608367   0.02496513
9240.00   1.30892313   0.02502790
9242.00   1.28539073   0.02511732
9244.00   1.26028156   0.02536318
9246.00   1.23788947   0.02549705
9248.00   1.19672722   0.02542400
9250.00   1.18148410   0.02553490
9252.00   1.22028601   0.02597246
9254.00   1.28172547   0.02656481
9256.00   1.32745552   0.02717997
9258.00   1.37679321   0.02782798
9260.00   1.39160103   0.02828276
9262.00   1.37063223   0.02864545
9264.00   1.35798168   0.02897251
9266.00   1.33715755   0.02913672
9268.00   1.31029290   0.02914964
9270.00   1.31140965   0.02869516
9272.00   1.33898509   0.02746885
9274.00   1.34528077   0.02723374
9276.00   1.34375960   0.02746508
9278.00   1.34613085   0.02816273
9280.00   1.35194612   0.02962363
9282.00   1.32437581   0.03099372
9284.00   1.27063310   0.03185334
9286.00   1.19546032   0.03279060
9288.00   1.15293127   0.03238674
9290.00   1.12643600   0.02998735
9292.00   1.13586646   0.02894301
9294.00   1.18667853   0.02782125
9296.00   1.21894556   0.02985776
9298.00   1.22159451   0.03317757
9300.00   1.20768178   0.03921000
9302.00   1.23528522   0.05202458
9304.00   1.29311532   0.06757679
9306.00   1.31896806   0.07818035
9308.00   1.33700091   0.08886902
9310.00   1.35318178   0.09603488
9312.00   1.28890848   0.09880076
9314.00   1.16063386   0.09921652
9316.00   1.13421965   0.10006775
9318.00   1.18919134   0.10020530
9320.00   1.24870437   0.10097327
9322.00   1.35457510   0.10487416
9324.00   1.42515510   0.10318520
9326.00   1.52475244   0.09267873
9328.00   1.59725630   0.07833734
9330.00   1.51254958   0.06822560
9332.00   1.27668041   0.06060042
9334.00   1.09222269   0.05511408
9336.00   0.84199986   0.05461649
9338.00   0.73381287   0.05252652
9340.00   0.73637769   0.05028327
9342.00   0.79728356   0.04865748
9344.00   0.90965942   0.04728722
9346.00   1.06094280   0.04620434
9348.00   1.12884253   0.04552495
9350.00   1.13147122   0.04559522
9352.00   1.14657396   0.04501517
9354.00   1.13720995   0.04308392
9356.00   1.19667137   0.04246146
9358.00   1.32911563   0.04389318
9360.00   1.47300524   0.04657137
9362.00   1.58462119   0.04969588
9364.00   1.71115625   0.05051424
9366.00   1.75944561   0.06215979
9368.00   1.68972403   0.07657044
9370.00   1.68557155   0.09537828
9372.00   1.83025897   0.12149096
9374.00   1.93370855   0.14127237
9376.00   1.72419721   0.14523217
9378.00   1.25120452   0.13982361
9380.00   1.12327158   0.12856993
9382.00   1.21953106   0.09703052
9384.00   1.26990104   0.07182257
9386.00   1.39026034   0.05918103
9388.00   1.55766463   0.05316388
9390.00   1.65308887   0.04691491
9392.00   1.70378613   0.04549709
9394.00   1.70904899   0.04628344
9396.00   1.61362487   0.05141727
9398.00   1.61866051   0.05490714
9400.00   1.74193752   0.05980969
9402.00   1.86099929   0.06365782
9404.00   1.89975321   0.06279873
9406.00   1.90451562   0.05781640
9408.00   1.90039885   0.05380301
9410.00   1.86828488   0.04747599
9412.00   1.80123848   0.04594988
9414.00   1.69036180   0.04946909
9416.00   1.59685361   0.05315987
9418.00   1.51900995   0.05701746
9420.00   1.46786791   0.06027759
9422.00   1.39742815   0.05980511
9424.00   1.27982414   0.05563010
9426.00   1.28965563   0.05320586
9428.00   1.44857991   0.04665686
9430.00   1.53989267   0.04934012
9432.00   1.59538394   0.06102586
9434.00   1.66473037   0.07497168
9436.00   1.66496205   0.08919155
9438.00   1.57984179   0.10590244
9440.00   1.64432681   0.10938309
9442.00   1.84561545   0.10367832
9444.00   1.98942173   0.09659731
9446.00   2.15972316   0.08317344
9448.00   2.19953823   0.07049915
9450.00   1.99894255   0.06769876
9452.00   1.70526171   0.07419412
9454.00   1.58050644   0.08137316
9456.00   1.55148846   0.09580951
9458.00   1.40906262   0.09633064
9460.00   1.18570447   0.08353435
9462.00   1.04338700   0.06942102
9464.00   0.97711185   0.05756359
9466.00   1.00442827   0.04794916
9468.00   1.24946743   0.04913660
9470.00   1.86370623   0.06083222
9472.00   1.92866403   0.06957295
9474.00   1.42334276   0.08208409
9476.00   1.05675998   0.08733425
9478.00   0.92934880   0.08562545
9480.00   0.87732634   0.08088269
9482.00   0.88728097   0.07539770
9484.00   1.04408184   0.06546554
9486.00   1.09905341   0.05855538
9488.00   1.09107313   0.05240188
9490.00   1.09307677   0.04990870
9492.00   1.10833490   0.05001712
9494.00   1.14456707   0.05428913
9496.00   1.26897514   0.06288669
9498.00   1.44061202   0.07337676
9500.00   1.53563142   0.07684442
9502.00   1.61495537   0.07719109
9504.00   1.65694904   0.07527690
9506.00   1.60264480   0.06780657
9508.00   1.51057494   0.06069330
9510.00   1.39233792   0.05778428
9512.00   1.23960102   0.05813156
9514.00   1.25504130   0.06344559
9516.00   1.42719072   0.07463511
9518.00   1.53279769   0.08022413
9520.00   1.63808525   0.08528694
9522.00   1.67082548   0.08514178
9524.00   1.62614810   0.07685379
9526.00   1.57688510   0.06399466
9528.00   1.56019199   0.05593901
9530.00   1.56153917   0.04945246
9532.00   1.52924955   0.04470241
9534.00   1.45754939   0.04455078
9536.00   1.40234721   0.04381131
9538.00   1.38933003   0.04202418
9540.00   1.40282065   0.04080133
9542.00   1.39913929   0.04099845
9544.00   1.39415473   0.04133817
9546.00   1.37614596   0.04500335
9548.00   1.36810917   0.05210121
9550.00   1.29509956   0.05754011
9552.00   1.16385460   0.06176621
9554.00   1.06200063   0.06435927
9556.00   1.01518854   0.06493639
9558.00   1.07007346   0.06308634
9560.00   1.13756350   0.06619438
9562.00   1.22688121   0.07229512
9564.00   1.31949645   0.07873671
9566.00   1.52837777   0.08836542
9568.00   1.69418257   0.09331172
9570.00   1.75759292   0.08999048
9572.00   1.81705707   0.08132118
9574.00   1.77371842   0.07361892
9576.00   1.57531792   0.06170611
9578.00   1.48103088   0.05321062
9580.00   1.50240970   0.04934755
9582.00   1.49182016   0.04696788
9584.00   1.38886213   0.04614105
9586.00   1.29848981   0.04713475
9588.00   1.33344775   0.04705481
9590.00   1.47471327   0.04707617
9592.00   1.51222646   0.04585270
9594.00   1.49622905   0.04269695
9596.00   1.46015853   0.04049307
9598.00   1.39038527   0.03926660
9600.00   1.32390565   0.03928231
9602.00   1.30475450   0.04093122
9604.00   1.30146176   0.04399818
9606.00   1.29755050   0.04612684
9608.00   1.31355447   0.04820287
9610.00   1.32418525   0.04998464
9612.00   1.28317314   0.05114420
9614.00   1.22334689   0.05275272
9616.00   1.22726536   0.05597828
9618.00   1.25617826   0.06018712
9620.00   1.22007030   0.06048075
9622.00   1.12418854   0.05745394
9624.00   1.09847274   0.05508860
9626.00   1.12097448   0.05236814
9628.00   1.11919159   0.05035151
9630.00   1.09336239   0.04979855
9632.00   1.05361962   0.05063314
9634.00   1.05833852   0.04904491
9636.00   1.11549041   0.04435209
9638.00   1.15959367   0.04173294
9640.00   1.18792355   0.04120279
9642.00   1.21222997   0.04182849
9644.00   1.27469981   0.04295868
9646.00   1.31984961   0.04459495
9648.00   1.27784568   0.04546160
9650.00   1.14507836   0.04637592
9652.00   1.09008875   0.04618717
9654.00   1.07580164   0.04420057
9656.00   1.07825744   0.04303492
9658.00   1.08133882   0.04338606
9660.00   1.09093350   0.04476258
9662.00   1.12159115   0.04708092
9664.00   1.20647097   0.05058430
9666.00   1.20148909   0.05278739
9668.00   1.11507332   0.05486023
9670.00   1.03825858   0.05608736
9672.00   0.98027155   0.05533466
9674.00   0.97465402   0.05480383
9676.00   1.01068357   0.05695484
9678.00   1.10081279   0.06064474
9680.00   1.22432929   0.06295347
9682.00   1.41231704   0.06565123
9684.00   1.52991360   0.06591240
9686.00   1.63877511   0.06245285
9688.00   1.70543242   0.06024921
9690.00   1.67655492   0.06188955
9692.00   1.53310841   0.06471991
9694.00   1.39160001   0.06691137
9696.00   1.20031410   0.07076839
9698.00   1.15127146   0.07223085
9700.00   1.22626609   0.07191815
9702.00   1.30272347   0.06955682
9704.00   1.37571645   0.06490991
9706.00   1.38302833   0.05947634
9708.00   1.28623807   0.05748781
9710.00   1.05695266   0.05784895
9712.00   0.94773710   0.06085849
9714.00   0.88086510   0.06822766
9716.00   0.90306845   0.07245015
9718.00   0.98231903   0.07479445
9720.00   1.00188637   0.07628265
9722.00   0.94445163   0.07727970
9724.00   0.82624763   0.07915349
9726.00   0.84701538   0.07715560
9728.00   0.96667334   0.06955804
9730.00   1.09124374   0.06486999
9732.00   1.27047426   0.06441840
9734.00   1.45563453   0.06482983
9736.00   1.51993865   0.06483205
9738.00   1.44145256   0.06525372
9740.00   1.40810466   0.06508423
9742.00   1.39102554   0.06501741
9744.00   1.34887391   0.06359080
9746.00   1.24017936   0.05968831
9748.00   1.14374399   0.05659271
9750.00   1.08396471   0.05630674
9752.00   1.01921350   0.05788460
9754.00   1.01562753   0.05903313
9756.00   1.10024911   0.06154286
9758.00   1.15369481   0.06181777
9760.00   1.18381059   0.06014064
9762.00   1.20997405   0.05786576
9764.00   1.28229731   0.05472157
9766.00   1.36946261   0.05088213
9768.00   1.40468347   0.05007406
9770.00   1.42300838   0.05188052
9772.00   1.46954054   0.05270873
9774.00   1.56010854   0.05364976
9776.00   1.58171374   0.05470745
9778.00   1.56414998   0.05400231
9780.00   1.53572679   0.05546432
9782.00   1.46445024   0.06211611
9784.00   1.26881236   0.07143432
9786.00   1.14895105   0.08156028
9788.00   1.04688066   0.09381503
9790.00   1.01501906   0.10438992
9792.00   0.98970282   0.11765640
9794.00   1.06174763   0.12214031
9796.00   1.17117572   0.11483832
9798.00   1.22344637   0.09998184
9800.00   1.25962281   0.09040814
9802.00   1.28110909   0.08127982
9804.00   1.28080761   0.07518730
9806.00   1.24275100   0.07373152
9808.00   1.22737873   0.07236570
9810.00   1.22394955   0.07118326
9812.00   1.24932897   0.06967927
9814.00   1.24771357   0.06703680
9816.00   1.19410700   0.06335034
9818.00   1.18179780   0.06111535
9820.00   1.22032678   0.05980403
9822.00   1.23940217   0.05902205
9824.00   1.21547866   0.05907693
9826.00   1.19875324   0.05915165
9828.00   1.18433928   0.05823290
9830.00   1.14943171   0.05657139
9832.00   1.10603553   0.05598156
9834.00   1.00331077   0.05387675
9836.00   1.00945935   0.05608440
9838.00   1.11844075   0.06382173
9840.00   1.21033019   0.07292699
9842.00   1.29464823   0.08001185
9844.00   1.36021990   0.08651141
9846.00   1.33072221   0.08692520
9848.00   1.19393837   0.08126512
9850.00   1.18982553   0.07656551
9852.00   1.23379332   0.07067130
9854.00   1.25132740   0.06613149
9856.00   1.33534551   0.06594963
9858.00   1.46329349   0.06998862
9860.00   1.50619549   0.07110864
9862.00   1.51592582   0.06812459
9864.00   1.49901724   0.07779203
9866.00   1.41572392   0.09877056
9868.00   1.34350193   0.11177547
9870.00   1.31764042   0.12163025
9872.00   1.30741179   0.12813517
9874.00   1.32651412   0.12306181
9876.00   1.38204962   0.10440991
9878.00   1.41933531   0.09457905
9880.00   1.50142008   0.08989634
9882.00   1.49459308   0.08582006
9884.00   1.30534261   0.08146301
9886.00   1.10834917   0.07842924
9888.00   1.11693749   0.07915593
9890.00   1.27963930   0.08278690
9892.00   1.26040429   0.08615586
9894.00   1.09802586   0.09277727
9896.00   1.00432733   0.09428788
9898.00   0.97092518   0.09030237
9900.00   0.99399439   0.08521472
9902.00   1.09012806   0.08077522
9904.00   1.28570318   0.07626715
9906.00   1.31803459   0.08208136
9908.00   1.23294258   0.09570821
9910.00   1.17534631   0.10896193
9912.00   1.10209844   0.12746591
9914.00   1.00219053   0.13596590
9916.00   1.05085793   0.13289282
9918.00   1.26340461   0.12343348
9920.00   1.29647416   0.11561252
9922.00   1.22599524   0.10460013
9924.00   1.17218390   0.09623417
9926.00   1.08845562   0.08931216
9928.00   1.03038716   0.08456671
9930.00   0.99684578   0.08063455
9932.00   0.99599195   0.08134665
9934.00   1.12282842   0.09058227
9936.00   1.33900011   0.10451893
9938.00   1.40480238   0.11942599
9940.00   1.40681964   0.13994085
9942.00   1.37039933   0.15274558
9944.00   1.08664528   0.15977985
9946.00   0.84860259   0.16336702
9948.00   0.95923927   0.16308380
9950.00   1.26367134   0.15920131
9952.00   1.27644217   0.16261468
9954.00   1.07966655   0.17358083
9956.00   0.97035500   0.17608431
9958.00   0.86850187   0.17460959
9960.00   0.85744336   0.17006704
9962.00   0.98855415   0.15868880
9964.00   1.12788430   0.14247703
9966.00   1.11090532   0.13276543
9968.00   0.95608675   0.12686710
9970.00   0.98938918   0.12070728
9972.00   1.18839523   0.11593533
9974.00   1.34064910   0.11274366
9976.00   1.31232944   0.11228923
9978.00   1.12112075   0.11330254
9980.00   1.03388923   0.11090729
9982.00   0.95368558   0.10669210
9984.00   1.01332533   0.10178250
9986.00   1.26041555   0.09049588
9988.00   1.45681792   0.08698710
9990.00   1.53397602   0.09779825
9992.00   1.48350626   0.11133403
9994.00   1.41519397   0.11739344
9996.00   1.24269062   0.12132581
9998.00   1.17085090   0.12062827
10000.00   1.12605143   0.10699894
10002.00   1.19999102   0.10810936
10004.00   1.32813334   0.12404273
10006.00   1.39436591   0.14367384
10008.00   1.35324854   0.16338853
10010.00   1.23070890   0.18553824
10012.00   1.15424615   0.19359992
10014.00   1.04626963   0.19321647
10016.00   1.02054647   0.18938348
10018.00   1.10795492   0.17915549
10020.00   1.19273281   0.16836153
10022.00   1.22873715   0.16042778
10024.00   1.30076540   0.15485801
10026.00   1.29163286   0.14909255
10028.00   1.15156293   0.14408552
10030.00   1.12995756   0.13746919
10032.00   1.23673487   0.12873350
10034.00   1.35489482   0.12155799
10036.00   1.51477087   0.11645938
10038.00   1.66789752   0.11308020
10040.00   1.54016596   0.11433533
10042.00   1.10453570   0.12184448
10044.00   0.94069105   0.12372090
10046.00   0.92307463   0.12235339
10048.00   0.98261079   0.12057360
10050.00   1.13627690   0.11559083
10052.00   1.32727253   0.11018755
10054.00   1.38572598   0.11407813
10056.00   1.27115220   0.12583101
10058.00   1.32330221   0.13177993
10060.00   1.55582601   0.13642576
10062.00   1.62555641   0.13945294
10064.00   1.43196255   0.14193031
10066.00   1.32225281   0.14424120
10068.00   1.44272536   0.14442109
10070.00   1.59547329   0.14416720
10072.00   1.72215003   0.14650436
10074.00   1.90887386   0.14750931
10076.00   2.03591442   0.15494856
10078.00   2.07067889   0.17403552
10080.00   2.09474844   0.18701732
10082.00   2.05106950   0.18812125
10084.00   1.81928176   0.18238735
10086.00   1.61802483   0.17519937
10088.00   1.45390368   0.16049386
10090.00   1.27269477   0.15331759
10092.00   0.92989558   0.15290304
10094.00   0.72080886   0.15472946
10096.00   0.85958448   0.15520207
10098.00   1.09363273   0.15622645
10100.00   1.12549350   0.15916377
10102.00   1.11420730   0.16189553
10104.00   1.19892353   0.16308848
10106.00   1.39746448   0.16652480
10108.00   1.46708500   0.16386859
10110.00   1.39201140   0.14743687
10112.00   1.27952927   0.13350478
10114.00   1.27198988   0.13998703
10116.00   1.31354651   0.15813305
10118.00   1.41036230   0.17614865
10120.00   1.64495784   0.20520206
10122.00   1.76128078   0.21675403
10124.00   1.76555145   0.21533904
10126.00   1.63804722   0.20868717
10128.00   1.39878118   0.19696768
10130.00   1.10110706   0.17819455
10132.00   1.11789575   0.16755570
10134.00   1.47904307   0.16111329
10136.00   1.50084925   0.15811347
10138.00   1.11667728   0.16213984
10140.00   0.94311285   0.16311312
10142.00   1.24841487   0.15776250
10144.00   1.78205234   0.15637919
10146.00   1.88668513   0.16764443
10148.00   1.68332118   0.18831371
10150.00   1.59116036   0.19948078
10152.00   1.57276106   0.21191886
10154.00   1.50173283   0.21248365
10156.00   1.27448517   0.19583525
10158.00   0.97790694   0.17754784
10160.00   0.85543999   0.17713402
10162.00   0.87501955   0.18610460
10164.00   0.98604333   0.19934987
10166.00   1.25907880   0.22390269
10168.00   1.49037087   0.23947594
10170.00   1.79014575   0.24849627
10172.00   1.94105226   0.25106032
10174.00   1.72004330   0.24591593
10176.00   1.13538605   0.23171417
10178.00   0.94223201   0.22328291
10180.00   1.00464448   0.21374469
10182.00   0.98170534   0.21153347
10184.00   0.89045078   0.21835055
10186.00   0.81832252   0.22424841
10188.00   0.59865052   0.22532193
10190.00   0.18180842   0.22451077
10192.00   0.20406032   0.22241831
10194.00   0.64038441   0.21611918
10196.00   0.86049399   0.21642431
10198.00   0.93322361   0.22380891
10200.00   0.97744396   0.22855814
10202.00   1.00709295   0.23034435
10204.00   0.85689612   0.23551917
10206.00   0.68124867   0.25098066
10208.00   0.40315428   0.28092130
10210.00   0.56587873   0.28952972
10212.00   1.30910018   0.28448972
10214.00   1.75858894   0.27179073
10216.00   1.64870128   0.24709765
10218.00   1.23299602   0.21754434
10220.00   1.02734697   0.21216648
10222.00   0.86443853   0.22760582
10224.00   0.92246047   0.23287303
10226.00   1.36353248   0.24040382
10228.00   1.49516714   0.24197212
10230.00   1.30668914   0.23480234
10232.00   0.93899241   0.22356981
10234.00   0.59169711   0.21612453
10236.00   0.21905297   0.20820786
10238.00   0.14795725   0.19737970
10240.00   0.37814213   0.17907512
10242.00   0.56288162   0.17466855
10244.00   0.67581946   0.18300421
10246.00   0.76013848   0.19125897
10248.00   1.07921451   0.19947115
10250.00   1.56465018   0.20842295
10252.00   1.59500360   0.20484991
10254.00   1.31564823   0.18421306
10256.00   1.09073922   0.18110632
10258.00   0.74099487   0.19589933
10260.00   0.37777914   0.20913659
10262.00   0.26437566   0.21517431
10264.00   0.51931199   0.21387480
10266.00   0.70098634   0.21308250
10268.00   0.84918375   0.21465321
10270.00   0.77548924   0.21604552
10272.00   0.47442156   0.20940901
10274.00   0.22507081   0.21438528
10276.00   0.01777057   0.22942339
10278.00   0.10736552   0.26008543
10280.00   0.42317059   0.31588073
10282.00   0.86378673   0.38390006
10284.00   0.87844455   0.40893562
10286.00   0.43068407   0.41467069
10288.00   0.27311897   0.41430890
10290.00   0.41978403   0.38655647
10292.00   0.63983738   0.34426836
10294.00   0.47203852   0.32119671
10296.00   -0.01312817   0.31024442
10298.00   0.05700872   0.29199841
10300.00   0.63389118   0.26912284
10302.00   0.87600532   0.25344616
10304.00   0.90562661   0.24603257
10306.00   0.77588093   0.24084974
10308.00   0.44526562   0.23610103
10310.00   0.04489446   0.23406862
10312.00   0.18912107   0.23302923
10314.00   0.93272831   0.23396820
10316.00   1.01372680   0.23044539
10318.00   0.40974480   0.22238286
10320.00   0.06380615   0.21650565
10322.00   0.10721792   0.21309463
10324.00   0.32664543   0.21135345
10326.00   0.47730958   0.20883404
10328.00   0.45070352   0.20433147
10330.00   0.58006708   0.20632945
10332.00   0.88396758   0.20897095
10334.00   1.23348522   0.22242762
10336.00   1.48132974   0.25242225
10338.00   1.58614141   0.28075124
10340.00   1.33334190   0.28651182
10342.00   0.73416927   0.26918227
10344.00   0.54959674   0.26289767
10346.00   0.70013560   0.25562859
10348.00   0.53596422   0.25789855
10350.00   0.19176817   0.26808526
10352.00   -0.01125900   0.27772179
10354.00   -0.11333876   0.26943231
10356.00   -0.16007637   0.23991821
10358.00   -0.05984583   0.23237393
10360.00   0.21132028   0.23404827
10362.00   0.53594230   0.24267668
10364.00   0.98182417   0.25668038
10366.00   1.33308733   0.28465879
10368.00   1.60070890   0.32986766
10370.00   1.62449855   0.38361566
10372.00   1.37204999   0.38091254
10374.00   0.83660275   0.31763605
10376.00   0.61229171   0.27645667
10378.00   0.51515692   0.24744303
10380.00   0.49546175   0.23099517
10382.00   0.58023585   0.22065465
10384.00   0.62805298   0.21782032
10386.00   0.68605891   0.21628578
10388.00   0.78599161   0.22012384
10390.00   0.98360628   0.22629319
10392.00   1.47021976   0.24094466
10394.00   1.55107552   0.24510145
10396.00   1.14761624   0.24143795
10398.00   0.81353626   0.23661555
10400.00   0.80633539   0.22829796
10402.00   0.79597896   0.21191465
10404.00   0.69318034   0.20526191
10406.00   0.47904700   0.19696443
10408.00   0.50592792   0.20946494
10410.00   0.69459289   0.24631088
10412.00   0.93929546   0.27925786
10414.00   0.94545624   0.29598828
10416.00   0.60498750   0.29948016
10418.00   0.57513894   0.29439428
10420.00   0.82807934   0.27574814
10422.00   0.79294443   0.26770785
10424.00   0.33782493   0.26904390
10426.00   0.11099534   0.26025500
10428.00   0.18869543   0.23641810
10430.00   0.42792141   0.20876645
10432.00   0.79593250   0.19982115
10434.00   1.43912381   0.20788046
10436.00   1.35505146   0.20524076
10438.00   0.42833932   0.18859393
10440.00   -0.05073410   0.18576988
10442.00   -0.11298579   0.20567052
10444.00   -0.10697784   0.23642942
10446.00   -0.11240679   0.28424729
10448.00   -0.28881040   0.37887340
10450.00   -0.03097659   0.38709800
10452.00   0.72825646   0.30895683
10454.00   1.37512876   0.25822839
10456.00   1.59018979   0.31336444
10458.00   1.76061912   0.38325449
10460.00   2.25590068   0.37250501
10462.00   2.94847840   0.28800636
10464.00   2.58290440   0.25962715
10466.00   0.96409400   0.27133241
10468.00   0.18225712   0.26976415
10470.00   0.16356087   0.25888525
10472.00   0.36655854   0.24895896
10474.00   0.53691494   0.23408248
10476.00   0.79617795   0.21816172
10478.00   0.77290867   0.20770782
10480.00   0.41481863   0.19951050
10482.00   0.37746085   0.19421960
10484.00   0.72619331   0.19571964
10486.00   0.93387285   0.19710529
10488.00   0.87534142   0.19651772
10490.00   0.73924455   0.19549555
10492.00   0.55397653   0.19442103
10494.00   0.22203826   0.19256454
10496.00   0.20256034   0.19248928
10498.00   0.53041600   0.19357598
10500.00   0.69359322   0.19587527
10502.00   0.70087382   0.19917118
10504.00   0.68173750   0.20276228
10506.00   0.64341335   0.20570270
10508.00   0.58256642   0.20903612
10510.00   0.56055461   0.21064406
10512.00   0.53367455   0.20974632
10514.00   0.50642607   0.21001217
10516.00   0.67216744   0.21403550
10518.00   0.89666238   0.21889984
10520.00   0.85774845   0.22017495
10522.00   0.72483504   0.22008989
10524.00   0.67381594   0.21770596
10526.00   0.59173447   0.21110099
10528.00   0.47914457   0.20636324
10530.00   0.43829331   0.20438045
10532.00   0.52679366   0.20307796
10534.00   0.53457774   0.19904198
10536.00   0.41396578   0.19278991
10538.00   0.40219562   0.19079110
10540.00   0.51496635   0.19308706
10542.00   0.50327072   0.19260512
10544.00   0.32356800   0.18918863
10546.00   0.18176863   0.18664077
10548.00   0.18000194   0.18666267
10550.00   0.34687532   0.18856180
10552.00   0.48884971   0.19055586
10554.00   0.66463098   0.19356005
10556.00   0.61387765   0.19222674
10558.00   0.26878799   0.18498378
10560.00   0.07649247   0.18174566
10562.00   0.07913026   0.18265580
10564.00   0.26245439   0.18468463
10566.00   0.55393428   0.18674891
10568.00   0.94056645   0.19015165
10570.00   0.92414406   0.19067306
10572.00   0.49805084   0.18871581
10574.00   0.27217111   0.18742501
10576.00   0.10768244   0.18609784
10578.00   0.09328758   0.18499206
10580.00   0.25834543   0.18524341
10582.00   0.52480961   0.18678560
10584.00   0.51774311   0.18602360
10586.00   0.23823150   0.18300535
10588.00   0.15296447   0.18099092
10590.00   0.27125949   0.18009513
10592.00   0.40506871   0.17982783
10594.00   0.38674190   0.17882501
10596.00   0.31048775   0.17738683
10598.00   0.31942377   0.17647474
10600.00   0.35659575   0.17569853
10602.00   0.37142202   0.17520584
10604.00   0.40502078   0.17547976
10606.00   0.42511111   0.17533360
10608.00   0.35136271   0.17367446
10610.00   0.20153605   0.17113865
10612.00   0.18734000   0.17082108
10614.00   0.27634703   0.17207418
10616.00   0.38481510   0.17469201
10618.00   0.60832420   0.18049440
10620.00   0.74586716   0.18385503
10622.00   0.69288234   0.18444501
10624.00   0.55163530   0.18243128
10626.00   0.54926322   0.17971009
10628.00   0.58412711   0.17635150
10630.00   0.57929288   0.17559797
10632.00   0.61824742   0.17797459
10634.00   0.56833534   0.17802222
10636.00   0.32284448   0.17521037
10638.00   0.04587680   0.17169669
10640.00   -0.11142233   0.17001474
10642.00   -0.18641556   0.16993268
10644.00   -0.11074397   0.17127024
10646.00   0.18687441   0.17507354
10648.00   0.33046593   0.17614580
10650.00   0.38847829   0.17570473
10652.00   0.35587075   0.17384800
10654.00   0.24484141   0.16988539
10656.00   0.14175525   0.16582742
10658.00   0.10913943   0.16726624
10660.00   0.07710848   0.17443924
10662.00   0.12348842   0.17823230
10664.00   0.30742002   0.18176085
10666.00   0.41285138   0.18211468
10668.00   0.46303330   0.17886786
10670.00   0.49592176   0.17308675
10672.00   0.39355768   0.16981836
10674.00   0.17747894   0.16949677
10676.00   0.19129743   0.16890497
10678.00   0.44336672   0.16895824
10680.00   0.50503036   0.16848625
10682.00   0.51328059   0.16957417
10684.00   0.54331177   0.17107818
10686.00   0.44846429   0.16984698
10688.00   0.24039631   0.16663361
10690.00   0.24323476   0.16729616
10692.00   0.40907709   0.17123328
10694.00   0.50824884   0.17258088
10696.00   0.63700402   0.17329897
10698.00   0.71422115   0.17346483
10700.00   0.60284722   0.17054264
10702.00   0.30994754   0.16647056
10704.00   0.32805139   0.16748197
10706.00   0.65388021   0.17312095
10708.00   0.80458584   0.17381694
10710.00   0.80415517   0.16979766
10712.00   0.76258281   0.16819094
10714.00   0.71189904   0.16989128
10716.00   0.62155443   0.17093057
10718.00   0.59670705   0.17105499
10720.00   0.61541390   0.17211708
10722.00   0.61768946   0.17087531
10724.00   0.59143618   0.16535723
10726.00   0.60629798   0.16348641
10728.00   0.71469879   0.16688681
10730.00   0.92652498   0.16864276
10732.00   1.01123486   0.16486720
10734.00   0.95880951   0.15719387
10736.00   1.01287720   0.15234947
10738.00   1.17882156   0.14476156
10740.00   1.17803347   0.14555344
10742.00   1.04053228   0.15788604
10744.00   1.06277963   0.16737297
10746.00   1.13181248   0.16660960
10748.00   1.12629399   0.15929867
10750.00   1.09443650   0.15260350
10752.00   1.04666245   0.14174790
10754.00   0.89373907   0.13502977
10756.00   0.56823418   0.13126580
10758.00   0.41372362   0.12920922
10760.00   0.48616216   0.13024452
10762.00   0.64901701   0.13474948
10764.00   0.71689656   0.13498553
10766.00   0.78838243   0.13104781
10768.00   0.85140890   0.12884211
10770.00   0.92797118   0.12870467
10772.00   0.90160492   0.12940299
10774.00   0.74925603   0.12682353
10776.00   0.55430543   0.12273121
10778.00   0.52376107   0.12419306
10780.00   0.73441245   0.12994582
10782.00   0.76448569   0.13112241
10784.00   0.65563260   0.12942975
10786.00   0.51857977   0.12868104
10788.00   0.46090673   0.12701481
10790.00   0.57246011   0.12340016
10792.00   0.83218658   0.12141383
10794.00   1.16522720   0.12145493
10796.00   1.36283049   0.12063466
10798.00   1.61437911   0.12103594
10800.00   1.55530429   0.11800609
10802.00   1.04809859   0.11046159
10804.00   0.63886121   0.10344250
10806.00   0.54725978   0.09852706
10808.00   0.66147061   0.09421676
10810.00   0.58477311   0.09226707
10812.00   0.35082657   0.09367168
10814.00   0.33497435   0.09382945
10816.00   0.53332920   0.09056241
10818.00   0.69909640   0.09098162
10820.00   0.99528559   0.10125426
10822.00   1.41274381   0.11596790
10824.00   1.47659010   0.12127662
10826.00   1.22215456   0.12126220
10828.00   1.11597091   0.12000205
10830.00   1.07364452   0.11494562
10832.00   1.06337065   0.11161862
10834.00   0.98259315   0.11182565
10836.00   0.92497694   0.11383734
10838.00   1.06164980   0.11392651
10840.00   1.48081958   0.11662099
10842.00   1.45819390   0.11461735
10844.00   0.93977907   0.10742950
10846.00   0.67206731   0.09927860
10848.00   0.91069645   0.09471439
10850.00   1.27656555   0.09199500
10852.00   1.21947858   0.08683969
10854.00   1.05305611   0.08125456
10856.00   1.07229868   0.08105183
10858.00   1.16293894   0.08677258
10860.00   1.09951341   0.08873713
10862.00   1.15544161   0.08922335
10864.00   1.15544161   0.08922335
