# File created by shivutils (I.Shivvers)
# Blotched regions marked with a #.
# wl(A)   flm    er(optional)
3440.00   0.14292154
3442.00   0.13940394
3444.00   0.05770486
3446.00   0.07243551
3448.00   0.06233837
3450.00   0.08148681
3452.00   0.09407316
3454.00   0.08983572
3456.00   0.03980989
3458.00   0.10636053
3460.00   0.09001092
3462.00   0.15376047
3464.00   0.15648986
3466.00   0.08117495
3468.00   0.09334869
3470.00   0.12534647
3472.00   0.07910144
3474.00   0.00811951
3476.00   0.05332462
3478.00   0.11281796
3480.00   0.11385239
3482.00   0.03145425
3484.00   0.07098586
3486.00   0.07811734
3488.00   0.11810493
3490.00   0.14566505
3492.00   0.19629183
3494.00   0.05955157
3496.00   0.09714906
3498.00   0.13521627
3500.00   0.03841921
3502.00   0.12555972
3504.00   0.09209149
3506.00   0.09981084
3508.00   0.10769055
3510.00   0.16362388
3512.00   0.10730409
3514.00   0.13201971
3516.00   0.14716904
3518.00   0.13061301
3520.00   0.08558428
3522.00   0.19754622
3524.00   0.15701439
3526.00   0.12028219
3528.00   0.14270583
3530.00   0.06871693
3532.00   0.09381391
3534.00   0.11600533
3536.00   0.12669471
3538.00   0.09031887
3540.00   0.13967545
3542.00   0.14314132
3544.00   0.13123469
3546.00   0.06913926
3548.00   0.16558286
3550.00   0.13378077
3552.00   0.10374457
3554.00   0.09374045
3556.00   0.05451742
3558.00   0.17904596
3560.00   0.12760131
3562.00   0.10995445
3564.00   0.12614414
3566.00   0.17331054
3568.00   0.13239257
3570.00   0.10609634
3572.00   0.10910226
3574.00   0.06553506
3576.00   0.08037164
3578.00   0.11038129
3580.00   0.15836347
3582.00   0.08557050
3584.00   0.06766275
3586.00   0.10918229
3588.00   0.10195309
3590.00   0.07985883
3592.00   0.08981334
3594.00   0.10746058
3596.00   0.04725230
3598.00   0.07007600
3600.00   0.08897932
3602.00   0.08317079
3604.00   0.07922898
3606.00   0.05979351
3608.00   0.07982221
3610.00   0.08037490
3612.00   0.05470706
3614.00   0.13111281
3616.00   0.05081839
3618.00   0.10145246
3620.00   0.09981087
3622.00   0.08179737
3624.00   0.08161378
3626.00   0.08031033
3628.00   0.07037052
3630.00   0.15516413
3632.00   0.10983203
3634.00   0.09700669
3636.00   0.11740476
3638.00   0.10123791
3640.00   0.09539234
3642.00   0.14959656
3644.00   0.08499420
3646.00   0.09893442
3648.00   0.13665518
3650.00   0.06928574
3652.00   0.07038004
3654.00   0.04372163
3656.00   0.10641274
3658.00   0.11644736
3660.00   0.16902535
3662.00   0.10022729
3664.00   0.14795839
3666.00   0.11135584
3668.00   0.10022676
3670.00   0.15077404
3672.00   0.06312944
3674.00   0.10859424
3676.00   0.03843597
3678.00   0.06314327
3680.00   0.10660992
3682.00   0.09485334
3684.00   0.10954656
3686.00   0.12160775
3688.00   0.14758364
3690.00   0.09726190
3692.00   0.11344052
3694.00   0.09873795
3696.00   0.09148582
3698.00   0.07586418
3700.00   0.11640547
3702.00   0.13238894
3704.00   0.11461391
3706.00   0.10766576
3708.00   0.12827234
3710.00   0.11616602
3712.00   0.07816071
3714.00   0.09959944
3716.00   0.12651118
3718.00   0.06829149
3720.00   0.07977827
3722.00   0.12640297
3724.00   0.10904376
3726.00   0.12750674
3728.00   0.10909924
3730.00   0.11310218
3732.00   0.10810424
3734.00   0.09494655
3736.00   0.10460177
3738.00   0.09560806
3740.00   0.13473662
3742.00   0.10997787
3744.00   0.08693422
3746.00   0.10099513
3748.00   0.07681131
3750.00   0.09613153
3752.00   0.08933934
3754.00   0.12031229
3756.00   0.07270145
3758.00   0.09530180
3760.00   0.07681024
3762.00   0.06260627
3764.00   0.07688445
3766.00   0.08855260
3768.00   0.10252384
3770.00   0.11453657
3772.00   0.10429350
3774.00   0.10690792
3776.00   0.08936095
3778.00   0.09157420
3780.00   0.09649093
3782.00   0.09032346
3784.00   0.18421046
3786.00   0.34155079
3788.00   0.53359407
3790.00   0.45433291
3792.00   0.22739140
3794.00   0.09869461
3796.00   0.10152488
3798.00   0.08372891
3800.00   0.04766302
3802.00   0.06749825
3804.00   0.07001133
3806.00   0.07660836
3808.00   0.12098304
3810.00   0.06477257
3812.00   0.04624744
3814.00   0.07627724
3816.00   0.05600443
3818.00   0.06563486
3820.00   0.07632862
3822.00   0.08853722
3824.00   0.09120033
3826.00   0.05435208
3828.00   0.04323982
3830.00   0.01321492
3832.00   0.05497714
3834.00   0.08054822
3836.00   0.05405392
3838.00   0.09258662
3840.00   0.04510718
3842.00   0.06512933
3844.00   0.05139877
3846.00   0.07233035
3848.00   0.08250653
3850.00   0.06980279
3852.00   0.06958862
3854.00   0.08820067
3856.00   0.05645394
3858.00   0.06385832
3860.00   0.05034425
3862.00   0.03928675
3864.00   0.03502233
3866.00   0.03794218
3868.00   0.07680491
3870.00   0.06694777
3872.00   0.07365819
3874.00   0.06286841
3876.00   0.05609821
3878.00   0.05386038
3880.00   0.03814682
3882.00   0.05298217
3884.00   0.07463120
3886.00   0.05719530
3888.00   0.04327333
3890.00   0.05835028
3892.00   0.05794008
3894.00   0.05235297
3896.00   0.04832572
3898.00   0.07342271
3900.00   0.06930656
3902.00   0.06305511
3904.00   0.06564167
3906.00   0.07885254
3908.00   0.05253803
3910.00   0.06440721
3912.00   0.06115668
3914.00   0.06320793
3916.00   0.10372710
3918.00   0.09693099
3920.00   0.04847984
3922.00   0.06293738
3924.00   0.07291250
3926.00   0.04796752
3928.00   0.06604393
3930.00   0.07437147
3932.00   0.06135810
3934.00   0.06703429
3936.00   0.04718891
3938.00   0.11289460
3940.00   0.07747928
3942.00   0.08784721
3944.00   0.05335228
3946.00   0.08476484
3948.00   0.03872394
3950.00   0.07496575
3952.00   0.08627450
3954.00   0.11297940
3956.00   0.07412278
3958.00   0.09292707
3960.00   0.08734406
3962.00   0.09518971
3964.00   0.09400315
3966.00   0.10329244
3968.00   0.10299301
3970.00   0.10451745
3972.00   0.09950251
3974.00   0.10877173
3976.00   0.09225875
3978.00   0.12480327
3980.00   0.12665672
3982.00   0.09307963
3984.00   0.10533519
3986.00   0.11203212
3988.00   0.11099819
3990.00   0.12686269
3992.00   0.13469880
3994.00   0.11126992
3996.00   0.14615435
3998.00   0.14048975
4000.00   0.13613164
4002.00   0.13424679
4004.00   0.16281829
4006.00   0.11311829
4008.00   0.13992148
4010.00   0.12585041
4012.00   0.14111559
4014.00   0.13630216
4016.00   0.13353050
4018.00   0.12456241
4020.00   0.14820673
4022.00   0.11137055
4024.00   0.13224241
4026.00   0.12203337
4028.00   0.12894717
4030.00   0.12395679
4032.00   0.11403260
4034.00   0.12266110
4036.00   0.12963682
4038.00   0.13570392
4040.00   0.12579478
4042.00   0.08110476
4044.00   0.13900392
4046.00   0.24277035
4048.00   0.19369773
4050.00   0.14441294
4052.00   0.10589528
4054.00   0.13795023
4056.00   0.13413993
4058.00   0.14619369
4060.00   0.13115548
4062.00   0.14911888
4064.00   0.15439196
4066.00   0.12068986
4068.00   0.12822131
4070.00   0.14347020
4072.00   0.14259420
4074.00   0.13881009
4076.00   0.13077484
4078.00   0.11834175
4080.00   0.13416027
4082.00   0.13293559
4084.00   0.15288380
4086.00   0.13367150
4088.00   0.12856080
4090.00   0.12971978
4092.00   0.14079131
4094.00   0.13348812
4096.00   0.15128999
4098.00   0.11940949
4100.00   0.15235406
4102.00   0.15711181
4104.00   0.15114820
4106.00   0.15126507
4108.00   0.14092894
4110.00   0.14170172
4112.00   0.14804979
4114.00   0.15590413
4116.00   0.15273219
4118.00   0.16299162
4120.00   0.14004606
4122.00   0.15416279
4124.00   0.15296808
4126.00   0.15063225
4128.00   0.17494113
4130.00   0.15790384
4132.00   0.15159672
4134.00   0.15169949
4136.00   0.16379549
4138.00   0.13874448
4140.00   0.16982000
4142.00   0.18182172
4144.00   0.15606029
4146.00   0.13478904
4148.00   0.15747880
4150.00   0.15721387
4152.00   0.12567007
4154.00   0.15893257
4156.00   0.14795568
4158.00   0.16940857
4160.00   0.14609068
4162.00   0.16294911
4164.00   0.17634220
4166.00   0.17916363
4168.00   0.19055316
4170.00   0.17016214
4172.00   0.14010685
4174.00   0.14686014
4176.00   0.13903784
4178.00   0.12434304
4180.00   0.13765214
4182.00   0.14177249
4184.00   0.13662934
4186.00   0.14249549
4188.00   0.14270805
4190.00   0.12611386
4192.00   0.14215215
4194.00   0.12768723
4196.00   0.15672674
4198.00   0.13382384
4200.00   0.14598409
4202.00   0.14171152
4204.00   0.15887923
4206.00   0.15435201
4208.00   0.14090260
4210.00   0.13959715
4212.00   0.15412875
4214.00   0.15373327
4216.00   0.16150432
4218.00   0.16862696
4220.00   0.15823415
4222.00   0.14794606
4224.00   0.14460102
4226.00   0.14023586
4228.00   0.13602619
4230.00   0.12944460
4232.00   0.13829494
4234.00   0.13251744
4236.00   0.11775286
4238.00   0.13807431
4240.00   0.13764442
4242.00   0.12673977
4244.00   0.15751835
4246.00   0.13935211
4248.00   0.12482109
4250.00   0.14593955
4252.00   0.12086740
4254.00   0.13402526
4256.00   0.12946900
4258.00   0.12822985
4260.00   0.14370394
4262.00   0.15445232
4264.00   0.14642255
4266.00   0.14809771
4268.00   0.16462118
4270.00   0.15173776
4272.00   0.14738167
4274.00   0.14164176
4276.00   0.14233254
4278.00   0.15738442
4280.00   0.14347107
4282.00   0.13457884
4284.00   0.14972171
4286.00   0.11937974
4288.00   0.11571634
4290.00   0.14674804
4292.00   0.16568244
4294.00   0.14242658
4296.00   0.14308174
4298.00   0.15075074
4300.00   0.14667592
4302.00   0.12312081
4304.00   0.11734356
4306.00   0.12378850
4308.00   0.11052295
4310.00   0.12442598
4312.00   0.10918075
4314.00   0.13878147
4316.00   0.11173595
4318.00   0.11589088
4320.00   0.11119213
4322.00   0.09692768
4324.00   0.10666388
4326.00   0.13569093
4328.00   0.13944246
4330.00   0.11235085
4332.00   0.12625798
4334.00   0.11316023
4336.00   0.11899748
4338.00   0.10751880
4340.00   0.11751662
4342.00   0.10446032
4344.00   0.11268108
4346.00   0.09588833
4348.00   0.12569545
4350.00   0.11869624
4352.00   0.13512668
4354.00   0.08198825
4356.00   0.20743207
4358.00   0.16755064
4360.00   0.14479039
4362.00   0.15128347
4364.00   0.09729863
4366.00   0.13789460
4368.00   0.12062892
4370.00   0.13833063
4372.00   0.15284676
4374.00   0.14201071
4376.00   0.12455811
4378.00   0.13732629
4380.00   0.14516381
4382.00   0.13173040
4384.00   0.14732222
4386.00   0.11618969
4388.00   0.12835229
4390.00   0.11438833
4392.00   0.12445226
4394.00   0.12101820
4396.00   0.11677854
4398.00   0.11067409
4400.00   0.10513322
4402.00   0.13653948
4404.00   0.11791839
4406.00   0.09558451
4408.00   0.14558380
4410.00   0.17270411
4412.00   0.18889474
4414.00   0.13643208
4416.00   0.14006756
4418.00   0.13123536
4420.00   0.12263525
4422.00   0.10976646
4424.00   0.12306831
4426.00   0.13777832
4428.00   0.13034321
4430.00   0.10507910
4432.00   0.12278079
4434.00   0.11696004
4436.00   0.13477865
4438.00   0.12043972
4440.00   0.12953687
4442.00   0.09779037
4444.00   0.13396078
4446.00   0.12206920
4448.00   0.10948331
4450.00   0.10352081
4452.00   0.10440261
4454.00   0.10183758
4456.00   0.10876309
4458.00   0.10751634
4460.00   0.11868396
4462.00   0.08043671
4464.00   0.10446300
4466.00   0.10325842
4468.00   0.09969100
4470.00   0.08486821
4472.00   0.11578677
4474.00   0.09542946
4476.00   0.12109489
4478.00   0.10118156
4480.00   0.08547430
4482.00   0.10190627
4484.00   0.10374494
4486.00   0.10943760
4488.00   0.11781890
4490.00   0.11951870
4492.00   0.11518526
4494.00   0.12462261
4496.00   0.11828295
4498.00   0.11773438
4500.00   0.12821446
4502.00   0.11257674
4504.00   0.13115524
4506.00   0.12255740
4508.00   0.12500165
4510.00   0.12666213
4512.00   0.12540863
4514.00   0.12154759
4516.00   0.13259675
4518.00   0.09819485
4520.00   0.11867813
4522.00   0.12535410
4524.00   0.11268831
4526.00   0.11469061
4528.00   0.11520373
4530.00   0.12147012
4532.00   0.12469296
4534.00   0.13732213
4536.00   0.11960810
4538.00   0.14022368
4540.00   0.12976603
4542.00   0.12550706
4544.00   0.12992772
4546.00   0.10988573
4548.00   0.11861218
4550.00   0.13175163
4552.00   0.11335977
4554.00   0.11769522
4556.00   0.13270956
4558.00   0.12095381
4560.00   0.11917414
4562.00   0.11803509
4564.00   0.11267477
4566.00   0.10923463
4568.00   0.11316133
4570.00   0.12685355
4572.00   0.12070756
4574.00   0.10493665
4576.00   0.09578610
4578.00   0.10686444
4580.00   0.12315992
4582.00   0.10852669
4584.00   0.12176758
4586.00   0.11071791
4588.00   0.13129834
4590.00   0.13664936
4592.00   0.12196223
4594.00   0.12615360
4596.00   0.12049020
4598.00   0.14047242
4600.00   0.11714489
4602.00   0.12727704
4604.00   0.12912551
4606.00   0.13046729
4608.00   0.13487356
4610.00   0.15429004
4612.00   0.15973518
4614.00   0.15161061
4616.00   0.14075370
4618.00   0.14948941
4620.00   0.13994553
4622.00   0.15007549
4624.00   0.14644949
4626.00   0.15102300
4628.00   0.15952688
4630.00   0.14382681
4632.00   0.15865607
4634.00   0.15318514
4636.00   0.15205714
4638.00   0.15233178
4640.00   0.15792940
4642.00   0.16195579
4644.00   0.16200791
4646.00   0.16935458
4648.00   0.16020272
4650.00   0.16187034
4652.00   0.17024193
4654.00   0.17185752
4656.00   0.17016808
4658.00   0.15194976
4660.00   0.16800822
4662.00   0.16621237
4664.00   0.17269591
4666.00   0.17742282
4668.00   0.17891517
4670.00   0.17585406
4672.00   0.17657272
4674.00   0.16737345
4676.00   0.18481799
4678.00   0.17836765
4680.00   0.18255156
4682.00   0.19027036
4684.00   0.19492565
4686.00   0.18333600
4688.00   0.18484679
4690.00   0.17903790
4692.00   0.17822752
4694.00   0.17970459
4696.00   0.16882219
4698.00   0.17540327
4700.00   0.17417107
4702.00   0.16560173
4704.00   0.16719466
4706.00   0.16906054
4708.00   0.16178071
4710.00   0.16599623
4712.00   0.16890359
4714.00   0.16080012
4716.00   0.16768025
4718.00   0.17052243
4720.00   0.17143837
4722.00   0.16149499
4724.00   0.17013675
4726.00   0.16357425
4728.00   0.17842260
4730.00   0.17346060
4732.00   0.17547461
4734.00   0.16629941
4736.00   0.15910522
4738.00   0.15298116
4740.00   0.15962064
4742.00   0.16894558
4744.00   0.17088459
4746.00   0.16348199
4748.00   0.16922810
4750.00   0.17833048
4752.00   0.19068092
4754.00   0.17274760
4756.00   0.16600122
4758.00   0.18689096
4760.00   0.19473814
4762.00   0.17816382
4764.00   0.16994161
4766.00   0.18334243
4768.00   0.17055689
4770.00   0.18767748
4772.00   0.18225932
4774.00   0.18003651
4776.00   0.17829115
4778.00   0.18189991
4780.00   0.18860368
4782.00   0.16619237
4784.00   0.18973275
4786.00   0.18901343
4788.00   0.19305596
4790.00   0.19035793
4792.00   0.17820419
4794.00   0.17937346
4796.00   0.17909928
4798.00   0.17707889
4800.00   0.16540020
4802.00   0.18342272
4804.00   0.17864732
4806.00   0.17066457
4808.00   0.17018021
4810.00   0.16671723
4812.00   0.16048449
4814.00   0.16468715
4816.00   0.16350880
4818.00   0.17080180
4820.00   0.15828203
4822.00   0.16131148
4824.00   0.16491913
4826.00   0.16865574
4828.00   0.17817329
4830.00   0.17741046
4832.00   0.15834125
4834.00   0.14840196
4836.00   0.17169471
4838.00   0.17810194
4840.00   0.17228964
4842.00   0.15860734
4844.00   0.15603454
4846.00   0.15733509
4848.00   0.14641292
4850.00   0.16262188
4852.00   0.16172853
4854.00   0.14506882
4856.00   0.15368945
4858.00   0.16344280
4860.00   0.16424744
4862.00   0.16557604
4864.00   0.15976840
4866.00   0.15469477
4868.00   0.16301288
4870.00   0.17886778
4872.00   0.15908396
4874.00   0.15533344
4876.00   0.15555216
4878.00   0.17425046
4880.00   0.15225062
4882.00   0.15998664
4884.00   0.17414077
4886.00   0.15716230
4888.00   0.15400335
4890.00   0.13010645
4892.00   0.14832084
4894.00   0.15469791
4896.00   0.15403121
4898.00   0.14364786
4900.00   0.14432178
4902.00   0.14572250
4904.00   0.12971496
4906.00   0.13477952
4908.00   0.12588539
4910.00   0.14190741
4912.00   0.13676453
4914.00   0.13770550
4916.00   0.12826364
4918.00   0.11281953
4920.00   0.13074762
4922.00   0.11721599
4924.00   0.12276956
4926.00   0.13038096
4928.00   0.12277869
4930.00   0.12339871
4932.00   0.09944504
4934.00   0.10223853
4936.00   0.12220222
4938.00   0.18717888
4940.00   0.20673034
4942.00   0.18977991
4944.00   0.16437213
4946.00   0.13438792
4948.00   0.10428046
4950.00   0.10513820
4952.00   0.09906713
4954.00   0.10513252
4956.00   0.10366932
4958.00   0.08639821
4960.00   0.08052313
4962.00   0.09455948
4964.00   0.10717291
4966.00   0.10077018
4968.00   0.09001430
4970.00   0.08512120
4972.00   0.08503938
4974.00   0.09687535
4976.00   0.08747917
4978.00   0.06384603
4980.00   0.09674718
4982.00   0.08757076
4984.00   0.06757170
4986.00   0.06887448
4988.00   0.08526023
4990.00   0.09410143
4992.00   0.08034635
4994.00   0.09452780
4996.00   0.07940478
4998.00   0.08321710
5000.00   0.09301193
5002.00   0.08394860
5004.00   0.07797694
5006.00   0.10208166
5008.00   0.09087580
5010.00   0.08805414
5012.00   0.09681365
5014.00   0.09773241
5016.00   0.09128234
5018.00   0.09988602
5020.00   0.11630173
5022.00   0.10490816
5024.00   0.09709520
5026.00   0.12704243
5028.00   0.11875911
5030.00   0.12063885
5032.00   0.12719239
5034.00   0.11579356
5036.00   0.14562253
5038.00   0.14998568
5040.00   0.15724699
5042.00   0.15648631
5044.00   0.14845958
5046.00   0.14858838
5048.00   0.14873666
5050.00   0.15759709
5052.00   0.15113812
5054.00   0.15933393
5056.00   0.16932169
5058.00   0.17526494
5060.00   0.17055029
5062.00   0.16929324
5064.00   0.18843678
5066.00   0.18056261
5068.00   0.18563952
5070.00   0.18860087
5072.00   0.18581922
5074.00   0.19254990
5076.00   0.19869445
5078.00   0.20340852
5080.00   0.20907284
5082.00   0.18816700
5084.00   0.21414618
5086.00   0.25892448
5088.00   0.28500254
5090.00   0.26671350
5092.00   0.25856551
5094.00   0.25048310
5096.00   0.22444877
5098.00   0.23269336
5100.00   0.21488477
5102.00   0.22369664
5104.00   0.22196708
5106.00   0.22670591
5108.00   0.20503529
5110.00   0.21575786
5112.00   0.21579459
5114.00   0.21251868
5116.00   0.21608401
5118.00   0.22234738
5120.00   0.21862829
5122.00   0.21608145
5124.00   0.19590678
5126.00   0.21239229
5128.00   0.20132019
5130.00   0.20291465
5132.00   0.19783816
5134.00   0.18713806
5136.00   0.18963554
5138.00   0.18545797
5140.00   0.19562226
5142.00   0.19908698
5144.00   0.17463397
5146.00   0.16851909
5148.00   0.16725918
5150.00   0.15679221
5152.00   0.15657757
5154.00   0.16668030
5156.00   0.14248998
5158.00   0.14650822
5160.00   0.14862106
5162.00   0.13807697
5164.00   0.14287416
5166.00   0.13761892
5168.00   0.13210592
5170.00   0.14898815
5172.00   0.15169814
5174.00   0.12898725
5176.00   0.12299133
5178.00   0.12244729
5180.00   0.11952029
5182.00   0.13504428
5184.00   0.12271782
5186.00   0.11142468
5188.00   0.11272357
5190.00   0.12991217
5192.00   0.12949483
5194.00   0.11883126
5196.00   0.12424410
5198.00   0.13736859
5200.00   0.13265546
5202.00   0.13980951
5204.00   0.13355047
5206.00   0.14146561
5208.00   0.14140939
5210.00   0.14845235
5212.00   0.14965762
5214.00   0.14321275
5216.00   0.15442626
5218.00   0.17036547
5220.00   0.16542724
5222.00   0.16184776
5224.00   0.17237620
5226.00   0.16794786
5228.00   0.17295376
5230.00   0.16317035
5232.00   0.17031562
5234.00   0.16694836
5236.00   0.15936540
5238.00   0.16312236
5240.00   0.16179316
5242.00   0.16165664
5244.00   0.15838314
5246.00   0.16874728
5248.00   0.14985086
5250.00   0.16140188
5252.00   0.16575319
5254.00   0.16804388
5256.00   0.17066441
5258.00   0.17860277
5260.00   0.17385829
5262.00   0.16211541
5264.00   0.16514262
5266.00   0.16224379
5268.00   0.16845610
5270.00   0.17850230
5272.00   0.15642159
5274.00   0.16824845
5276.00   0.18185666
5278.00   0.15877807
5280.00   0.15237162
5282.00   0.16006647
5284.00   0.15645903
5286.00   0.17460228
5288.00   0.15746352
5290.00   0.16844684
5292.00   0.17529275
5294.00   0.15824184
5296.00   0.17039165
5298.00   0.16590906
5300.00   0.16954683
5302.00   0.17215514
5304.00   0.16210520
5306.00   0.16866645
5308.00   0.15084236
5310.00   0.16013003
5312.00   0.15592176
5314.00   0.15334111
5316.00   0.16691786
5318.00   0.15769568
5320.00   0.14111037
5322.00   0.15713255
5324.00   0.15736631
5326.00   0.16288779
5328.00   0.17297697
5330.00   0.15125861
5332.00   0.14906470
5334.00   0.15570953
5336.00   0.15855673
5338.00   0.15481044
5340.00   0.16903229
5342.00   0.16848470
5344.00   0.15271425
5346.00   0.16200194
5348.00   0.17101360
5350.00   0.15058583
5352.00   0.14218251
5354.00   0.15073496
5356.00   0.15982413
5358.00   0.15757906
5360.00   0.15994649
5362.00   0.16527942
5364.00   0.16451905
5366.00   0.16343497
5368.00   0.16632924
5370.00   0.16094709
5372.00   0.16931747
5374.00   0.15816234
5376.00   0.16897828
5378.00   0.16470271
5380.00   0.16019576
5382.00   0.15265061
5384.00   0.17441872
5386.00   0.16592426
5388.00   0.16989954
5390.00   0.16665760
5392.00   0.18321399
5394.00   0.16938786
5396.00   0.17218370
5398.00   0.15986725
5400.00   0.17737082
5402.00   0.17353130
5404.00   0.18993059
5406.00   0.18867813
5408.00   0.18024162
5410.00   0.18795317
5412.00   0.18504963
5414.00   0.17659684
5416.00   0.16437309
5418.00   0.17497987
5420.00   0.16078202
5422.00   0.18661293
5424.00   0.16827313
5426.00   0.20198424
5428.00   0.20150604
5430.00   0.18649041
5432.00   0.19393672
5434.00   0.19830172
5436.00   0.20555123
5438.00   0.18278831
5440.00   0.19726111
5442.00   0.18625638
5444.00   0.18111946
5446.00   0.17570931
5448.00   0.17268094
5450.00   0.16216645
5452.00   0.15807805
5454.00   0.17113551
5456.00   0.18829898
5458.00   0.18577180
5460.00   0.16826245
5462.00   0.17066197
5464.00   0.19620827
5466.00   0.20909596
5468.00   0.20727077
5470.00   0.19799615
5472.00   0.19198720
5474.00   0.18808119
5476.00   0.18699928
5478.00   0.18842222
5480.00   0.18743472
5482.00   0.18405394
5484.00   0.18114636
5486.00   0.18466880
5488.00   0.19039888
5490.00   0.18882082
5492.00   0.18118612
5494.00   0.17769832
5496.00   0.17293550
5498.00   0.17269259
5500.00   0.17851589
5502.00   0.18337826
5504.00   0.18682386
5506.00   0.19003370
5508.00   0.19230863
5510.00   0.19285201
5512.00   0.19605523
5514.00   0.19718100
5516.00   0.19539449
5518.00   0.19350678
5520.00   0.19087791
5522.00   0.18909960
5524.00   0.18651211
5526.00   0.18520913
5528.00   0.19093554
5530.00   0.19763412
5532.00   0.19552110
5534.00   0.18881655
5536.00   0.18381573
5538.00   0.17740995
5540.00   0.17469590
5542.00   0.17344500
5544.00   0.17000011
5546.00   0.16882202
5548.00   0.16605462
5550.00   0.16214442
5552.00   0.15731578
5554.00   0.15675468
5556.00   0.15701702
5558.00   0.15716602
5560.00   0.15761036
5562.00   0.15794105
5564.00   0.15901455
5566.00   0.16018927
5568.00   0.16259953
5570.00   0.16726626
5572.00   0.17088311
5574.00   0.17356552
5576.00   0.17987967
5578.00   0.18496493
5580.00   0.18910730
5582.00   0.19150282
5584.00   0.19207600
5586.00   0.19157664
5588.00   0.19338029
5590.00   0.20049365
5592.00   0.20884070
5594.00   0.21863794
5596.00   0.22045229
5598.00   0.21328817
5600.00   0.21115062
5602.00   0.21488614
5604.00   0.21899106
5606.00   0.22284218
5608.00   0.22700766
5610.00   0.22468912
5612.00   0.21579715
5614.00   0.21394721
5616.00   0.21777663
5618.00   0.22153670
5620.00   0.22531415
5622.00   0.22822586
5624.00   0.23015397
5626.00   0.23128755
5628.00   0.23342428
5630.00   0.23693155
5632.00   0.23961282
5634.00   0.23881461
5636.00   0.23624022
5638.00   0.23723997
5640.00   0.23981417
5642.00   0.23966909
5644.00   0.23633811
5646.00   0.23532397
5648.00   0.23714940
5650.00   0.24135279
5652.00   0.24379596
5654.00   0.24573100
5656.00   0.24376712
5658.00   0.23677030
5660.00   0.23206605
5662.00   0.23077185
5664.00   0.22983666
5666.00   0.23001649
5668.00   0.23289482
5670.00   0.22972330
5672.00   0.22250006
5674.00   0.21374272
5676.00   0.20068271
5678.00   0.19104865
5680.00   0.18461049
5682.00   0.18150420
5684.00   0.18859043
5686.00   0.20448055
5688.00   0.20701103
5690.00   0.19631207
5692.00   0.19258008
5694.00   0.19347600
5696.00   0.19472918
5698.00   0.18743251
5700.00   0.16929328
5702.00   0.16008901
5704.00   0.15757541
5706.00   0.15784894
5708.00   0.15685971
5710.00   0.15855692
5712.00   0.16337233
5714.00   0.16645397
5716.00   0.16660332
5718.00   0.16519476
5720.00   0.16404451
5722.00   0.16016205
5724.00   0.15679965
5726.00   0.15528299
5728.00   0.15363716
5730.00   0.15340168
5732.00   0.15538602
5734.00   0.15624077
5736.00   0.15636979
5738.00   0.15446784
5740.00   0.15014503
5742.00   0.14550133
5744.00   0.14295926
5746.00   0.14164340
5748.00   0.14325874
5750.00   0.15063433
5752.00   0.15243157
5754.00   0.15000862
5756.00   0.14594172
5758.00   0.14159716
5760.00   0.13859457
5762.00   0.13643955
5764.00   0.13384985
5766.00   0.13251587
5768.00   0.13618565
5770.00   0.13830936
5772.00   0.13615664
5774.00   0.13194254
5776.00   0.12675084
5778.00   0.11896326
5780.00   0.11570739
5782.00   0.11849250
5784.00   0.11791620
5786.00   0.11295414
5788.00   0.10588764
5790.00   0.09818104
5792.00   0.08972120
5794.00   0.08606808
5796.00   0.08705094
5798.00   0.08527308
5800.00   0.08427868
5802.00   0.08463327
5804.00   0.08384085
5806.00   0.08124399
5808.00   0.07661659
5810.00   0.06999769
5812.00   0.06432030
5814.00   0.05492386
5816.00   0.04763098
5818.00   0.04981406
5820.00   0.05725901
5822.00   0.05715763
5824.00   0.05265305
5826.00   0.05463023
5828.00   0.06155157
5830.00   0.06128226
5832.00   0.05837610
5834.00   0.05717376
5836.00   0.05749250
5838.00   0.05894110
5840.00   0.05857340
5842.00   0.05690505
5844.00   0.05500851
5846.00   0.05307845
5848.00   0.05098673
5850.00   0.05231097
5852.00   0.05868110
5854.00   0.06217143
5856.00   0.06303221
5858.00   0.06157199
5860.00   0.06102096
5862.00   0.06222624
5864.00   0.06499917
5866.00   0.07169015
5868.00   0.07405141
5870.00   0.07238344
5872.00   0.07042462
5874.00   0.07078101
5876.00   0.07008637
5878.00   0.07034201
5880.00   0.07221826
5882.00   0.06361362
5884.00   0.04397354
5886.00   0.03239101
5888.00   0.02259963
5890.00   0.02767571
5892.00   0.04932003
5894.00   0.07491843
5896.00   0.08970891
5898.00   0.09997436
5900.00   0.11176301
5902.00   0.12778833
5904.00   0.13393825
5906.00   0.12627613
5908.00   0.11504002
5910.00   0.11437910
5912.00   0.12041535
5914.00   0.12474943
5916.00   0.13025329
5918.00   0.13245419
5920.00   0.13167631
5922.00   0.13099227
5924.00   0.13366415
5926.00   0.14112099
5928.00   0.14647964
5930.00   0.15238910
5932.00   0.15329711
5934.00   0.14859720
5936.00   0.14338715
5938.00   0.14223950
5940.00   0.14681935
5942.00   0.15502892
5944.00   0.16851594
5946.00   0.17415553
5948.00   0.17255876
5950.00   0.17194150
5952.00   0.17557700
5954.00   0.18216354
5956.00   0.18259291
5958.00   0.17841788
5960.00   0.18080086
5962.00   0.19114639
5964.00   0.19652169
5966.00   0.19981100
5968.00   0.20198539
5970.00   0.19763156
5972.00   0.18783777
5974.00   0.18586485
5976.00   0.19071738
5978.00   0.19210035
5980.00   0.18978147
5982.00   0.18826552
5984.00   0.18929549
5986.00   0.19068780
5988.00   0.19222191
5990.00   0.19423100
5992.00   0.19659957
5994.00   0.19969438
5996.00   0.20292882
5998.00   0.20404579
6000.00   0.20209774
6002.00   0.20200303
6004.00   0.20270360
6006.00   0.20494069
6008.00   0.20998320
6010.00   0.21294445
6012.00   0.21106406
6014.00   0.20617557
6016.00   0.20390979
6018.00   0.20292559
6020.00   0.20275875
6022.00   0.20387518
6024.00   0.20399287
6026.00   0.20376284
6028.00   0.20415729
6030.00   0.20470225
6032.00   0.20526618
6034.00   0.20519365
6036.00   0.20466939
6038.00   0.20263451
6040.00   0.19981497
6042.00   0.19817808
6044.00   0.19500861
6046.00   0.19136439
6048.00   0.18916328
6050.00   0.18636275
6052.00   0.18544482
6054.00   0.18862629
6056.00   0.19290557
6058.00   0.19432668
6060.00   0.19456943
6062.00   0.19687642
6064.00   0.19975180
6066.00   0.19816972
6068.00   0.19081195
6070.00   0.18827704
6072.00   0.18907000
6074.00   0.18974138
6076.00   0.18704850
6078.00   0.18218613
6080.00   0.18039931
6082.00   0.18184035
6084.00   0.18088149
6086.00   0.17700107
6088.00   0.17246214
6090.00   0.17009151
6092.00   0.16823445
6094.00   0.16831461
6096.00   0.17135464
6098.00   0.17330088
6100.00   0.17285299
6102.00   0.17174799
6104.00   0.17332231
6106.00   0.17523298
6108.00   0.17152604
6110.00   0.16305519
6112.00   0.15834345
6114.00   0.15480755
6116.00   0.15522131
6118.00   0.16053986
6120.00   0.16571510
6122.00   0.16564601
6124.00   0.16328314
6126.00   0.16229580
6128.00   0.16235905
6130.00   0.15900693
6132.00   0.15310330
6134.00   0.14951705
6136.00   0.15083549
6138.00   0.15650878
6140.00   0.15785945
6142.00   0.15606382
6144.00   0.15456403
6146.00   0.15453112
6148.00   0.15548263
6150.00   0.15693186
6152.00   0.15851703
6154.00   0.15541411
6156.00   0.14770368
6158.00   0.14430476
6160.00   0.14434315
6162.00   0.14504864
6164.00   0.14719043
6166.00   0.14905728
6168.00   0.14783699
6170.00   0.14480356
6172.00   0.14255719
6174.00   0.13957605
6176.00   0.13767809
6178.00   0.13770081
6180.00   0.13766723
6182.00   0.13553543
6184.00   0.13195551
6186.00   0.12986043
6188.00   0.12838617
6190.00   0.12771239
6192.00   0.12832312
6194.00   0.12875246
6196.00   0.12936688
6198.00   0.13258198
6200.00   0.13523085
6202.00   0.13801686
6204.00   0.13949396
6206.00   0.14028082
6208.00   0.14036938
6210.00   0.14215334
6212.00   0.14442378
6214.00   0.14370464
6216.00   0.14093460
6218.00   0.14285868
6220.00   0.14858151
6222.00   0.15397565
6224.00   0.16040545
6226.00   0.16344544
6228.00   0.16188340
6230.00   0.15639060
6232.00   0.15405096
6234.00   0.15346773
6236.00   0.15317951
6238.00   0.15229739
6240.00   0.15230186
6242.00   0.15182719
6244.00   0.15022007
6246.00   0.14797450
6248.00   0.14447341
6250.00   0.14179171
6252.00   0.14024684
6254.00   0.14032852
6256.00   0.14069112
6258.00   0.14240912
6260.00   0.14333314
6262.00   0.14350164
6264.00   0.14341598
6266.00   0.14483608
6268.00   0.14550717
6270.00   0.14240872
6272.00   0.13697815
6274.00   0.13664147
6276.00   0.14027634
6278.00   0.14280466
6280.00   0.14599136
6282.00   0.14613648
6284.00   0.14151054
6286.00   0.13509409
6288.00   0.13538724
6290.00   0.14049356
6292.00   0.14412616
6294.00   0.14799720
6296.00   0.15104010
6298.00   0.15367740
6300.00   0.15531461
6302.00   0.15363817
6304.00   0.14896955
6306.00   0.14989168
6308.00   0.15508480
6310.00   0.15866782
6312.00   0.16176823
6314.00   0.16471937
6316.00   0.16656133
6318.00   0.16686989
6320.00   0.16823184
6322.00   0.17110694
6324.00   0.17376614
6326.00   0.17574033
6328.00   0.17464623
6330.00   0.17261476
6332.00   0.17302575
6334.00   0.17618709
6336.00   0.18166591
6338.00   0.18324566
6340.00   0.18026021
6342.00   0.17950910
6344.00   0.18290939
6346.00   0.18994565
6348.00   0.19632911
6350.00   0.20242458
6352.00   0.20541148
6354.00   0.20537426
6356.00   0.20585775
6358.00   0.20774865
6360.00   0.20851512
6362.00   0.20499121
6364.00   0.20115512
6366.00   0.20118260
6368.00   0.20268621
6370.00   0.20326577
6372.00   0.20643101
6374.00   0.21041705
6376.00   0.21198979
6378.00   0.21248771
6380.00   0.21355893
6382.00   0.21530091
6384.00   0.21137071
6386.00   0.19655775
6388.00   0.19207834
6390.00   0.20075310
6392.00   0.20934189
6394.00   0.20869987
6396.00   0.20368285
6398.00   0.20333425
6400.00   0.20630186
6402.00   0.20717662
6404.00   0.20687629
6406.00   0.20760255
6408.00   0.20830108
6410.00   0.20774048
6412.00   0.20818390
6414.00   0.21010426
6416.00   0.21083257
6418.00   0.20921103
6420.00   0.20737487
6422.00   0.20647369
6424.00   0.20549025
6426.00   0.20542802
6428.00   0.20728865
6430.00   0.20495342
6432.00   0.19624723
6434.00   0.19020838
6436.00   0.18846890
6438.00   0.18796517
6440.00   0.18820901
6442.00   0.19015699
6444.00   0.19123042
6446.00   0.19154882
6448.00   0.19228478
6450.00   0.19356822
6452.00   0.19311306
6454.00   0.19113670
6456.00   0.18804194
6458.00   0.18454745
6460.00   0.17881822
6462.00   0.17709638
6464.00   0.17951102
6466.00   0.18101401
6468.00   0.17960977
6470.00   0.17639782
6472.00   0.17516781
6474.00   0.17466670
6476.00   0.17386309
6478.00   0.17308221
6480.00   0.17448740
6482.00   0.17574893
6484.00   0.17523611
6486.00   0.17386820
6488.00   0.17134536
6490.00   0.16838179
6492.00   0.16330063
6494.00   0.16174913
6496.00   0.16338445
6498.00   0.16540499
6500.00   0.16665182
6502.00   0.16768239
6504.00   0.16563097
6506.00   0.15856472
6508.00   0.15598513
6510.00   0.15685756
6512.00   0.15850076
6514.00   0.15953393
6516.00   0.16033474
6518.00   0.16097773
6520.00   0.16120756
6522.00   0.16217389
6524.00   0.16443811
6526.00   0.16643434
6528.00   0.16729645
6530.00   0.16695747
6532.00   0.16409864
6534.00   0.15818683
6536.00   0.15503307
6538.00   0.15348393
6540.00   0.15409600
6542.00   0.15595803
6544.00   0.15647661
6546.00   0.15639040
6548.00   0.15585963
6550.00   0.15696668
6552.00   0.15934347
6554.00   0.16231509
6556.00   0.16584118
6558.00   0.16757865
6560.00   0.16849889
6562.00   0.16936578
6564.00   0.17008467
6566.00   0.16951223
6568.00   0.17167910
6570.00   0.17549796
6572.00   0.17825815
6574.00   0.18176933
6576.00   0.18515202
6578.00   0.18483853
6580.00   0.18131776
6582.00   0.17949936
6584.00   0.17807224
6586.00   0.17534909
6588.00   0.17275182
6590.00   0.17143808
6592.00   0.17213183
6594.00   0.17548799
6596.00   0.17625418
6598.00   0.17422955
6600.00   0.17212503
6602.00   0.17094932
6604.00   0.16971369
6606.00   0.16836666
6608.00   0.16630819
6610.00   0.16452123
6612.00   0.16260465
6614.00   0.16272615
6616.00   0.16423316
6618.00   0.16396044
6620.00   0.15980543
6622.00   0.15315562
6624.00   0.15002816
6626.00   0.14936993
6628.00   0.14736294
6630.00   0.14503903
6632.00   0.14295338
6634.00   0.13995749
6636.00   0.13674347
6638.00   0.13316032
6640.00   0.12874970
6642.00   0.12374508
6644.00   0.11766160
6646.00   0.11421411
6648.00   0.11342489
6650.00   0.11355545
6652.00   0.11299895
6654.00   0.11253679
6656.00   0.11002121
6658.00   0.09921916
6660.00   0.10044689
6662.00   0.11693488
6664.00   0.14283534
6666.00   0.17219714
6668.00   0.21176493
6670.00   0.21944037
6672.00   0.19675430
6674.00   0.17195028
6676.00   0.14185251
6678.00   0.11483838
6680.00   0.10285602
6682.00   0.10222713
6684.00   0.10536882
6686.00   0.11782947
6688.00   0.12730528
6690.00   0.13542165
6692.00   0.13853471
6694.00   0.13708353
6696.00   0.13304504
6698.00   0.13036373
6700.00   0.12642657
6702.00   0.12437633
6704.00   0.12564418
6706.00   0.12654416
6708.00   0.12428753
6710.00   0.12255155
6712.00   0.12428674
6714.00   0.12834738
6716.00   0.13166550
6718.00   0.13527690
6720.00   0.13859633
6722.00   0.14194452
6724.00   0.14410628
6726.00   0.14618037
6728.00   0.14873738
6730.00   0.14955850
6732.00   0.14844543
6734.00   0.14756534
6736.00   0.14682705
6738.00   0.14604260
6740.00   0.14607036
6742.00   0.14697494
6744.00   0.14499462
6746.00   0.14018366
6748.00   0.13767863
6750.00   0.13608733
6752.00   0.13757716
6754.00   0.14318879
6756.00   0.14982697
6758.00   0.15132779
6760.00   0.14863181
6762.00   0.14587691
6764.00   0.14133779
6766.00   0.14074627
6768.00   0.14290445
6770.00   0.14592586
6772.00   0.14629474
6774.00   0.14483405
6776.00   0.14261239
6778.00   0.13788996
6780.00   0.13595647
6782.00   0.13798714
6784.00   0.14051659
6786.00   0.14003162
6788.00   0.13779636
6790.00   0.13691070
6792.00   0.13645441
6794.00   0.13630660
6796.00   0.13617513
6798.00   0.13779819
6800.00   0.14017450
6802.00   0.14141991
6804.00   0.14194446
6806.00   0.14223849
6808.00   0.14200553
6810.00   0.14156255
6812.00   0.13824287
6814.00   0.13048008
6816.00   0.12595106
6818.00   0.13293739
6820.00   0.14928386
6822.00   0.15836673
6824.00   0.16610976
6826.00   0.16648534
6828.00   0.15816755
6830.00   0.14873663
6832.00   0.14638266
6834.00   0.14908173
6836.00   0.14930785
6838.00   0.14878490
6840.00   0.14727547
6842.00   0.14585512
6844.00   0.14240409
6846.00   0.13753846
6848.00   0.13121331
6850.00   0.12638529
6852.00   0.12206533
6854.00   0.12157339
6856.00   0.12488169
6858.00   0.12507841
6860.00   0.12398452
6862.00   0.12273413
6864.00   0.11977379
6866.00   0.11542343
6868.00   0.11227594
6870.00   0.10828674
6872.00   0.10668159
6874.00   0.10982007
6876.00   0.11343670
6878.00   0.11341313
6880.00   0.11182596
6882.00   0.11009059
6884.00   0.10600098
6886.00   0.10453866
6888.00   0.10829433
6890.00   0.11056038
6892.00   0.10592487
6894.00   0.10009468
6896.00   0.09921092
6898.00   0.10155297
6900.00   0.10101070
6902.00   0.10045086
6904.00   0.10015041
6906.00   0.10051043
6908.00   0.10241814
6910.00   0.10219427
6912.00   0.09963076
6914.00   0.09885219
6916.00   0.10161889
6918.00   0.10354190
6920.00   0.10172740
6922.00   0.09775700
6924.00   0.09539009
6926.00   0.09365840
6928.00   0.09288580
6930.00   0.09279840
6932.00   0.09352655
6934.00   0.09481323
6936.00   0.09426261
6938.00   0.09368342
6940.00   0.09425258
6942.00   0.09588066
6944.00   0.09886087
6946.00   0.09968588
6948.00   0.10012947
6950.00   0.10006468
6952.00   0.09804561
6954.00   0.09510540
6956.00   0.09389023
6958.00   0.09374778
6960.00   0.09266838
6962.00   0.09058684
6964.00   0.08986893
6966.00   0.09067731
6968.00   0.09161458
6970.00   0.09237219
6972.00   0.09371934
6974.00   0.09442207
6976.00   0.09454972
6978.00   0.09336461
6980.00   0.09087995
6982.00   0.08840621
6984.00   0.08756917
6986.00   0.08759208
6988.00   0.08675819
6990.00   0.08528473
6992.00   0.08397377
6994.00   0.08293399
6996.00   0.08379599
6998.00   0.08476580
7000.00   0.08557000
7002.00   0.08564738
7004.00   0.08518486
7006.00   0.08381539
7008.00   0.08248906
7010.00   0.08156351
7012.00   0.07922217
7014.00   0.07778839
7016.00   0.07936610
7018.00   0.08374251
7020.00   0.08416776
7022.00   0.08158433
7024.00   0.08006832
7026.00   0.07943469
7028.00   0.07949127
7030.00   0.07910711
7032.00   0.07803495
7034.00   0.07583388
7036.00   0.07209734
7038.00   0.07035364
7040.00   0.06965304
7042.00   0.07005546
7044.00   0.07073396
7046.00   0.07132492
7048.00   0.07239222
7050.00   0.07466515
7052.00   0.07595967
7054.00   0.07598720
7056.00   0.07634450
7058.00   0.07703293
7060.00   0.07827564
7062.00   0.08006952
7064.00   0.08242561
7066.00   0.08387589
7068.00   0.08527993
7070.00   0.08715399
7072.00   0.08790147
7074.00   0.08943852
7076.00   0.09418893
7078.00   0.10149932
7080.00   0.10444984
7082.00   0.10397578
7084.00   0.10485863
7086.00   0.10591967
7088.00   0.10766556
7090.00   0.11055218
7092.00   0.11419743
7094.00   0.11696627
7096.00   0.11886322
7098.00   0.12185121
7100.00   0.12602474
7102.00   0.12981251
7104.00   0.13234553
7106.00   0.13367967
7108.00   0.13400451
7110.00   0.13217386
7112.00   0.13275119
7114.00   0.13592696
7116.00   0.13977469
7118.00   0.14138860
7120.00   0.14106868
7122.00   0.14128650
7124.00   0.14084862
7126.00   0.14140392
7128.00   0.14327499
7130.00   0.14562763
7132.00   0.14796512
7134.00   0.15144988
7136.00   0.15273230
7138.00   0.15114918
7140.00   0.15047274
7142.00   0.15170372
7144.00   0.15334996
7146.00   0.15228280
7148.00   0.15009265
7150.00   0.15086529
7152.00   0.15441920
7154.00   0.15670002
7156.00   0.15899614
7158.00   0.15847109
7160.00   0.15586899
7162.00   0.15373300
7164.00   0.15401150
7166.00   0.15718839
7168.00   0.15881111
7170.00   0.16034789
7172.00   0.15880612
7174.00   0.15425189
7176.00   0.15047473
7178.00   0.14948627
7180.00   0.15087797
7182.00   0.15061780
7184.00   0.14956529
7186.00   0.14733592
7188.00   0.14137430
7190.00   0.14222069
7192.00   0.15149722
7194.00   0.16013251
7196.00   0.16200940
7198.00   0.16036121
7200.00   0.15769602
7202.00   0.15055771
7204.00   0.14733601
7206.00   0.14645434
7208.00   0.14679074
7210.00   0.14917430
7212.00   0.15315460
7214.00   0.15402982
7216.00   0.15328296
7218.00   0.15039403
7220.00   0.14377619
7222.00   0.14037046
7224.00   0.14088580
7226.00   0.14277057
7228.00   0.14561275
7230.00   0.15095404
7232.00   0.15269629
7234.00   0.15061510
7236.00   0.15006138
7238.00   0.15027115
7240.00   0.14889243
7242.00   0.14725823
7244.00   0.14502528
7246.00   0.14225278
7248.00   0.13812035
7250.00   0.13596926
7252.00   0.13454153
7254.00   0.13472240
7256.00   0.13554807
7258.00   0.13591470
7260.00   0.13504754
7262.00   0.13305011
7264.00   0.13271710
7266.00   0.13273369
7268.00   0.13403362
7270.00   0.13558962
7272.00   0.13702666
7274.00   0.13775998
7276.00   0.13847483
7278.00   0.13661484
7280.00   0.13210301
7282.00   0.12912448
7284.00   0.12779332
7286.00   0.12712002
7288.00   0.12762597
7290.00   0.13039516
7292.00   0.13206492
7294.00   0.13145864
7296.00   0.13097321
7298.00   0.13197170
7300.00   0.13328189
7302.00   0.13638116
7304.00   0.14089167
7306.00   0.14360442
7308.00   0.14499806
7310.00   0.14664524
7312.00   0.14846921
7314.00   0.15125926
7316.00   0.15231537
7318.00   0.15164553
7320.00   0.15041652
7322.00   0.14820392
7324.00   0.14604426
7326.00   0.14300792
7328.00   0.14212595
7330.00   0.14430591
7332.00   0.14821721
7334.00   0.14995397
7336.00   0.15092904
7338.00   0.15046503
7340.00   0.14768931
7342.00   0.14634528
7344.00   0.14739491
7346.00   0.14897725
7348.00   0.14982014
7350.00   0.15111705
7352.00   0.15245332
7354.00   0.15297280
7356.00   0.15333571
7358.00   0.15499287
7360.00   0.15577237
7362.00   0.15649604
7364.00   0.15841393
7366.00   0.16067977
7368.00   0.16366143
7370.00   0.16487314
7372.00   0.16469252
7374.00   0.16174190
7376.00   0.15813827
7378.00   0.15493938
7380.00   0.15520668
7382.00   0.15864942
7384.00   0.16174948
7386.00   0.16529444
7388.00   0.16632079
7390.00   0.16721538
7392.00   0.16808035
7394.00   0.16718398
7396.00   0.16489657
7398.00   0.16369844
7400.00   0.16204830
7402.00   0.16129438
7404.00   0.16170260
7406.00   0.16266909
7408.00   0.16386381
7410.00   0.16508479
7412.00   0.16722337
7414.00   0.17139068
7416.00   0.17388438
7418.00   0.17514959
7420.00   0.17725260
7422.00   0.17861070
7424.00   0.17925111
7426.00   0.18081175
7428.00   0.18340303
7430.00   0.18504801
7432.00   0.18637699
7434.00   0.18779285
7436.00   0.18968906
7438.00   0.19153758
7440.00   0.19181380
7442.00   0.19108463
7444.00   0.19100425
7446.00   0.18984050
7448.00   0.18785007
7450.00   0.18805333
7452.00   0.18951203
7454.00   0.18939037
7456.00   0.18904377
7458.00   0.18868628
7460.00   0.18763292
7462.00   0.18551929
7464.00   0.18405338
7466.00   0.18298750
7468.00   0.18156797
7470.00   0.17964944
7472.00   0.17804074
7474.00   0.17674844
7476.00   0.17592863
7478.00   0.17340107
7480.00   0.17349784
7482.00   0.17791701
7484.00   0.18290447
7486.00   0.18660154
7488.00   0.19303015
7490.00   0.19259056
7492.00   0.18171058
7494.00   0.17290553
7496.00   0.16952749
7498.00   0.16896072
7500.00   0.16830872
7502.00   0.16878267
7504.00   0.16772004
7506.00   0.16552385
7508.00   0.16441167
7510.00   0.16460305
7512.00   0.16602736
7514.00   0.16648459
7516.00   0.16659474
7518.00   0.16723510
7520.00   0.16853654
7522.00   0.16885339
7524.00   0.17086695
7526.00   0.17191745
7528.00   0.16796608
7530.00   0.16140219
7532.00   0.15907607
7534.00   0.15974969
7536.00   0.15923978
7538.00   0.15896375
7540.00   0.15904916
7542.00   0.15952493
7544.00   0.16128691
7546.00   0.16057637
7548.00   0.15725513
7550.00   0.15405395
7552.00   0.15176502
7554.00   0.15111695
7556.00   0.15125791
7558.00   0.15310460
7560.00   0.15366360
7562.00   0.15310484
7564.00   0.15388113
7566.00   0.15746243
7568.00   0.15894430
7570.00   0.15843672
7572.00   0.15869962
7574.00   0.15811372
7576.00   0.15634882
7578.00   0.15285340
7580.00   0.14572132
7582.00   0.14213082
7584.00   0.14388100
7586.00   0.14696659
7588.00   0.14841839
7590.00   0.15080822
7592.00   0.15415897
7594.00   0.15761281
#7596.00   0.16511931
#7598.00   0.17806676
#7600.00   0.18148988
#7602.00   0.17712811
#7604.00   0.15450930
#7606.00   0.16356683
#7608.00   0.14647265
#7610.00   0.22994263
#7612.00   0.53117552
#7614.00   0.86384933
#7616.00   0.83367649
#7618.00   0.47226746
#7620.00   0.31915842
#7622.00   0.21437383
#7624.00   0.14934403
7626.00   0.13465014
7628.00   0.14031818
7630.00   0.13901396
7632.00   0.14641991
7634.00   0.14863718
7636.00   0.14878813
7638.00   0.14469144
7640.00   0.13298028
7642.00   0.12923947
7644.00   0.13270090
7646.00   0.13555848
7648.00   0.13335615
7650.00   0.12996607
7652.00   0.12900496
7654.00   0.12930058
7656.00   0.12774501
7658.00   0.12604235
7660.00   0.12566502
7662.00   0.12574605
7664.00   0.12517939
7666.00   0.12366678
7668.00   0.12117279
7670.00   0.12075257
7672.00   0.12257386
7674.00   0.12306314
7676.00   0.12200472
7678.00   0.12089359
7680.00   0.11992035
7682.00   0.11909498
7684.00   0.11875239
7686.00   0.11840436
7688.00   0.11803319
7690.00   0.12039157
7692.00   0.12303222
7694.00   0.12275360
7696.00   0.12225913
7698.00   0.12121109
7700.00   0.11799903
7702.00   0.11571360
7704.00   0.11656412
7706.00   0.11833071
7708.00   0.11883264
7710.00   0.11964434
7712.00   0.11746391
7714.00   0.11193855
7716.00   0.10804110
7718.00   0.10554260
7720.00   0.10348775
7722.00   0.10361754
7724.00   0.10544789
7726.00   0.10646266
7728.00   0.10774875
7730.00   0.11089972
7732.00   0.11812595
7734.00   0.12011691
7736.00   0.11449108
7738.00   0.10650846
7740.00   0.10590081
7742.00   0.10982410
7744.00   0.11042208
7746.00   0.10832701
7748.00   0.10765558
7750.00   0.10767735
7752.00   0.10828457
7754.00   0.10825774
7756.00   0.10651301
7758.00   0.10579424
7760.00   0.10578145
7762.00   0.10623704
7764.00   0.10749419
7766.00   0.10833016
7768.00   0.10663965
7770.00   0.10331164
7772.00   0.10257896
7774.00   0.10335145
7776.00   0.10336793
7778.00   0.10334415
7780.00   0.10368577
7782.00   0.10207355
7784.00   0.09810627
7786.00   0.09707525
7788.00   0.09773988
7790.00   0.09765436
7792.00   0.09614727
7794.00   0.09693088
7796.00   0.09990143
7798.00   0.10405540
7800.00   0.10781223
7802.00   0.11228020
7804.00   0.11538896
7806.00   0.11819038
7808.00   0.11779775
7810.00   0.11461913
7812.00   0.11232973
7814.00   0.11071015
7816.00   0.10913954
7818.00   0.10960124
7820.00   0.11251292
7822.00   0.11334754
7824.00   0.11193576
7826.00   0.11070535
7828.00   0.11142375
7830.00   0.11470958
7832.00   0.11886464
7834.00   0.12432580
7836.00   0.12765348
7838.00   0.12940529
7840.00   0.13177302
7842.00   0.13456609
7844.00   0.14051820
7846.00   0.14604337
7848.00   0.15047292
7850.00   0.15180382
7852.00   0.15187685
7854.00   0.14937399
7856.00   0.14270858
7858.00   0.13727729
7860.00   0.13690238
7862.00   0.14008308
7864.00   0.14321601
7866.00   0.14792812
7868.00   0.15273261
7870.00   0.15713532
7872.00   0.15978631
7874.00   0.16271506
7876.00   0.16409878
7878.00   0.16508770
7880.00   0.16591986
7882.00   0.16661323
7884.00   0.16537891
7886.00   0.16508985
7888.00   0.16569461
7890.00   0.16671431
7892.00   0.16856372
7894.00   0.17133898
7896.00   0.17193604
7898.00   0.16880153
7900.00   0.16857307
7902.00   0.17289905
7904.00   0.18235442
7906.00   0.19494000
7908.00   0.21240138
7910.00   0.21638504
7912.00   0.20830647
7914.00   0.19899007
7916.00   0.18590572
7918.00   0.17335462
7920.00   0.16905909
7922.00   0.17036534
7924.00   0.16895061
7926.00   0.16792051
7928.00   0.16681314
7930.00   0.16492262
7932.00   0.15908160
7934.00   0.15235926
7936.00   0.14549477
7938.00   0.14130824
7940.00   0.13958316
7942.00   0.14001971
7944.00   0.14227355
7946.00   0.14373768
7948.00   0.14604523
7950.00   0.14598020
7952.00   0.14323156
7954.00   0.13840027
7956.00   0.13472077
7958.00   0.12914645
7960.00   0.12822720
7962.00   0.13185756
7964.00   0.13601493
7966.00   0.13892886
7968.00   0.14133731
7970.00   0.14178442
7972.00   0.13980839
7974.00   0.14006142
7976.00   0.14103068
7978.00   0.14099478
7980.00   0.14178200
7982.00   0.14103809
7984.00   0.13675831
7986.00   0.12857592
7988.00   0.12591543
7990.00   0.12777704
7992.00   0.12742224
7994.00   0.12581089
7996.00   0.12381418
7998.00   0.12040282
8000.00   0.11586427
8002.00   0.11355688
8004.00   0.11297651
8006.00   0.11197840
8008.00   0.10992156
8010.00   0.10702799
8012.00   0.10901401
8014.00   0.11549317
8016.00   0.11699680
8018.00   0.11377496
8020.00   0.11179395
8022.00   0.11016290
8024.00   0.10879394
8026.00   0.10857048
8028.00   0.10959006
8030.00   0.11049369
8032.00   0.11092870
8034.00   0.11162950
8036.00   0.11447967
8038.00   0.11978404
8040.00   0.12449827
8042.00   0.12658149
8044.00   0.12363182
8046.00   0.11507646
8048.00   0.10989675
8050.00   0.10639051
8052.00   0.10681004
8054.00   0.10736103
8056.00   0.10550857
8058.00   0.10223841
8060.00   0.09643636
8062.00   0.09624594
8064.00   0.10433580
8066.00   0.10748167
8068.00   0.10432708
8070.00   0.09965757
8072.00   0.09628751
8074.00   0.09365494
8076.00   0.09363095
8078.00   0.09669060
8080.00   0.09835034
8082.00   0.09938938
8084.00   0.09858624
8086.00   0.09699891
8088.00   0.09527917
8090.00   0.09690262
8092.00   0.10206180
8094.00   0.10512484
8096.00   0.10617307
8098.00   0.10613621
8100.00   0.10560111
8102.00   0.10449306
8104.00   0.10277720
8106.00   0.09999802
8108.00   0.09760700
8110.00   0.09553710
8112.00   0.09345819
8114.00   0.09178372
8116.00   0.09197179
8118.00   0.09321579
8120.00   0.09558269
8122.00   0.09623525
8124.00   0.09531721
8126.00   0.09522213
8128.00   0.09591023
8130.00   0.09495277
8132.00   0.09380931
8134.00   0.09415133
8136.00   0.09312389
8138.00   0.09021302
8140.00   0.08875420
8142.00   0.08929776
8144.00   0.08879724
8146.00   0.08883458
8148.00   0.08870577
8150.00   0.08685064
8152.00   0.08374025
8154.00   0.08464880
8156.00   0.08902119
8158.00   0.09071782
8160.00   0.08984484
8162.00   0.08651997
8164.00   0.08571163
8166.00   0.08667270
8168.00   0.08697297
8170.00   0.08488920
8172.00   0.08594240
8174.00   0.09169924
8176.00   0.09790623
8178.00   0.10151030
8180.00   0.10479990
8182.00   0.10557564
8184.00   0.10292854
8186.00   0.10089517
8188.00   0.09999538
8190.00   0.09823081
8192.00   0.09434009
8194.00   0.08849252
8196.00   0.08391475
8198.00   0.07885510
8200.00   0.07656382
8202.00   0.07741078
8204.00   0.07902723
8206.00   0.08148578
8208.00   0.08619534
8210.00   0.08707518
8212.00   0.08493772
8214.00   0.08448309
8216.00   0.08580104
8218.00   0.08680364
8220.00   0.08793303
8222.00   0.08826194
8224.00   0.08689069
8226.00   0.08411520
8228.00   0.08258834
8230.00   0.08020621
8232.00   0.08134934
8234.00   0.08791602
8236.00   0.09320786
8238.00   0.09319370
8240.00   0.09087382
8242.00   0.08839433
8244.00   0.08410943
8246.00   0.08109565
8248.00   0.07875449
8250.00   0.07623855
8252.00   0.07432269
8254.00   0.07245326
8256.00   0.07256862
8258.00   0.07505190
8260.00   0.07663091
8262.00   0.07749340
8264.00   0.07673045
8266.00   0.07459770
8268.00   0.07288515
8270.00   0.07290751
8272.00   0.07450574
8274.00   0.07363230
8276.00   0.07148156
8278.00   0.06689965
8280.00   0.05871628
8282.00   0.05127481
8284.00   0.05124508
8286.00   0.05604808
8288.00   0.05925155
8290.00   0.06491685
8292.00   0.06546738
8294.00   0.05840830
8296.00   0.05423936
8298.00   0.05683989
8300.00   0.06449361
8302.00   0.07069956
8304.00   0.07818860
8306.00   0.08039492
8308.00   0.07863497
8310.00   0.07879305
8312.00   0.08204253
8314.00   0.08623014
8316.00   0.08385552
8318.00   0.07594703
8320.00   0.07123683
8322.00   0.06683699
8324.00   0.06686626
8326.00   0.07299072
8328.00   0.08045772
8330.00   0.08214958
8332.00   0.07962595
8334.00   0.07613213
8336.00   0.06785682
8338.00   0.06560658
8340.00   0.07194244
8342.00   0.08258490
8344.00   0.08780196
8346.00   0.09489615
8348.00   0.09471196
8350.00   0.08447420
8352.00   0.07621349
8354.00   0.07473128
8356.00   0.07359085
8358.00   0.07455074
8360.00   0.08307042
8362.00   0.08467232
8364.00   0.08101717
8366.00   0.07753547
8368.00   0.07627996
8370.00   0.07573863
8372.00   0.07534871
8374.00   0.07558464
8376.00   0.07261071
8378.00   0.06643194
8380.00   0.06423975
8382.00   0.06500733
8384.00   0.06791646
8386.00   0.07315447
8388.00   0.08019145
8390.00   0.08465733
8392.00   0.08639496
8394.00   0.08796985
8396.00   0.09177176
8398.00   0.08980531
8400.00   0.07982293
8402.00   0.07432479
8404.00   0.07369071
8406.00   0.07331094
8408.00   0.07566553
8410.00   0.08359308
8412.00   0.08549463
8414.00   0.08038342
8416.00   0.07631776
8418.00   0.07508314
8420.00   0.07397745
8422.00   0.06852416
8424.00   0.05768325
8426.00   0.05422214
8428.00   0.05920357
8430.00   0.06419438
8432.00   0.06782529
8434.00   0.07257065
8436.00   0.07380885
8438.00   0.07126633
8440.00   0.07095685
8442.00   0.07158102
8444.00   0.07541310
8446.00   0.08362083
8448.00   0.09110028
8450.00   0.08948779
8452.00   0.07958185
8454.00   0.07652216
8456.00   0.07889640
8458.00   0.07996858
8460.00   0.07913885
8462.00   0.07879228
8464.00   0.07316709
8466.00   0.06032865
8468.00   0.05420242
8470.00   0.05168212
8472.00   0.04926625
8474.00   0.04809125
8476.00   0.04692466
8478.00   0.04366837
8480.00   0.03865512
8482.00   0.03423758
8484.00   0.02993414
8486.00   0.02870873
8488.00   0.03045454
8490.00   0.03077118
8492.00   0.03163602
8494.00   0.03214316
8496.00   0.02901079
8498.00   0.02315041
8500.00   0.02170401
8502.00   0.02381527
8504.00   0.02594134
8506.00   0.02851699
8508.00   0.03109285
8510.00   0.03516781
8512.00   0.04046644
8514.00   0.04122942
8516.00   0.03737701
8518.00   0.03646866
8520.00   0.03794044
8522.00   0.03865471
8524.00   0.03775252
8526.00   0.03506932
8528.00   0.03473892
8530.00   0.03613523
8532.00   0.03793874
8534.00   0.03954286
8536.00   0.04149700
8538.00   0.04429380
8540.00   0.04609493
8542.00   0.04717752
8544.00   0.04784636
8546.00   0.04860137
8548.00   0.04866280
8550.00   0.04981456
8552.00   0.05132394
8554.00   0.05234390
8556.00   0.05374630
8558.00   0.05538395
8560.00   0.05768996
8562.00   0.06115529
8564.00   0.06361576
8566.00   0.06502014
8568.00   0.06653530
8570.00   0.06787713
8572.00   0.06895816
8574.00   0.07145297
8576.00   0.07525169
8578.00   0.07861025
8580.00   0.08189300
8582.00   0.08492713
8584.00   0.08721458
8586.00   0.08918623
8588.00   0.09116157
8590.00   0.09217770
8592.00   0.09406462
8594.00   0.09804656
8596.00   0.10167411
8598.00   0.10346383
8600.00   0.10543418
8602.00   0.10550148
8604.00   0.10272692
8606.00   0.10182185
8608.00   0.10326077
8610.00   0.10410068
8612.00   0.10339083
8614.00   0.10222398
8616.00   0.10153240
8618.00   0.10075603
8620.00   0.09997158
8622.00   0.09955918
8624.00   0.09832640
8626.00   0.09599975
8628.00   0.09320493
8630.00   0.09047077
8632.00   0.08935038
8634.00   0.08712240
8636.00   0.08279452
8638.00   0.08209659
8640.00   0.08812597
8642.00   0.09116902
8644.00   0.09049299
8646.00   0.09026218
8648.00   0.08694648
8650.00   0.08102744
8652.00   0.08052846
8654.00   0.08667090
8656.00   0.08607015
8658.00   0.08290602
8660.00   0.08203349
8662.00   0.08318579
8664.00   0.08599118
8666.00   0.08782088
8668.00   0.08981065
8670.00   0.09020582
8672.00   0.08796150
8674.00   0.08880649
8676.00   0.09381681
8678.00   0.09883479
8680.00   0.10005433
8682.00   0.09825821
8684.00   0.09889915
8686.00   0.10029806
8688.00   0.10265256
8690.00   0.10625297
8692.00   0.11087034
8694.00   0.11392963
8696.00   0.11615565
8698.00   0.11938123
8700.00   0.12358217
8702.00   0.12653798
8704.00   0.12961771
8706.00   0.13363989
8708.00   0.13652524
8710.00   0.13786071
8712.00   0.13812698
8714.00   0.13677591
8716.00   0.13778545
8718.00   0.13925971
8720.00   0.13981701
8722.00   0.14030237
8724.00   0.14068891
8726.00   0.14353845
8728.00   0.14920617
8730.00   0.15397000
8732.00   0.15783817
8734.00   0.16060980
8736.00   0.16269404
8738.00   0.16566790
8740.00   0.16974095
8742.00   0.17508190
8744.00   0.17704296
8746.00   0.17647348
8748.00   0.17661616
8750.00   0.17772727
8752.00   0.17795109
8754.00   0.17495121
8756.00   0.16880561
8758.00   0.17012810
8760.00   0.18068694
8762.00   0.18612132
8764.00   0.18498901
8766.00   0.18382578
8768.00   0.18497478
8770.00   0.18306715
8772.00   0.18289065
8774.00   0.18485883
8776.00   0.19100453
8778.00   0.19874679
8780.00   0.20462402
8782.00   0.20182191
8784.00   0.19226357
8786.00   0.19458630
8788.00   0.20756463
8790.00   0.21419699
8792.00   0.21551795
8794.00   0.21478338
8796.00   0.21277002
8798.00   0.20954652
8800.00   0.20919342
8802.00   0.21089578
8804.00   0.21048483
8806.00   0.20875274
8808.00   0.20650331
8810.00   0.20230471
8812.00   0.19888882
8814.00   0.19736893
8816.00   0.19827274
8818.00   0.19360887
8820.00   0.17769460
8822.00   0.17042790
8824.00   0.18547574
8826.00   0.20283896
8828.00   0.19740796
8830.00   0.18456288
8832.00   0.18263899
8834.00   0.18581147
8836.00   0.18443911
8838.00   0.18892854
8840.00   0.19454510
8842.00   0.19291251
8844.00   0.18821980
8846.00   0.18678300
8848.00   0.18598720
8850.00   0.18540869
8852.00   0.18692257
8854.00   0.18919276
8856.00   0.18876371
8858.00   0.18916357
8860.00   0.19265552
8862.00   0.19834882
8864.00   0.19733540
8866.00   0.19068912
8868.00   0.18533884
8870.00   0.17853343
8872.00   0.17265826
8874.00   0.17353702
8876.00   0.17845160
8878.00   0.17608394
8880.00   0.16203909
8882.00   0.16217198
8884.00   0.17838327
8886.00   0.19459314
8888.00   0.20034910
8890.00   0.20024763
8892.00   0.18851110
8894.00   0.15762886
8896.00   0.14356616
8898.00   0.14479671
8900.00   0.15383229
8902.00   0.16374262
8904.00   0.17286489
8906.00   0.17761435
8908.00   0.17923876
8910.00   0.17428582
8912.00   0.16124572
8914.00   0.15538675
8916.00   0.15001167
8918.00   0.14530338
8920.00   0.14608972
8922.00   0.15067970
8924.00   0.14913058
8926.00   0.14198849
8928.00   0.13803761
8930.00   0.13604261
8932.00   0.13747222
8934.00   0.14127314
8936.00   0.14649620
8938.00   0.14975343
8940.00   0.15246654
8942.00   0.15504913
8944.00   0.15670784
8946.00   0.15755805
8948.00   0.15749875
8950.00   0.15557878
8952.00   0.15281539
8954.00   0.14914538
8956.00   0.14255916
8958.00   0.12995251
8960.00   0.12613193
8962.00   0.12936843
8964.00   0.13061831
8966.00   0.13064888
8968.00   0.13052047
8970.00   0.13212819
8972.00   0.13606686
8974.00   0.13825433
8976.00   0.13540986
8978.00   0.13060464
8980.00   0.12970988
8982.00   0.13157959
8984.00   0.13032246
8986.00   0.12510923
8988.00   0.12217619
8990.00   0.12230759
8992.00   0.12127533
8994.00   0.11987210
8996.00   0.12003715
8998.00   0.11850800
9000.00   0.11469679
9002.00   0.11218153
9004.00   0.11174726
9006.00   0.11150983
9008.00   0.10945807
9010.00   0.10601559
9012.00   0.10669804
9014.00   0.11103200
9016.00   0.11307639
9018.00   0.11422035
9020.00   0.11263712
9022.00   0.10781463
9024.00   0.10281685
9026.00   0.10017519
9028.00   0.09782149
9030.00   0.09928299
9032.00   0.10805294
9034.00   0.11258315
9036.00   0.11080674
9038.00   0.10624355
9040.00   0.10256841
9042.00   0.09879657
9044.00   0.09853832
9046.00   0.10294386
9048.00   0.10374419
9050.00   0.10151651
9052.00   0.09918941
9054.00   0.09697929
9056.00   0.09349974
9058.00   0.09205404
9060.00   0.09220451
9062.00   0.09335788
9064.00   0.09636489
9066.00   0.09651066
9068.00   0.09376408
9070.00   0.09062285
9072.00   0.08798471
9074.00   0.08553716
9076.00   0.08202758
9078.00   0.07615215
9080.00   0.07177076
9082.00   0.07140989
9084.00   0.07268755
9086.00   0.07178338
9088.00   0.07080167
9090.00   0.07135106
9092.00   0.07248110
9094.00   0.07381182
9096.00   0.07846735
9098.00   0.08105619
9100.00   0.07930829
9102.00   0.07680132
9104.00   0.07204357
9106.00   0.06159812
9108.00   0.05509913
9110.00   0.05481375
9112.00   0.05860252
9114.00   0.06186795
9116.00   0.06371575
9118.00   0.06507253
9120.00   0.06601464
9122.00   0.06720168
9124.00   0.06810186
9126.00   0.06964579
9128.00   0.07036630
9130.00   0.06925935
9132.00   0.06963132
9134.00   0.07136900
9136.00   0.07060762
9138.00   0.06601619
9140.00   0.06328493
9142.00   0.06288156
9144.00   0.06409712
9146.00   0.06568413
9148.00   0.06856847
9150.00   0.06922427
9152.00   0.06709280
9154.00   0.06636469
9156.00   0.06827003
9158.00   0.06821490
9160.00   0.06759490
9162.00   0.07002472
9164.00   0.07072274
9166.00   0.06938589
9168.00   0.06910610
9170.00   0.07137220
9172.00   0.07150205
9174.00   0.07154889
9176.00   0.07353763
9178.00   0.07332934
9180.00   0.07143328
9182.00   0.07096776
9184.00   0.07134906
9186.00   0.07210860
9188.00   0.07556496
9190.00   0.07837078
9192.00   0.07687002
9194.00   0.07323470
9196.00   0.07287274
9198.00   0.07328879
9200.00   0.07510047
9202.00   0.08171981
9204.00   0.08708390
9206.00   0.08703531
9208.00   0.08520972
9210.00   0.08541128
9212.00   0.08654547
9214.00   0.08672870
9216.00   0.08604176
9218.00   0.08353615
9220.00   0.08218315
9222.00   0.08015873
9224.00   0.07979618
9226.00   0.08184908
9228.00   0.08417015
9230.00   0.08398494
9232.00   0.08361541
9234.00   0.08780722
9236.00   0.09193744
9238.00   0.08732246
9240.00   0.07542573
9242.00   0.07132039
9244.00   0.07350640
9246.00   0.07594472
9248.00   0.07772311
9250.00   0.07720454
9252.00   0.07459339
9254.00   0.06966479
9256.00   0.07020398
9258.00   0.07809831
9260.00   0.08071932
9262.00   0.07760836
9264.00   0.07591548
9266.00   0.07583026
9268.00   0.07494618
9270.00   0.07614055
9272.00   0.08066643
9274.00   0.08205887
9276.00   0.07975315
9278.00   0.07718087
9280.00   0.07659913
9282.00   0.07469945
9284.00   0.07165789
9286.00   0.06763035
9288.00   0.06921762
9290.00   0.07474067
9292.00   0.07972262
9294.00   0.08445519
9296.00   0.08652974
9298.00   0.08967051
9300.00   0.09506709
9302.00   0.08912332
9304.00   0.06311148
9306.00   0.05207118
9308.00   0.05958947
9310.00   0.07486934
9312.00   0.08480789
9314.00   0.08915679
9316.00   0.08018900
9318.00   0.05256066
9320.00   0.04228801
9322.00   0.04064084
9324.00   0.04607418
9326.00   0.05833228
9328.00   0.06903519
9330.00   0.07485048
9332.00   0.07884050
9334.00   0.09204948
9336.00   0.10983906
9338.00   0.11671529
9340.00   0.11515278
9342.00   0.10249932
9344.00   0.09591215
9346.00   0.09355297
9348.00   0.09245978
9350.00   0.08861221
9352.00   0.08277049
9354.00   0.08155087
9356.00   0.08541643
9358.00   0.08362633
9360.00   0.07883087
9362.00   0.08297619
9364.00   0.09401312
9366.00   0.10924233
9368.00   0.13651641
9370.00   0.14298487
9372.00   0.13624873
9374.00   0.13453418
9376.00   0.11054531
9378.00   0.04280349
9380.00   0.02505501
9382.00   0.06800185
9384.00   0.10428322
9386.00   0.11860335
9388.00   0.12218398
9390.00   0.12487995
9392.00   0.12500972
9394.00   0.12727803
9396.00   0.12339143
9398.00   0.11927931
9400.00   0.12313558
9402.00   0.12786755
9404.00   0.12998712
9406.00   0.13384369
9408.00   0.13372056
9410.00   0.12465863
9412.00   0.11883096
9414.00   0.12025614
9416.00   0.12709159
9418.00   0.14197736
9420.00   0.16747325
9422.00   0.17952566
9424.00   0.18376765
9426.00   0.17949579
9428.00   0.16376235
9430.00   0.14806982
9432.00   0.14006479
9434.00   0.12894033
9436.00   0.11866646
9438.00   0.10793779
9440.00   0.11045479
9442.00   0.12252314
9444.00   0.13391121
9446.00   0.14406737
9448.00   0.14726439
9450.00   0.14179323
9452.00   0.12648766
9454.00   0.12063703
9456.00   0.12023193
9458.00   0.12618220
9460.00   0.13235305
9462.00   0.13469241
9464.00   0.13335666
9466.00   0.12382257
9468.00   0.11606594
9470.00   0.10844407
9472.00   0.11018471
9474.00   0.11115346
9476.00   0.11810063
9478.00   0.12656337
9480.00   0.12844724
9482.00   0.12284204
9484.00   0.11004193
9486.00   0.10177769
9488.00   0.09171226
9490.00   0.08821595
9492.00   0.08871360
9494.00   0.08768421
9496.00   0.09211085
9498.00   0.10206864
9500.00   0.11137888
9502.00   0.12280242
9504.00   0.13100489
9506.00   0.13127582
9508.00   0.12876504
9510.00   0.12318120
9512.00   0.11272194
9514.00   0.10683264
9516.00   0.10159002
9518.00   0.09957608
9520.00   0.11474475
9522.00   0.13640786
9524.00   0.14094514
9526.00   0.14020431
9528.00   0.13816199
9530.00   0.12534804
9532.00   0.12169345
9534.00   0.13672963
9536.00   0.15228422
9538.00   0.14941347
9540.00   0.13747029
9542.00   0.13890893
9544.00   0.14968899
9546.00   0.14842299
9548.00   0.14643784
9550.00   0.14306017
9552.00   0.12360364
9554.00   0.10224267
9556.00   0.08688762
9558.00   0.06781188
9560.00   0.06401412
9562.00   0.08593472
9564.00   0.10283556
9566.00   0.10815740
9568.00   0.11061393
9570.00   0.11948724
9572.00   0.13160766
9574.00   0.12889626
9576.00   0.10467695
9578.00   0.09873491
9580.00   0.10653321
9582.00   0.11519597
9584.00   0.12227150
9586.00   0.13071938
9588.00   0.13483860
9590.00   0.13669626
9592.00   0.13355117
9594.00   0.12208595
9596.00   0.11333512
9598.00   0.11572175
9600.00   0.12038881
9602.00   0.12351670
9604.00   0.13193268
9606.00   0.13576972
9608.00   0.12822704
9610.00   0.11292389
9612.00   0.09755304
9614.00   0.08828846
9616.00   0.08991342
9618.00   0.10053507
9620.00   0.10353380
9622.00   0.10549220
9624.00   0.10059679
9626.00   0.09071394
9628.00   0.08593164
9630.00   0.08288879
9632.00   0.08095322
9634.00   0.08369388
9636.00   0.09513878
9638.00   0.09766012
9640.00   0.09731496
9642.00   0.10073118
9644.00   0.09858533
9646.00   0.09033106
9648.00   0.09280083
9650.00   0.10992926
9652.00   0.10905577
9654.00   0.08371711
9656.00   0.06240231
9658.00   0.06311422
9660.00   0.08755142
9662.00   0.09306697
9664.00   0.08428745
9666.00   0.07656237
9668.00   0.07847981
9670.00   0.08561995
9672.00   0.08705102
9674.00   0.08700225
9676.00   0.08945931
9678.00   0.09199565
9680.00   0.09625439
9682.00   0.10337529
9684.00   0.11192648
9686.00   0.11925904
9688.00   0.12560163
9690.00   0.12935999
9692.00   0.12871608
9694.00   0.12382019
9696.00   0.11159248
9698.00   0.10607028
9700.00   0.10762581
9702.00   0.10933031
9704.00   0.10304859
9706.00   0.09046889
9708.00   0.08121496
9710.00   0.06984517
9712.00   0.06629605
9714.00   0.07490136
9716.00   0.08445948
9718.00   0.08149318
9720.00   0.07179255
9722.00   0.07272499
9724.00   0.07884632
9726.00   0.08035784
9728.00   0.07876948
9730.00   0.08029203
9732.00   0.08494683
9734.00   0.09005715
9736.00   0.09227185
9738.00   0.09534436
9740.00   0.09579742
9742.00   0.08954103
9744.00   0.08892175
9746.00   0.09535190
9748.00   0.09565042
9750.00   0.09626977
9752.00   0.09948617
9754.00   0.09390966
9756.00   0.07689319
9758.00   0.07007781
9760.00   0.07002513
9762.00   0.07262725
9764.00   0.07564332
9766.00   0.07813091
9768.00   0.08417531
9770.00   0.09504961
9772.00   0.09355106
9774.00   0.07996372
9776.00   0.06807649
9778.00   0.05625186
9780.00   0.06141220
9782.00   0.07136432
9784.00   0.07859163
9786.00   0.07406925
9788.00   0.06537583
9790.00   0.06555643
9792.00   0.06816125
9794.00   0.08137412
9796.00   0.08150783
9798.00   0.06819629
9800.00   0.06091091
9802.00   0.05597811
9804.00   0.05522962
9806.00   0.06394968
9808.00   0.07551112
9810.00   0.08028067
9812.00   0.08432465
9814.00   0.08752717
9816.00   0.08960730
9818.00   0.08815451
9820.00   0.08315648
9822.00   0.08004449
9824.00   0.07783743
9826.00   0.07438135
9828.00   0.07469352
9830.00   0.07889754
9832.00   0.08057944
9834.00   0.08128947
9836.00   0.07750248
9838.00   0.07379466
9840.00   0.06653040
9842.00   0.04504354
9844.00   0.01099127
9846.00   0.00547855
9848.00   0.02354277
9850.00   0.04681640
9852.00   0.08386240
9854.00   0.10890138
9856.00   0.10915347
9858.00   0.09610716
9860.00   0.09714516
9862.00   0.10475073
9864.00   0.11080349
9866.00   0.12184750
9868.00   0.12912951
9870.00   0.11962407
9872.00   0.10742121
9874.00   0.09641064
9876.00   0.07643525
9878.00   0.06274320
9880.00   0.06800723
9882.00   0.07674838
9884.00   0.07807594
9886.00   0.07414544
9888.00   0.06704474
9890.00   0.05907711
9892.00   0.05634255
9894.00   0.05317102
9896.00   0.05061746
9898.00   0.05421218
9900.00   0.05709096
9902.00   0.06864480
9904.00   0.09463046
9906.00   0.10661192
9908.00   0.10679694
9910.00   0.09961529
9912.00   0.09046412
9914.00   0.07997163
9916.00   0.07188379
9918.00   0.07397442
9920.00   0.08040493
9922.00   0.09603244
9924.00   0.08853608
9926.00   0.05938823
9928.00   0.05003810
9930.00   0.05429842
9932.00   0.05645737
9934.00   0.06947224
9936.00   0.09837193
9938.00   0.10148755
9940.00   0.07802342
9942.00   0.05536053
9944.00   0.02980160
9946.00   -0.00083936
9948.00   -0.00325039
9950.00   0.02389721
9952.00   0.04906483
9954.00   0.07837301
9956.00   0.10043198
9958.00   0.11383524
9960.00   0.08645545
9962.00   0.06225008
9964.00   0.05576188
9966.00   0.05475197
9968.00   0.05649689
9970.00   0.04622703
9972.00   0.03064907
9974.00   0.02620472
9976.00   0.03926482
9978.00   0.05557186
9980.00   0.06774518
9982.00   0.08450102
9984.00   0.09967170
9986.00   0.10288710
9988.00   0.10296535
9990.00   0.11000184
9992.00   0.11492991
9994.00   0.12393275
9996.00   0.13727546
9998.00   0.13067636
10000.00   0.09693043
10002.00   0.08680876
10004.00   0.08657995
10006.00   0.07665750
10008.00   0.07159702
10010.00   0.07714862
10012.00   0.09434393
10014.00   0.12392379
10016.00   0.14735210
10018.00   0.19041185
10020.00   0.20808068
10022.00   0.15630926
10024.00   0.06188733
10026.00   0.02907007
10028.00   0.02450983
10030.00   0.04751082
10032.00   0.13582631
10034.00   0.18346574
10036.00   0.14629323
10038.00   0.07779049
10040.00   0.05513857
10042.00   0.04661052
10044.00   0.04535978
10046.00   0.06857994
10048.00   0.09166343
10050.00   0.09112210
10052.00   0.06565168
10054.00   0.07080418
10056.00   0.10138818
10058.00   0.11188062
10060.00   0.09055343
10062.00   0.09642978
10064.00   0.12147123
10066.00   0.12963510
10068.00   0.13782281
10070.00   0.14686441
10072.00   0.15336763
10074.00   0.15291331
10076.00   0.17025230
10078.00   0.20170407
10080.00   0.19775860
10082.00   0.17689983
10084.00   0.16954153
10086.00   0.15746636
10088.00   0.13193750
10090.00   0.11878450
10092.00   0.13546595
10094.00   0.14418485
10096.00   0.12382498
10098.00   0.10310872
10100.00   0.11090913
10102.00   0.14056893
10104.00   0.13740401
10106.00   0.09868068
10108.00   0.07366390
10110.00   0.07976046
10112.00   0.10959878
10114.00   0.12595689
10116.00   0.13443789
10118.00   0.12733344
10120.00   0.09522567
10122.00   0.08944105
10124.00   0.11341298
10126.00   0.12219276
10128.00   0.09187066
10130.00   0.05900923
10132.00   0.05883864
10134.00   0.08089348
10136.00   0.07724878
10138.00   0.07396456
10140.00   0.09332299
10142.00   0.12537914
10144.00   0.15094434
10146.00   0.11430987
10148.00   0.01133443
10150.00   -0.03264369
10152.00   -0.03704193
10154.00   -0.00103078
10156.00   0.06981523
10158.00   0.12517082
10160.00   0.13548791
10162.00   0.12972058
10164.00   0.15119534
10166.00   0.19183780
10168.00   0.18736704
10170.00   0.16587864
10172.00   0.13345175
10174.00   0.11579894
10176.00   0.12813649
10178.00   0.12991042
10180.00   0.11498963
10182.00   0.09990404
10184.00   0.10947326
10186.00   0.11199633
10188.00   0.10460705
10190.00   0.11686719
10192.00   0.11629999
10194.00   0.09571721
10196.00   0.07775132
10198.00   0.09033065
10200.00   0.11165894
10202.00   0.09183881
10204.00   0.05020688
10206.00   0.05216394
10208.00   0.07281487
10210.00   0.10355468
10212.00   0.19976419
10214.00   0.22310393
10216.00   0.11077736
10218.00   -0.01412056
10220.00   -0.03282546
10222.00   -0.00021203
10224.00   0.02059294
10226.00   0.05891116
10228.00   0.08691395
10230.00   0.12984196
10232.00   0.15703828
10234.00   0.11370654
10236.00   0.03484365
10238.00   0.00738740
10240.00   -0.00370808
10242.00   0.01214800
10244.00   0.09645374
10246.00   0.15304159
10248.00   0.15541029
10250.00   0.15471473
10252.00   0.13542917
10254.00   0.07829940
10256.00   0.07603138
10258.00   0.14806821
10260.00   0.18690221
10262.00   0.17596213
10264.00   0.15735113
10266.00   0.19094003
10268.00   0.24086721
10270.00   0.26266561
10272.00   0.23863836
10274.00   0.29641107
10276.00   0.49409282
10278.00   0.84963544
10280.00   0.90433566
10282.00   0.68562464
10284.00   0.52222714
10286.00   0.36026995
10288.00   0.24871557
10290.00   0.16225979
10292.00   0.05744180
10294.00   0.01470847
10296.00   0.06621047
10298.00   0.06598901
10300.00   0.02177477
10302.00   0.06258507
10304.00   0.22538535
10306.00   0.27380832
10308.00   0.20534749
10310.00   0.11158641
10312.00   0.04920061
10314.00   -0.01636544
10316.00   -0.00706758
10318.00   0.09992241
10320.00   0.13401737
10322.00   0.14426079
10324.00   0.17136314
10326.00   0.13328580
10328.00   0.03943455
10330.00   0.04516301
10332.00   0.17397662
10334.00   0.22281856
10336.00   0.21310060
10338.00   0.17320658
10340.00   0.12102484
10342.00   0.04985568
10344.00   0.01751312
10346.00   -0.02700367
10348.00   0.04401703
10350.00   0.31436630
10352.00   0.48549663
10354.00   0.37166387
10356.00   0.09597217
10358.00   0.02334387
10360.00   0.06005389
10362.00   0.08387958
10364.00   0.09776583
10366.00   0.12349095
10368.00   0.20552123
10370.00   0.29102980
10372.00   0.24166540
10374.00   0.08297189
10376.00   0.00968069
10378.00   -0.02709960
10380.00   -0.01716318
10382.00   0.08325250
10384.00   0.16783267
10386.00   0.13238619
10388.00   0.03359020
10390.00   0.02040769
10392.00   0.08582910
10394.00   0.08479654
10396.00   0.02238703
10398.00   0.01074819
10400.00   0.06872293
10402.00   0.17053121
10404.00   0.23680459
10406.00   0.30694330
10408.00   0.27359733
10410.00   0.15169995
10412.00   0.11901565
10414.00   0.12049101
10416.00   0.06629138
10418.00   0.04075661
10420.00   0.04769146
10422.00   0.08939285
10424.00   0.15814693
10426.00   0.16949904
10428.00   0.12057077
10430.00   0.05384144
10432.00   0.07135191
10434.00   0.15582319
10436.00   0.16413103
10438.00   0.07348546
10440.00   0.04227702
10442.00   0.10346699
10444.00   0.17424563
10446.00   0.17958830
10448.00   0.14192411
10450.00   0.13109175
10452.00   0.13403584
10454.00   0.15053896
10456.00   0.15087597
10458.00   0.14783269
10460.00   0.19364567
10462.00   0.30228357
10464.00   0.35414322
10466.00   0.37763021
10468.00   0.34446634
10470.00   0.27485048
10472.00   0.20033632
10474.00   0.11542787
10476.00   0.07093683
10478.00   0.06695682
10480.00   0.09987848
10482.00   0.09285525
10484.00   0.05690893
10486.00   0.03672185
10488.00   0.04463344
10490.00   0.05085544
10492.00   0.04898478
10494.00   0.04861429
10496.00   0.05731787
10498.00   0.07176658
10500.00   0.09196318
10502.00   0.11650016
10504.00   0.11536616
10506.00   0.08743905
10508.00   0.04027554
10510.00   0.02961471
10512.00   0.04706747
10514.00   0.07679010
10516.00   0.11624684
10518.00   0.10901086
10520.00   0.08396221
10522.00   0.04534726
10524.00   0.02039971
10526.00   0.00155793
10528.00   0.01428681
10530.00   0.05382424
10532.00   0.07537697
10534.00   0.07951537
10536.00   0.08008485
10538.00   0.09799872
10540.00   0.11676417
10542.00   0.10871100
10544.00   0.08647835
10546.00   0.07947934
10548.00   0.02014523
10550.00   -0.05256915
10552.00   -0.02334874
10554.00   0.06876836
10556.00   0.08877898
10558.00   0.05348882
10560.00   0.04753940
10562.00   0.03878120
10564.00   0.02637585
10566.00   0.03590461
10568.00   0.04479320
10570.00   0.05485739
10572.00   0.07915596
10574.00   0.11098060
10576.00   0.12987709
10578.00   0.10357318
10580.00   0.07795245
10582.00   0.08631723
10584.00   0.08591681
10586.00   0.07181274
10588.00   0.05736493
10590.00   0.05993397
10592.00   0.06405325
10594.00   0.06414836
10596.00   0.06788361
10598.00   0.06641978
10600.00   0.06696309
10602.00   0.06772215
10604.00   0.05890196
10606.00   0.05958004
10608.00   0.08567121
10610.00   0.11728743
10612.00   0.12934130
10614.00   0.12508300
10616.00   0.11392926
10618.00   0.08492553
10620.00   0.07918223
10622.00   0.09198204
10624.00   0.10930049
10626.00   0.13127829
10628.00   0.13542473
10630.00   0.10100842
10632.00   0.02025195
10634.00   0.00080929
10636.00   0.02952975
10638.00   0.07710465
10640.00   0.10463166
10642.00   0.08861722
10644.00   0.09434060
10646.00   0.11089916
10648.00   0.12397270
10650.00   0.13068198
10652.00   0.14862869
10654.00   0.14978285
10656.00   0.12911720
10658.00   0.13611384
10660.00   0.16786453
10662.00   0.15636640
10664.00   0.08927113
10666.00   0.04357958
10668.00   0.03819219
10670.00   0.05677249
10672.00   0.06764083
10674.00   0.09718897
10676.00   0.10076016
10678.00   0.07888145
10680.00   0.03753254
10682.00   -0.00998111
10684.00   -0.01718194
10686.00   -0.00780619
10688.00   0.01267242
10690.00   0.03841707
10692.00   0.07347675
10694.00   0.09344161
10696.00   0.11452638
10698.00   0.11818087
10700.00   0.09037894
10702.00   0.06280594
10704.00   0.06502734
10706.00   0.08951962
10708.00   0.10784084
10710.00   0.13479609
10712.00   0.13542585
10714.00   0.11546766
10716.00   0.09535715
10718.00   0.08738235
10720.00   0.08692927
10722.00   0.09027451
10724.00   0.09449922
10726.00   0.10550110
10728.00   0.14637760
10730.00   0.17853698
10732.00   0.16833100
10734.00   0.14179409
10736.00   0.12612446
10738.00   0.10714213
10740.00   0.10331007
10742.00   0.12455221
10744.00   0.12121006
10746.00   0.09532976
10748.00   0.08811266
10750.00   0.12236279
10752.00   0.19317465
10754.00   0.22465227
10756.00   0.24757018
10758.00   0.22582689
10760.00   0.13645558
10762.00   0.06225364
10764.00   0.08680481
10766.00   0.17308797
10768.00   0.18058308
10770.00   0.12057117
10772.00   0.09201816
10774.00   0.08125046
10776.00   0.07145028
10778.00   0.06493824
10780.00   0.05908610
10782.00   0.05753648
10784.00   0.06604760
10786.00   0.07196989
10788.00   0.05155799
10790.00   0.04466956
10792.00   0.07945967
10794.00   0.13513454
10796.00   0.18824100
10798.00   0.26233065
10800.00   0.27546386
10802.00   0.21865221
10804.00   0.16583806
10806.00   0.13338421
10808.00   0.10957340
10810.00   0.08134412
10812.00   0.05427839
10814.00   0.04699461
10816.00   0.06365932
10818.00   0.06362517
10820.00   0.05120939
10822.00   0.06329163
10824.00   0.11391732
10826.00   0.19494608
10828.00   0.21399037
10830.00   0.18765759
10832.00   0.14662775
10834.00   0.07300181
10836.00   0.02236719
10838.00   0.03200773
10840.00   0.05916186
10842.00   0.05916186
