# File created by shivutils (I.Shivvers)
# wl(A)   flm    er(optional)
3440.00   0.37588584   0.07466532
3442.00   0.44194016   0.07611100
3444.00   0.38198870   0.07514917
3446.00   0.34397840   0.07545763
3448.00   0.50990921   0.07848843
3450.00   0.24820858   0.07824269
3452.00   0.23470002   0.07869745
3454.00   0.33180380   0.07699209
3456.00   0.36160606   0.07839858
3458.00   0.40590987   0.07921986
3460.00   0.34841314   0.07735702
3462.00   0.37714586   0.07715461
3464.00   0.31056181   0.07613882
3466.00   0.43859911   0.07852785
3468.00   0.32988349   0.07662394
3470.00   0.37072176   0.07786343
3472.00   0.26808396   0.07611381
3474.00   0.19977641   0.07375824
3476.00   0.27577361   0.07676362
3478.00   0.30860832   0.08175918
3480.00   0.31594726   0.08577789
3482.00   0.36226255   0.08713397
3484.00   0.39626205   0.08532082
3486.00   0.36755264   0.08414918
3488.00   0.43220308   0.08393209
3490.00   0.58522308   0.08608862
3492.00   0.27673310   0.08190046
3494.00   0.36785847   0.08372993
3496.00   0.29858196   0.07929549
3498.00   0.25138232   0.07931325
3500.00   0.30347532   0.08211061
3502.00   0.44456199   0.08242114
3504.00   0.48478597   0.08376028
3506.00   0.43787113   0.08302935
3508.00   0.47692403   0.08325318
3510.00   0.40273353   0.08397750
3512.00   0.26389617   0.08059641
3514.00   0.46833509   0.08398175
3516.00   0.43384242   0.08310964
3518.00   0.40891981   0.08293839
3520.00   0.44166237   0.07989124
3522.00   0.47072211   0.08304731
3524.00   0.41450003   0.08063571
3526.00   0.25768206   0.07628782
3528.00   0.45804968   0.08147329
3530.00   0.37971216   0.08001667
3532.00   0.40343288   0.07958316
3534.00   0.22589761   0.07812817
3536.00   0.47114781   0.08194121
3538.00   0.39203939   0.08076887
3540.00   0.46149224   0.08420458
3542.00   0.34723669   0.08420175
3544.00   0.41322595   0.08678369
3546.00   0.25547796   0.08194983
3548.00   0.33358359   0.08228394
3550.00   0.25805196   0.08056211
3552.00   0.35913491   0.08152391
3554.00   0.35718226   0.08136159
3556.00   0.28599304   0.08005335
3558.00   0.30732882   0.07896663
3560.00   0.38417295   0.08042040
3562.00   0.37314489   0.07680915
3564.00   0.31100747   0.07555853
3566.00   0.31955159   0.07569113
3568.00   0.43695539   0.07492652
3570.00   0.34472427   0.07229917
3572.00   0.40150908   0.07415456
3574.00   0.38721237   0.07439511
3576.00   0.40194339   0.07354001
3578.00   0.46734273   0.07207700
3580.00   0.60308772   0.07212459
3582.00   0.37071541   0.06902057
3584.00   0.44019175   0.06773458
3586.00   0.30742043   0.06524859
3588.00   0.33020306   0.06681007
3590.00   0.37389186   0.06827369
3592.00   0.29476848   0.06507301
3594.00   0.41843408   0.06613402
3596.00   0.31618690   0.06461022
3598.00   0.42074695   0.06461992
3600.00   0.20431623   0.06200102
3602.00   0.36143017   0.06308178
3604.00   0.38598642   0.06263887
3606.00   0.45299175   0.06214236
3608.00   0.42878929   0.06080590
3610.00   0.43788546   0.06223181
3612.00   0.20079923   0.05968368
3614.00   0.38927624   0.06270211
3616.00   0.36097798   0.06276010
3618.00   0.19684103   0.05913255
3620.00   0.41072911   0.06205826
3622.00   0.46120545   0.06150254
3624.00   0.38477206   0.06057999
3626.00   0.29943237   0.05916031
3628.00   0.50352544   0.06186229
3630.00   0.37270606   0.06172583
3632.00   0.32928428   0.06102816
3634.00   0.38085374   0.06073171
3636.00   0.36625075   0.05957440
3638.00   0.42268911   0.06032480
3640.00   0.40647396   0.05995418
3642.00   0.40408769   0.06137640
3644.00   0.36929569   0.06156937
3646.00   0.38582188   0.06309472
3648.00   0.45446646   0.07654952
3650.00   0.38895586   0.08289301
3652.00   0.38910142   0.07769666
3654.00   0.35473981   0.07076611
3656.00   0.36783412   0.06655717
3658.00   0.46826553   0.06060062
3660.00   0.28841534   0.05866052
3662.00   0.43332908   0.06522351
3664.00   0.30187675   0.06180578
3666.00   0.41863883   0.05633992
3668.00   0.56524760   0.05538063
3670.00   0.29828203   0.05158531
3672.00   0.35376340   0.05057880
3674.00   0.35609156   0.05025302
3676.00   0.43677270   0.05089946
3678.00   0.30977276   0.04857709
3680.00   0.31647682   0.04899103
3682.00   0.40006849   0.04973249
3684.00   0.44030628   0.04888526
3686.00   0.43483973   0.04920220
3688.00   0.32745004   0.04773195
3690.00   0.42878076   0.05042400
3692.00   0.35112664   0.04902472
3694.00   0.32879916   0.04727478
3696.00   0.36570635   0.04882545
3698.00   0.38265538   0.04875704
3700.00   0.32769579   0.05001629
3702.00   0.48005921   0.05053234
3704.00   0.25746775   0.04875984
3706.00   0.40846509   0.04931221
3708.00   0.30940932   0.04712011
3710.00   0.42942634   0.04928029
3712.00   0.40961760   0.04895745
3714.00   0.44029942   0.04868218
3716.00   0.28811890   0.04607224
3718.00   0.33393157   0.04666085
3720.00   0.30450952   0.04481653
3722.00   0.40139201   0.04680224
3724.00   0.33042574   0.04490777
3726.00   0.32097158   0.04595354
3728.00   0.40310866   0.04851926
3730.00   0.33561739   0.04752814
3732.00   0.32760012   0.04681464
3734.00   0.35082245   0.04776360
3736.00   0.34462193   0.04648957
3738.00   0.44443882   0.04867725
3740.00   0.40621808   0.04828484
3742.00   0.28859961   0.04659631
3744.00   0.39030895   0.04660130
3746.00   0.21928427   0.04484975
3748.00   0.19213779   0.04528606
3750.00   0.38975254   0.04505333
3752.00   0.31615174   0.04535386
3754.00   0.31793493   0.04547140
3756.00   0.33784807   0.04473909
3758.00   0.27880535   0.04291848
3760.00   0.25693613   0.04078282
3762.00   0.27404663   0.04119537
3764.00   0.30201581   0.04279121
3766.00   0.92426652   0.05132407
3768.00   2.16704369   0.06647677
3770.00   3.50077438   0.07904134
3772.00   2.80338001   0.07246891
3774.00   1.10513210   0.05300725
3776.00   0.31319326   0.04102566
3778.00   0.29906520   0.04043986
3780.00   0.24653125   0.03990170
3782.00   0.32623973   0.04002457
3784.00   0.23626633   0.03935463
3786.00   0.24268058   0.03900612
3788.00   0.32974699   0.03964521
3790.00   0.23558658   0.03849272
3792.00   0.34773326   0.03953046
3794.00   0.30389473   0.03989160
3796.00   0.29756764   0.03815307
3798.00   0.26215398   0.03714929
3800.00   0.25993839   0.03758938
3802.00   0.23159549   0.03706818
3804.00   0.28106663   0.03779940
3806.00   0.26076624   0.03676985
3808.00   0.21422106   0.03571707
3810.00   0.22133692   0.03574377
3812.00   0.22111896   0.03540498
3814.00   0.23414175   0.03668740
3816.00   0.22343226   0.03583402
3818.00   0.24237446   0.03567580
3820.00   0.27537555   0.03619940
3822.00   0.29227728   0.03623379
3824.00   0.24957547   0.03536503
3826.00   0.24835578   0.03603819
3828.00   0.22190346   0.03638333
3830.00   0.20469493   0.03651537
3832.00   0.27278501   0.03638345
3834.00   0.23886126   0.03567455
3836.00   0.26015165   0.03524126
3838.00   0.23078907   0.03457320
3840.00   0.29058021   0.03561047
3842.00   0.25636187   0.03543790
3844.00   0.24609511   0.03443751
3846.00   0.21980314   0.03363515
3848.00   0.21580783   0.03344531
3850.00   0.20574838   0.03290499
3852.00   0.19121376   0.03264001
3854.00   0.22274368   0.03252195
3856.00   0.28187239   0.03303564
3858.00   0.25551608   0.03244150
3860.00   0.21644920   0.03205810
3862.00   0.25880712   0.03228325
3864.00   0.16663194   0.03096823
3866.00   0.30974579   0.03242751
3868.00   0.25466475   0.03134204
3870.00   0.17772286   0.03007838
3872.00   0.24201770   0.03146700
3874.00   0.21318905   0.03168809
3876.00   0.22667634   0.03131231
3878.00   0.36724770   0.03295435
3880.00   0.30001894   0.03155386
3882.00   0.24071561   0.03061958
3884.00   0.20215009   0.03015841
3886.00   0.23268156   0.03044370
3888.00   0.27465653   0.03076756
3890.00   0.25421917   0.03011660
3892.00   0.24981959   0.03073954
3894.00   0.22047521   0.03072307
3896.00   0.26762265   0.03137151
3898.00   0.26543075   0.03138831
3900.00   0.24384487   0.03138418
3902.00   0.34951681   0.03292664
3904.00   0.28996706   0.03395631
3906.00   0.29487243   0.03665832
3908.00   0.33155671   0.03855493
3910.00   0.43025029   0.04007683
3912.00   0.51089662   0.04078511
3914.00   0.55178255   0.03990097
3916.00   0.39485872   0.03482932
3918.00   0.32277647   0.03269227
3920.00   0.31216377   0.03219074
3922.00   0.34201643   0.03229449
3924.00   0.33718461   0.03193647
3926.00   0.38929486   0.03195016
3928.00   0.35200498   0.03076940
3930.00   0.34011748   0.03077009
3932.00   0.46531039   0.03426192
3934.00   0.50832301   0.03421304
3936.00   0.33841893   0.03100771
3938.00   0.30431563   0.02985604
3940.00   0.34750256   0.03083052
3942.00   0.43117774   0.03337362
3944.00   0.42636874   0.03373251
3946.00   0.44172502   0.03270907
3948.00   0.42368808   0.03231119
3950.00   0.38379684   0.03191758
3952.00   0.35669801   0.03080422
3954.00   0.39917609   0.03120787
3956.00   0.44666737   0.03131447
3958.00   0.33903176   0.03092338
3960.00   0.46623468   0.03324021
3962.00   0.48024905   0.03354326
3964.00   0.46278906   0.03191030
3966.00   0.42331821   0.03003101
3968.00   0.45686698   0.03041332
3970.00   0.41726324   0.02989674
3972.00   0.42366284   0.03006879
3974.00   0.44180208   0.03062760
3976.00   0.48625258   0.03086803
3978.00   0.42448995   0.03065007
3980.00   0.41602388   0.03062143
3982.00   0.41094580   0.03052072
3984.00   0.40005589   0.02955106
3986.00   0.46929157   0.03070439
3988.00   0.42526197   0.03035679
3990.00   0.39320931   0.03026620
3992.00   0.39141753   0.02995835
3994.00   0.47070283   0.03118732
3996.00   0.40155575   0.03159861
3998.00   0.42214006   0.03106331
4000.00   0.43910807   0.03037791
4002.00   0.42285582   0.02995725
4004.00   0.42391896   0.02933342
4006.00   0.45617351   0.03059863
4008.00   0.49697754   0.03151924
4010.00   0.41238460   0.03068436
4012.00   0.60468364   0.03254082
4014.00   0.62534744   0.03274503
4016.00   0.64211982   0.03325395
4018.00   0.57658833   0.03411585
4020.00   0.47319213   0.03573419
4022.00   0.48263919   0.03665136
4024.00   0.42564455   0.03552558
4026.00   0.48899996   0.03401734
4028.00   0.43935755   0.03204692
4030.00   0.51084983   0.03242840
4032.00   0.44190317   0.03142500
4034.00   0.47405124   0.03112122
4036.00   0.44433481   0.03087504
4038.00   0.47623977   0.03111623
4040.00   0.47410190   0.03088426
4042.00   0.44346973   0.03267753
4044.00   0.49182147   0.04666821
4046.00   0.47733286   0.05686518
4048.00   0.54231340   0.05207751
4050.00   0.46569428   0.03615011
4052.00   0.45387706   0.03233548
4054.00   0.47753271   0.03289853
4056.00   0.46415460   0.03162221
4058.00   0.47592926   0.03054021
4060.00   0.48929566   0.03020722
4062.00   0.52253050   0.03036012
4064.00   0.48541653   0.02989307
4066.00   0.48678797   0.03017100
4068.00   0.49030188   0.03006331
4070.00   0.45685354   0.02896430
4072.00   0.44648829   0.02856087
4074.00   0.45200157   0.02950989
4076.00   0.46367934   0.03272364
4078.00   0.48649594   0.03385761
4080.00   0.47332045   0.03245546
4082.00   0.52345359   0.03219161
4084.00   0.42875224   0.03066164
4086.00   0.50412279   0.03058979
4088.00   0.44884259   0.02930509
4090.00   0.54538840   0.02906651
4092.00   0.48187625   0.02783183
4094.00   0.46884429   0.02758881
4096.00   0.45649266   0.02725575
4098.00   0.45608318   0.02762464
4100.00   0.46435383   0.02728848
4102.00   0.43480700   0.02663198
4104.00   0.47845253   0.02701495
4106.00   0.42775774   0.02662218
4108.00   0.45569375   0.02678043
4110.00   0.51458299   0.02728894
4112.00   0.51208150   0.02729650
4114.00   0.47542447   0.02708959
4116.00   0.44923604   0.02691038
4118.00   0.44148889   0.02635594
4120.00   0.43300924   0.02570955
4122.00   0.45209858   0.02585479
4124.00   0.44173956   0.02615291
4126.00   0.43978563   0.02603963
4128.00   0.43491751   0.02610984
4130.00   0.48569626   0.02710456
4132.00   0.49400786   0.02780407
4134.00   0.49547970   0.02751081
4136.00   0.47822559   0.02658582
4138.00   0.47108877   0.02700054
4140.00   0.42608878   0.02697343
4142.00   0.43454379   0.02645806
4144.00   0.44836438   0.02552326
4146.00   0.54628587   0.02769123
4148.00   0.73225749   0.02898633
4150.00   0.66409594   0.02862321
4152.00   0.45429924   0.02685305
4154.00   0.37877408   0.02589006
4156.00   0.44250804   0.02565307
4158.00   0.42293802   0.02495338
4160.00   0.50344425   0.02587467
4162.00   0.48011601   0.02669147
4164.00   0.43976119   0.02780138
4166.00   0.40344477   0.02711697
4168.00   0.48022550   0.02667032
4170.00   0.50306362   0.02596618
4172.00   0.44292253   0.02549042
4174.00   0.41724923   0.02477622
4176.00   0.42401987   0.02471886
4178.00   0.46649587   0.02541216
4180.00   0.47384188   0.02533226
4182.00   0.40205503   0.02400156
4184.00   0.43843362   0.02445806
4186.00   0.44416288   0.02460363
4188.00   0.42914677   0.02437808
4190.00   0.45305264   0.02461454
4192.00   0.46570802   0.02500156
4194.00   0.43968147   0.02431942
4196.00   0.44851467   0.02406446
4198.00   0.43418539   0.02403533
4200.00   0.44993392   0.02429108
4202.00   0.49353716   0.02456009
4204.00   0.43854344   0.02384986
4206.00   0.40409666   0.02384134
4208.00   0.42540374   0.02423012
4210.00   0.42053461   0.02454177
4212.00   0.44314823   0.02468929
4214.00   0.37750363   0.02373740
4216.00   0.38109419   0.02372590
4218.00   0.43520188   0.02410948
4220.00   0.39037168   0.02339431
4222.00   0.39635041   0.02332506
4224.00   0.48290855   0.02424495
4226.00   0.42646042   0.02366895
4228.00   0.40184569   0.02336145
4230.00   0.43215632   0.02411074
4232.00   0.37030059   0.02396698
4234.00   0.41686359   0.02444308
4236.00   0.41979447   0.02466024
4238.00   0.40719157   0.02413140
4240.00   0.41130486   0.02424604
4242.00   0.39134115   0.02332329
4244.00   0.43502834   0.02545026
4246.00   0.42869318   0.02735210
4248.00   0.40527269   0.02660228
4250.00   0.40475908   0.02407222
4252.00   0.41291878   0.02369185
4254.00   0.38114604   0.02341634
4256.00   0.42277274   0.02370879
4258.00   0.39552447   0.02341770
4260.00   0.38789412   0.02315530
4262.00   0.44777471   0.02334836
4264.00   0.44653264   0.02334951
4266.00   0.42889440   0.02314036
4268.00   0.38605040   0.02282964
4270.00   0.41890988   0.02324138
4272.00   0.39290351   0.02268724
4274.00   0.38425100   0.02350167
4276.00   0.47471958   0.02460988
4278.00   0.47375655   0.02409199
4280.00   0.39358011   0.02313974
4282.00   0.42458609   0.02355626
4284.00   0.38860890   0.02310007
4286.00   0.39059290   0.02286994
4288.00   0.42706162   0.02321410
4290.00   0.44835839   0.02322334
4292.00   0.40057164   0.02298755
4294.00   0.34811315   0.02230002
4296.00   0.39702159   0.02294053
4298.00   0.42436862   0.02299906
4300.00   0.50282866   0.02356394
4302.00   0.40679726   0.02266603
4304.00   0.40671739   0.02277445
4306.00   0.45501840   0.02369833
4308.00   0.40742320   0.02305053
4310.00   0.41399220   0.02370359
4312.00   0.39073879   0.02485515
4314.00   0.38691649   0.02549236
4316.00   0.41989002   0.02498858
4318.00   0.44473380   0.02505986
4320.00   0.45247442   0.02548309
4322.00   0.41488829   0.02516622
4324.00   0.39918450   0.02463936
4326.00   0.42099029   0.02439407
4328.00   0.46853718   0.02413119
4330.00   0.40046853   0.02319459
4332.00   0.37426651   0.02284806
4334.00   0.40094346   0.02333773
4336.00   0.41551051   0.02353578
4338.00   0.44682643   0.02414560
4340.00   0.41982266   0.02425991
4342.00   0.43235546   0.02408757
4344.00   0.36398548   0.02421143
4346.00   0.37403870   0.02525442
4348.00   0.42455781   0.02607561
4350.00   0.40703145   0.02522509
4352.00   0.37471193   0.02459604
4354.00   0.37067994   0.02937264
4356.00   0.47051525   0.04809897
4358.00   0.42099202   0.05687759
4360.00   0.52276641   0.04881398
4362.00   0.40500489   0.03311247
4364.00   0.43633685   0.02698978
4366.00   0.38485914   0.02546486
4368.00   0.36662278   0.02510915
4370.00   0.44176990   0.02528898
4372.00   0.45172802   0.02589770
4374.00   0.42750415   0.02633426
4376.00   0.44416803   0.02588948
4378.00   0.38485107   0.02434736
4380.00   0.46303636   0.02448653
4382.00   0.33706802   0.02323685
4384.00   0.40116388   0.02347575
4386.00   0.41336858   0.02360303
4388.00   0.69704223   0.02655868
4390.00   0.88816524   0.02969535
4392.00   0.76899523   0.02690192
4394.00   0.45701629   0.02378090
4396.00   0.41776171   0.02367684
4398.00   0.39060265   0.02391615
4400.00   0.35341573   0.02414539
4402.00   0.43655348   0.02440716
4404.00   0.39394566   0.02358025
4406.00   0.32809955   0.02427962
4408.00   0.39922905   0.02375469
4410.00   0.37041688   0.02342377
4412.00   0.38733244   0.02379602
4414.00   0.39961341   0.02424161
4416.00   0.38313174   0.02421037
4418.00   0.44740340   0.02413217
4420.00   0.36103395   0.02342434
4422.00   0.36827219   0.02338486
4424.00   0.39602360   0.02341205
4426.00   0.39988941   0.02327077
4428.00   0.33797669   0.02260175
4430.00   0.39100045   0.02322982
4432.00   0.34036645   0.02294538
4434.00   0.35239312   0.02291866
4436.00   0.35416466   0.02265010
4438.00   0.34910470   0.02284203
4440.00   0.38261816   0.02302965
4442.00   0.35828575   0.02268941
4444.00   0.40213573   0.02305096
4446.00   0.39263409   0.02271670
4448.00   0.36765802   0.02224142
4450.00   0.38543728   0.02252372
4452.00   0.42726874   0.02299795
4454.00   0.38390422   0.02240094
4456.00   0.41703182   0.02269883
4458.00   0.39843598   0.02249018
4460.00   0.37188661   0.02231321
4462.00   0.32555854   0.02190425
4464.00   0.34981608   0.02211258
4466.00   0.34595501   0.02190986
4468.00   0.38841876   0.02184557
4470.00   0.38651156   0.02178975
4472.00   0.40998536   0.02193812
4474.00   0.35960510   0.02193683
4476.00   0.34781304   0.02173265
4478.00   0.35995081   0.02151018
4480.00   0.35570586   0.02152773
4482.00   0.38157138   0.02180344
4484.00   0.38196936   0.02179301
4486.00   0.38049468   0.02182674
4488.00   0.37065446   0.02173621
4490.00   0.39277756   0.02188304
4492.00   0.39008293   0.02197536
4494.00   0.37594798   0.02189414
4496.00   0.44367027   0.02229825
4498.00   0.36136296   0.02182860
4500.00   0.40975875   0.02202856
4502.00   0.31908661   0.02099665
4504.00   0.36967948   0.02133566
4506.00   0.36402079   0.02133769
4508.00   0.40268978   0.02155499
4510.00   0.34099382   0.02080111
4512.00   0.32825807   0.02071619
4514.00   0.39300391   0.02116862
4516.00   0.40936208   0.02116770
4518.00   0.44910106   0.02131883
4520.00   0.44397429   0.02146339
4522.00   0.43019632   0.02127201
4524.00   0.45622650   0.02151990
4526.00   0.40795043   0.02099215
4528.00   0.40101463   0.02070859
4530.00   0.38426745   0.02063763
4532.00   0.40853506   0.02082435
4534.00   0.35982990   0.02037123
4536.00   0.42196256   0.02119205
4538.00   0.37108928   0.02067210
4540.00   0.41579914   0.02087883
4542.00   0.39150584   0.02066003
4544.00   0.41010055   0.02103920
4546.00   0.41737270   0.02090495
4548.00   0.42412359   0.02066835
4550.00   0.41629320   0.02060231
4552.00   0.41638905   0.02039862
4554.00   0.43589842   0.02047999
4556.00   0.46715096   0.02088043
4558.00   0.44600838   0.02079955
4560.00   0.45719239   0.02052939
4562.00   0.49086434   0.02082422
4564.00   0.48405567   0.02082975
4566.00   0.46201211   0.02041724
4568.00   0.41929516   0.02000458
4570.00   0.46286663   0.02050121
4572.00   0.46161303   0.02059085
4574.00   0.47159690   0.02070500
4576.00   0.43077034   0.02043426
4578.00   0.50265932   0.02060377
4580.00   0.50884253   0.02057913
4582.00   0.52974814   0.02066692
4584.00   0.46799728   0.01994508
4586.00   0.49727032   0.02052101
4588.00   0.48541975   0.02030988
4590.00   0.45764887   0.02016895
4592.00   0.49530283   0.02049924
4594.00   0.52034706   0.02083162
4596.00   0.49457631   0.02053152
4598.00   0.48459163   0.02026724
4600.00   0.51472247   0.02034867
4602.00   0.46065614   0.02001012
4604.00   0.48624030   0.02015131
4606.00   0.49941760   0.02025847
4608.00   0.56585056   0.02091693
4610.00   0.54130524   0.02070823
4612.00   0.54684889   0.02053038
4614.00   0.55939710   0.02077161
4616.00   0.56265575   0.02042128
4618.00   0.56966943   0.02056207
4620.00   0.50240618   0.02004284
4622.00   0.57535386   0.02063122
4624.00   0.54602349   0.02037374
4626.00   0.56619310   0.02047662
4628.00   0.54065889   0.02025869
4630.00   0.55231160   0.02044628
4632.00   0.53019297   0.02009434
4634.00   0.59627908   0.02052595
4636.00   0.56840980   0.02025654
4638.00   0.57155353   0.02033093
4640.00   0.55028683   0.02009879
4642.00   0.56239206   0.02018836
4644.00   0.56024605   0.02007849
4646.00   0.56727713   0.02015641
4648.00   0.57357311   0.02024667
4650.00   0.58318830   0.02042601
4652.00   0.59808213   0.02056786
4654.00   0.53488147   0.02014593
4656.00   0.59288234   0.02069416
4658.00   0.56735885   0.02076910
4660.00   0.54480046   0.02073189
4662.00   0.52074200   0.02073248
4664.00   0.54404598   0.02116980
4666.00   0.57244939   0.02154526
4668.00   0.55381745   0.02163693
4670.00   0.57728827   0.02191702
4672.00   0.53416777   0.02138397
4674.00   0.53980660   0.02108042
4676.00   0.54681641   0.02096399
4678.00   0.53251064   0.02055191
4680.00   0.50662559   0.02018116
4682.00   0.52624893   0.02025000
4684.00   0.55058831   0.02019096
4686.00   0.51771897   0.01989677
4688.00   0.53951871   0.02009085
4690.00   0.52155870   0.01977155
4692.00   0.51945102   0.01969092
4694.00   0.58258975   0.01999493
4696.00   0.54189587   0.01957497
4698.00   0.54166597   0.01947856
4700.00   0.52218115   0.01933849
4702.00   0.54412138   0.01960443
4704.00   0.51809192   0.01939637
4706.00   0.54878277   0.01983715
4708.00   0.54138756   0.01988984
4710.00   0.54348475   0.01984962
4712.00   0.54959679   0.01970521
4714.00   0.50753319   0.01944468
4716.00   0.53078932   0.01952920
4718.00   0.53280038   0.01942786
4720.00   0.51923776   0.01926692
4722.00   0.49333650   0.01909152
4724.00   0.50547922   0.01901356
4726.00   0.53238767   0.01974407
4728.00   0.54480588   0.02064342
4730.00   0.54372233   0.02077096
4732.00   0.53065795   0.02058724
4734.00   0.48689047   0.02050476
4736.00   0.53535306   0.02109775
4738.00   0.45826083   0.02092116
4740.00   0.49405760   0.02149324
4742.00   0.51125813   0.02208760
4744.00   0.46776354   0.02124388
4746.00   0.46701366   0.01986774
4748.00   0.46491191   0.01916565
4750.00   0.48437029   0.01935084
4752.00   0.46645829   0.01928827
4754.00   0.49066871   0.01931283
4756.00   0.47805643   0.01865105
4758.00   0.45565319   0.01811247
4760.00   0.45669001   0.01807380
4762.00   0.46771219   0.01797057
4764.00   0.48441550   0.01807491
4766.00   0.51131696   0.01828984
4768.00   0.45381597   0.01754380
4770.00   0.44717535   0.01743503
4772.00   0.46879146   0.01763014
4774.00   0.46115959   0.01771723
4776.00   0.44271067   0.01778088
4778.00   0.46400395   0.01815413
4780.00   0.38470870   0.01789261
4782.00   0.44435740   0.01805847
4784.00   0.46503818   0.01783108
4786.00   0.44281441   0.01749232
4788.00   0.45276967   0.01752649
4790.00   0.47803807   0.01791353
4792.00   0.46982509   0.01790849
4794.00   0.39273688   0.01699499
4796.00   0.44746229   0.01750818
4798.00   0.43412948   0.01728436
4800.00   0.42240420   0.01704540
4802.00   0.47205839   0.01761622
4804.00   0.44288263   0.01732312
4806.00   0.45831800   0.01760938
4808.00   0.43595508   0.01747928
4810.00   0.43375674   0.01728499
4812.00   0.43314010   0.01732540
4814.00   0.42481592   0.01728898
4816.00   0.39826098   0.01697132
4818.00   0.45547083   0.01756882
4820.00   0.37785715   0.01710377
4822.00   0.36256725   0.01713685
4824.00   0.42743382   0.01790368
4826.00   0.38014182   0.01746321
4828.00   0.39154750   0.01761179
4830.00   0.41823387   0.01781603
4832.00   0.36703157   0.01738921
4834.00   0.40754309   0.01785501
4836.00   0.38169649   0.01760168
4838.00   0.39602992   0.01800476
4840.00   0.36378464   0.01800244
4842.00   0.36304978   0.01792726
4844.00   0.36613601   0.01746837
4846.00   0.32555816   0.01723407
4848.00   0.37320715   0.01767579
4850.00   0.35745618   0.01755944
4852.00   0.38545695   0.01772979
4854.00   0.34727991   0.01732526
4856.00   0.38786107   0.01745506
4858.00   0.38242766   0.01746709
4860.00   0.39808780   0.01738973
4862.00   0.40555975   0.01774186
4864.00   0.37358239   0.01746500
4866.00   0.36296442   0.01742943
4868.00   0.36392802   0.01737374
4870.00   0.36637622   0.01729539
4872.00   0.34880966   0.01715931
4874.00   0.35162070   0.01707941
4876.00   0.37116656   0.01740419
4878.00   0.37768424   0.01755728
4880.00   0.37026587   0.01751713
4882.00   0.31295332   0.01691381
4884.00   0.34521741   0.01698053
4886.00   0.36784342   0.01693859
4888.00   0.35841659   0.01693401
4890.00   0.28874436   0.01622389
4892.00   0.36050564   0.01695571
4894.00   0.31771311   0.01665865
4896.00   0.34580833   0.01708956
4898.00   0.37263229   0.01697095
4900.00   0.35289082   0.01669219
4902.00   0.33844793   0.01654446
4904.00   0.34863248   0.01655014
4906.00   0.33319536   0.01654029
4908.00   0.31648999   0.01658466
4910.00   0.30251214   0.01639303
4912.00   0.34421146   0.01688973
4914.00   0.70699340   0.02155919
4916.00   1.01124132   0.02685412
4918.00   1.03842354   0.02692977
4920.00   0.62486410   0.02214194
4922.00   0.49684110   0.01805555
4924.00   0.33225039   0.01655905
4926.00   0.34026369   0.01641152
4928.00   0.29019389   0.01581480
4930.00   0.33321574   0.01606373
4932.00   0.36678693   0.01652240
4934.00   0.30381754   0.01604789
4936.00   0.32965761   0.01642217
4938.00   0.35325548   0.01654071
4940.00   0.34253711   0.01640185
4942.00   0.33517006   0.01632514
4944.00   0.33862844   0.01622477
4946.00   0.33377224   0.01608126
4948.00   0.34359488   0.01618634
4950.00   0.36525035   0.01639602
4952.00   0.36155438   0.01672875
4954.00   0.37126994   0.01701017
4956.00   0.37950400   0.01668550
4958.00   0.38996956   0.01685156
4960.00   0.37151214   0.01667890
4962.00   0.39574862   0.01712924
4964.00   0.42483690   0.01743308
4966.00   0.43222591   0.01755072
4968.00   0.41438177   0.01759425
4970.00   0.43055648   0.01818179
4972.00   0.46641833   0.01876559
4974.00   0.42130816   0.01893459
4976.00   0.47523013   0.01979567
4978.00   0.48585820   0.02079503
4980.00   0.48744142   0.02154057
4982.00   0.47159663   0.02177802
4984.00   0.54087514   0.02209285
4986.00   0.49233031   0.02107827
4988.00   0.51867837   0.02075809
4990.00   0.54487556   0.02033933
4992.00   0.50940138   0.01972190
4994.00   0.50980514   0.01919509
4996.00   0.51829332   0.01868039
4998.00   0.54542947   0.01855340
5000.00   0.55207336   0.01841583
5002.00   0.53174853   0.01814998
5004.00   0.55323976   0.01823826
5006.00   0.53664786   0.01803434
5008.00   0.55225861   0.01797174
5010.00   0.58914739   0.01822123
5012.00   0.77059907   0.01971092
5014.00   1.17609274   0.02477064
5016.00   1.22872031   0.02762552
5018.00   1.01782000   0.02431584
5020.00   0.80016047   0.02100348
5022.00   0.65100878   0.01888769
5024.00   0.55427134   0.01797258
5026.00   0.54444635   0.01761819
5028.00   0.52708745   0.01768873
5030.00   0.54222316   0.01806893
5032.00   0.51515871   0.01774921
5034.00   0.51109624   0.01756371
5036.00   0.49940270   0.01718873
5038.00   0.50186634   0.01712148
5040.00   0.48194462   0.01683612
5042.00   0.51546305   0.01718078
5044.00   0.49814445   0.01706708
5046.00   0.50826794   0.01709802
5048.00   0.48525840   0.01696740
5050.00   0.45852336   0.01678268
5052.00   0.51139283   0.01715519
5054.00   0.48824656   0.01690708
5056.00   0.46086189   0.01669977
5058.00   0.48260465   0.01688328
5060.00   0.79664248   0.02083748
5062.00   1.48131967   0.03168855
5064.00   2.12727475   0.03682144
5066.00   1.61308944   0.03257787
5068.00   1.05703938   0.02802403
5070.00   0.77127784   0.02172792
5072.00   0.50043660   0.01832648
5074.00   0.42134425   0.01737073
5076.00   0.45205557   0.01739126
5078.00   0.44507369   0.01766963
5080.00   0.43546495   0.01884937
5082.00   0.43299702   0.02023037
5084.00   0.42312521   0.02096080
5086.00   0.39524350   0.02078338
5088.00   0.42143157   0.02003552
5090.00   0.42526212   0.01849367
5092.00   0.40083897   0.01734770
5094.00   0.38404125   0.01690906
5096.00   0.39239228   0.01724664
5098.00   0.38625702   0.01769615
5100.00   0.41977119   0.01798292
5102.00   0.44781870   0.01772704
5104.00   0.38938069   0.01666194
5106.00   0.39587560   0.01648628
5108.00   0.39891097   0.01634677
5110.00   0.36434716   0.01624373
5112.00   0.35843140   0.01633025
5114.00   0.39116204   0.01667031
5116.00   0.44978642   0.01720531
5118.00   0.39845401   0.01672597
5120.00   0.39013001   0.01643911
5122.00   0.40051609   0.01633795
5124.00   0.42761415   0.01644099
5126.00   0.38976583   0.01607959
5128.00   0.40369171   0.01614925
5130.00   0.45326823   0.01664490
5132.00   0.38514474   0.01626258
5134.00   0.40559134   0.01637748
5136.00   0.40303907   0.01638708
5138.00   0.39976624   0.01637707
5140.00   0.42335138   0.01654503
5142.00   0.39588457   0.01639885
5144.00   0.41745380   0.01664571
5146.00   0.40281171   0.01665203
5148.00   0.42900899   0.01738048
5150.00   0.46620628   0.01795413
5152.00   0.44068995   0.01815011
5154.00   0.46396932   0.01834423
5156.00   0.37797028   0.01743954
5158.00   0.38731661   0.01722216
5160.00   0.42961290   0.01726328
5162.00   0.42685387   0.01681945
5164.00   0.46049216   0.01705245
5166.00   0.42550021   0.01661037
5168.00   0.44922671   0.01670605
5170.00   0.43736237   0.01663158
5172.00   0.46490338   0.01685098
5174.00   0.42450660   0.01652020
5176.00   0.46166733   0.01691016
5178.00   0.43404585   0.01686051
5180.00   0.45099154   0.01687782
5182.00   0.47143528   0.01700309
5184.00   0.44354069   0.01675316
5186.00   0.45243391   0.01682598
5188.00   0.46126261   0.01714875
5190.00   0.41951734   0.01678473
5192.00   0.45160308   0.01704197
5194.00   0.40585849   0.01685556
5196.00   0.43824366   0.01726779
5198.00   0.44935378   0.01755390
5200.00   0.46056035   0.01765687
5202.00   0.43933854   0.01743391
5204.00   0.44997016   0.01743078
5206.00   0.40730351   0.01696025
5208.00   0.44060868   0.01742521
5210.00   0.46865118   0.01778223
5212.00   0.46189156   0.01770131
5214.00   0.47873199   0.01773324
5216.00   0.43657520   0.01746181
5218.00   0.46549383   0.01785026
5220.00   0.46938598   0.01795948
5222.00   0.45932734   0.01777448
5224.00   0.43665656   0.01736380
5226.00   0.45236486   0.01749852
5228.00   0.44122925   0.01745505
5230.00   0.46342745   0.01769738
5232.00   0.45069203   0.01751743
5234.00   0.45213029   0.01761027
5236.00   0.47968057   0.01806897
5238.00   0.46030498   0.01799924
5240.00   0.48150238   0.01825877
5242.00   0.45726871   0.01781117
5244.00   0.46187118   0.01768770
5246.00   0.46829212   0.01783115
5248.00   0.46761811   0.01783111
5250.00   0.46311790   0.01772096
5252.00   0.49680105   0.01800625
5254.00   0.46598408   0.01816411
5256.00   0.44621176   0.01819282
5258.00   0.45885894   0.01833540
5260.00   0.43362543   0.01795072
5262.00   0.46883658   0.01813928
5264.00   0.47354305   0.01793274
5266.00   0.50512064   0.01827271
5268.00   0.48098207   0.01802547
5270.00   0.49719784   0.01817550
5272.00   0.44366398   0.01780442
5274.00   0.45646214   0.01798182
5276.00   0.50429249   0.01861526
5278.00   0.46961519   0.01833923
5280.00   0.46892789   0.01822783
5282.00   0.49322331   0.01854405
5284.00   0.54121596   0.01896052
5286.00   0.47888249   0.01863600
5288.00   0.46448347   0.01834634
5290.00   0.44976628   0.01834376
5292.00   0.45533174   0.01842439
5294.00   0.49104673   0.01859491
5296.00   0.47906056   0.01861931
5298.00   0.48829746   0.01880454
5300.00   0.51245415   0.01919026
5302.00   0.49524650   0.01891813
5304.00   0.48790133   0.01895934
5306.00   0.47565970   0.01881171
5308.00   0.51204610   0.01932470
5310.00   0.54445732   0.01976395
5312.00   0.49283448   0.01932330
5314.00   0.49295816   0.01925136
5316.00   0.52490914   0.01958334
5318.00   0.51996237   0.01967740
5320.00   0.51570219   0.01966211
5322.00   0.50325584   0.01962062
5324.00   0.45723677   0.01938631
5326.00   0.50051624   0.01977379
5328.00   0.53389573   0.02018209
5330.00   0.45665124   0.01957894
5332.00   0.52869600   0.02029687
5334.00   0.52399027   0.02035977
5336.00   0.52235627   0.02024596
5338.00   0.51231700   0.02050367
5340.00   0.50124407   0.02079614
5342.00   0.51596653   0.02095687
5344.00   0.50399357   0.02079151
5346.00   0.52237070   0.02121820
5348.00   0.51400191   0.02147044
5350.00   0.53635609   0.02182225
5352.00   0.49948317   0.02124507
5354.00   0.53399432   0.02204548
5356.00   0.51789218   0.02188909
5358.00   0.54492056   0.02175263
5360.00   0.53325742   0.02169493
5362.00   0.54162639   0.02140218
5364.00   0.50522888   0.02090566
5366.00   0.55769908   0.02131836
5368.00   0.51653033   0.02110681
5370.00   0.53020626   0.02114354
5372.00   0.49465901   0.02127159
5374.00   0.56747288   0.02223900
5376.00   0.52270275   0.02181946
5378.00   0.55810887   0.02220911
5380.00   0.54637420   0.02204058
5382.00   0.55831134   0.02214834
5384.00   0.54649866   0.02205407
5386.00   0.54541892   0.02233905
5388.00   0.53951859   0.02226876
5390.00   0.56288463   0.02301054
5392.00   0.56188214   0.02306366
5394.00   0.60861158   0.02359545
5396.00   0.58533061   0.02341660
5398.00   0.54495329   0.02277538
5400.00   0.56152135   0.02311080
5402.00   0.54850799   0.02300358
5404.00   0.60372639   0.02348144
5406.00   0.58399397   0.02357054
5408.00   0.52144915   0.02328622
5410.00   0.53629500   0.02355307
5412.00   0.53730887   0.02394842
5414.00   0.53105873   0.02432393
5416.00   0.56416488   0.02502779
5418.00   0.59110731   0.02515308
5420.00   0.54914367   0.02479137
5422.00   0.54552281   0.02475606
5424.00   0.56700271   0.02504081
5426.00   0.58953869   0.02544415
5428.00   0.53893554   0.02475820
5430.00   0.47738960   0.02403139
5432.00   0.50233436   0.02465108
5434.00   0.55961210   0.01031850
5436.00   0.54087180   0.01036456
5438.00   0.54066241   0.01107173
5440.00   0.57041794   0.01292824
5442.00   0.57217091   0.01337912
5444.00   0.54380357   0.01243298
5446.00   0.51879114   0.01153243
5448.00   0.51591820   0.01168177
5450.00   0.52419871   0.01232769
5452.00   0.52721244   0.01262826
5454.00   0.52761614   0.01269489
5456.00   0.53589171   0.01316533
5458.00   0.56203377   0.01412197
5460.00   0.57177305   0.01478244
5462.00   0.54489273   0.01499543
5464.00   0.50372738   0.01492686
5466.00   0.49919704   0.01456421
5468.00   0.52140677   0.01356229
5470.00   0.53429663   0.01314597
5472.00   0.54573315   0.01310317
5474.00   0.56437778   0.01307380
5476.00   0.60296774   0.01313451
5478.00   0.63822705   0.01313465
5480.00   0.62822485   0.01268444
5482.00   0.57697564   0.01177830
5484.00   0.55535227   0.01106001
5486.00   0.54078645   0.01013951
5488.00   0.53386509   0.00955998
5490.00   0.53704584   0.00951247
5492.00   0.54488534   0.00962635
5494.00   0.55287236   0.00955299
5496.00   0.56420946   0.00944354
5498.00   0.56729937   0.00936589
5500.00   0.56006712   0.00928484
5502.00   0.56116617   0.00924182
5504.00   0.56853670   0.00918709
5506.00   0.57910544   0.00922470
5508.00   0.59432870   0.00944543
5510.00   0.61334938   0.00978924
5512.00   0.61597693   0.01004215
5514.00   0.60425800   0.01037651
5516.00   0.59466058   0.01047762
5518.00   0.57733858   0.01040011
5520.00   0.56725580   0.01022495
5522.00   0.57298583   0.00992602
5524.00   0.58648592   0.00953594
5526.00   0.58947837   0.00930148
5528.00   0.58659798   0.00915820
5530.00   0.58570230   0.00903838
5532.00   0.58302283   0.00898074
5534.00   0.58253944   0.00894166
5536.00   0.58484435   0.00892044
5538.00   0.58917952   0.00891566
5540.00   0.59649462   0.00891160
5542.00   0.61274642   0.00892085
5544.00   0.60682762   0.00891270
5546.00   0.57523042   0.00881706
5548.00   0.55728388   0.00887077
5550.00   0.55425096   0.00915507
5552.00   0.55790812   0.00945033
5554.00   0.56512582   0.00953534
5556.00   0.58007407   0.00948730
5558.00   0.57963639   0.00953828
5560.00   0.56395972   0.00973676
5562.00   0.55619162   0.00969258
5564.00   0.55628306   0.00911035
5566.00   0.55562186   0.00880920
5568.00   0.54657853   0.00944908
5570.00   0.53258198   0.01060006
5572.00   0.53546703   0.01172711
5574.00   0.55620521   0.01346487
5576.00   0.56709301   0.01415037
5578.00   0.57252634   0.01422483
5580.00   0.57807648   0.01390865
5582.00   0.58966643   0.01310614
5584.00   0.60146677   0.01184187
5586.00   0.59099531   0.01087942
5588.00   0.55279493   0.00987640
5590.00   0.53421867   0.00910498
5592.00   0.52201700   0.00860104
5594.00   0.51397562   0.00823544
5596.00   0.51100147   0.00803713
5598.00   0.51134330   0.00798128
5600.00   0.51012218   0.00791955
5602.00   0.50926226   0.00795146
5604.00   0.50873864   0.00789938
5606.00   0.51283038   0.00766765
5608.00   0.50899166   0.00769569
5610.00   0.49141964   0.00815563
5612.00   0.47299674   0.00862188
5614.00   0.46961197   0.00866911
5616.00   0.47628406   0.00846474
5618.00   0.47969204   0.00823732
5620.00   0.48840457   0.00773253
5622.00   0.48926914   0.00746313
5624.00   0.48027313   0.00748193
5626.00   0.47029957   0.00755287
5628.00   0.46590582   0.00750977
5630.00   0.46402538   0.00742935
5632.00   0.46126217   0.00740756
5634.00   0.45967433   0.00743799
5636.00   0.45634422   0.00743721
5638.00   0.44768241   0.00740806
5640.00   0.44442740   0.00738979
5642.00   0.45518047   0.00740081
5644.00   0.47327101   0.00742923
5646.00   0.47528532   0.00746206
5648.00   0.46574044   0.00753911
5650.00   0.45782989   0.00754149
5652.00   0.44408172   0.00745341
5654.00   0.43454221   0.00741118
5656.00   0.43425098   0.00738215
5658.00   0.43684399   0.00743860
5660.00   0.42974299   0.00786464
5662.00   0.41250280   0.00882010
5664.00   0.40740412   0.00895977
5666.00   0.41273981   0.00838100
5668.00   0.41367191   0.00807990
5670.00   0.40814739   0.00825279
5672.00   0.40072611   0.00853153
5674.00   0.39547646   0.00856130
5676.00   0.39080635   0.00841668
5678.00   0.38595438   0.00858509
5680.00   0.37943068   0.00898938
5682.00   0.37652913   0.00934610
5684.00   0.37860835   0.00971452
5686.00   0.38119921   0.01004004
5688.00   0.38072619   0.01026298
5690.00   0.37886858   0.01041834
5692.00   0.37588498   0.01053121
5694.00   0.37079206   0.01078359
5696.00   0.36645618   0.01057487
5698.00   0.36039323   0.00974012
5700.00   0.35734442   0.00886036
5702.00   0.36321974   0.00833609
5704.00   0.37381157   0.00799370
5706.00   0.36652961   0.00769671
5708.00   0.33975390   0.00757125
5710.00   0.32565185   0.00742011
5712.00   0.31429195   0.00728465
5714.00   0.30879369   0.00720685
5716.00   0.31327191   0.00723137
5718.00   0.32238677   0.00730310
5720.00   0.32149151   0.00727639
5722.00   0.31472290   0.00721262
5724.00   0.30767009   0.00708501
5726.00   0.29769337   0.00683175
5728.00   0.28749716   0.00663733
5730.00   0.27753937   0.00653151
5732.00   0.26699597   0.00647504
5734.00   0.25432476   0.00643267
5736.00   0.23737468   0.00638685
5738.00   0.23161508   0.00651985
5740.00   0.23506330   0.00681912
5742.00   0.23891637   0.00711429
5744.00   0.24637777   0.00755001
5746.00   0.25230417   0.00783637
5748.00   0.24950276   0.00765483
5750.00   0.23989193   0.00707875
5752.00   0.23853427   0.00673179
5754.00   0.24381414   0.00614000
5756.00   0.24501815   0.00616844
5758.00   0.24264160   0.00697238
5760.00   0.24028040   0.00768612
5762.00   0.24136275   0.00796719
5764.00   0.24390057   0.00806565
5766.00   0.23605964   0.00811738
5768.00   0.20932730   0.00806112
5770.00   0.20552681   0.00795244
5772.00   0.22302854   0.00774961
5774.00   0.23768416   0.00751187
5776.00   0.24160334   0.00719362
5778.00   0.24074388   0.00685646
5780.00   0.23797104   0.00683967
5782.00   0.22552246   0.00708927
5784.00   0.22822559   0.00735474
5786.00   0.24632271   0.00787433
5788.00   0.25807300   0.00814434
5790.00   0.25969154   0.00807642
5792.00   0.25666377   0.00784436
5794.00   0.25206366   0.00763539
5796.00   0.23899126   0.00730975
5798.00   0.24596174   0.00716021
5800.00   0.27487350   0.00707116
5802.00   0.29339784   0.00713914
5804.00   0.30063322   0.00750622
5806.00   0.30358067   0.00782962
5808.00   0.30675048   0.00771063
5810.00   0.30846438   0.00721084
5812.00   0.30576888   0.00731017
5814.00   0.28766298   0.00808205
5816.00   0.29163268   0.00824072
5818.00   0.32504869   0.00776545
5820.00   0.35559776   0.00723999
5822.00   0.36029968   0.00710793
5824.00   0.35068420   0.00717161
5826.00   0.35127822   0.00716933
5828.00   0.35436741   0.00712531
5830.00   0.35744968   0.00725611
5832.00   0.35958636   0.00749363
5834.00   0.36478698   0.00785112
5836.00   0.37634590   0.00849979
5838.00   0.39112765   0.00918388
5840.00   0.39916861   0.00904605
5842.00   0.40259117   0.00782782
5844.00   0.40679747   0.00745148
5846.00   0.41294107   0.00759820
5848.00   0.41333598   0.00773018
5850.00   0.40114802   0.00776041
5852.00   0.38714641   0.00778689
5854.00   0.39343986   0.00783012
5856.00   0.41854668   0.00786620
5858.00   0.42886710   0.00796691
5860.00   0.43128392   0.00812034
5862.00   0.43623334   0.00828839
5864.00   0.44693890   0.00853939
5866.00   0.45570657   0.00873267
5868.00   0.45197955   0.00866379
5870.00   0.43593824   0.00835135
5872.00   0.44023708   0.00830487
5874.00   0.46517864   0.00837949
5876.00   0.47699246   0.00851989
5878.00   0.47746563   0.00820711
5880.00   0.47385424   0.00866870
5882.00   0.47080585   0.01074240
5884.00   0.46631250   0.01341047
5886.00   0.45262095   0.01525788
5888.00   0.41264775   0.01724849
5890.00   0.41031179   0.01838926
5892.00   0.44680712   0.01914357
5894.00   0.48243496   0.01931526
5896.00   0.50347948   0.01871111
5898.00   0.51736569   0.01743033
5900.00   0.51107311   0.01594734
5902.00   0.47202066   0.01317502
5904.00   0.45860595   0.01147600
5906.00   0.45892572   0.01086739
5908.00   0.45888889   0.01027990
5910.00   0.45565769   0.00932035
5912.00   0.45182294   0.00836558
5914.00   0.44750273   0.00801774
5916.00   0.44182730   0.00835387
5918.00   0.43833169   0.00842614
5920.00   0.43652761   0.00860941
5922.00   0.43467593   0.00865777
5924.00   0.43404028   0.00850873
5926.00   0.43221602   0.00829761
5928.00   0.42376712   0.00818805
5930.00   0.40667340   0.00811669
5932.00   0.40880468   0.00806053
5934.00   0.42343101   0.00783210
5936.00   0.44375914   0.00803068
5938.00   0.48056409   0.00892603
5940.00   0.51132423   0.00960665
5942.00   0.51375228   0.00941927
5944.00   0.49680582   0.00862314
5946.00   0.48802856   0.00821348
5948.00   0.47705743   0.00778032
5950.00   0.46734598   0.00760722
5952.00   0.45988026   0.00782865
5954.00   0.45039845   0.00800047
5956.00   0.43421277   0.00788222
5958.00   0.41480416   0.00762213
5960.00   0.40925238   0.00749928
5962.00   0.41655308   0.00741524
5964.00   0.41969070   0.00737744
5966.00   0.42394873   0.00727679
5968.00   0.42779124   0.00740560
5970.00   0.43159202   0.00803486
5972.00   0.43452209   0.00873088
5974.00   0.43285799   0.00862264
5976.00   0.42450255   0.00765805
5978.00   0.42355779   0.00734380
5980.00   0.42900637   0.00736738
5982.00   0.43144733   0.00741859
5984.00   0.42789647   0.00745180
5986.00   0.42402869   0.00755289
5988.00   0.42806727   0.00784224
5990.00   0.44010469   0.00841759
5992.00   0.44007933   0.00832593
5994.00   0.43172550   0.00747499
5996.00   0.42303407   0.00698611
5998.00   0.40977302   0.00698312
6000.00   0.39945903   0.00708138
6002.00   0.40133566   0.00699346
6004.00   0.41243839   0.00683848
6006.00   0.41730124   0.00675418
6008.00   0.42214918   0.00672153
6010.00   0.42357740   0.00666021
6012.00   0.41914308   0.00651334
6014.00   0.41641986   0.00645591
6016.00   0.42165384   0.00657604
6018.00   0.43114179   0.00682096
6020.00   0.43010995   0.00724362
6022.00   0.41720104   0.00828349
6024.00   0.41412833   0.00829952
6026.00   0.41680378   0.00720764
6028.00   0.42098126   0.00628288
6030.00   0.42644662   0.00626443
6032.00   0.43275967   0.00668211
6034.00   0.43554375   0.00696809
6036.00   0.43902248   0.00759985
6038.00   0.43345329   0.00752981
6040.00   0.41408998   0.00668653
6042.00   0.40270907   0.00608027
6044.00   0.40530440   0.00603322
6046.00   0.41201115   0.00619646
6048.00   0.40982115   0.00620985
6050.00   0.40112343   0.00622414
6052.00   0.40088177   0.00621543
6054.00   0.40703419   0.00617687
6056.00   0.41167089   0.00615110
6058.00   0.41660929   0.00614646
6060.00   0.41932961   0.00613806
6062.00   0.41489762   0.00607816
6064.00   0.40368888   0.00595368
6066.00   0.40283853   0.00607380
6068.00   0.41059554   0.00644532
6070.00   0.41473475   0.00668841
6072.00   0.41821280   0.00696171
6074.00   0.41893968   0.00706066
6076.00   0.41369566   0.00675232
6078.00   0.40409091   0.00611146
6080.00   0.40142798   0.00593471
6082.00   0.40484270   0.00614156
6084.00   0.40430015   0.00618262
6086.00   0.40227276   0.00616942
6088.00   0.39875099   0.00616671
6090.00   0.39195368   0.00621266
6092.00   0.38401809   0.00627031
6094.00   0.38388309   0.00623591
6096.00   0.39067096   0.00605647
6098.00   0.39574394   0.00605350
6100.00   0.40385717   0.00613762
6102.00   0.40892044   0.00629011
6104.00   0.41001841   0.00652892
6106.00   0.40818545   0.00680648
6108.00   0.40324333   0.00704687
6110.00   0.39348775   0.00734702
6112.00   0.38733098   0.00739894
6114.00   0.37949648   0.00723105
6116.00   0.37785143   0.00705752
6118.00   0.38561666   0.00685290
6120.00   0.39518070   0.00663913
6122.00   0.39773294   0.00647842
6124.00   0.39612889   0.00634715
6126.00   0.39817092   0.00624395
6128.00   0.40308768   0.00618190
6130.00   0.40538058   0.00612911
6132.00   0.40608892   0.00609362
6134.00   0.40472418   0.00606927
6136.00   0.39954257   0.00605055
6138.00   0.39111423   0.00604048
6140.00   0.38911819   0.00603483
6142.00   0.39448035   0.00604191
6144.00   0.39341804   0.00603949
6146.00   0.38674876   0.00601904
6148.00   0.38049549   0.00601554
6150.00   0.37855244   0.00605124
6152.00   0.37775940   0.00610803
6154.00   0.36891848   0.00613873
6156.00   0.34663188   0.00617078
6158.00   0.34054652   0.00617005
6160.00   0.34487107   0.00602687
6162.00   0.35142219   0.00607111
6164.00   0.36118290   0.00652927
6166.00   0.37152857   0.00702634
6168.00   0.37226868   0.00693015
6170.00   0.36503068   0.00628784
6172.00   0.36010998   0.00593976
6174.00   0.35057706   0.00556903
6176.00   0.34741387   0.00537540
6178.00   0.35378191   0.00546095
6180.00   0.36262894   0.00564403
6182.00   0.36627266   0.00571841
6184.00   0.36857390   0.00577927
6186.00   0.36566997   0.00579132
6188.00   0.35344109   0.00576695
6190.00   0.34837529   0.00570418
6192.00   0.35092086   0.00556669
6194.00   0.35512298   0.00543216
6196.00   0.35758844   0.00537444
6198.00   0.36021489   0.00536323
6200.00   0.35843861   0.00535174
6202.00   0.34943047   0.00536037
6204.00   0.34725833   0.00537494
6206.00   0.34920269   0.00540024
6208.00   0.35458443   0.00543145
6210.00   0.36460871   0.00547325
6212.00   0.37814194   0.00552026
6214.00   0.38719460   0.00552832
6216.00   0.39744142   0.00550459
6218.00   0.39944312   0.00547877
6220.00   0.39114836   0.00542903
6222.00   0.38533393   0.00539122
6224.00   0.38647544   0.00536364
6226.00   0.38982841   0.00535524
6228.00   0.38824615   0.00540486
6230.00   0.37842920   0.00543091
6232.00   0.38505763   0.00569647
6234.00   0.41199049   0.00636510
6236.00   0.42638046   0.00663972
6238.00   0.42292410   0.00638703
6240.00   0.41234297   0.00594525
6242.00   0.40400717   0.00576486
6244.00   0.39175442   0.00569478
6246.00   0.38890064   0.00560014
6248.00   0.39370185   0.00549420
6250.00   0.39856297   0.00547224
6252.00   0.40705037   0.00557125
6254.00   0.41308179   0.00568536
6256.00   0.40843916   0.00572884
6258.00   0.39527825   0.00574294
6260.00   0.39502475   0.00573329
6262.00   0.40383700   0.00565452
6264.00   0.41114068   0.00564448
6266.00   0.42039168   0.00566950
6268.00   0.42814186   0.00574662
6270.00   0.43081313   0.00594014
6272.00   0.43066409   0.00619478
6274.00   0.43777677   0.00615966
6276.00   0.45426232   0.00577683
6278.00   0.46127665   0.00563967
6280.00   0.46298611   0.00564849
6282.00   0.46166977   0.00567146
6284.00   0.45647180   0.00566793
6286.00   0.44895384   0.00567188
6288.00   0.44568029   0.00570717
6290.00   0.44256425   0.00571389
6292.00   0.44579947   0.00588415
6294.00   0.45737827   0.00622701
6296.00   0.46630386   0.00651136
6298.00   0.47183591   0.00671660
6300.00   0.47498757   0.00689397
6302.00   0.47522676   0.00708225
6304.00   0.47453171   0.00729995
6306.00   0.46352586   0.00736819
6308.00   0.43044379   0.00742828
6310.00   0.41951889   0.00723768
6312.00   0.43766603   0.00657650
6314.00   0.46157813   0.00584702
6316.00   0.47167271   0.00564826
6318.00   0.47732580   0.00581496
6320.00   0.47381824   0.00594424
6322.00   0.45166248   0.00633833
6324.00   0.44566822   0.00643558
6326.00   0.45652300   0.00614280
6328.00   0.46775019   0.00593937
6330.00   0.46922797   0.00626922
6332.00   0.46632686   0.00685683
6334.00   0.46770722   0.00674907
6336.00   0.47241855   0.00587607
6338.00   0.47366029   0.00547157
6340.00   0.47363815   0.00537243
6342.00   0.47103724   0.00533246
6344.00   0.46349630   0.00527275
6346.00   0.45372167   0.00524860
6348.00   0.45141348   0.00526403
6350.00   0.45714605   0.00534287
6352.00   0.45580211   0.00539188
6354.00   0.45099872   0.00543240
6356.00   0.44527787   0.00548303
6358.00   0.43820181   0.00555889
6360.00   0.43072706   0.00563389
6362.00   0.42507619   0.00566287
6364.00   0.41760010   0.00566373
6366.00   0.42170572   0.00564131
6368.00   0.43980718   0.00555768
6370.00   0.45231491   0.00551946
6372.00   0.46020010   0.00557078
6374.00   0.46408045   0.00560629
6376.00   0.46168759   0.00549687
6378.00   0.45298576   0.00526045
6380.00   0.44641995   0.00516414
6382.00   0.43732703   0.00516112
6384.00   0.43164408   0.00514043
6386.00   0.42617181   0.00510092
6388.00   0.42626423   0.00508663
6390.00   0.43916744   0.00513089
6392.00   0.46185690   0.00521715
6394.00   0.46732527   0.00528598
6396.00   0.45900795   0.00539095
6398.00   0.45597336   0.00542356
6400.00   0.45457560   0.00541187
6402.00   0.45268586   0.00535192
6404.00   0.44898471   0.00520355
6406.00   0.44464624   0.00500284
6408.00   0.44350159   0.00495804
6410.00   0.44488028   0.00507492
6412.00   0.44627765   0.00508633
6414.00   0.44899818   0.00500992
6416.00   0.45148581   0.00501658
6418.00   0.45365974   0.00518622
6420.00   0.45547277   0.00539734
6422.00   0.45633602   0.00546591
6424.00   0.45747989   0.00549083
6426.00   0.45442718   0.00537531
6428.00   0.44401130   0.00498774
6430.00   0.43957561   0.00476158
6432.00   0.44302493   0.00479407
6434.00   0.44941306   0.00490005
6436.00   0.45510265   0.00488544
6438.00   0.46362409   0.00479094
6440.00   0.46129248   0.00491415
6442.00   0.44678730   0.00530148
6444.00   0.43781632   0.00547218
6446.00   0.43097728   0.00547347
6448.00   0.42852569   0.00538622
6450.00   0.43543318   0.00521144
6452.00   0.45025820   0.00492107
6454.00   0.45267770   0.00483866
6456.00   0.44382504   0.00492892
6458.00   0.44230911   0.00497833
6460.00   0.44539464   0.00503810
6462.00   0.44975525   0.00509568
6464.00   0.45498210   0.00515279
6466.00   0.46102059   0.00520476
6468.00   0.46302259   0.00519143
6470.00   0.46146458   0.00510235
6472.00   0.46060863   0.00504398
6474.00   0.45901409   0.00497445
6476.00   0.45728782   0.00492490
6478.00   0.45515785   0.00491050
6480.00   0.45313704   0.00491398
6482.00   0.45312229   0.00489484
6484.00   0.45627245   0.00477906
6486.00   0.45471057   0.00493831
6488.00   0.44783646   0.00543508
6490.00   0.44436517   0.00569151
6492.00   0.44592556   0.00566960
6494.00   0.44908178   0.00552594
6496.00   0.45009151   0.00536920
6498.00   0.44989333   0.00507916
6500.00   0.45237020   0.00506866
6502.00   0.45900705   0.00535268
6504.00   0.46149042   0.00548666
6506.00   0.45890662   0.00548915
6508.00   0.45546705   0.00545317
6510.00   0.45556027   0.00541593
6512.00   0.45801267   0.00534837
6514.00   0.45035684   0.00540193
6516.00   0.43293920   0.00559719
6518.00   0.41801107   0.00569630
6520.00   0.39956212   0.00578422
6522.00   0.38643265   0.00577646
6524.00   0.38501090   0.00558129
6526.00   0.39133573   0.00524338
6528.00   0.39499754   0.00504591
6530.00   0.40212703   0.00490039
6532.00   0.40459344   0.00479561
6534.00   0.40321189   0.00473505
6536.00   0.40170491   0.00473006
6538.00   0.40149301   0.00471997
6540.00   0.40118584   0.00479328
6542.00   0.39876825   0.00523677
6544.00   0.39611036   0.00614462
6546.00   0.38888648   0.00642349
6548.00   0.37507153   0.00638344
6550.00   0.36419767   0.00626029
6552.00   0.35709292   0.00604664
6554.00   0.35238516   0.00574151
6556.00   0.35030857   0.00538307
6558.00   0.35198665   0.00482096
6560.00   0.35073084   0.00468005
6562.00   0.34768522   0.00500100
6564.00   0.34577793   0.00515327
6566.00   0.34576449   0.00519414
6568.00   0.34539744   0.00515342
6570.00   0.34227213   0.00496740
6572.00   0.33704740   0.00460705
6574.00   0.33439174   0.00450602
6576.00   0.33319995   0.00465711
6578.00   0.33207318   0.00466840
6580.00   0.33070049   0.00455528
6582.00   0.33045593   0.00445248
6584.00   0.33260828   0.00444870
6586.00   0.33644548   0.00449725
6588.00   0.33832479   0.00448859
6590.00   0.34092647   0.00443810
6592.00   0.33960962   0.00442092
6594.00   0.33230415   0.00442069
6596.00   0.32760268   0.00443054
6598.00   0.32903805   0.00445931
6600.00   0.33363029   0.00449413
6602.00   0.33725601   0.00448086
6604.00   0.34364283   0.00438745
6606.00   0.34471440   0.00440525
6608.00   0.33976403   0.00454884
6610.00   0.33761451   0.00461167
6612.00   0.33968365   0.00453323
6614.00   0.34401801   0.00441090
6616.00   0.34952915   0.00438719
6618.00   0.35721630   0.00441683
6620.00   0.36428231   0.00444745
6622.00   0.35730815   0.00438189
6624.00   0.37888530   0.00455685
6626.00   0.41094995   0.00491612
6628.00   0.48522940   0.00544059
6630.00   0.65415198   0.00609804
6632.00   0.91181463   0.00680005
6634.00   1.10871696   0.00788423
6636.00   1.37650919   0.00970527
6638.00   1.45669937   0.01038687
6640.00   1.33506930   0.01022109
6642.00   1.14536905   0.00971337
6644.00   0.94933593   0.00905874
6646.00   0.71282804   0.00806995
6648.00   0.57722104   0.00722643
6650.00   0.50602525   0.00595361
6652.00   0.45901501   0.00555378
6654.00   0.46554026   0.00647281
6656.00   0.47443527   0.00704393
6658.00   0.46564102   0.00673574
6660.00   0.45252037   0.00597060
6662.00   0.43909785   0.00546554
6664.00   0.42275017   0.00483657
6666.00   0.40748647   0.00451500
6668.00   0.39027089   0.00451674
6670.00   0.37622982   0.00460872
6672.00   0.36524841   0.00481192
6674.00   0.35805577   0.00504897
6676.00   0.35886359   0.00509393
6678.00   0.37039343   0.00502528
6680.00   0.37255552   0.00492204
6682.00   0.36775830   0.00463868
6684.00   0.36723480   0.00451144
6686.00   0.37492439   0.00465820
6688.00   0.38168809   0.00482381
6690.00   0.37595659   0.00472754
6692.00   0.35982898   0.00443015
6694.00   0.35452035   0.00432091
6696.00   0.35485676   0.00430601
6698.00   0.35557103   0.00430896
6700.00   0.35858926   0.00432891
6702.00   0.36118725   0.00439296
6704.00   0.36073145   0.00455150
6706.00   0.35841274   0.00478327
6708.00   0.35690567   0.00478646
6710.00   0.35632846   0.00455795
6712.00   0.35334903   0.00444457
6714.00   0.34692210   0.00438659
6716.00   0.34159899   0.00434995
6718.00   0.33969823   0.00433287
6720.00   0.33964902   0.00433359
6722.00   0.33905253   0.00430326
6724.00   0.33868155   0.00423013
6726.00   0.33885175   0.00421188
6728.00   0.34048086   0.00424626
6730.00   0.34080505   0.00426315
6732.00   0.33822390   0.00423419
6734.00   0.33486801   0.00419424
6736.00   0.33520925   0.00420312
6738.00   0.33966038   0.00424014
6740.00   0.33909774   0.00429417
6742.00   0.33423007   0.00433820
6744.00   0.33113265   0.00445714
6746.00   0.33014867   0.00475534
6748.00   0.33032399   0.00499932
6750.00   0.33186293   0.00486465
6752.00   0.33602145   0.00433466
6754.00   0.33428296   0.00427964
6756.00   0.32622018   0.00468358
6758.00   0.32149568   0.00477415
6760.00   0.32158104   0.00453146
6762.00   0.32047993   0.00422480
6764.00   0.31232044   0.00407852
6766.00   0.29902953   0.00400141
6768.00   0.29399222   0.00394595
6770.00   0.29417992   0.00395057
6772.00   0.29485938   0.00395185
6774.00   0.29838413   0.00393941
6776.00   0.30130169   0.00397181
6778.00   0.29993007   0.00408440
6780.00   0.29689226   0.00424847
6782.00   0.30432081   0.00440238
6784.00   0.31727433   0.00458437
6786.00   0.33783200   0.00473399
6788.00   0.37526438   0.00490517
6790.00   0.40303293   0.00500312
6792.00   0.41402090   0.00498352
6794.00   0.41415799   0.00490169
6796.00   0.40470612   0.00486879
6798.00   0.37388813   0.00481849
6800.00   0.36665806   0.00484746
6802.00   0.37474966   0.00485224
6804.00   0.38270020   0.00504136
6806.00   0.39448327   0.00563875
6808.00   0.40255529   0.00613456
6810.00   0.38921541   0.00585347
6812.00   0.35533842   0.00474221
6814.00   0.33737329   0.00424678
6816.00   0.32526514   0.00407492
6818.00   0.31445256   0.00401347
6820.00   0.30462277   0.00415359
6822.00   0.29747263   0.00435239
6824.00   0.29516348   0.00446849
6826.00   0.29756492   0.00457211
6828.00   0.29484662   0.00464176
6830.00   0.28697208   0.00468391
6832.00   0.28442559   0.00470697
6834.00   0.28714564   0.00473526
6836.00   0.29048228   0.00470659
6838.00   0.29196185   0.00455122
6840.00   0.29294419   0.00429935
6842.00   0.29428530   0.00419243
6844.00   0.29826799   0.00410300
6846.00   0.29634231   0.00419851
6848.00   0.28671986   0.00461757
6850.00   0.28004101   0.00483204
6852.00   0.28062540   0.00460638
6854.00   0.28465161   0.00417332
6856.00   0.28644761   0.00416584
6858.00   0.28746799   0.00430044
6860.00   0.29021487   0.00477033
6862.00   0.30014393   0.00575783
6864.00   0.29968145   0.00628671
6866.00   0.27962461   0.00634045
6868.00   0.25563759   0.00613774
6870.00   0.25329977   0.00577882
6872.00   0.26705405   0.00500387
6874.00   0.27233434   0.00463793
6876.00   0.27786791   0.00461471
6878.00   0.28062022   0.00453440
6880.00   0.27989751   0.00437335
6882.00   0.27768534   0.00424437
6884.00   0.27612031   0.00422510
6886.00   0.27463245   0.00427023
6888.00   0.26969424   0.00450121
6890.00   0.25848597   0.00513340
6892.00   0.25349355   0.00527042
6894.00   0.25506002   0.00489947
6896.00   0.25733429   0.00445271
6898.00   0.25658965   0.00425256
6900.00   0.25473547   0.00415980
6902.00   0.25490579   0.00412010
6904.00   0.25630313   0.00422922
6906.00   0.25798216   0.00424660
6908.00   0.26161453   0.00421082
6910.00   0.26344287   0.00417556
6912.00   0.26055062   0.00415151
6914.00   0.25572884   0.00413559
6916.00   0.25737828   0.00416511
6918.00   0.26614136   0.00426367
6920.00   0.26876861   0.00429562
6922.00   0.26891342   0.00431081
6924.00   0.26739845   0.00428542
6926.00   0.26326999   0.00419051
6928.00   0.25823072   0.00406880
6930.00   0.25651631   0.00401521
6932.00   0.25817046   0.00400591
6934.00   0.25510144   0.00398674
6936.00   0.24554192   0.00394411
6938.00   0.24214134   0.00396843
6940.00   0.24795908   0.00408354
6942.00   0.25525281   0.00422314
6944.00   0.25528541   0.00433494
6946.00   0.25030726   0.00446077
6948.00   0.25223768   0.00446318
6950.00   0.26045740   0.00434263
6952.00   0.26485813   0.00423722
6954.00   0.26587129   0.00411198
6956.00   0.26600236   0.00399849
6958.00   0.26615611   0.00392865
6960.00   0.26574641   0.00388887
6962.00   0.26864660   0.00389267
6964.00   0.27404535   0.00395207
6966.00   0.28027567   0.00401272
6968.00   0.28911415   0.00409759
6970.00   0.29698250   0.00417686
6972.00   0.30237490   0.00424459
6974.00   0.30622536   0.00430257
6976.00   0.30859873   0.00431801
6978.00   0.30524802   0.00426561
6980.00   0.31046009   0.00427332
6982.00   0.32386109   0.00422677
6984.00   0.33491483   0.00433668
6986.00   0.34253985   0.00474747
6988.00   0.34709603   0.00519257
6990.00   0.34392241   0.00524982
6992.00   0.32717261   0.00503057
6994.00   0.33012977   0.00485910
6996.00   0.35161549   0.00450695
6998.00   0.36519215   0.00431915
7000.00   0.36757827   0.00441409
7002.00   0.36691129   0.00457388
7004.00   0.37050998   0.00455835
7006.00   0.37605938   0.00444439
7008.00   0.37826300   0.00440514
7010.00   0.37608632   0.00438263
7012.00   0.37793484   0.00438638
7014.00   0.38508761   0.00444215
7016.00   0.39217204   0.00448772
7018.00   0.39474952   0.00446468
7020.00   0.39467758   0.00439573
7022.00   0.39678398   0.00436920
7024.00   0.39909744   0.00435191
7026.00   0.40271088   0.00435581
7028.00   0.40977836   0.00438444
7030.00   0.41431028   0.00442225
7032.00   0.41185439   0.00446211
7034.00   0.40551329   0.00450794
7036.00   0.40549025   0.00455958
7038.00   0.41017687   0.00462185
7040.00   0.41274041   0.00467770
7042.00   0.41526923   0.00471713
7044.00   0.41728294   0.00478047
7046.00   0.41877270   0.00492167
7048.00   0.41966674   0.00506150
7050.00   0.41951796   0.00500265
7052.00   0.41913173   0.00472762
7054.00   0.41593561   0.00459371
7056.00   0.40816668   0.00448950
7058.00   0.40315974   0.00443543
7060.00   0.40321931   0.00445234
7062.00   0.40386769   0.00450360
7064.00   0.39893955   0.00452174
7066.00   0.38912717   0.00449130
7068.00   0.38537374   0.00466489
7070.00   0.38546073   0.00518256
7072.00   0.38555229   0.00531504
7074.00   0.38661483   0.00498537
7076.00   0.38741577   0.00455826
7078.00   0.38621116   0.00440573
7080.00   0.38355812   0.00438984
7082.00   0.38259512   0.00437418
7084.00   0.38300544   0.00441860
7086.00   0.38246441   0.00448019
7088.00   0.38202026   0.00461982
7090.00   0.38019413   0.00470325
7092.00   0.37554300   0.00460588
7094.00   0.36895856   0.00440074
7096.00   0.36443758   0.00449007
7098.00   0.35953990   0.00497740
7100.00   0.35768810   0.00501066
7102.00   0.36036879   0.00466024
7104.00   0.36120602   0.00433889
7106.00   0.35736382   0.00421228
7108.00   0.35158953   0.00417314
7110.00   0.34874627   0.00414627
7112.00   0.34695795   0.00419042
7114.00   0.34640574   0.00419461
7116.00   0.34800756   0.00418442
7118.00   0.34899932   0.00418238
7120.00   0.34853205   0.00418140
7122.00   0.34805241   0.00419525
7124.00   0.34961227   0.00426301
7126.00   0.35303268   0.00440275
7128.00   0.35485628   0.00442360
7130.00   0.35535589   0.00434395
7132.00   0.35697964   0.00429279
7134.00   0.36043704   0.00425941
7136.00   0.36375374   0.00424508
7138.00   0.36539227   0.00426140
7140.00   0.36642227   0.00429976
7142.00   0.36325359   0.00438944
7144.00   0.35356608   0.00462444
7146.00   0.34838966   0.00466648
7148.00   0.34579208   0.00449146
7150.00   0.34580687   0.00430145
7152.00   0.35010108   0.00423342
7154.00   0.35781667   0.00422163
7156.00   0.35925439   0.00420959
7158.00   0.35515028   0.00423023
7160.00   0.35417393   0.00424084
7162.00   0.35438147   0.00425605
7164.00   0.35521409   0.00426532
7166.00   0.35667661   0.00425800
7168.00   0.35868886   0.00424522
7170.00   0.36058924   0.00426266
7172.00   0.36366114   0.00431405
7174.00   0.36416361   0.00433737
7176.00   0.36179021   0.00430398
7178.00   0.36053306   0.00434681
7180.00   0.36172727   0.00449386
7182.00   0.36338222   0.00469561
7184.00   0.36227688   0.00492739
7186.00   0.35746363   0.00530894
7188.00   0.35968000   0.00527840
7190.00   0.36786216   0.00475969
7192.00   0.37524194   0.00446773
7194.00   0.38347772   0.00453808
7196.00   0.38998634   0.00468024
7198.00   0.39028564   0.00464210
7200.00   0.38538659   0.00451536
7202.00   0.38296685   0.00444797
7204.00   0.37844202   0.00437507
7206.00   0.37828740   0.00435096
7208.00   0.37971729   0.00420876
7210.00   0.38693374   0.00432517
7212.00   0.40679651   0.00510040
7214.00   0.43665951   0.00616219
7216.00   0.44638395   0.00628180
7218.00   0.44033229   0.00564069
7220.00   0.43798631   0.00525218
7222.00   0.43390235   0.00482593
7224.00   0.43043536   0.00451336
7226.00   0.42972857   0.00444587
7228.00   0.42995542   0.00455784
7230.00   0.42546463   0.00469882
7232.00   0.41332138   0.00490829
7234.00   0.41060919   0.00520063
7236.00   0.41413569   0.00563356
7238.00   0.41875046   0.00598172
7240.00   0.42333037   0.00625887
7242.00   0.42909253   0.00645262
7244.00   0.43749025   0.00643825
7246.00   0.45286360   0.00621925
7248.00   0.45341825   0.00600288
7250.00   0.43614021   0.00553889
7252.00   0.42954880   0.00533597
7254.00   0.43982834   0.00562924
7256.00   0.45237324   0.00594211
7258.00   0.45009834   0.00573544
7260.00   0.43621892   0.00508812
7262.00   0.43895143   0.00483230
7264.00   0.45592862   0.00470481
7266.00   0.46640065   0.00478823
7268.00   0.47315332   0.00495472
7270.00   0.47619233   0.00543085
7272.00   0.47156349   0.00650894
7274.00   0.45986557   0.00788347
7276.00   0.46681505   0.00806731
7278.00   0.49613783   0.00729361
7280.00   0.50772852   0.00677532
7282.00   0.50581533   0.00618183
7284.00   0.50155282   0.00567179
7286.00   0.49769774   0.00542421
7288.00   0.49322540   0.00537097
7290.00   0.49851722   0.00528214
7292.00   0.51838529   0.00527508
7294.00   0.52413684   0.00524543
7296.00   0.52029288   0.00521757
7298.00   0.51672667   0.00520650
7300.00   0.51551080   0.00521656
7302.00   0.51496750   0.00524338
7304.00   0.51544642   0.00528007
7306.00   0.51620525   0.00530465
7308.00   0.51975733   0.00541684
7310.00   0.52692568   0.00558274
7312.00   0.53311068   0.00579627
7314.00   0.53953797   0.00615598
7316.00   0.54395491   0.00645144
7318.00   0.54169917   0.00637857
7320.00   0.53374273   0.00598043
7322.00   0.52601421   0.00575548
7324.00   0.51319265   0.00550544
7326.00   0.50571990   0.00535797
7328.00   0.50513959   0.00533075
7330.00   0.50535393   0.00537280
7332.00   0.50110048   0.00544615
7334.00   0.49445555   0.00556752
7336.00   0.49077901   0.00571934
7338.00   0.48688698   0.00595930
7340.00   0.48720810   0.00610829
7342.00   0.49414578   0.00625220
7344.00   0.49957660   0.00627969
7346.00   0.49894747   0.00607672
7348.00   0.49489227   0.00570031
7350.00   0.49007550   0.00550977
7352.00   0.47912738   0.00538053
7354.00   0.47678149   0.00534023
7356.00   0.48293331   0.00544677
7358.00   0.48724592   0.00553147
7360.00   0.48668838   0.00551044
7362.00   0.48373592   0.00547571
7364.00   0.47971463   0.00562574
7366.00   0.47465628   0.00600453
7368.00   0.46649420   0.00610685
7370.00   0.45232299   0.00610124
7372.00   0.44221678   0.00597030
7374.00   0.43769458   0.00562478
7376.00   0.43618122   0.00518565
7378.00   0.43578747   0.00492788
7380.00   0.43781391   0.00476123
7382.00   0.43941036   0.00467633
7384.00   0.44408125   0.00473440
7386.00   0.44398594   0.00478228
7388.00   0.43636733   0.00482061
7390.00   0.42877075   0.00487827
7392.00   0.42936376   0.00496865
7394.00   0.43577334   0.00508243
7396.00   0.43409634   0.00523125
7398.00   0.42640963   0.00551079
7400.00   0.42068800   0.00559436
7402.00   0.41401243   0.00548425
7404.00   0.40999106   0.00533181
7406.00   0.41213161   0.00522405
7408.00   0.41851699   0.00511485
7410.00   0.42098340   0.00498921
7412.00   0.42206338   0.00482722
7414.00   0.42280543   0.00470713
7416.00   0.42346978   0.00460222
7418.00   0.42267069   0.00453763
7420.00   0.41902646   0.00453292
7422.00   0.41405374   0.00457046
7424.00   0.41250876   0.00460233
7426.00   0.41369179   0.00464504
7428.00   0.41369328   0.00470184
7430.00   0.41434491   0.00478722
7432.00   0.41378874   0.00485547
7434.00   0.41197783   0.00490760
7436.00   0.40886763   0.00494062
7438.00   0.40331754   0.00493069
7440.00   0.39332822   0.00486674
7442.00   0.39101774   0.00485005
7444.00   0.39491794   0.00488315
7446.00   0.39812568   0.00486506
7448.00   0.40184751   0.00477856
7450.00   0.40454257   0.00467118
7452.00   0.40311155   0.00458240
7454.00   0.39810869   0.00448458
7456.00   0.39642349   0.00446514
7458.00   0.39830950   0.00452536
7460.00   0.39593083   0.00457518
7462.00   0.38871181   0.00461531
7464.00   0.38099521   0.00467787
7466.00   0.37478149   0.00479332
7468.00   0.36894462   0.00494461
7470.00   0.36861289   0.00502519
7472.00   0.37495056   0.00506840
7474.00   0.37838790   0.00509415
7476.00   0.38107067   0.00508856
7478.00   0.38332370   0.00507665
7480.00   0.38469547   0.00507580
7482.00   0.38572073   0.00507092
7484.00   0.38906780   0.00501909
7486.00   0.39645490   0.00491493
7488.00   0.39852756   0.00482624
7490.00   0.39934289   0.00473025
7492.00   0.39534816   0.00463297
7494.00   0.38336098   0.00450778
7496.00   0.36829054   0.00439867
7498.00   0.35991696   0.00442523
7500.00   0.35401550   0.00460316
7502.00   0.35228762   0.00464403
7504.00   0.35732478   0.00463774
7506.00   0.35996264   0.00458815
7508.00   0.36034080   0.00444397
7510.00   0.35901389   0.00430164
7512.00   0.35494837   0.00430401
7514.00   0.34771606   0.00439920
7516.00   0.34356681   0.00453036
7518.00   0.34042773   0.00473623
7520.00   0.33845270   0.00493203
7522.00   0.33845109   0.00518858
7524.00   0.33850032   0.00536691
7526.00   0.33632681   0.00535439
7528.00   0.33272973   0.00520491
7530.00   0.33489147   0.00506108
7532.00   0.34303555   0.00480093
7534.00   0.34853995   0.00464142
7536.00   0.35494480   0.00457088
7538.00   0.35808632   0.00451793
7540.00   0.35498580   0.00445082
7542.00   0.34784237   0.00438961
7544.00   0.34282216   0.00434769
7546.00   0.33807793   0.00433399
7548.00   0.33234346   0.00430455
7550.00   0.32596955   0.00418845
7552.00   0.31899512   0.00421392
7554.00   0.31049913   0.00450159
7556.00   0.30192429   0.00486181
7558.00   0.29715645   0.00500568
7560.00   0.29520613   0.00508132
7562.00   0.29391280   0.00500522
7564.00   0.29540876   0.00460706
7566.00   0.29542679   0.00442188
7568.00   0.29375279   0.00461292
7570.00   0.29097614   0.00487480
7572.00   0.28691170   0.00489908
7574.00   0.28088710   0.00480236
7576.00   0.27759361   0.00470939
7578.00   0.27536368   0.00452823
7580.00   0.27470264   0.00440634
7582.00   0.27603164   0.00432097
7584.00   0.27826518   0.00429432
7586.00   0.28067625   0.00435204
7588.00   0.28373432   0.00447746
7590.00   0.28562737   0.00469485
7592.00   0.29053664   0.00494348
7594.00   0.28703359   0.00533728
7596.00   0.27180851   0.00567824
7598.00   0.25889215   0.00631821
7600.00   0.25564054   0.00751571
7602.00   0.25773627   0.00885396
7604.00   0.26174623   0.00934048
7606.00   0.27172816   0.00945655
7608.00   0.27821079   0.00924386
7610.00   0.28616405   0.00840247
7612.00   0.28918427   0.00756207
7614.00   0.28379166   0.00696357
7616.00   0.27391168   0.00647027
7618.00   0.26776439   0.00605301
7620.00   0.26313442   0.00570935
7622.00   0.25644332   0.00562112
7624.00   0.24519220   0.00587252
7626.00   0.23964959   0.00610114
7628.00   0.24244799   0.00634695
7630.00   0.24874838   0.00653750
7632.00   0.25333041   0.00647759
7634.00   0.26022127   0.00620064
7636.00   0.25896090   0.00595420
7638.00   0.24702698   0.00553452
7640.00   0.24205129   0.00528676
7642.00   0.24525848   0.00527849
7644.00   0.25018033   0.00534080
7646.00   0.25179809   0.00534382
7648.00   0.25224465   0.00535613
7650.00   0.25348929   0.00528112
7652.00   0.25422543   0.00507557
7654.00   0.25651881   0.00496538
7656.00   0.26028076   0.00494228
7658.00   0.26479530   0.00493627
7660.00   0.27055463   0.00492313
7662.00   0.27721348   0.00491505
7664.00   0.27871716   0.00483689
7666.00   0.27479923   0.00466772
7668.00   0.27335691   0.00455213
7670.00   0.27191791   0.00442968
7672.00   0.27163106   0.00436640
7674.00   0.27352175   0.00441564
7676.00   0.27647194   0.00452126
7678.00   0.27738634   0.00454053
7680.00   0.27753082   0.00452903
7682.00   0.27649650   0.00448151
7684.00   0.27218816   0.00433626
7686.00   0.27087408   0.00426638
7688.00   0.27573150   0.00432856
7690.00   0.28143033   0.00443585
7692.00   0.27919000   0.00448139
7694.00   0.27067420   0.00451711
7696.00   0.26541355   0.00450417
7698.00   0.25922260   0.00435062
7700.00   0.25567558   0.00436566
7702.00   0.25618339   0.00446897
7704.00   0.25717583   0.00476803
7706.00   0.25403842   0.00545311
7708.00   0.24736489   0.00641821
7710.00   0.25017741   0.00676300
7712.00   0.26084384   0.00670068
7714.00   0.27107808   0.00675156
7716.00   0.28660214   0.00696763
7718.00   0.29704180   0.00701781
7720.00   0.29211563   0.00661496
7722.00   0.27683106   0.00582983
7724.00   0.27625823   0.00543071
7726.00   0.28521898   0.00519608
7728.00   0.29227257   0.00513891
7730.00   0.30305874   0.00547742
7732.00   0.31011063   0.00564837
7734.00   0.30859080   0.00537798
7736.00   0.30276626   0.00487061
7738.00   0.30358136   0.00469098
7740.00   0.30859962   0.00460207
7742.00   0.31222939   0.00479478
7744.00   0.31753224   0.00532035
7746.00   0.32061517   0.00576723
7748.00   0.31952891   0.00612703
7750.00   0.31719369   0.00642637
7752.00   0.31857121   0.00658586
7754.00   0.32148337   0.00659613
7756.00   0.32692385   0.00671094
7758.00   0.33960792   0.00706848
7760.00   0.34471643   0.00702279
7762.00   0.33689049   0.00632873
7764.00   0.32872060   0.00542137
7766.00   0.33502731   0.00504502
7768.00   0.35138160   0.00502411
7770.00   0.36265329   0.00497127
7772.00   0.37739396   0.00508184
7774.00   0.38432643   0.00515575
7776.00   0.38214022   0.00524150
7778.00   0.37773535   0.00529513
7780.00   0.37528944   0.00524364
7782.00   0.37259525   0.00511108
7784.00   0.37306559   0.00518563
7786.00   0.37641734   0.00521661
7788.00   0.37978974   0.00567299
7790.00   0.38668361   0.00676710
7792.00   0.38980234   0.00740985
7794.00   0.38537872   0.00718353
7796.00   0.37600800   0.00646490
7798.00   0.36559054   0.00631189
7800.00   0.34705573   0.00666576
7802.00   0.33952266   0.00651291
7804.00   0.33920407   0.00588466
7806.00   0.34114060   0.00541732
7808.00   0.34679529   0.00526938
7810.00   0.35317373   0.00539434
7812.00   0.34978995   0.00597335
7814.00   0.33488256   0.00719061
7816.00   0.33358362   0.00743005
7818.00   0.33994707   0.00684002
7820.00   0.34879673   0.00665977
7822.00   0.36649969   0.00730727
7824.00   0.38074031   0.00787834
7826.00   0.37059879   0.00742369
7828.00   0.33848587   0.00593529
7830.00   0.32641920   0.00519004
7832.00   0.32695332   0.00482846
7834.00   0.32153580   0.00463043
7836.00   0.30837670   0.00474720
7838.00   0.29684424   0.00496633
7840.00   0.29552943   0.00503611
7842.00   0.30142540   0.00504218
7844.00   0.29631299   0.00558513
7846.00   0.27780294   0.00679219
7848.00   0.27328643   0.00722965
7850.00   0.28052291   0.00712575
7852.00   0.29082829   0.00693435
7854.00   0.30251738   0.00687291
7856.00   0.31596103   0.00681136
7858.00   0.31839195   0.00662370
7860.00   0.30828872   0.00622171
7862.00   0.30599400   0.00601178
7864.00   0.30615950   0.00592613
7866.00   0.30796090   0.00587747
7868.00   0.31342387   0.00586456
7870.00   0.31943527   0.00587605
7872.00   0.31603822   0.00582135
7874.00   0.30243692   0.00567831
7876.00   0.29712397   0.00567012
7878.00   0.29502210   0.00578941
7880.00   0.29455045   0.00586269
7882.00   0.29843411   0.00587503
7884.00   0.30150577   0.00585946
7886.00   0.29363465   0.00582551
7888.00   0.27416995   0.00574592
7890.00   0.27109462   0.00575206
7892.00   0.28009245   0.00593142
7894.00   0.28728917   0.00589150
7896.00   0.29596889   0.00555698
7898.00   0.30207631   0.00514766
7900.00   0.29888910   0.00483384
7902.00   0.28792298   0.00449458
7904.00   0.28822765   0.00471833
7906.00   0.29906160   0.00519746
7908.00   0.30260980   0.00607805
7910.00   0.30033132   0.00763619
7912.00   0.29696992   0.00863598
7914.00   0.29380792   0.00866003
7916.00   0.29027012   0.00810550
7918.00   0.29255798   0.00763320
7920.00   0.30297545   0.00670642
7922.00   0.30664897   0.00615759
7924.00   0.30470505   0.00592313
7926.00   0.30454072   0.00577568
7928.00   0.30881640   0.00566102
7930.00   0.31523669   0.00561685
7932.00   0.32134569   0.00557907
7934.00   0.33299777   0.00565482
7936.00   0.33152676   0.00553298
7938.00   0.31418854   0.00511199
7940.00   0.30472952   0.00490718
7942.00   0.30820826   0.00509219
7944.00   0.31645760   0.00540802
7946.00   0.32112858   0.00558589
7948.00   0.32689750   0.00579938
7950.00   0.32708439   0.00574137
7952.00   0.32176897   0.00529050
7954.00   0.31700698   0.00506834
7956.00   0.31255907   0.00510139
7958.00   0.30787149   0.00527672
7960.00   0.30286551   0.00557390
7962.00   0.29745179   0.00602600
7964.00   0.29280099   0.00617620
7966.00   0.28593722   0.00616818
7968.00   0.28500167   0.00608194
7970.00   0.29146692   0.00580810
7972.00   0.29843691   0.00555527
7974.00   0.30239886   0.00550716
7976.00   0.30521640   0.00557877
7978.00   0.30264059   0.00556505
7980.00   0.29008552   0.00547061
7982.00   0.28745186   0.00551349
7984.00   0.29218894   0.00564102
7986.00   0.29811740   0.00584059
7988.00   0.30545151   0.00615806
7990.00   0.31281245   0.00651485
7992.00   0.30866718   0.00665341
7994.00   0.29201171   0.00673565
7996.00   0.28168145   0.00657188
7998.00   0.26849362   0.00604909
8000.00   0.26241168   0.00555831
8002.00   0.26831523   0.00514643
8004.00   0.27865916   0.00481213
8006.00   0.28096658   0.00473441
8008.00   0.28039432   0.00496134
8010.00   0.27604258   0.00502101
8012.00   0.26297840   0.00501954
8014.00   0.25663489   0.00508111
8016.00   0.25896835   0.00520264
8018.00   0.26402956   0.00536752
8020.00   0.26687998   0.00559043
8022.00   0.27018756   0.00588837
8024.00   0.27004442   0.00601584
8026.00   0.26744857   0.00610947
8028.00   0.26325580   0.00602237
8030.00   0.25705901   0.00568494
8032.00   0.24950817   0.00526960
8034.00   0.24008209   0.00489448
8036.00   0.22878189   0.00448896
8038.00   0.22423939   0.00426971
8040.00   0.22579402   0.00424373
8042.00   0.22597314   0.00424246
8044.00   0.22685841   0.00434169
8046.00   0.22752653   0.00444641
8048.00   0.22778377   0.00451777
8050.00   0.22762975   0.00458183
8052.00   0.22558157   0.00464688
8054.00   0.22106688   0.00469599
8056.00   0.21786627   0.00477688
8058.00   0.21392430   0.00492424
8060.00   0.21182670   0.00499936
8062.00   0.21295251   0.00494629
8064.00   0.21538588   0.00484284
8066.00   0.21557537   0.00482883
8068.00   0.21490382   0.00486606
8070.00   0.21339047   0.00488573
8072.00   0.20807241   0.00497208
8074.00   0.20759587   0.00494059
8076.00   0.21477546   0.00469988
8078.00   0.22337307   0.00442478
8080.00   0.22624187   0.00438757
8082.00   0.22643636   0.00452764
8084.00   0.22398509   0.00453485
8086.00   0.21640694   0.00446364
8088.00   0.21130511   0.00445477
8090.00   0.20721444   0.00450938
8092.00   0.20519316   0.00458188
8094.00   0.20753859   0.00465398
8096.00   0.21364456   0.00473869
8098.00   0.21418019   0.00475106
8100.00   0.21114053   0.00470259
8102.00   0.20827253   0.00465087
8104.00   0.20335802   0.00458822
8106.00   0.19997302   0.00450084
8108.00   0.20043907   0.00434012
8110.00   0.20318887   0.00414182
8112.00   0.20450865   0.00417947
8114.00   0.20863609   0.00439845
8116.00   0.20581487   0.00463891
8118.00   0.19164646   0.00515281
8120.00   0.18555699   0.00533405
8122.00   0.19603704   0.00490930
8124.00   0.21325268   0.00415791
8126.00   0.21992958   0.00394916
8128.00   0.22377527   0.00415391
8130.00   0.22035611   0.00419413
8132.00   0.20574531   0.00424814
8134.00   0.19518448   0.00430974
8136.00   0.18965484   0.00439760
8138.00   0.18697535   0.00447462
8140.00   0.18715692   0.00448033
8142.00   0.19127257   0.00442535
8144.00   0.19290736   0.00440214
8146.00   0.19348855   0.00438640
8148.00   0.19489515   0.00436253
8150.00   0.19807014   0.00432388
8152.00   0.20044842   0.00428870
8154.00   0.19908549   0.00426906
8156.00   0.19476534   0.00425633
8158.00   0.19516750   0.00429190
8160.00   0.20151947   0.00441764
8162.00   0.20172630   0.00445194
8164.00   0.19524716   0.00436634
8166.00   0.18926604   0.00432186
8168.00   0.18784487   0.00442296
8170.00   0.18862283   0.00460223
8172.00   0.18808857   0.00472417
8174.00   0.18679154   0.00476885
8176.00   0.18703009   0.00496509
8178.00   0.18914475   0.00531070
8180.00   0.19058357   0.00560449
8182.00   0.18979311   0.00580118
8184.00   0.18849187   0.00595368
8186.00   0.19084579   0.00609546
8188.00   0.19842826   0.00622462
8190.00   0.19913194   0.00630989
8192.00   0.19510016   0.00639704
8194.00   0.19065024   0.00638900
8196.00   0.18438883   0.00626103
8198.00   0.17900322   0.00604914
8200.00   0.18098043   0.00578584
8202.00   0.19034228   0.00539646
8204.00   0.19277428   0.00513647
8206.00   0.19123816   0.00494056
8208.00   0.19040601   0.00480131
8210.00   0.18994917   0.00474913
8212.00   0.18968105   0.00473514
8214.00   0.18994945   0.00469223
8216.00   0.19071300   0.00463637
8218.00   0.19080536   0.00471204
8220.00   0.19357103   0.00502475
8222.00   0.18968095   0.00507265
8224.00   0.17485258   0.00482707
8226.00   0.16344197   0.00457268
8228.00   0.16614819   0.00452682
8230.00   0.17724997   0.00458439
8232.00   0.17980869   0.00450551
8234.00   0.17874824   0.00431210
8236.00   0.17729947   0.00419208
8238.00   0.17355819   0.00409814
8240.00   0.17039344   0.00403924
8242.00   0.16873300   0.00403187
8244.00   0.16796137   0.00405960
8246.00   0.16828041   0.00406581
8248.00   0.17056951   0.00408242
8250.00   0.17135890   0.00406970
8252.00   0.17327230   0.00394725
8254.00   0.17185582   0.00397351
8256.00   0.16336416   0.00429818
8258.00   0.15402143   0.00464076
8260.00   0.15576336   0.00460509
8262.00   0.16788244   0.00424925
8264.00   0.17050301   0.00408200
8266.00   0.16613258   0.00386084
8268.00   0.16575888   0.00385220
8270.00   0.17064033   0.00405865
8272.00   0.17662208   0.00441606
8274.00   0.18064484   0.00490390
8276.00   0.18482429   0.00551635
8278.00   0.18290220   0.00596640
8280.00   0.17040117   0.00627526
8282.00   0.16767034   0.00673953
8284.00   0.17879343   0.00750676
8286.00   0.18651754   0.00803732
8288.00   0.17762204   0.00799597
8290.00   0.15842956   0.00757064
8292.00   0.14672495   0.00736419
8294.00   0.12936595   0.00717019
8296.00   0.12924844   0.00699117
8298.00   0.15093558   0.00689070
8300.00   0.16872220   0.00670851
8302.00   0.17202005   0.00632062
8304.00   0.16803135   0.00579539
8306.00   0.16191064   0.00542617
8308.00   0.14672293   0.00513777
8310.00   0.13990141   0.00488615
8312.00   0.13786057   0.00473824
8314.00   0.13621557   0.00458315
8316.00   0.13324277   0.00438301
8318.00   0.13129163   0.00418087
8320.00   0.13434336   0.00404127
8322.00   0.14260657   0.00394855
8324.00   0.14810835   0.00388992
8326.00   0.15548046   0.00390477
8328.00   0.15836209   0.00389733
8330.00   0.15629528   0.00357757
8332.00   0.15074869   0.00353662
8334.00   0.14129636   0.00455091
8336.00   0.12511645   0.00600656
8338.00   0.12330667   0.00697068
8340.00   0.13894601   0.00797035
8342.00   0.14148691   0.00863643
8344.00   0.13050729   0.00919028
8346.00   0.11670050   0.00943155
8348.00   0.10497975   0.00913097
8350.00   0.09216885   0.00834017
8352.00   0.09443773   0.00756921
8354.00   0.11503435   0.00620031
8356.00   0.12573723   0.00534164
8358.00   0.13162927   0.00519085
8360.00   0.13545696   0.00516159
8362.00   0.13788290   0.00496894
8364.00   0.13856459   0.00478062
8366.00   0.13834649   0.00461832
8368.00   0.13741030   0.00445947
8370.00   0.13412164   0.00436539
8372.00   0.12670602   0.00428139
8374.00   0.12128288   0.00432209
8376.00   0.11838689   0.00455999
8378.00   0.11809523   0.00487352
8380.00   0.12412485   0.00506192
8382.00   0.13961299   0.00526476
8384.00   0.14543699   0.00526062
8386.00   0.14604533   0.00489772
8388.00   0.14550598   0.00480757
8390.00   0.14251600   0.00503239
8392.00   0.13947351   0.00546522
8394.00   0.14133750   0.00614223
8396.00   0.14776066   0.00714301
8398.00   0.14802523   0.00735727
8400.00   0.14514564   0.00707494
8402.00   0.14038247   0.00669854
8404.00   0.13028514   0.00598252
8406.00   0.12227385   0.00524181
8408.00   0.12361107   0.00498079
8410.00   0.13130797   0.00507188
8412.00   0.13901441   0.00516814
8414.00   0.15387420   0.00551631
8416.00   0.15987115   0.00566919
8418.00   0.15747406   0.00562225
8420.00   0.15351808   0.00563750
8422.00   0.14952640   0.00572049
8424.00   0.14502867   0.00589212
8426.00   0.15081063   0.00682381
8428.00   0.16826227   0.00864261
8430.00   0.17999120   0.00934138
8432.00   0.19523945   0.00983936
8434.00   0.20187509   0.00963766
8436.00   0.19223188   0.00803293
8438.00   0.17515936   0.00505612
8440.00   0.17091125   0.00363610
8442.00   0.17345774   0.00439206
8444.00   0.17634831   0.00454372
8446.00   0.18405846   0.00517983
8448.00   0.18937930   0.00553130
8450.00   0.19019589   0.00545832
8452.00   0.19034290   0.00532135
8454.00   0.19448426   0.00555122
8456.00   0.20011818   0.00586734
8458.00   0.21045804   0.00666296
8460.00   0.23137894   0.00832795
8462.00   0.24208911   0.00884626
8464.00   0.23932074   0.00818738
8466.00   0.23453528   0.00714324
8468.00   0.23765789   0.00655444
8470.00   0.24449140   0.00609804
8472.00   0.25120702   0.00562778
8474.00   0.26374125   0.00515364
8476.00   0.26733649   0.00485100
8478.00   0.25957072   0.00479968
8480.00   0.25290269   0.00482023
8482.00   0.25498933   0.00477395
8484.00   0.26165274   0.00473765
8486.00   0.26709357   0.00494226
8488.00   0.27341962   0.00547150
8490.00   0.28037283   0.00569447
8492.00   0.29088718   0.00571215
8494.00   0.29738575   0.00574803
8496.00   0.29507011   0.00587160
8498.00   0.28878444   0.00602677
8500.00   0.29060724   0.00618736
8502.00   0.29826319   0.00645632
8504.00   0.30352250   0.00648367
8506.00   0.31082711   0.00635848
8508.00   0.31461421   0.00613174
8510.00   0.30989492   0.00570674
8512.00   0.30519292   0.00520704
8514.00   0.31654534   0.00500165
8516.00   0.34303442   0.00503439
8518.00   0.35689840   0.00501396
8520.00   0.36642039   0.00504846
8522.00   0.37282601   0.00509027
8524.00   0.37530339   0.00516038
8526.00   0.37538192   0.00522063
8528.00   0.37436855   0.00520534
8530.00   0.37087956   0.00511500
8532.00   0.37184545   0.00519852
8534.00   0.37807104   0.00533776
8536.00   0.37992480   0.00562564
8538.00   0.37800342   0.00622006
8540.00   0.37463948   0.00663068
8542.00   0.37016708   0.00654402
8544.00   0.36430871   0.00612736
8546.00   0.36380303   0.00596901
8548.00   0.36892977   0.00593464
8550.00   0.37116340   0.00582400
8552.00   0.37211338   0.00565917
8554.00   0.37291756   0.00550072
8556.00   0.37262514   0.00531876
8558.00   0.37253207   0.00516028
8560.00   0.37965524   0.00532692
8562.00   0.39528379   0.00598180
8564.00   0.40588528   0.00608127
8566.00   0.41690060   0.00571225
8568.00   0.42438689   0.00554239
8570.00   0.42605692   0.00583283
8572.00   0.42535287   0.00622041
8574.00   0.42874032   0.00624213
8576.00   0.43530518   0.00601699
8578.00   0.43750066   0.00588161
8580.00   0.43596393   0.00562547
8582.00   0.43570930   0.00555584
8584.00   0.43519661   0.00577898
8586.00   0.43707120   0.00604580
8588.00   0.44716707   0.00610730
8590.00   0.46642792   0.00606049
8592.00   0.46937275   0.00604192
8594.00   0.45602575   0.00599137
8596.00   0.45189542   0.00595743
8598.00   0.45484033   0.00592127
8600.00   0.46130666   0.00591092
8602.00   0.47047296   0.00596018
8604.00   0.48295191   0.00605481
8606.00   0.49365103   0.00610579
8608.00   0.50720996   0.00591862
8610.00   0.51423037   0.00622169
8612.00   0.51339179   0.00708728
8614.00   0.51341617   0.00772684
8616.00   0.51695603   0.00788119
8618.00   0.52279150   0.00780317
8620.00   0.53646255   0.00783751
8622.00   0.56081688   0.00779530
8624.00   0.57948476   0.00789387
8626.00   0.59792006   0.00810068
8628.00   0.61422372   0.00831849
8630.00   0.62842143   0.00860449
8632.00   0.64020479   0.00885226
8634.00   0.64771682   0.00875625
8636.00   0.65020466   0.00830945
8638.00   0.65395713   0.00801531
8640.00   0.65689242   0.00761750
8642.00   0.65945125   0.00740983
8644.00   0.66137594   0.00746990
8646.00   0.66315240   0.00766047
8648.00   0.66530794   0.00784725
8650.00   0.66697824   0.00810596
8652.00   0.67225671   0.00828470
8654.00   0.68124962   0.00845903
8656.00   0.68961126   0.00855655
8658.00   0.69788057   0.00854228
8660.00   0.70605040   0.00852231
8662.00   0.71403503   0.00860318
8664.00   0.72200060   0.00874538
8666.00   0.72799814   0.00874503
8668.00   0.73268557   0.00866665
8670.00   0.73605859   0.00852372
8672.00   0.74098718   0.00825958
8674.00   0.74029714   0.00799275
8676.00   0.72885299   0.00779550
8678.00   0.71005625   0.00762909
8680.00   0.69424111   0.00745162
8682.00   0.67156523   0.00725939
8684.00   0.66262513   0.00711636
8686.00   0.66632950   0.00701691
8688.00   0.67027736   0.00693693
8690.00   0.67231959   0.00687539
8692.00   0.67356354   0.00683097
8694.00   0.66988754   0.00678246
8696.00   0.65997893   0.00672995
8698.00   0.65534681   0.00670588
8700.00   0.64911544   0.00671488
8702.00   0.65098304   0.00671624
8704.00   0.66776425   0.00663966
8706.00   0.68659467   0.00661768
8708.00   0.68821549   0.00689417
8710.00   0.67934984   0.00746239
8712.00   0.66711891   0.00763292
8714.00   0.64034486   0.00751683
8716.00   0.62602180   0.00749925
8718.00   0.62879300   0.00745993
8720.00   0.63238186   0.00757873
8722.00   0.62138283   0.00820200
8724.00   0.60105628   0.00921933
8726.00   0.59290737   0.00907261
8728.00   0.59369528   0.00762450
8730.00   0.59099114   0.00676687
8732.00   0.58573872   0.00640007
8734.00   0.58135384   0.00623499
8736.00   0.57816142   0.00617557
8738.00   0.57614100   0.00628166
8740.00   0.58421731   0.00632135
8742.00   0.60747868   0.00638238
8744.00   0.61869156   0.00644247
8746.00   0.62317288   0.00643964
8748.00   0.62566501   0.00655361
8750.00   0.62548947   0.00679226
8752.00   0.62437040   0.00715582
8754.00   0.63230270   0.00779338
8756.00   0.65655947   0.00877116
8758.00   0.65574223   0.00937468
8760.00   0.63132143   0.00984638
8762.00   0.61443019   0.01023570
8764.00   0.60671389   0.01048317
8766.00   0.60669506   0.01072213
8768.00   0.62285060   0.01123172
8770.00   0.66378641   0.01207728
8772.00   0.66755134   0.01220038
8774.00   0.63950473   0.01186199
8776.00   0.62183475   0.01133282
8778.00   0.61606938   0.01039083
8780.00   0.61178505   0.00931647
8782.00   0.60098726   0.00859112
8784.00   0.58585590   0.00806682
8786.00   0.57934487   0.00774246
8788.00   0.58000135   0.00787873
8790.00   0.57900488   0.00778911
8792.00   0.57591432   0.00751129
8794.00   0.57536620   0.00721500
8796.00   0.58196849   0.00699330
8798.00   0.59344167   0.00680261
8800.00   0.59469616   0.00667077
8802.00   0.58408833   0.00660209
8804.00   0.58416551   0.00656702
8806.00   0.59493858   0.00660030
8808.00   0.60196352   0.00663261
8810.00   0.59811747   0.00659263
8812.00   0.58935565   0.00655352
8814.00   0.58751160   0.00675378
8816.00   0.59465659   0.00675326
8818.00   0.58791333   0.00771927
8820.00   0.57008535   0.00928531
8822.00   0.55239356   0.01074061
8824.00   0.53123480   0.01241116
8826.00   0.51379097   0.01375938
8828.00   0.52177209   0.01369555
8830.00   0.56144261   0.01212221
8832.00   0.56263214   0.01179321
8834.00   0.53241026   0.01259598
8836.00   0.51437449   0.01247151
8838.00   0.51041383   0.01088044
8840.00   0.51156342   0.00874298
8842.00   0.51245296   0.00770632
8844.00   0.51530856   0.00741148
8846.00   0.52108073   0.00759984
8848.00   0.53381383   0.00909778
8850.00   0.53998691   0.00943710
8852.00   0.54090118   0.00861501
8854.00   0.53825140   0.00763049
8856.00   0.53184319   0.00732353
8858.00   0.52154768   0.00735816
8860.00   0.51417947   0.00775641
8862.00   0.50858486   0.00898055
8864.00   0.50093567   0.00927694
8866.00   0.48865288   0.00889946
8868.00   0.48058987   0.00837746
8870.00   0.48312172   0.00783117
8872.00   0.49104086   0.00720123
8874.00   0.48831782   0.00708091
8876.00   0.47077072   0.00703409
8878.00   0.47224686   0.00788992
8880.00   0.48816460   0.00982614
8882.00   0.50364453   0.01095656
8884.00   0.51989919   0.01121063
8886.00   0.53306049   0.01098370
8888.00   0.52627581   0.01038023
8890.00   0.49902651   0.00886043
8892.00   0.48222208   0.00807335
8894.00   0.46215180   0.00767119
8896.00   0.45106670   0.00752005
8898.00   0.45034561   0.00766866
8900.00   0.45645997   0.00804842
8902.00   0.46878430   0.00861941
8904.00   0.49298078   0.00953784
8906.00   0.49326107   0.00955600
8908.00   0.47362766   0.00847592
8910.00   0.45716470   0.00815432
8912.00   0.44002837   0.00863707
8914.00   0.42417279   0.00936312
8916.00   0.41335982   0.01018555
8918.00   0.40619305   0.01119791
8920.00   0.39532810   0.01115334
8922.00   0.38011402   0.01008494
8924.00   0.37062526   0.00921591
8926.00   0.36462742   0.00810815
8928.00   0.36238545   0.00710087
8930.00   0.36432159   0.00653209
8932.00   0.37014961   0.00634382
8934.00   0.37909707   0.00644854
8936.00   0.40166107   0.00695307
8938.00   0.40357530   0.00753976
8940.00   0.38768733   0.00852160
8942.00   0.37233317   0.00913637
8944.00   0.35838762   0.00919204
8946.00   0.34743413   0.00900661
8948.00   0.35511288   0.00906562
8950.00   0.38828877   0.00913266
8952.00   0.39466083   0.00940542
8954.00   0.38382962   0.01006663
8956.00   0.37407106   0.01035943
8958.00   0.36566272   0.01024755
8960.00   0.35782897   0.00986311
8962.00   0.35381562   0.00919569
8964.00   0.35455087   0.00796107
8966.00   0.34663731   0.00728441
8968.00   0.32822004   0.00705896
8970.00   0.31788900   0.00681757
8972.00   0.31463510   0.00660850
8974.00   0.31623235   0.00645559
8976.00   0.32333034   0.00630527
8978.00   0.33672106   0.00615607
8980.00   0.34280214   0.00637084
8982.00   0.34572935   0.00698318
8984.00   0.34673712   0.00739419
8986.00   0.34407175   0.00775655
8988.00   0.34146690   0.00802351
8990.00   0.34180921   0.00812938
8992.00   0.34335640   0.00812845
8994.00   0.34036988   0.00826253
8996.00   0.33167949   0.00846869
8998.00   0.32789367   0.00866010
9000.00   0.32697290   0.00898055
9002.00   0.32684803   0.00910467
9004.00   0.32845101   0.00890723
9006.00   0.33013973   0.00849920
9008.00   0.32474199   0.00806275
9010.00   0.31074825   0.00735719
9012.00   0.30424884   0.00693925
9014.00   0.30239469   0.00669504
9016.00   0.29947525   0.00657420
9018.00   0.29499182   0.00667628
9020.00   0.28965980   0.00682646
9022.00   0.28274697   0.00668311
9024.00   0.27229559   0.00627256
9026.00   0.27024311   0.00612990
9028.00   0.27820832   0.00607439
9030.00   0.28003889   0.00617529
9032.00   0.27391079   0.00655031
9034.00   0.26675472   0.00689668
9036.00   0.26467088   0.00691720
9038.00   0.26538903   0.00671276
9040.00   0.26408643   0.00673093
9042.00   0.26407850   0.00687633
9044.00   0.25993919   0.00698116
9046.00   0.24968003   0.00711706
9048.00   0.24038741   0.00718331
9050.00   0.23665777   0.00711386
9052.00   0.23606533   0.00694169
9054.00   0.23556668   0.00666796
9056.00   0.23699959   0.00610899
9058.00   0.23780388   0.00579351
9060.00   0.23861256   0.00561885
9062.00   0.23944186   0.00558096
9064.00   0.23996857   0.00572231
9066.00   0.24059175   0.00598204
9068.00   0.24299569   0.00615655
9070.00   0.24968423   0.00646012
9072.00   0.24935968   0.00639722
9074.00   0.24242349   0.00589466
9076.00   0.23722392   0.00552936
9078.00   0.23393191   0.00545315
9080.00   0.23290735   0.00552280
9082.00   0.23834343   0.00563808
9084.00   0.25276586   0.00588463
9086.00   0.25588205   0.00601009
9088.00   0.25185844   0.00608276
9090.00   0.24710861   0.00614574
9092.00   0.23891445   0.00616922
9094.00   0.23210463   0.00621114
9096.00   0.23481314   0.00636675
9098.00   0.24617206   0.00662612
9100.00   0.24430288   0.00667873
9102.00   0.23205271   0.00661973
9104.00   0.22280262   0.00648161
9106.00   0.21328761   0.00619530
9108.00   0.20629559   0.00588537
9110.00   0.20470139   0.00564762
9112.00   0.20712392   0.00543778
9114.00   0.21064636   0.00533404
9116.00   0.21837518   0.00534958
9118.00   0.22345759   0.00537930
9120.00   0.22821452   0.00543495
9122.00   0.23078591   0.00554691
9124.00   0.23021778   0.00575535
9126.00   0.22718652   0.00600920
9128.00   0.22251898   0.00613490
9130.00   0.21020904   0.00624808
9132.00   0.20982447   0.00619282
9134.00   0.22055267   0.00589449
9136.00   0.22861840   0.00566763
9138.00   0.23092271   0.00558449
9140.00   0.23092034   0.00558966
9142.00   0.23153552   0.00567547
9144.00   0.23403762   0.00582782
9146.00   0.22765972   0.00609902
9148.00   0.20743844   0.00660103
9150.00   0.19765913   0.00689923
9152.00   0.20338315   0.00699578
9154.00   0.21249664   0.00697893
9156.00   0.21157409   0.00688365
9158.00   0.20430437   0.00666640
9160.00   0.20505621   0.00649041
9162.00   0.20630360   0.00620109
9164.00   0.21694353   0.00610753
9166.00   0.24122515   0.00618187
9168.00   0.26660499   0.00640569
9170.00   0.28530964   0.00687728
9172.00   0.30190226   0.00754495
9174.00   0.30111322   0.00752203
9176.00   0.27828088   0.00679576
9178.00   0.26513955   0.00637002
9180.00   0.25708669   0.00608386
9182.00   0.24839132   0.00585868
9184.00   0.23411565   0.00559562
9186.00   0.21821856   0.00538630
9188.00   0.21797097   0.00573718
9190.00   0.23487550   0.00673475
9192.00   0.24301973   0.00720091
9194.00   0.25059876   0.00764509
9196.00   0.25539342   0.00774054
9198.00   0.25748804   0.00726436
9200.00   0.25639871   0.00644701
9202.00   0.24904253   0.00600297
9204.00   0.23090649   0.00566196
9206.00   0.22564209   0.00558643
9208.00   0.22871563   0.00587909
9210.00   0.23232645   0.00613298
9212.00   0.23688343   0.00635873
9214.00   0.24181254   0.00655765
9216.00   0.24439871   0.00666069
9218.00   0.24476345   0.00668894
9220.00   0.24908970   0.00672467
9222.00   0.25971434   0.00677666
9224.00   0.26349786   0.00673964
9226.00   0.25839850   0.00656732
9228.00   0.25235707   0.00638209
9230.00   0.25135842   0.00630217
9232.00   0.25243932   0.00628067
9234.00   0.25748783   0.00625179
9236.00   0.27255067   0.00624637
9238.00   0.27630937   0.00623746
9240.00   0.26828480   0.00621553
9242.00   0.26017475   0.00621755
9244.00   0.25718680   0.00627805
9246.00   0.25648633   0.00637288
9248.00   0.26078871   0.00639658
9250.00   0.27358526   0.00635415
9252.00   0.28004676   0.00635567
9254.00   0.28266323   0.00639216
9256.00   0.28548723   0.00640794
9258.00   0.28971833   0.00637946
9260.00   0.29434070   0.00633045
9262.00   0.29871091   0.00630136
9264.00   0.30432984   0.00624910
9266.00   0.30630401   0.00628226
9268.00   0.30387449   0.00640840
9270.00   0.30343807   0.00650793
9272.00   0.30642408   0.00650657
9274.00   0.31031466   0.00654332
9276.00   0.31213543   0.00685011
9278.00   0.31247398   0.00740560
9280.00   0.31477821   0.00765420
9282.00   0.32184607   0.00781337
9284.00   0.32196558   0.00781766
9286.00   0.31190065   0.00753315
9288.00   0.30105180   0.00725312
9290.00   0.29794934   0.00729762
9292.00   0.29879308   0.00752020
9294.00   0.30252895   0.00793934
9296.00   0.31542143   0.00830110
9298.00   0.31878626   0.00925108
9300.00   0.31175250   0.01044597
9302.00   0.30462089   0.01200328
9304.00   0.30493578   0.01411184
9306.00   0.30856037   0.01641305
9308.00   0.30095968   0.01770904
9310.00   0.27684686   0.01872285
9312.00   0.27040935   0.01912810
9314.00   0.27572340   0.01872159
9316.00   0.28548175   0.01838623
9318.00   0.30267906   0.01859306
9320.00   0.32215738   0.01891121
9322.00   0.31789401   0.01846872
9324.00   0.28760424   0.01728191
9326.00   0.27521408   0.01629718
9328.00   0.26723021   0.01496148
9330.00   0.26456478   0.01394546
9332.00   0.27382004   0.01349545
9334.00   0.28340024   0.01341654
9336.00   0.26948896   0.01347162
9338.00   0.23536362   0.01383469
9340.00   0.21221255   0.01410691
9342.00   0.18574564   0.01475151
9344.00   0.16946387   0.01475126
9346.00   0.16193904   0.01391737
9348.00   0.16419107   0.01270439
9350.00   0.18114913   0.01153783
9352.00   0.21399587   0.01002142
9354.00   0.23416251   0.00938031
9356.00   0.25676680   0.00961228
9358.00   0.26380375   0.00995252
9360.00   0.25026831   0.01018423
9362.00   0.23493706   0.01104771
9364.00   0.22806413   0.01282376
9366.00   0.22413743   0.01502135
9368.00   0.23680612   0.01738677
9370.00   0.28553504   0.02048827
9372.00   0.29137811   0.02233886
9374.00   0.25610548   0.02406821
9376.00   0.22385906   0.02465170
9378.00   0.20949818   0.02345564
9380.00   0.20392895   0.02087196
9382.00   0.21235482   0.01838206
9384.00   0.24829152   0.01410513
9386.00   0.25805682   0.01125293
9388.00   0.24897522   0.01011580
9390.00   0.24497505   0.00942170
9392.00   0.25199464   0.00903322
9394.00   0.26268297   0.00916956
9396.00   0.26970360   0.00950148
9398.00   0.27774438   0.01036931
9400.00   0.27861252   0.01063250
9402.00   0.26669365   0.01060709
9404.00   0.26596126   0.01048891
9406.00   0.28206140   0.01006205
9408.00   0.30123642   0.00972699
9410.00   0.30950549   0.01013125
9412.00   0.31357592   0.01104908
9414.00   0.30874214   0.01171712
9416.00   0.29768494   0.01234179
9418.00   0.27682814   0.01305022
9420.00   0.23096550   0.01423230
9422.00   0.19649959   0.01489481
9424.00   0.20734219   0.01410355
9426.00   0.24918413   0.01203488
9428.00   0.26609272   0.01169025
9430.00   0.27082431   0.01177861
9432.00   0.28372133   0.01347253
9434.00   0.29976296   0.01702853
9436.00   0.32026085   0.01958065
9438.00   0.35242784   0.02077026
9440.00   0.38936216   0.02122791
9442.00   0.39333123   0.02039680
9444.00   0.36828515   0.01712260
9446.00   0.34680414   0.01512053
9448.00   0.31118211   0.01307961
9450.00   0.28408974   0.01203935
9452.00   0.27136171   0.01252382
9454.00   0.26710165   0.01414092
9456.00   0.26702997   0.01657159
9458.00   0.27574721   0.02094797
9460.00   0.28078216   0.02112787
9462.00   0.29076254   0.01743183
9464.00   0.29173481   0.01454117
9466.00   0.27992910   0.01326999
9468.00   0.26333115   0.01325099
9470.00   0.25227648   0.01484200
9472.00   0.24553639   0.01800684
9474.00   0.22336183   0.01927282
9476.00   0.16496593   0.02030853
9478.00   0.15325254   0.02015661
9480.00   0.20561603   0.01831500
9482.00   0.26019695   0.01583299
9484.00   0.26399374   0.01381480
9486.00   0.23889431   0.01165770
9488.00   0.23505919   0.01042849
9490.00   0.23509851   0.01033492
9492.00   0.24066496   0.01066312
9494.00   0.25533286   0.01173403
9496.00   0.26934463   0.01290337
9498.00   0.27887040   0.01411513
9500.00   0.28582612   0.01532791
9502.00   0.28364873   0.01541246
9504.00   0.26406446   0.01411398
9506.00   0.26249850   0.01374492
9508.00   0.26870081   0.01333508
9510.00   0.28410625   0.01388177
9512.00   0.32218063   0.01593043
9514.00   0.36363497   0.01833877
9516.00   0.34744695   0.01952036
9518.00   0.25834298   0.02026840
9520.00   0.24875858   0.02060069
9522.00   0.30213472   0.02085947
9524.00   0.33328593   0.02014533
9526.00   0.33220151   0.01758075
9528.00   0.31711873   0.01400729
9530.00   0.29794154   0.01204940
9532.00   0.26623946   0.01131205
9534.00   0.24637891   0.01101302
9536.00   0.22766154   0.01230132
9538.00   0.21907736   0.01269867
9540.00   0.22354747   0.01201335
9542.00   0.23270550   0.01130173
9544.00   0.24458838   0.01150521
9546.00   0.26548332   0.01215576
9548.00   0.23551409   0.01353771
9550.00   0.13468036   0.01654698
9552.00   0.08941284   0.01728842
9554.00   0.07783305   0.01579406
9556.00   0.09596390   0.01422666
9558.00   0.15838364   0.01418430
9560.00   0.25580719   0.01489868
9562.00   0.29287377   0.01563949
9564.00   0.27981415   0.01692899
9566.00   0.29343626   0.01770170
9568.00   0.32602337   0.01873059
9570.00   0.34532049   0.01881488
9572.00   0.33894479   0.01703748
9574.00   0.31754971   0.01394535
9576.00   0.29513910   0.01257951
9578.00   0.25732520   0.01263264
9580.00   0.23826900   0.01235960
9582.00   0.23401812   0.01272507
9584.00   0.22670424   0.01255622
9586.00   0.21116593   0.01133930
9588.00   0.19570269   0.00966995
9590.00   0.19149886   0.00897087
9592.00   0.19631448   0.00901911
9594.00   0.19853903   0.00893674
9596.00   0.20403589   0.00877164
9598.00   0.20617002   0.00922529
9600.00   0.20491759   0.01051936
9602.00   0.20141235   0.01175354
9604.00   0.19674529   0.01235234
9606.00   0.19118936   0.01271276
9608.00   0.17793112   0.01252552
9610.00   0.14421298   0.01088937
9612.00   0.13705169   0.01083745
9614.00   0.15785767   0.01256901
9616.00   0.18449043   0.01418525
9618.00   0.20698737   0.01512222
9620.00   0.23075745   0.01582184
9622.00   0.23459843   0.01526570
9624.00   0.21333620   0.01249789
9626.00   0.20795980   0.01117547
9628.00   0.20285212   0.01078477
9630.00   0.21274535   0.01110646
9632.00   0.24756390   0.01235295
9634.00   0.29844266   0.01397290
9636.00   0.34273857   0.01439755
9638.00   0.40341377   0.01391865
9640.00   0.42876044   0.01393319
9642.00   0.42148262   0.01354320
9644.00   0.41697863   0.01409508
9646.00   0.42843813   0.01645536
9648.00   0.43684295   0.01873030
9650.00   0.41154346   0.01849758
9652.00   0.35342541   0.01616876
9654.00   0.31504580   0.01448183
9656.00   0.27368471   0.01165252
9658.00   0.24822885   0.00991202
9660.00   0.24969350   0.01052486
9662.00   0.25333935   0.01178275
9664.00   0.22659659   0.01211589
9666.00   0.17558418   0.01221267
9668.00   0.16117419   0.01240277
9670.00   0.17072141   0.01241307
9672.00   0.18209651   0.01276141
9674.00   0.20824035   0.01335396
9676.00   0.22656411   0.01415194
9678.00   0.21534453   0.01536841
9680.00   0.18415926   0.01686776
9682.00   0.16778132   0.01686760
9684.00   0.14640209   0.01544024
9686.00   0.14571939   0.01436313
9688.00   0.16902834   0.01281316
9690.00   0.19301614   0.01177641
9692.00   0.21002822   0.01216819
9694.00   0.22401538   0.01335344
9696.00   0.22501400   0.01386983
9698.00   0.20675926   0.01433934
9700.00   0.20263600   0.01454160
9702.00   0.20314945   0.01452051
9704.00   0.20747988   0.01436947
9706.00   0.21772271   0.01394154
9708.00   0.23042473   0.01346295
9710.00   0.23687288   0.01362926
9712.00   0.24295543   0.01430679
9714.00   0.23786364   0.01485109
9716.00   0.21964800   0.01570486
9718.00   0.20367943   0.01612195
9720.00   0.18831207   0.01609444
9722.00   0.17592366   0.01574751
9724.00   0.17368218   0.01503777
9726.00   0.18159780   0.01370529
9728.00   0.17968714   0.01310529
9730.00   0.16997392   0.01284473
9732.00   0.16595292   0.01299874
9734.00   0.16720593   0.01363921
9736.00   0.17078763   0.01450653
9738.00   0.17590453   0.01566247
9740.00   0.18341534   0.01713591
9742.00   0.18539160   0.01675737
9744.00   0.18282697   0.01399612
9746.00   0.18112479   0.01244404
9748.00   0.18252391   0.01191293
9750.00   0.17856991   0.01165306
9752.00   0.16342011   0.01132964
9754.00   0.14103788   0.01114992
9756.00   0.12332826   0.01111870
9758.00   0.09031163   0.01157034
9760.00   0.09465717   0.01138756
9762.00   0.13897419   0.01046205
9764.00   0.17648207   0.00983020
9766.00   0.19682597   0.00990729
9768.00   0.20784992   0.01036709
9770.00   0.20515034   0.01091694
9772.00   0.17739317   0.01192371
9774.00   0.17713507   0.01219999
9776.00   0.20207272   0.01147684
9778.00   0.21278882   0.01168194
9780.00   0.19995959   0.01278320
9782.00   0.18162820   0.01454622
9784.00   0.17993413   0.01716955
9786.00   0.19083141   0.02063232
9788.00   0.18442896   0.02230725
9790.00   0.15382323   0.02309680
9792.00   0.14878383   0.02380444
9794.00   0.17732650   0.02483685
9796.00   0.21007983   0.02515420
9798.00   0.22628301   0.02346993
9800.00   0.23823011   0.01962149
9802.00   0.21437682   0.01799549
9804.00   0.12758465   0.01844925
9806.00   0.09753914   0.01789908
9808.00   0.12045524   0.01648040
9810.00   0.14934313   0.01512317
9812.00   0.16125923   0.01452129
9814.00   0.16884179   0.01439010
9816.00   0.17284153   0.01402628
9818.00   0.16441219   0.01365816
9820.00   0.17201883   0.01335520
9822.00   0.19978145   0.01313116
9824.00   0.21675691   0.01291478
9826.00   0.20881970   0.01267290
9828.00   0.18968526   0.01243669
9830.00   0.18454346   0.01226347
9832.00   0.18352652   0.01212476
9834.00   0.18817785   0.01205851
9836.00   0.20598923   0.01182585
9838.00   0.21436669   0.01207756
9840.00   0.20918272   0.01303418
9842.00   0.19704014   0.01417193
9844.00   0.18271951   0.01492494
9846.00   0.15881723   0.01557239
9848.00   0.15388250   0.01606526
9850.00   0.16746181   0.01674394
9852.00   0.17398028   0.01669483
9854.00   0.17440626   0.01553114
9856.00   0.17124076   0.01410672
9858.00   0.16229783   0.01337156
9860.00   0.14567065   0.01282079
9862.00   0.14880320   0.01397009
9864.00   0.17510509   0.01660756
9866.00   0.18539585   0.01873031
9868.00   0.18613458   0.02125551
9870.00   0.17805766   0.02292976
9872.00   0.15388232   0.02307558
9874.00   0.11724997   0.02220210
9876.00   0.11706071   0.02114783
9878.00   0.16051033   0.01890582
9880.00   0.16813968   0.01738948
9882.00   0.14691821   0.01604380
9884.00   0.13013858   0.01536295
9886.00   0.13295825   0.01582097
9888.00   0.14271829   0.01697787
9890.00   0.13647330   0.01773641
9892.00   0.10650893   0.01876750
9894.00   0.11095104   0.01912318
9896.00   0.14589527   0.01906524
9898.00   0.17366835   0.01874878
9900.00   0.18819088   0.01781038
9902.00   0.19680750   0.01681648
9904.00   0.20209262   0.01723461
9906.00   0.20127983   0.01852755
9908.00   0.20269065   0.02020400
9910.00   0.20879257   0.02302940
9912.00   0.20459750   0.02465505
9914.00   0.18653870   0.02540881
9916.00   0.16390902   0.02542128
9918.00   0.14452697   0.02434068
9920.00   0.12247013   0.02187701
9922.00   0.11733694   0.02023547
9924.00   0.13493645   0.01856739
9926.00   0.13731374   0.01742372
9928.00   0.11881883   0.01668757
9930.00   0.10640354   0.01673840
9932.00   0.12304430   0.01770523
9934.00   0.15848872   0.01936660
9936.00   0.16653495   0.02226928
9938.00   0.16479719   0.02667516
9940.00   0.14753662   0.02952771
9942.00   0.09994628   0.03210206
9944.00   0.06352017   0.03374708
9946.00   0.05435343   0.03403481
9948.00   0.06254259   0.03348634
9950.00   0.09023462   0.03355638
9952.00   0.15859042   0.03366595
9954.00   0.19278748   0.03398036
9956.00   0.21370766   0.03496569
9958.00   0.22480641   0.03517969
9960.00   0.22748861   0.03421361
9962.00   0.21989043   0.03250688
9964.00   0.19763482   0.03055517
9966.00   0.15235025   0.02728224
9968.00   0.12858166   0.02599384
9970.00   0.10914813   0.02698108
9972.00   0.10413052   0.02705145
9974.00   0.11997139   0.02594160
9976.00   0.14301702   0.02433475
9978.00   0.15825965   0.02265503
9980.00   0.17651957   0.02037879
9982.00   0.16799884   0.01925517
9984.00   0.11984140   0.01933078
9986.00   0.10118328   0.01924922
9988.00   0.11625199   0.01895109
9990.00   0.13427253   0.01899542
9992.00   0.13285184   0.01986253
9994.00   0.12207641   0.02129379
9996.00   0.11694813   0.02218794
9998.00   0.10343830   0.02226765
10000.00   0.11035572   0.02372153
10002.00   0.13275681   0.02579652
10004.00   0.16753317   0.02863494
10006.00   0.22546646   0.03270674
10008.00   0.29612401   0.03710943
10010.00   0.30721140   0.03910279
10012.00   0.27758935   0.04025291
10014.00   0.23099177   0.03986410
10016.00   0.12769693   0.03713864
10018.00   0.05742012   0.03451462
10020.00   0.04363882   0.03269184
10022.00   0.06456512   0.03124716
10024.00   0.10980253   0.03039376
10026.00   0.21682130   0.03064292
10028.00   0.24780576   0.02985515
10030.00   0.22708908   0.02834032
10032.00   0.20593245   0.02692880
10034.00   0.18657053   0.02559494
10036.00   0.16357000   0.02441514
10038.00   0.13743114   0.02377925
10040.00   0.10432260   0.02373984
10042.00   0.08594058   0.02333690
10044.00   0.07805617   0.02247761
10046.00   0.07247743   0.02236195
10048.00   0.07222128   0.02308486
10050.00   0.07260162   0.02411555
10052.00   0.06793189   0.02518203
10054.00   0.06022770   0.02645059
10056.00   0.05807041   0.02708144
10058.00   0.06451520   0.02723355
10060.00   0.06066699   0.02742697
10062.00   0.04732212   0.02741161
10064.00   0.03170192   0.02756011
10066.00   0.01026143   0.02811145
10068.00   -0.01362731   0.02890512
10070.00   0.00673447   0.02968365
10072.00   0.05418863   0.02951319
10074.00   0.13087775   0.03175565
10076.00   0.28755495   0.03640287
10078.00   0.38689303   0.03987843
10080.00   0.37269285   0.04218338
10082.00   0.29934400   0.04342671
10084.00   0.25199801   0.04149620
10086.00   0.18197194   0.03436396
10088.00   0.15317571   0.03079995
10090.00   0.16800857   0.02916726
10092.00   0.16454256   0.02816565
10094.00   0.12536860   0.02778498
10096.00   0.08095576   0.02814945
10098.00   0.07022087   0.02910717
10100.00   0.08045364   0.03103642
10102.00   0.09432735   0.03181962
10104.00   0.13629027   0.03235349
10106.00   0.14924474   0.03211922
10108.00   0.12438096   0.03016449
10110.00   0.09193119   0.02850194
10112.00   0.07304986   0.02953758
10114.00   0.05291879   0.03212889
10116.00   0.08379525   0.03553658
10118.00   0.19522722   0.04131781
10120.00   0.23946181   0.04409566
10122.00   0.23519564   0.04467435
10124.00   0.20091788   0.04462780
10126.00   0.12866035   0.04486955
10128.00   0.02306629   0.04491086
10130.00   -0.00818574   0.04343455
10132.00   0.00470855   0.03989218
10134.00   0.03747037   0.03695768
10136.00   0.12384426   0.03310496
10138.00   0.19116607   0.03043105
10140.00   0.21391350   0.03059400
10142.00   0.21066862   0.03243991
10144.00   0.18943319   0.03341310
10146.00   0.12410261   0.03422458
10148.00   0.09903818   0.03570464
10150.00   0.09532030   0.03828144
10152.00   0.09511127   0.03982747
10154.00   0.09346186   0.03974972
10156.00   0.09778297   0.03918940
10158.00   0.11724398   0.03968814
10160.00   0.14735423   0.04011407
10162.00   0.19210733   0.04283344
10164.00   0.28414047   0.04711280
10166.00   0.32271644   0.05173772
10168.00   0.31053039   0.05775154
10170.00   0.25612828   0.06274068
10172.00   0.13753410   0.06473885
10174.00   -0.06703146   0.06526461
10176.00   -0.09631532   0.06226315
10178.00   0.03970037   0.05177717
10180.00   0.10545229   0.04551930
10182.00   0.13109039   0.04445700
10184.00   0.13391997   0.04518319
10186.00   0.10543891   0.04597819
10188.00   0.04809332   0.04772339
10190.00   0.04931649   0.04774959
10192.00   0.08688270   0.04636722
10194.00   0.13508169   0.04558127
10196.00   0.23540476   0.04432181
10198.00   0.29628167   0.04415144
10200.00   0.25822371   0.04588055
10202.00   0.17140356   0.04874653
10204.00   0.16966681   0.05164511
10206.00   0.21900201   0.05639911
10208.00   0.26778790   0.05776123
10210.00   0.37334996   0.05687639
10212.00   0.41923705   0.05543971
10214.00   0.35697925   0.05325619
10216.00   0.25392199   0.05071035
10218.00   0.22192469   0.04966453
10220.00   0.23085751   0.04938614
10222.00   0.21815810   0.05028333
10224.00   0.21947601   0.05302468
10226.00   0.18693788   0.05501945
10228.00   0.08835062   0.05712106
10230.00   -0.00680220   0.05799641
10232.00   -0.00641006   0.05504405
10234.00   0.06704238   0.04763218
10236.00   0.09132852   0.04409475
10238.00   0.11735336   0.04323663
10240.00   0.11001439   0.04193648
10242.00   0.04461190   0.04042194
10244.00   -0.01052802   0.03919798
10246.00   0.00556629   0.03851265
10248.00   0.06704799   0.03828687
10250.00   0.08507816   0.03852051
10252.00   0.07765397   0.03879383
10254.00   0.08421383   0.04041842
10256.00   0.09746272   0.04372485
10258.00   0.11395292   0.04663650
10260.00   0.14570990   0.04844204
10262.00   0.18052328   0.04974499
10264.00   0.14060196   0.05088732
10266.00   -0.01751936   0.05203148
10268.00   -0.05312032   0.05232012
10270.00   -0.00878433   0.05127460
10272.00   0.04288319   0.05091180
10274.00   0.09393784   0.05047854
10276.00   0.14622055   0.05147117
10278.00   0.16913269   0.05865350
10280.00   0.17189924   0.07110012
10282.00   0.16537854   0.07776578
10284.00   0.14671218   0.08336379
10286.00   0.11454754   0.08661363
10288.00   0.02446887   0.08738529
10290.00   -0.03682815   0.08657662
10292.00   0.08190675   0.08512364
10294.00   0.38027909   0.08259755
10296.00   0.46552777   0.07871412
10298.00   0.43390042   0.07166368
10300.00   0.37525582   0.06614362
10302.00   0.25690746   0.06205542
10304.00   0.12849426   0.05924441
10306.00   0.02679336   0.05834246
10308.00   -0.07461090   0.05951510
10310.00   -0.04731235   0.05863978
10312.00   0.15126282   0.05515612
10314.00   0.24709059   0.05512585
10316.00   0.29928502   0.05835151
10318.00   0.29842851   0.06208528
10320.00   0.21018033   0.06625631
10322.00   0.05989474   0.07054735
10324.00   0.00434886   0.06887567
10326.00   0.01221101   0.05841906
10328.00   0.00230662   0.05425178
10330.00   -0.02870262   0.05435070
10332.00   -0.01237993   0.05508653
10334.00   0.09728573   0.05478554
10336.00   0.24571826   0.05523832
10338.00   0.30478346   0.05978736
10340.00   0.32868248   0.06866950
10342.00   0.29539320   0.07296624
10344.00   0.12540831   0.07637042
10346.00   0.06539354   0.07747093
10348.00   0.19905883   0.07516564
10350.00   0.37302828   0.07151373
10352.00   0.36944610   0.07012045
10354.00   0.21929091   0.06982037
10356.00   0.24838620   0.06935620
10358.00   0.46701625   0.06917848
10360.00   0.53272611   0.06915312
10362.00   0.42129251   0.06742106
10364.00   0.25796714   0.06808612
10366.00   0.12100489   0.07618584
10368.00   -0.04203377   0.08894978
10370.00   -0.05331551   0.09342679
10372.00   0.14222333   0.09522921
10374.00   0.18353748   0.09325664
10376.00   0.07121512   0.08471988
10378.00   -0.03454251   0.07535100
10380.00   -0.04057208   0.06984294
10382.00   0.00201951   0.06641128
10384.00   0.01822341   0.06484000
10386.00   0.04244892   0.06660992
10388.00   0.04780997   0.06785148
10390.00   -0.00804482   0.06980094
10392.00   0.00515642   0.07171488
10394.00   0.18180101   0.07355256
10396.00   0.42220011   0.07524038
10398.00   0.45785925   0.07593904
10400.00   0.33340871   0.07633411
10402.00   0.25471401   0.07516703
10404.00   0.09410968   0.06957406
10406.00   0.03749271   0.06839598
10408.00   0.17203800   0.07434814
10410.00   0.35333821   0.08254602
10412.00   0.34327745   0.08857274
10414.00   0.17118622   0.09548718
10416.00   0.17277081   0.09766101
10418.00   0.27616006   0.09623666
10420.00   0.38194448   0.09404521
10422.00   0.55489832   0.09088647
10424.00   0.67329782   0.08647445
10426.00   0.55841541   0.08017315
10428.00   0.24424537   0.07074030
10430.00   0.13150679   0.06635438
10432.00   0.12169078   0.06723153
10434.00   0.11149157   0.06672395
10436.00   0.13603084   0.06555331
10438.00   0.15216465   0.06462207
10440.00   0.12004983   0.06403345
10442.00   0.05941417   0.06371908
10444.00   0.02955477   0.06573670
10446.00   -0.02553736   0.07061399
10448.00   0.01032196   0.07361645
10450.00   0.19508852   0.07617958
10452.00   0.30533648   0.07785385
10454.00   0.21585271   0.07749236
10456.00   0.03200227   0.07641493
10458.00   -0.00596634   0.08000933
10460.00   0.02506900   0.08961261
10462.00   0.08525597   0.09195851
10464.00   0.23978068   0.08927501
10466.00   0.34018585   0.08741601
10468.00   0.34113055   0.08841839
10470.00   0.30419379   0.08956078
10472.00   0.31768367   0.08684257
10474.00   0.38558674   0.07991876
10476.00   0.32807666   0.07628307
10478.00   0.11877235   0.07397547
10480.00   -0.00016827   0.07259930
10482.00   -0.00726361   0.07282567
10484.00   0.02842343   0.07345337
10486.00   0.05747030   0.07277884
10488.00   0.10985563   0.07129557
10490.00   0.12290574   0.07069998
10492.00   0.09602449   0.06991031
10494.00   0.09405833   0.07061481
10496.00   0.11395431   0.07290926
10498.00   0.14093870   0.07581832
10500.00   0.17055547   0.07915653
10502.00   0.20617627   0.08306076
10504.00   0.21812882   0.08416688
10506.00   0.24015203   0.08267662
10508.00   0.19575737   0.08203232
10510.00   0.05296319   0.08069204
10512.00   -0.06280245   0.08062658
10514.00   -0.09745261   0.08387630
10516.00   -0.08480676   0.08846956
10518.00   -0.03646816   0.08796161
10520.00   0.12912919   0.08165130
10522.00   0.15072466   0.07963755
10524.00   0.02350695   0.07993982
10526.00   -0.03035640   0.08032801
10528.00   0.07203159   0.08005764
10530.00   0.22961955   0.08000647
10532.00   0.28650615   0.08148713
10534.00   0.30893499   0.08473938
10536.00   0.27226540   0.08624225
10538.00   0.08720104   0.08741172
10540.00   0.03568585   0.08743142
10542.00   0.20110737   0.08549879
10544.00   0.40434834   0.08317514
10546.00   0.42794272   0.08284285
10548.00   0.33818382   0.08383016
10550.00   0.30210149   0.08419088
10552.00   0.23463383   0.08424227
10554.00   0.23211867   0.08492615
10556.00   0.34981996   0.08635829
10558.00   0.43523121   0.08795805
10560.00   0.34237662   0.08923482
10562.00   0.12707047   0.09038011
10564.00   0.01379712   0.09219445
10566.00   -0.10890616   0.09597407
10568.00   -0.12626873   0.09658378
10570.00   -0.01181880   0.09335279
10572.00   0.10867284   0.09065601
10574.00   0.18281554   0.09123386
10576.00   0.23878515   0.09341297
10578.00   0.23311609   0.09413800
10580.00   0.11012216   0.09406883
10582.00   0.10791092   0.09469157
10584.00   0.20997488   0.09598848
10586.00   0.28281996   0.09687088
10588.00   0.28237230   0.09691770
10590.00   0.25176352   0.09659644
10592.00   0.24250479   0.09666865
10594.00   0.22898203   0.09674288
10596.00   0.23514386   0.09722269
10598.00   0.28026310   0.09846933
10600.00   0.28804025   0.09907196
10602.00   0.24287719   0.09885248
10604.00   0.17443691   0.09817073
10606.00   0.10836888   0.09722774
10608.00   0.01409510   0.09565473
10610.00   0.00568721   0.09500550
10612.00   0.07151867   0.09498899
10614.00   0.13707280   0.09503504
10616.00   0.24250865   0.09535374
10618.00   0.31618106   0.09561031
10620.00   0.26573330   0.09541093
10622.00   0.11735911   0.09490842
10624.00   0.06476779   0.09443446
10626.00   0.05354873   0.09400277
10628.00   0.05160019   0.09321243
10630.00   0.07725439   0.09186263
10632.00   0.10044272   0.09059956
10634.00   0.09936415   0.08988526
10636.00   0.08649897   0.08946978
10638.00   0.09116305   0.08870948
10640.00   0.12119751   0.08777979
10642.00   0.11647184   0.08683228
10644.00   0.05489337   0.08555845
10646.00   0.03698263   0.08466300
10648.00   0.11140979   0.08463151
10650.00   0.23079008   0.08496263
10652.00   0.30399263   0.08441071
10654.00   0.39522886   0.08344464
10656.00   0.39121944   0.08200816
10658.00   0.27259737   0.07969278
10660.00   0.19097380   0.07758339
10662.00   0.16559955   0.07575151
10664.00   0.16855662   0.07417236
10666.00   0.19045688   0.07313968
10668.00   0.24077871   0.07269987
10670.00   0.29020935   0.07215817
10672.00   0.37779444   0.07219832
10674.00   0.41421920   0.07144056
10676.00   0.38351366   0.06953885
10678.00   0.33526832   0.06736537
10680.00   0.31354880   0.06574770
10682.00   0.29820499   0.06425797
10684.00   0.29204863   0.06365572
10686.00   0.32633081   0.06469638
10688.00   0.29998538   0.06431499
10690.00   0.19268538   0.06261978
10692.00   0.09451567   0.06050283
10694.00   0.06136660   0.05827402
10696.00   0.06413209   0.05571603
10698.00   0.08631012   0.05433012
10700.00   0.14263603   0.05352231
10702.00   0.20354912   0.05381232
10704.00   0.30751619   0.05621110
10706.00   0.37302575   0.05764726
10708.00   0.35781664   0.05706291
10710.00   0.29765752   0.05525791
10712.00   0.26349440   0.05280177
10714.00   0.20588617   0.04775105
10716.00   0.20781843   0.04555131
10718.00   0.27708572   0.04568651
10720.00   0.32270148   0.04583006
10722.00   0.32560298   0.04573565
10724.00   0.31042507   0.04561630
10726.00   0.29780868   0.04513241
10728.00   0.27537048   0.04449383
10730.00   0.26287851   0.04328773
10732.00   0.25300848   0.04059112
10734.00   0.24923469   0.03931485
10736.00   0.25556594   0.03981361
10738.00   0.26328978   0.04124629
10740.00   0.26180515   0.04334481
10742.00   0.25497168   0.04670427
10744.00   0.24886985   0.04656841
10746.00   0.23969737   0.04270246
10748.00   0.23311809   0.04055737
10750.00   0.21443319   0.04007288
10752.00   0.21608965   0.03991386
10754.00   0.27586639   0.03922277
10756.00   0.37861806   0.03838623
10758.00   0.40447330   0.03845327
10760.00   0.40212512   0.04014866
10762.00   0.34677649   0.03994213
10764.00   0.19471937   0.03816254
10766.00   0.07270566   0.03589324
10768.00   0.03241296   0.03304731
10770.00   0.04147860   0.02970848
10772.00   0.09669460   0.02918597
10774.00   0.27041653   0.03265524
10776.00   0.32130280   0.03261898
10778.00   0.29343048   0.03011081
10780.00   0.26183295   0.02828401
10782.00   0.23612124   0.02850216
10784.00   0.21028487   0.02931520
10786.00   0.20114774   0.02861927
10788.00   0.19798790   0.02669832
10790.00   0.21901409   0.02559858
10792.00   0.28836855   0.02490049
10794.00   0.31913313   0.02410873
10796.00   0.30031744   0.02272936
10798.00   0.25964877   0.02173379
10800.00   0.21259677   0.02282561
10802.00   0.13216402   0.02574003
10804.00   0.15455663   0.02626736
10806.00   0.30568004   0.02532251
10808.00   0.37110528   0.02458793
10810.00   0.36059940   0.02388752
10812.00   0.31581339   0.02311839
10814.00   0.23765980   0.02207834
10816.00   0.11495157   0.02070250
10818.00   0.13940337   0.02122347
10820.00   0.33870131   0.02361579
10822.00   0.41518775   0.02518912
10824.00   0.39681703   0.02678576
10826.00   0.37228867   0.02786129
10828.00   0.38882035   0.02833448
10830.00   0.41524234   0.02826989
10832.00   0.38486785   0.02672253
10834.00   0.29428741   0.02208470
10836.00   0.23502564   0.01955180
10838.00   0.17111781   0.01855612
10840.00   0.13029495   0.01785100
10842.00   0.12484926   0.01716234
10844.00   0.14072494   0.01672270
10846.00   0.15298471   0.01634918
10848.00   0.16830385   0.01634799
10850.00   0.19844356   0.01581362
10852.00   0.26893079   0.01469024
10854.00   0.29579231   0.01379055
10856.00   0.25292021   0.01324366
