# File created by shivutils (I.Shivvers)
# wl(A)   flm    er(optional)
3440.00   0.28643677   0.06455058
3442.00   0.51178890   0.06889812
3444.00   0.54876107   0.06929407
3446.00   0.46667382   0.06728671
3448.00   0.47858107   0.07052925
3450.00   0.51297098   0.07234555
3452.00   0.52034134   0.07326532
3454.00   0.49048325   0.07035465
3456.00   0.39471096   0.07040731
3458.00   0.59053338   0.07388551
3460.00   0.41860628   0.06861476
3462.00   0.40979487   0.06902377
3464.00   0.45691004   0.07017422
3466.00   0.50848889   0.06978477
3468.00   0.67936498   0.07260082
3470.00   0.57032073   0.07053079
3472.00   0.38466385   0.06652431
3474.00   0.49139622   0.06866779
3476.00   0.58309549   0.07298069
3478.00   0.45661250   0.07304125
3480.00   0.41747108   0.07582223
3482.00   0.51096755   0.07578098
3484.00   0.64292729   0.07688416
3486.00   0.54533857   0.07587160
3488.00   0.50766891   0.07619953
3490.00   0.62800330   0.07720440
3492.00   0.54671264   0.07509255
3494.00   0.57620615   0.07489770
3496.00   0.62315220   0.07402746
3498.00   0.60645872   0.07320321
3500.00   0.65449929   0.07559180
3502.00   0.40071481   0.07150199
3504.00   0.59134597   0.07401487
3506.00   0.39237183   0.07096685
3508.00   0.45218962   0.07295977
3510.00   0.53929979   0.07422403
3512.00   0.49360013   0.07425129
3514.00   0.57651025   0.07350178
3516.00   0.44563258   0.07174912
3518.00   0.48982567   0.07155149
3520.00   0.42080450   0.07031311
3522.00   0.51733983   0.06992450
3524.00   0.45113674   0.06847455
3526.00   0.56833702   0.07000600
3528.00   0.58354896   0.06987498
3530.00   0.51026118   0.06971934
3532.00   0.45895284   0.06771266
3534.00   0.51159155   0.06907016
3536.00   0.51622117   0.06826546
3538.00   0.55802608   0.07058119
3540.00   0.45234546   0.06960574
3542.00   0.52430457   0.07231250
3544.00   0.57595718   0.07320949
3546.00   0.33872387   0.06823322
3548.00   0.50524616   0.06943238
3550.00   0.51011199   0.06888064
3552.00   0.52840179   0.06965899
3554.00   0.45455787   0.06813336
3556.00   0.58451748   0.07036343
3558.00   0.49135238   0.06816912
3560.00   0.42500228   0.06662804
3562.00   0.49933308   0.06586842
3564.00   0.35101300   0.06189744
3566.00   0.38454214   0.06339109
3568.00   0.54321164   0.06489213
3570.00   0.47567302   0.06260674
3572.00   0.44282055   0.06333430
3574.00   0.51698220   0.06525659
3576.00   0.46315849   0.06260069
3578.00   0.44106475   0.06159688
3580.00   0.41383323   0.05972298
3582.00   0.55282527   0.06165571
3584.00   0.54808182   0.05872817
3586.00   0.53068990   0.05749924
3588.00   0.38426840   0.05636968
3590.00   0.56350362   0.06034179
3592.00   0.55184901   0.05917717
3594.00   0.46345577   0.05626144
3596.00   0.43895483   0.05532283
3598.00   0.44715181   0.05575196
3600.00   0.52282238   0.05611676
3602.00   0.62110555   0.05725964
3604.00   0.52959561   0.05457082
3606.00   0.44760451   0.05314810
3608.00   0.59442019   0.05521058
3610.00   0.52574652   0.05397716
3612.00   0.54115564   0.05629985
3614.00   0.62888068   0.05914825
3616.00   0.58164942   0.05732001
3618.00   0.59451336   0.05548925
3620.00   0.48725763   0.05260901
3622.00   0.49667519   0.05294896
3624.00   0.52062410   0.05311723
3626.00   0.52705055   0.05327286
3628.00   0.56989217   0.05326480
3630.00   0.51876974   0.05442555
3632.00   0.47884917   0.05440002
3634.00   0.60799032   0.05474311
3636.00   0.48356840   0.05140462
3638.00   0.43303761   0.05004846
3640.00   0.57889467   0.05356158
3642.00   0.55968231   0.05462381
3644.00   0.58163124   0.05600357
3646.00   0.52369368   0.05710383
3648.00   0.61442059   0.07101038
3650.00   0.56660485   0.08210086
3652.00   0.49942470   0.07708598
3654.00   0.49729294   0.07045293
3656.00   0.51169407   0.06509610
3658.00   0.40856841   0.05399653
3660.00   0.48163062   0.05387544
3662.00   0.46764585   0.06033621
3664.00   0.56747824   0.06153524
3666.00   0.54318440   0.05245699
3668.00   0.53698319   0.04788759
3670.00   0.52259749   0.04724248
3672.00   0.47911695   0.04554439
3674.00   0.45668712   0.04488767
3676.00   0.52771586   0.04523202
3678.00   0.44816080   0.04387315
3680.00   0.56338745   0.04576477
3682.00   0.51755273   0.04348423
3684.00   0.49683243   0.04327498
3686.00   0.40925321   0.04128277
3688.00   0.52761990   0.04384528
3690.00   0.43935132   0.04285051
3692.00   0.40730882   0.04242100
3694.00   0.51013356   0.04377268
3696.00   0.56308740   0.04354127
3698.00   0.54529375   0.04414887
3700.00   0.37453347   0.04268227
3702.00   0.50878906   0.04389609
3704.00   0.43254662   0.04280402
3706.00   0.50795639   0.04363603
3708.00   0.46464977   0.04198954
3710.00   0.52090222   0.04298535
3712.00   0.46178210   0.04167268
3714.00   0.44793242   0.04131887
3716.00   0.45878270   0.04162895
3718.00   0.43206489   0.04077813
3720.00   0.51076913   0.04213677
3722.00   0.50655156   0.04176384
3724.00   0.48100567   0.04213986
3726.00   0.53803492   0.04199569
3728.00   0.48025534   0.04129098
3730.00   0.43984973   0.04107792
3732.00   0.47073209   0.04124758
3734.00   0.49582356   0.04095808
3736.00   0.38362557   0.03918825
3738.00   0.39733884   0.04009949
3740.00   0.46123138   0.04211724
3742.00   0.42622924   0.04126170
3744.00   0.37706569   0.04004426
3746.00   0.39862537   0.03921371
3748.00   0.43508327   0.03892759
3750.00   0.25097501   0.03607848
3752.00   0.41992852   0.03882486
3754.00   0.37331045   0.03836533
3756.00   0.46591431   0.03986121
3758.00   0.34038845   0.03751927
3760.00   0.40370136   0.03789125
3762.00   0.46729049   0.03853166
3764.00   0.37097296   0.03739016
3766.00   1.02693629   0.04690972
3768.00   1.89360905   0.05791480
3770.00   2.84597325   0.06793346
3772.00   2.10271597   0.06088272
3774.00   0.96089119   0.04644056
3776.00   0.40729800   0.03717342
3778.00   0.39991847   0.03659317
3780.00   0.42056283   0.03711285
3782.00   0.30530161   0.03616412
3784.00   0.41768986   0.03652545
3786.00   0.36899716   0.03577106
3788.00   0.30908522   0.03471302
3790.00   0.25174022   0.03449138
3792.00   0.34806967   0.03593226
3794.00   0.36257038   0.03567031
3796.00   0.34927505   0.03444247
3798.00   0.31368551   0.03330695
3800.00   0.27608141   0.03333831
3802.00   0.30935252   0.03493147
3804.00   0.30516887   0.03407533
3806.00   0.26039180   0.03307971
3808.00   0.35811651   0.03371374
3810.00   0.27931461   0.03251793
3812.00   0.30267838   0.03350319
3814.00   0.40396857   0.03423117
3816.00   0.32946658   0.03353366
3818.00   0.25853801   0.03192394
3820.00   0.31158769   0.03258607
3822.00   0.28402939   0.03233414
3824.00   0.30643487   0.03255104
3826.00   0.34099305   0.03284148
3828.00   0.37942106   0.03425876
3830.00   0.35041529   0.03452994
3832.00   0.31108001   0.03355915
3834.00   0.36016777   0.03279422
3836.00   0.20012945   0.03103608
3838.00   0.31056362   0.03205700
3840.00   0.35896021   0.03297259
3842.00   0.40940219   0.03284444
3844.00   0.36960688   0.03234981
3846.00   0.25285885   0.02986790
3848.00   0.29188111   0.03046074
3850.00   0.27465343   0.02984202
3852.00   0.36684266   0.03155320
3854.00   0.33824825   0.03045511
3856.00   0.32839811   0.02993021
3858.00   0.40854770   0.03062789
3860.00   0.40224183   0.03045967
3862.00   0.37005627   0.03015501
3864.00   0.37256685   0.02996498
3866.00   0.32651681   0.02910434
3868.00   0.37475303   0.02954842
3870.00   0.36979899   0.02925531
3872.00   0.33012795   0.02942155
3874.00   0.35906690   0.03030672
3876.00   0.35131603   0.03010177
3878.00   0.40506890   0.02958126
3880.00   0.43508577   0.02964717
3882.00   0.43525428   0.02930426
3884.00   0.43184263   0.02928741
3886.00   0.39275020   0.02883484
3888.00   0.38009635   0.02836641
3890.00   0.48246512   0.02946546
3892.00   0.46398178   0.02966460
3894.00   0.45698997   0.02991707
3896.00   0.48831570   0.03056719
3898.00   0.52717429   0.03067136
3900.00   0.45997244   0.03021692
3902.00   0.53683352   0.03141919
3904.00   0.53084898   0.03246115
3906.00   0.62757689   0.03654090
3908.00   0.58600998   0.03761632
3910.00   0.60248595   0.03866039
3912.00   0.72964013   0.03907122
3914.00   0.71322501   0.03789168
3916.00   0.63335323   0.03462559
3918.00   0.57983190   0.03266605
3920.00   0.61186880   0.03224811
3922.00   0.59565651   0.03129643
3924.00   0.59993428   0.03117761
3926.00   0.61325818   0.03112018
3928.00   0.57202709   0.03038254
3930.00   0.61790407   0.03111733
3932.00   0.67283762   0.03282309
3934.00   0.64323550   0.03250056
3936.00   0.56526196   0.03059099
3938.00   0.58376950   0.03023786
3940.00   0.61287373   0.03075512
3942.00   0.64770234   0.03217816
3944.00   0.64305323   0.03258246
3946.00   0.62584698   0.03188537
3948.00   0.60645467   0.03087196
3950.00   0.63305634   0.03072893
3952.00   0.66741872   0.03088696
3954.00   0.61753076   0.03024339
3956.00   0.59357512   0.02936137
3958.00   0.62915212   0.03063118
3960.00   0.62581474   0.03179519
3962.00   0.68108183   0.03255147
3964.00   0.67443836   0.03095373
3966.00   0.68434548   0.03004768
3968.00   0.68691349   0.02995808
3970.00   0.66113186   0.02943942
3972.00   0.68234342   0.02992313
3974.00   0.73175669   0.03046062
3976.00   0.70434028   0.03008609
3978.00   0.74967617   0.03055335
3980.00   0.73476064   0.03054697
3982.00   0.80760437   0.03137068
3984.00   0.79643083   0.03088238
3986.00   0.77947789   0.03073802
3988.00   0.78565073   0.03121572
3990.00   0.80848604   0.03150762
3992.00   0.79546088   0.03123558
3994.00   0.79182810   0.03179710
3996.00   0.87009436   0.03342472
3998.00   0.83335364   0.03284064
4000.00   0.86368346   0.03211016
4002.00   0.83816415   0.03140770
4004.00   0.85763937   0.03136343
4006.00   0.88067722   0.03184834
4008.00   0.82287633   0.03152049
4010.00   0.93807793   0.03275563
4012.00   0.94579679   0.03294507
4014.00   1.03564250   0.03376029
4016.00   1.01891196   0.03363939
4018.00   0.87798953   0.03389280
4020.00   0.87562305   0.03599514
4022.00   0.91496021   0.03734070
4024.00   0.90265650   0.03693532
4026.00   0.87613118   0.03493801
4028.00   0.95820200   0.03431530
4030.00   0.87832451   0.03315279
4032.00   0.87692869   0.03263303
4034.00   0.91489470   0.03287187
4036.00   0.95558429   0.03289409
4038.00   0.92769402   0.03226306
4040.00   0.90451139   0.03198491
4042.00   0.89409554   0.03329752
4044.00   0.87071878   0.04672878
4046.00   0.93564433   0.05782358
4048.00   0.90280092   0.05486520
4050.00   0.91589856   0.04131285
4052.00   0.88755536   0.03420285
4054.00   0.92225987   0.03396752
4056.00   0.85847819   0.03274420
4058.00   0.87840074   0.03161038
4060.00   0.85122091   0.03059570
4062.00   0.82303900   0.03017062
4064.00   0.85516912   0.03036460
4066.00   0.89389068   0.03067600
4068.00   0.84704739   0.03046756
4070.00   0.86256742   0.03022591
4072.00   0.89515752   0.02983481
4074.00   0.87073094   0.03066557
4076.00   0.86281544   0.03344420
4078.00   0.91346204   0.03501994
4080.00   0.93182880   0.03409777
4082.00   0.94853175   0.03296333
4084.00   0.93995118   0.03240389
4086.00   0.95975977   0.03195404
4088.00   0.88396835   0.03065300
4090.00   0.90169865   0.02968078
4092.00   0.91235387   0.02924881
4094.00   0.87459123   0.02889680
4096.00   0.89406133   0.02893288
4098.00   0.91978347   0.02908752
4100.00   0.96367437   0.02932228
4102.00   0.87357074   0.02821573
4104.00   0.87531132   0.02820910
4106.00   0.86539829   0.02825564
4108.00   0.85244381   0.02803274
4110.00   0.82959473   0.02782031
4112.00   0.86211061   0.02812993
4114.00   0.88318712   0.02831076
4116.00   0.85970944   0.02796747
4118.00   0.85924089   0.02766610
4120.00   0.81114531   0.02682322
4122.00   0.91407090   0.02780777
4124.00   0.93056303   0.02804227
4126.00   0.86004394   0.02761885
4128.00   0.81919205   0.02706644
4130.00   0.85571182   0.02787785
4132.00   0.81852013   0.02816807
4134.00   0.89294899   0.02878342
4136.00   0.86513758   0.02803118
4138.00   0.85654616   0.02806458
4140.00   0.87284523   0.02856125
4142.00   0.81767440   0.02758123
4144.00   0.84182256   0.02697937
4146.00   1.02636206   0.02851629
4148.00   1.04142737   0.02885479
4150.00   0.97192186   0.02889484
4152.00   0.88357514   0.02836986
4154.00   0.84009266   0.02764252
4156.00   0.87830901   0.02741845
4158.00   0.89009029   0.02717266
4160.00   0.80439681   0.02678979
4162.00   0.83362669   0.02776463
4164.00   0.81370288   0.02846357
4166.00   0.79296786   0.02806067
4168.00   0.79558444   0.02698877
4170.00   0.83378506   0.02687203
4172.00   0.81632936   0.02625214
4174.00   0.84592503   0.02606325
4176.00   0.84618062   0.02620956
4178.00   0.86359233   0.02637672
4180.00   0.81086856   0.02593230
4182.00   0.77674162   0.02526368
4184.00   0.75385541   0.02486823
4186.00   0.78088939   0.02512297
4188.00   0.83384407   0.02568717
4190.00   0.76061106   0.02500636
4192.00   0.82166857   0.02555041
4194.00   0.80220801   0.02530217
4196.00   0.80025423   0.02506417
4198.00   0.77037048   0.02464797
4200.00   0.82064575   0.02508278
4202.00   0.84713537   0.02524840
4204.00   0.77593261   0.02486098
4206.00   0.81185150   0.02519148
4208.00   0.83108306   0.02562375
4210.00   0.77145410   0.02512595
4212.00   0.76619726   0.02524037
4214.00   0.74440265   0.02474457
4216.00   0.75296646   0.02471344
4218.00   0.76404208   0.02469996
4220.00   0.75463021   0.02443907
4222.00   0.77746719   0.02453486
4224.00   0.75930619   0.02443900
4226.00   0.73928875   0.02438384
4228.00   0.73591322   0.02424030
4230.00   0.76669794   0.02477427
4232.00   0.77542681   0.02501068
4234.00   0.74926978   0.02489093
4236.00   0.75670123   0.02523395
4238.00   0.79824167   0.02551957
4240.00   0.74918664   0.02483732
4242.00   0.72277308   0.02422325
4244.00   0.74909925   0.02588040
4246.00   0.74983382   0.02747765
4248.00   0.68858129   0.02684351
4250.00   0.73078895   0.02530693
4252.00   0.79022729   0.02495003
4254.00   0.74301624   0.02447768
4256.00   0.74436253   0.02441340
4258.00   0.72650605   0.02443475
4260.00   0.74939758   0.02429890
4262.00   0.75085044   0.02393275
4264.00   0.77772319   0.02423384
4266.00   0.73123324   0.02360059
4268.00   0.77207452   0.02404176
4270.00   0.78175825   0.02427340
4272.00   0.76541531   0.02415348
4274.00   0.77179891   0.02423518
4276.00   0.73878729   0.02398096
4278.00   0.75733203   0.02414062
4280.00   0.70957154   0.02403255
4282.00   0.74033594   0.02420035
4284.00   0.76663399   0.02424479
4286.00   0.76889598   0.02400427
4288.00   0.75837010   0.02388073
4290.00   0.70927137   0.02337347
4292.00   0.70584458   0.02338325
4294.00   0.72739768   0.02362556
4296.00   0.72745192   0.02375587
4298.00   0.73392391   0.02359836
4300.00   0.70204186   0.02325898
4302.00   0.67448509   0.02306893
4304.00   0.67597884   0.02318937
4306.00   0.74008590   0.02380672
4308.00   0.68611091   0.02330196
4310.00   0.70278490   0.02375878
4312.00   0.71805698   0.02500632
4314.00   0.72239107   0.02554035
4316.00   0.69667655   0.02494654
4318.00   0.70650226   0.02486633
4320.00   0.68353218   0.02479881
4322.00   0.67137218   0.02485553
4324.00   0.69278288   0.02463075
4326.00   0.72459888   0.02452055
4328.00   0.64077079   0.02321071
4330.00   0.71063733   0.02344522
4332.00   0.68621087   0.02326770
4334.00   0.67571038   0.02328428
4336.00   0.62127078   0.02311970
4338.00   0.66631079   0.02368893
4340.00   0.67378902   0.02392713
4342.00   0.61416274   0.02355206
4344.00   0.60210896   0.02390997
4346.00   0.58324200   0.02465892
4348.00   0.58490950   0.02478529
4350.00   0.59483105   0.02447469
4352.00   0.57049632   0.02403973
4354.00   0.58352691   0.02906103
4356.00   0.60510433   0.04567111
4358.00   0.62068701   0.05374037
4360.00   0.70065975   0.04867670
4362.00   0.60180682   0.03704592
4364.00   0.57593280   0.02828050
4366.00   0.53355318   0.02507753
4368.00   0.57380730   0.02449122
4370.00   0.54255795   0.02393144
4372.00   0.57544512   0.02459574
4374.00   0.59396207   0.02499198
4376.00   0.57264626   0.02451655
4378.00   0.52146518   0.02333722
4380.00   0.52410358   0.02311235
4382.00   0.54130346   0.02295277
4384.00   0.59872699   0.02306525
4386.00   0.63603592   0.02332836
4388.00   0.82123286   0.02513867
4390.00   0.89390630   0.02564695
4392.00   0.71605265   0.02428792
4394.00   0.65104556   0.02355388
4396.00   0.55136794   0.02271702
4398.00   0.58472496   0.02333494
4400.00   0.57912201   0.02365110
4402.00   0.61774361   0.02372281
4404.00   0.61190313   0.02341568
4406.00   0.62928647   0.02355171
4408.00   0.62966698   0.02323082
4410.00   0.62894201   0.02329717
4412.00   0.63753814   0.02359299
4414.00   0.63813579   0.02408509
4416.00   0.63734961   0.02398676
4418.00   0.64966017   0.02378155
4420.00   0.65771472   0.02366542
4422.00   0.65471011   0.02360591
4424.00   0.65066808   0.02346966
4426.00   0.66163212   0.02344307
4428.00   0.71814358   0.02374931
4430.00   0.67533153   0.02346884
4432.00   0.69098884   0.02367729
4434.00   0.68954581   0.02351840
4436.00   0.72950751   0.02364312
4438.00   0.76377869   0.02398111
4440.00   0.73921925   0.02381842
4442.00   0.67801505   0.02339534
4444.00   0.68032455   0.02329119
4446.00   0.67793274   0.02329194
4448.00   0.65681660   0.02299998
4450.00   0.74471980   0.02356127
4452.00   0.67618430   0.02306744
4454.00   0.74067408   0.02345818
4456.00   0.71611071   0.02322970
4458.00   0.73631763   0.02342292
4460.00   0.67107803   0.02286841
4462.00   0.68282330   0.02300191
4464.00   0.71667272   0.02307292
4466.00   0.72178048   0.02284405
4468.00   0.69603318   0.02291600
4470.00   0.74045670   0.02321852
4472.00   0.70318913   0.02278808
4474.00   0.71500349   0.02297583
4476.00   0.70723617   0.02296921
4478.00   0.69434810   0.02272949
4480.00   0.72586274   0.02287550
4482.00   0.78069210   0.02333409
4484.00   0.74555272   0.02306485
4486.00   0.69617355   0.02277316
4488.00   0.70524704   0.02283032
4490.00   0.74188489   0.02297813
4492.00   0.72105855   0.02305512
4494.00   0.74127829   0.02322863
4496.00   0.76869231   0.02341758
4498.00   0.75025398   0.02327338
4500.00   0.75171375   0.02319856
4502.00   0.75706011   0.02313802
4504.00   0.75366974   0.02314533
4506.00   0.81056452   0.02330326
4508.00   0.75191057   0.02276986
4510.00   0.79390299   0.02293842
4512.00   0.73449761   0.02242976
4514.00   0.79782116   0.02285335
4516.00   0.70837051   0.02219716
4518.00   0.75738776   0.02245033
4520.00   0.82439756   0.02293364
4522.00   0.78455466   0.02263406
4524.00   0.80798328   0.02275419
4526.00   0.78611326   0.02251222
4528.00   0.78109956   0.02234179
4530.00   0.82205647   0.02262609
4532.00   0.81921452   0.02254749
4534.00   0.84356147   0.02267659
4536.00   0.85513544   0.02275912
4538.00   0.82768357   0.02246534
4540.00   0.82366556   0.02238226
4542.00   0.89354748   0.02300232
4544.00   0.87898463   0.02307526
4546.00   0.85373032   0.02275208
4548.00   0.87665844   0.02273722
4550.00   0.84273893   0.02226083
4552.00   0.86877424   0.02240727
4554.00   0.87195975   0.02244464
4556.00   0.88652909   0.02264134
4558.00   0.86095303   0.02248149
4560.00   0.89144093   0.02249929
4562.00   0.88139337   0.02226681
4564.00   0.92512232   0.02248284
4566.00   0.89890516   0.02226011
4568.00   0.87169248   0.02203568
4570.00   0.99045056   0.02282794
4572.00   0.91608244   0.02237561
4574.00   0.89150590   0.02232169
4576.00   0.95554227   0.02266881
4578.00   0.96466821   0.02260255
4580.00   0.95690149   0.02239469
4582.00   0.96901757   0.02233352
4584.00   0.97158062   0.02244343
4586.00   0.95477611   0.02221568
4588.00   0.99338490   0.02247084
4590.00   0.99589056   0.02245799
4592.00   0.97443467   0.02239891
4594.00   0.96524817   0.02239376
4596.00   0.97280031   0.02230627
4598.00   0.98072249   0.02234400
4600.00   0.99852049   0.02234443
4602.00   0.99326688   0.02220700
4604.00   0.99867529   0.02235885
4606.00   0.99594754   0.02233224
4608.00   1.01060414   0.02236128
4610.00   1.00544965   0.02236402
4612.00   1.04905474   0.02253195
4614.00   1.02955949   0.02239303
4616.00   1.10392046   0.02273369
4618.00   1.05924165   0.02247333
4620.00   1.04648030   0.02232452
4622.00   1.09180856   0.02265986
4624.00   1.01615977   0.02213500
4626.00   1.07652128   0.02252302
4628.00   1.09790647   0.02260909
4630.00   1.06550431   0.02256186
4632.00   1.08129215   0.02256187
4634.00   1.09980667   0.02264236
4636.00   1.09378564   0.02257813
4638.00   1.12418759   0.02275691
4640.00   1.09095538   0.02254765
4642.00   1.07893360   0.02242989
4644.00   1.05232286   0.02226970
4646.00   1.12305641   0.02260833
4648.00   1.10335386   0.02258534
4650.00   1.13473082   0.02277523
4652.00   1.05831492   0.02242886
4654.00   1.08774722   0.02256705
4656.00   1.13200283   0.02298502
4658.00   1.12356007   0.02301793
4660.00   1.14977443   0.02329705
4662.00   1.11421812   0.02331467
4664.00   1.15006542   0.02373675
4666.00   1.13381207   0.02380454
4668.00   1.16980553   0.02432568
4670.00   1.18656635   0.02452029
4672.00   1.13999009   0.02411142
4674.00   1.13576090   0.02381157
4676.00   1.16913128   0.02374355
4678.00   1.18500328   0.02361989
4680.00   1.14458215   0.02326056
4682.00   1.14331734   0.02307868
4684.00   1.09256303   0.02266594
4686.00   1.14787793   0.02287508
4688.00   1.12833905   0.02267963
4690.00   1.15910316   0.02278926
4692.00   1.15427804   0.02275934
4694.00   1.15079463   0.02266371
4696.00   1.10893571   0.02225155
4698.00   1.14188015   0.02236169
4700.00   1.10326135   0.02208016
4702.00   1.17510593   0.02270601
4704.00   1.09718502   0.02220933
4706.00   1.10124981   0.02237938
4708.00   1.08324349   0.02236662
4710.00   1.05518687   0.02208298
4712.00   1.09544110   0.02239745
4714.00   1.09418368   0.02234451
4716.00   1.10061586   0.02208650
4718.00   1.06705236   0.02180273
4720.00   1.05174255   0.02174170
4722.00   1.04377842   0.02165060
4724.00   1.03173995   0.02163432
4726.00   1.08347774   0.02235354
4728.00   1.04586315   0.02256344
4730.00   1.02701735   0.02256816
4732.00   0.99209470   0.02246192
4734.00   1.00539875   0.02268550
4736.00   1.01803696   0.02294894
4738.00   1.01252162   0.02326804
4740.00   1.01886320   0.02367664
4742.00   1.02419055   0.02385206
4744.00   0.94856673   0.02299806
4746.00   1.01441240   0.02258971
4748.00   1.01808345   0.02194301
4750.00   0.94645411   0.02146093
4752.00   0.96903616   0.02163010
4754.00   0.97360581   0.02137947
4756.00   1.00956357   0.02123293
4758.00   0.95936584   0.02070689
4760.00   0.95960486   0.02033313
4762.00   0.94031960   0.02014337
4764.00   0.89437062   0.01974267
4766.00   0.92819256   0.01992808
4768.00   0.95245665   0.02011075
4770.00   0.97039449   0.02022539
4772.00   0.91157252   0.01969725
4774.00   0.90892500   0.01972815
4776.00   0.88297182   0.01969219
4778.00   0.90103436   0.02014366
4780.00   0.89727175   0.02014226
4782.00   0.85780662   0.01963218
4784.00   0.86406076   0.01939750
4786.00   0.83854836   0.01909580
4788.00   0.83755821   0.01911074
4790.00   0.83975387   0.01921794
4792.00   0.80321032   0.01903634
4794.00   0.79245877   0.01882213
4796.00   0.78140032   0.01855648
4798.00   0.75263697   0.01823536
4800.00   0.76108706   0.01826173
4802.00   0.76061720   0.01825734
4804.00   0.76199836   0.01842252
4806.00   0.71851993   0.01801269
4808.00   0.71124643   0.01802748
4810.00   0.68493438   0.01776713
4812.00   0.72749180   0.01809126
4814.00   0.68790382   0.01783117
4816.00   0.69233638   0.01783668
4818.00   0.67842275   0.01786164
4820.00   0.71935952   0.01815374
4822.00   0.68370044   0.01799317
4824.00   0.70953673   0.01829074
4826.00   0.69652534   0.01817014
4828.00   0.65628344   0.01785230
4830.00   0.65515894   0.01799298
4832.00   0.66336477   0.01809152
4834.00   0.67799032   0.01807622
4836.00   0.63686579   0.01788555
4838.00   0.67138863   0.01820712
4840.00   0.66476107   0.01821986
4842.00   0.61482054   0.01776903
4844.00   0.62332660   0.01775722
4846.00   0.63552761   0.01793447
4848.00   0.63451445   0.01777788
4850.00   0.60996908   0.01757674
4852.00   0.60961688   0.01761607
4854.00   0.57865870   0.01724561
4856.00   0.59807479   0.01722336
4858.00   0.57084233   0.01707705
4860.00   0.57699907   0.01721420
4862.00   0.60706496   0.01758169
4864.00   0.60193938   0.01749946
4866.00   0.60001874   0.01742810
4868.00   0.57503521   0.01720005
4870.00   0.58063442   0.01726362
4872.00   0.56279558   0.01712367
4874.00   0.59907377   0.01742348
4876.00   0.58935750   0.01743177
4878.00   0.58636725   0.01742479
4880.00   0.57730448   0.01731571
4882.00   0.59624332   0.01744702
4884.00   0.58394778   0.01730458
4886.00   0.55644786   0.01691106
4888.00   0.56368834   0.01763747
4890.00   0.56335282   0.01692811
4892.00   0.57951188   0.01705608
4894.00   0.59317738   0.01716219
4896.00   0.59255052   0.01713041
4898.00   0.58859974   0.01718913
4900.00   0.59171486   0.01708907
4902.00   0.60547292   0.01705066
4904.00   0.60198015   0.01705952
4906.00   0.61562616   0.01725739
4908.00   0.60499471   0.01727308
4910.00   0.63380069   0.01749012
4912.00   0.70535612   0.01808534
4914.00   1.05108452   0.02133056
4916.00   1.11094093   0.02208689
4918.00   1.09829032   0.02187601
4920.00   0.95555860   0.02120398
4922.00   0.85337174   0.01937037
4924.00   0.74584031   0.01816760
4926.00   0.69705755   0.01772957
4928.00   0.69631582   0.01764827
4930.00   0.72745085   0.01773591
4932.00   0.72051877   0.01769892
4934.00   0.75997603   0.01801128
4936.00   0.79554051   0.01819996
4938.00   0.78619820   0.01830290
4940.00   0.75399172   0.01809817
4942.00   0.82327253   0.01848983
4944.00   0.83267325   0.01854537
4946.00   0.81250125   0.01836104
4948.00   0.87570643   0.01876318
4950.00   0.89468122   0.01906919
4952.00   0.85153759   0.01888956
4954.00   0.90880716   0.01932334
4956.00   0.92152673   0.01934293
4958.00   0.93900454   0.01947635
4960.00   0.94434375   0.01951332
4962.00   0.99195117   0.01981021
4964.00   1.00639892   0.02003428
4966.00   1.08270478   0.02052921
4968.00   1.04051387   0.02044356
4970.00   1.04780746   0.02076831
4972.00   1.09731328   0.02138830
4974.00   1.11359274   0.02190021
4976.00   1.11170709   0.02241804
4978.00   1.09581780   0.02300690
4980.00   1.12777400   0.02373821
4982.00   1.15811634   0.02425991
4984.00   1.21778071   0.02457913
4986.00   1.21573663   0.02425798
4988.00   1.24198759   0.02383178
4990.00   1.21195388   0.02331149
4992.00   1.19209945   0.02277061
4994.00   1.22366083   0.02248992
4996.00   1.23628056   0.02261086
4998.00   1.24639583   0.02180871
5000.00   1.25212193   0.02166731
5002.00   1.23462737   0.02150166
5004.00   1.27346909   0.02159845
5006.00   1.19787872   0.02101601
5008.00   1.22396290   0.02111537
5010.00   1.28637767   0.02142609
5012.00   1.52072394   0.02299820
5014.00   1.69451416   0.02424153
5016.00   1.66325855   0.02446012
5018.00   1.48573041   0.02357525
5020.00   1.41161418   0.02296161
5022.00   1.37229943   0.02207030
5024.00   1.20244277   0.02088647
5026.00   1.18742883   0.02071437
5028.00   1.18540394   0.02072864
5030.00   1.15637898   0.02069049
5032.00   1.10731137   0.02039792
5034.00   1.13663495   0.02043006
5036.00   1.11798024   0.02031507
5038.00   1.14906049   0.02035969
5040.00   1.15758681   0.02045617
5042.00   1.10295415   0.02009431
5044.00   1.13178420   0.02014362
5046.00   1.09374785   0.02013211
5048.00   1.07745636   0.01997781
5050.00   1.10581636   0.02017692
5052.00   1.04349530   0.01975331
5054.00   1.01371729   0.01956372
5056.00   1.02293634   0.01959017
5058.00   1.05412102   0.01968229
5060.00   1.52333522   0.02444038
5062.00   2.03839421   0.03045752
5064.00   2.11339068   0.03469075
5066.00   1.85357881   0.03137244
5068.00   1.58291841   0.02841689
5070.00   1.35534477   0.02386124
5072.00   1.10808551   0.02120358
5074.00   0.98099995   0.02019581
5076.00   0.96010309   0.01986619
5078.00   0.92761117   0.01997710
5080.00   0.91113466   0.02091042
5082.00   0.90350801   0.02183455
5084.00   0.86661941   0.02229785
5086.00   0.88061130   0.02246457
5088.00   0.92199153   0.02196238
5090.00   0.88003284   0.02084829
5092.00   0.91534632   0.02029480
5094.00   0.94216233   0.02001683
5096.00   0.91026896   0.01989492
5098.00   0.93428552   0.02038641
5100.00   0.88609922   0.02002678
5102.00   0.91276526   0.01985854
5104.00   0.87844461   0.01942454
5106.00   0.86846542   0.01907017
5108.00   0.91225410   0.01917908
5110.00   0.91415340   0.01925333
5112.00   0.89797115   0.01915453
5114.00   0.92277920   0.01937588
5116.00   0.90734327   0.01935812
5118.00   0.90784121   0.01927886
5120.00   0.90970105   0.01909107
5122.00   0.90930957   0.01905696
5124.00   0.89471400   0.01881135
5126.00   0.90797746   0.01986311
5128.00   0.89429879   0.01903332
5130.00   0.92964977   0.01911755
5132.00   0.91645032   0.01901908
5134.00   0.92415172   0.01904492
5136.00   0.93435353   0.01905150
5138.00   0.90711361   0.01899646
5140.00   0.93683243   0.01915614
5142.00   0.95600927   0.01932789
5144.00   0.90822136   0.01903237
5146.00   0.94622493   0.01948471
5148.00   0.93088871   0.01965498
5150.00   0.89698291   0.01978176
5152.00   0.93906152   0.02039719
5154.00   0.93888581   0.02049553
5156.00   0.93654162   0.02027999
5158.00   0.95948422   0.02020937
5160.00   0.94512355   0.01978312
5162.00   0.95102203   0.01957936
5164.00   0.94450462   0.01942420
5166.00   0.92762649   0.01919979
5168.00   0.95612878   0.01934862
5170.00   0.93808353   0.01913321
5172.00   0.93697697   0.01918375
5174.00   0.94524503   0.01925533
5176.00   0.93154448   0.01926089
5178.00   0.95935178   0.01949422
5180.00   0.90534729   0.01915191
5182.00   0.92712420   0.01922486
5184.00   0.91176254   0.01917338
5186.00   0.91840476   0.01927723
5188.00   0.91529006   0.01933646
5190.00   0.91803926   0.01935423
5192.00   0.94423509   0.01956794
5194.00   0.96781516   0.01978750
5196.00   0.92578971   0.01963745
5198.00   0.93473279   0.01972966
5200.00   0.93904293   0.01977656
5202.00   0.93386251   0.01977523
5204.00   0.92752349   0.01970350
5206.00   0.95254695   0.02001180
5208.00   0.93516988   0.02003452
5210.00   0.96252817   0.02036950
5212.00   0.92769259   0.02006573
5214.00   0.91225809   0.01996754
5216.00   0.94697481   0.02017585
5218.00   0.96345800   0.02044048
5220.00   0.96644491   0.02051914
5222.00   0.97605443   0.02057740
5224.00   0.98449379   0.02038960
5226.00   0.95994300   0.02040309
5228.00   0.97875011   0.02051258
5230.00   0.98856407   0.02054157
5232.00   0.93245369   0.02021250
5234.00   0.96482348   0.02052735
5236.00   0.94291437   0.02047691
5238.00   0.99617636   0.02096657
5240.00   0.98614419   0.02090788
5242.00   1.00935984   0.02105127
5244.00   0.96953601   0.02080725
5246.00   1.01014459   0.02100681
5248.00   1.00801146   0.02108634
5250.00   0.97236651   0.02087168
5252.00   0.97709125   0.02089131
5254.00   1.00630951   0.02119871
5256.00   1.05374312   0.02178981
5258.00   1.03346479   0.02185691
5260.00   0.99768186   0.02152069
5262.00   1.02674150   0.02163873
5264.00   0.98167241   0.02123582
5266.00   0.98544145   0.02121129
5268.00   1.04529071   0.02157664
5270.00   1.05459034   0.02170184
5272.00   1.06921947   0.02184328
5274.00   1.04286933   0.02183765
5276.00   1.05124533   0.02194743
5278.00   1.01972413   0.02179604
5280.00   1.04119313   0.02192972
5282.00   1.05126429   0.02216658
5284.00   1.04061472   0.02219626
5286.00   1.10098147   0.02262117
5288.00   1.08774853   0.02251015
5290.00   1.03688610   0.02228146
5292.00   1.06985164   0.02244338
5294.00   1.02487254   0.02208913
5296.00   1.05067503   0.02237508
5298.00   1.08846867   0.02262286
5300.00   1.06970048   0.02262396
5302.00   1.09210491   0.02273753
5304.00   1.06031942   0.02260881
5306.00   1.07190967   0.02278110
5308.00   1.06951797   0.02273924
5310.00   1.08663833   0.02304572
5312.00   1.09436071   0.02307596
5314.00   1.05031574   0.02285681
5316.00   1.12031627   0.02334967
5318.00   1.09510672   0.02316998
5320.00   1.08018589   0.02309939
5322.00   1.11486220   0.02336612
5324.00   1.09244525   0.02326504
5326.00   1.17219019   0.02378700
5328.00   1.14416134   0.02379204
5330.00   1.10491252   0.02371611
5332.00   1.12178147   0.02382012
5334.00   1.12633407   0.02381446
5336.00   1.16302371   0.02421820
5338.00   1.13746405   0.02423658
5340.00   1.17543101   0.02476804
5342.00   1.13257527   0.02457276
5344.00   1.16031277   0.02463445
5346.00   1.17148244   0.02513289
5348.00   1.13803458   0.02521866
5350.00   1.17148483   0.02541125
5352.00   1.16862750   0.02550651
5354.00   1.14822674   0.02549157
5356.00   1.18145585   0.02583428
5358.00   1.21147633   0.02589831
5360.00   1.17302382   0.02540929
5362.00   1.19510961   0.02545472
5364.00   1.15252972   0.02514203
5366.00   1.24508691   0.02588511
5368.00   1.21219289   0.02564649
5370.00   1.20218635   0.02567460
5372.00   1.20818973   0.02598329
5374.00   1.26799715   0.02673358
5376.00   1.29449773   0.02703233
5378.00   1.26346004   0.02700251
5380.00   1.25170076   0.02692940
5382.00   1.30151474   0.02733736
5384.00   1.25442064   0.02697590
5386.00   1.32691956   0.02767476
5388.00   1.25101709   0.02718728
5390.00   1.23842096   0.02756691
5392.00   1.24339497   0.02776767
5394.00   1.25026250   0.02787304
5396.00   1.30988288   0.02839042
5398.00   1.29857934   0.02844966
5400.00   1.25496233   0.02829558
5402.00   1.25857830   0.02831193
5404.00   1.29744625   0.02880145
5406.00   1.28243232   0.02898510
5408.00   1.26554203   0.02903600
5410.00   1.25328159   0.02950372
5412.00   1.31470406   0.03027442
5414.00   1.30126214   0.03067794
5416.00   1.28148651   0.03107738
5418.00   1.31958222   0.03162218
5420.00   1.24962306   0.03127061
5422.00   1.27536809   0.03162351
5424.00   1.25900280   0.03149574
5426.00   1.27809942   0.03149795
5428.00   1.29898620   0.03185203
5430.00   1.26755822   0.03156016
5432.00   1.26969254   0.01112990
5434.00   1.28693712   0.01168305
5436.00   1.29013932   0.01189791
5438.00   1.28036892   0.01175560
5440.00   1.26399636   0.01153430
5442.00   1.24029279   0.01135316
5444.00   1.20777571   0.01112041
5446.00   1.20364833   0.01150670
5448.00   1.22346377   0.01280626
5450.00   1.24082530   0.01316002
5452.00   1.26847088   0.01251741
5454.00   1.28866470   0.01217760
5456.00   1.28946078   0.01293747
5458.00   1.28000247   0.01412596
5460.00   1.28355122   0.01457294
5462.00   1.28990543   0.01489770
5464.00   1.30513561   0.01460888
5466.00   1.33797026   0.01336845
5468.00   1.35920298   0.01234705
5470.00   1.35703754   0.01193337
5472.00   1.34788799   0.01181382
5474.00   1.35805464   0.01170921
5476.00   1.38128054   0.01180367
5478.00   1.39827168   0.01177526
5480.00   1.41501224   0.01167952
5482.00   1.43150210   0.01164715
5484.00   1.44847858   0.01178055
5486.00   1.46439505   0.01184889
5488.00   1.47747898   0.01147934
5490.00   1.48856485   0.01061091
5492.00   1.49720335   0.01089398
5494.00   1.50148988   0.01246457
5496.00   1.50786507   0.01300493
5498.00   1.51578975   0.01273411
5500.00   1.52399349   0.01226863
5502.00   1.53123403   0.01186857
5504.00   1.53816688   0.01139001
5506.00   1.54980338   0.01137117
5508.00   1.56824851   0.01171167
5510.00   1.58079779   0.01213689
5512.00   1.58993864   0.01285740
5514.00   1.59760261   0.01343189
5516.00   1.60353494   0.01383873
5518.00   1.60842276   0.01406777
5520.00   1.61619663   0.01370315
5522.00   1.62849998   0.01219076
5524.00   1.63343668   0.01204706
5526.00   1.63283432   0.01312206
5528.00   1.63170683   0.01374015
5530.00   1.63271856   0.01385689
5532.00   1.63103485   0.01364311
5534.00   1.61834407   0.01289406
5536.00   1.59357584   0.01123108
5538.00   1.58219206   0.01061351
5540.00   1.58793759   0.01026781
5542.00   1.57493365   0.01101045
5544.00   1.53548348   0.01330939
5546.00   1.49516499   0.01520170
5548.00   1.47382998   0.01565126
5550.00   1.46160960   0.01535947
5552.00   1.46652651   0.01461473
5554.00   1.50243950   0.01242620
5556.00   1.51629639   0.01111897
5558.00   1.51149762   0.01062783
5560.00   1.50659084   0.01048312
5562.00   1.51301920   0.01052789
5564.00   1.52299321   0.01083812
5566.00   1.51482439   0.01107148
5568.00   1.48547101   0.01125277
5570.00   1.47128093   0.01169452
5572.00   1.46650445   0.01249299
5574.00   1.45860839   0.01305950
5576.00   1.44340980   0.01335365
5578.00   1.42567301   0.01342484
5580.00   1.41168296   0.01308591
5582.00   1.39811885   0.01216896
5584.00   1.38885367   0.01155812
5586.00   1.38116586   0.01086269
5588.00   1.37954664   0.01045754
5590.00   1.39025331   0.01055008
5592.00   1.40025222   0.01076450
5594.00   1.39069152   0.01065602
5596.00   1.36489046   0.01038416
5598.00   1.35810423   0.01015580
5600.00   1.36724329   0.00980795
5602.00   1.36644161   0.00963066
5604.00   1.35717928   0.00967125
5606.00   1.34493911   0.00973808
5608.00   1.33117294   0.00970292
5610.00   1.31491673   0.00962892
5612.00   1.30660081   0.00956258
5614.00   1.30429542   0.00937517
5616.00   1.30259407   0.00943481
5618.00   1.30541945   0.00982239
5620.00   1.30589926   0.01008047
5622.00   1.30211222   0.01003294
5624.00   1.29496932   0.00982251
5626.00   1.28127909   0.00962928
5628.00   1.26000559   0.00929467
5630.00   1.23916256   0.00913610
5632.00   1.20958936   0.00910620
5634.00   1.19036984   0.00909009
5636.00   1.18806994   0.00907694
5638.00   1.19233489   0.00907780
5640.00   1.18961632   0.00904444
5642.00   1.18847489   0.00883933
5644.00   1.17286932   0.00926563
5646.00   1.13508952   0.01056856
5648.00   1.11342883   0.01103583
5650.00   1.11217034   0.01059702
5652.00   1.11502278   0.00988626
5654.00   1.10946953   0.00946167
5656.00   1.10174704   0.00906734
5658.00   1.08602011   0.00885693
5660.00   1.05734015   0.00884550
5662.00   1.03756034   0.00887350
5664.00   1.02954173   0.00895712
5666.00   1.01620483   0.00912705
5668.00   0.98405331   0.00946616
5670.00   0.94144994   0.00989714
5672.00   0.92010731   0.00994144
5674.00   0.91621888   0.00950285
5676.00   0.90515113   0.00948886
5678.00   0.89306515   0.00968201
5680.00   0.88129306   0.01000592
5682.00   0.87121797   0.01049768
5684.00   0.86097705   0.01105708
5686.00   0.84535056   0.01144167
5688.00   0.82251251   0.01193599
5690.00   0.80807161   0.01181101
5692.00   0.79972231   0.01097537
5694.00   0.79037642   0.01025701
5696.00   0.78092146   0.00975278
5698.00   0.76979530   0.00932761
5700.00   0.75197095   0.00893387
5702.00   0.72598594   0.00859339
5704.00   0.71493095   0.00836830
5706.00   0.71338457   0.00826123
5708.00   0.71526468   0.00824235
5710.00   0.72431821   0.00837282
5712.00   0.73372257   0.00852031
5714.00   0.73845541   0.00858799
5716.00   0.74128121   0.00862695
5718.00   0.73505622   0.00858480
5720.00   0.71579921   0.00846592
5722.00   0.70427805   0.00830886
5724.00   0.69481856   0.00805663
5726.00   0.69012606   0.00782066
5728.00   0.69378954   0.00764897
5730.00   0.70254707   0.00751949
5732.00   0.70393211   0.00746434
5734.00   0.69747496   0.00757592
5736.00   0.70042026   0.00750345
5738.00   0.71259516   0.00703783
5740.00   0.72028518   0.00703651
5742.00   0.71799076   0.00789948
5744.00   0.71352333   0.00889545
5746.00   0.71891093   0.00917431
5748.00   0.72922301   0.00906455
5750.00   0.74529457   0.00895623
5752.00   0.77613831   0.00846760
5754.00   0.79419678   0.00835034
5756.00   0.79198503   0.00868559
5758.00   0.78891319   0.00920342
5760.00   0.80620575   0.00978892
5762.00   0.83760852   0.01056769
5764.00   0.85527480   0.01065305
5766.00   0.86341679   0.01013154
5768.00   0.87748295   0.00970205
5770.00   0.90175116   0.00904635
5772.00   0.91960311   0.00862459
5774.00   0.91681260   0.00899848
5776.00   0.90103966   0.00983006
5778.00   0.90511054   0.00982978
5780.00   0.91786820   0.00900323
5782.00   0.93839490   0.00883671
5784.00   0.97166270   0.00910222
5786.00   1.00508511   0.00944135
5788.00   1.03564584   0.00986764
5790.00   1.06498420   0.01028750
5792.00   1.08967173   0.01019382
5794.00   1.11528456   0.00938863
5796.00   1.12527370   0.00934099
5798.00   1.11209798   0.00997842
5800.00   1.11162913   0.01025013
5802.00   1.12920725   0.00996485
5804.00   1.15555048   0.00949765
5806.00   1.18411684   0.00929991
5808.00   1.21969080   0.00921710
5810.00   1.25021458   0.00912830
5812.00   1.28714240   0.00903726
5814.00   1.30725300   0.00905422
5816.00   1.30377567   0.00925080
5818.00   1.29752922   0.00943405
5820.00   1.30741537   0.00943173
5822.00   1.32584631   0.00931521
5824.00   1.33351147   0.00925968
5826.00   1.32976663   0.00916501
5828.00   1.33748972   0.00916420
5830.00   1.35944426   0.00928552
5832.00   1.37679327   0.00938752
5834.00   1.37682295   0.00934447
5836.00   1.36845887   0.00925316
5838.00   1.37753928   0.00950684
5840.00   1.39729691   0.01004984
5842.00   1.41933739   0.01051731
5844.00   1.45876431   0.01133247
5846.00   1.48073435   0.01160093
5848.00   1.46901965   0.01085845
5850.00   1.44455111   0.00966561
5852.00   1.44411349   0.00949630
5854.00   1.45534432   0.01003326
5856.00   1.46973407   0.01040208
5858.00   1.50478947   0.01110515
5860.00   1.51676786   0.01140883
5862.00   1.49275005   0.01106984
5864.00   1.46268487   0.01069409
5866.00   1.45974755   0.01115905
5868.00   1.47155929   0.01229313
5870.00   1.48332393   0.01212398
5872.00   1.50756454   0.01053738
5874.00   1.52023137   0.00971009
5876.00   1.52260613   0.00948269
5878.00   1.52020943   0.00979348
5880.00   1.51689386   0.01059016
5882.00   1.51086831   0.01177088
5884.00   1.49360573   0.01351607
5886.00   1.44327104   0.01622612
5888.00   1.44104493   0.01761812
5890.00   1.48018646   0.01831012
5892.00   1.52723920   0.01877505
5894.00   1.58282292   0.01921132
5896.00   1.63962018   0.01946706
5898.00   1.63648438   0.01923491
5900.00   1.56696177   0.01870788
5902.00   1.53717792   0.01751280
5904.00   1.50943291   0.01492405
5906.00   1.50060248   0.01255373
5908.00   1.52426887   0.01095147
5910.00   1.55706477   0.00990356
5912.00   1.55823553   0.00939327
5914.00   1.53714573   0.00986185
5916.00   1.53106260   0.00985902
5918.00   1.53104866   0.00981667
5920.00   1.52876377   0.00980804
5922.00   1.52467179   0.00984971
5924.00   1.51935446   0.00989143
5926.00   1.51149619   0.00987749
5928.00   1.50058055   0.00982093
5930.00   1.49914515   0.00986062
5932.00   1.50714266   0.01003336
5934.00   1.51149011   0.01007262
5936.00   1.51490164   0.01000352
5938.00   1.51679027   0.00989062
5940.00   1.51623976   0.00971165
5942.00   1.51382065   0.00948652
5944.00   1.51138914   0.00956148
5946.00   1.50987637   0.01007055
5948.00   1.50397646   0.01013935
5950.00   1.49387634   0.00990944
5952.00   1.48298144   0.00965408
5954.00   1.47020519   0.00941297
5956.00   1.45776975   0.00917500
5958.00   1.45465279   0.00908045
5960.00   1.46463442   0.00913922
5962.00   1.45789957   0.00911015
5964.00   1.43222392   0.00904748
5966.00   1.42045999   0.00900666
5968.00   1.43186271   0.00900452
5970.00   1.44710779   0.00900678
5972.00   1.44282532   0.00896317
5974.00   1.42555547   0.00886819
5976.00   1.41726673   0.00889486
5978.00   1.40767872   0.00907233
5980.00   1.40674198   0.00913671
5982.00   1.41897333   0.00892238
5984.00   1.43092644   0.00889478
5986.00   1.43124855   0.00956995
5988.00   1.42498159   0.01065497
5990.00   1.42420816   0.01077905
5992.00   1.43074596   0.01013212
5994.00   1.42535055   0.00972866
5996.00   1.40599084   0.00931740
5998.00   1.38902712   0.00896203
6000.00   1.38061702   0.00871961
6002.00   1.37705851   0.00856415
6004.00   1.37969279   0.00845514
6006.00   1.39149237   0.00844101
6008.00   1.40042019   0.00841850
6010.00   1.41708446   0.00845073
6012.00   1.42185020   0.00844787
6014.00   1.40709305   0.00834079
6016.00   1.38381493   0.00823689
6018.00   1.36750817   0.00833344
6020.00   1.34599829   0.00851227
6022.00   1.34836292   0.00893774
6024.00   1.38357055   0.00995559
6026.00   1.39797378   0.01026415
6028.00   1.38374650   0.00964036
6030.00   1.36499417   0.00879464
6032.00   1.36470354   0.00861853
6034.00   1.37531459   0.00884563
6036.00   1.37249517   0.00869582
6038.00   1.36019707   0.00826430
6040.00   1.35113275   0.00802402
6042.00   1.34446836   0.00796314
6044.00   1.33693385   0.00794577
6046.00   1.32549202   0.00790708
6048.00   1.31185305   0.00788127
6050.00   1.30667555   0.00783723
6052.00   1.31079113   0.00770751
6054.00   1.30912018   0.00775086
6056.00   1.30636466   0.00790011
6058.00   1.30036902   0.00814705
6060.00   1.28786206   0.00862707
6062.00   1.27293193   0.00911819
6064.00   1.26790369   0.00898088
6066.00   1.27245414   0.00811867
6068.00   1.26979721   0.00777172
6070.00   1.26188147   0.00763706
6072.00   1.25766420   0.00759473
6074.00   1.25929046   0.00769628
6076.00   1.26281774   0.00784222
6078.00   1.26373959   0.00782977
6080.00   1.26367331   0.00767781
6082.00   1.26406932   0.00777084
6084.00   1.26604736   0.00801848
6086.00   1.26478791   0.00830277
6088.00   1.26022196   0.00884457
6090.00   1.25371706   0.00915296
6092.00   1.24375343   0.00868182
6094.00   1.22955585   0.00749336
6096.00   1.23445749   0.00725540
6098.00   1.25763845   0.00779403
6100.00   1.27650404   0.00805962
6102.00   1.30547392   0.00830596
6104.00   1.32004881   0.00846410
6106.00   1.30179060   0.00844439
6108.00   1.26409686   0.00832063
6110.00   1.24751401   0.00837569
6112.00   1.23639834   0.00866489
6114.00   1.23441494   0.00865139
6116.00   1.24813545   0.00838508
6118.00   1.25657427   0.00814811
6120.00   1.25603855   0.00801866
6122.00   1.24955356   0.00792258
6124.00   1.23427808   0.00779795
6126.00   1.20320857   0.00765336
6128.00   1.19261503   0.00755673
6130.00   1.19601643   0.00750764
6132.00   1.19958127   0.00745069
6134.00   1.20580459   0.00726961
6136.00   1.21080601   0.00720676
6138.00   1.20671201   0.00763728
6140.00   1.19508171   0.00846744
6142.00   1.19025719   0.00871532
6144.00   1.18966949   0.00872834
6146.00   1.18680096   0.00853471
6148.00   1.18426859   0.00784513
6150.00   1.17824101   0.00724722
6152.00   1.16287482   0.00737539
6154.00   1.14080477   0.00793486
6156.00   1.13549471   0.00808972
6158.00   1.14757764   0.00796985
6160.00   1.14841843   0.00813266
6162.00   1.14063013   0.00866149
6164.00   1.13562286   0.00894212
6166.00   1.13826716   0.00873783
6168.00   1.14458692   0.00824563
6170.00   1.14867365   0.00779760
6172.00   1.15540802   0.00704827
6174.00   1.15486181   0.00673572
6176.00   1.14132071   0.00684158
6178.00   1.13938570   0.00692129
6180.00   1.15601027   0.00687757
6182.00   1.17999887   0.00686389
6184.00   1.19856334   0.00705999
6186.00   1.22119677   0.00745598
6188.00   1.22494411   0.00764344
6190.00   1.20710862   0.00781353
6192.00   1.19761431   0.00780507
6194.00   1.19639993   0.00752881
6196.00   1.19762051   0.00719715
6198.00   1.19774759   0.00703387
6200.00   1.19801867   0.00694731
6202.00   1.20291162   0.00691780
6204.00   1.21569335   0.00701021
6206.00   1.22121239   0.00704310
6208.00   1.21888208   0.00704451
6210.00   1.21737623   0.00703246
6212.00   1.22160423   0.00694659
6214.00   1.22865236   0.00683562
6216.00   1.23393679   0.00713416
6218.00   1.24205613   0.00807695
6220.00   1.24305332   0.00822386
6222.00   1.23757017   0.00777743
6224.00   1.23128855   0.00733241
6226.00   1.22512579   0.00684079
6228.00   1.21864390   0.00650110
6230.00   1.21339929   0.00737235
6232.00   1.20634556   0.00954612
6234.00   1.20772469   0.00980560
6236.00   1.21939766   0.00871656
6238.00   1.22685063   0.00785300
6240.00   1.23028731   0.00742195
6242.00   1.22989893   0.00715949
6244.00   1.22294259   0.00696165
6246.00   1.20942223   0.00687457
6248.00   1.19713593   0.00698758
6250.00   1.18114626   0.00732832
6252.00   1.16895473   0.00768462
6254.00   1.15889871   0.00829271
6256.00   1.15248966   0.00864345
6258.00   1.15269196   0.00827202
6260.00   1.15851140   0.00730751
6262.00   1.15772831   0.00688274
6264.00   1.15807736   0.00676115
6266.00   1.14794397   0.00661969
6268.00   1.12280691   0.00655312
6270.00   1.10114646   0.00652402
6272.00   1.09059703   0.00651981
6274.00   1.08613920   0.00654526
6276.00   1.08530879   0.00656347
6278.00   1.09250855   0.00659596
6280.00   1.09545350   0.00661419
6282.00   1.10040152   0.00663280
6284.00   1.10005164   0.00663475
6286.00   1.09121859   0.00659992
6288.00   1.07868958   0.00656119
6290.00   1.06989694   0.00657940
6292.00   1.06140900   0.00661480
6294.00   1.05554903   0.00674145
6296.00   1.05016625   0.00699651
6298.00   1.04951739   0.00718239
6300.00   1.05770838   0.00734028
6302.00   1.06535792   0.00742347
6304.00   1.06152904   0.00734044
6306.00   1.04975879   0.00710216
6308.00   1.04276228   0.00695563
6310.00   1.03740096   0.00681862
6312.00   1.03038394   0.00669780
6314.00   1.01858103   0.00650002
6316.00   1.01099861   0.00645145
6318.00   1.01521873   0.00681980
6320.00   1.02697027   0.00740645
6322.00   1.02961648   0.00734465
6324.00   1.03180635   0.00654157
6326.00   1.02415311   0.00627832
6328.00   1.00196278   0.00639918
6330.00   0.98430508   0.00652017
6332.00   0.97740501   0.00655796
6334.00   0.97612876   0.00656463
6336.00   0.97691661   0.00645550
6338.00   0.98545122   0.00612070
6340.00   0.98466206   0.00609377
6342.00   0.97524226   0.00636892
6344.00   0.97004598   0.00650414
6346.00   0.97157842   0.00643378
6348.00   0.97513592   0.00629574
6350.00   0.97612137   0.00621520
6352.00   0.97689682   0.00611263
6354.00   0.97474682   0.00615627
6356.00   0.97012264   0.00623789
6358.00   0.96428603   0.00651479
6360.00   0.95210624   0.00723007
6362.00   0.94485980   0.00770210
6364.00   0.95609838   0.00733349
6366.00   0.98154771   0.00625188
6368.00   0.98522711   0.00596256
6370.00   0.96847123   0.00616207
6372.00   0.96602607   0.00640920
6374.00   0.97414917   0.00705035
6376.00   0.98368388   0.00737785
6378.00   0.99580181   0.00697496
6380.00   1.00787246   0.00609750
6382.00   0.99149662   0.00578170
6384.00   0.92498207   0.00581817
6386.00   0.91627634   0.00584104
6388.00   0.95596892   0.00608095
6390.00   0.98338354   0.00619077
6392.00   0.98180997   0.00601615
6394.00   0.97041315   0.00576600
6396.00   0.96968514   0.00583970
6398.00   0.97249299   0.00607504
6400.00   0.97488356   0.00647168
6402.00   0.97704631   0.00731290
6404.00   0.98202199   0.00764023
6406.00   0.99413025   0.00738420
6408.00   1.00415170   0.00688917
6410.00   0.99917889   0.00646638
6412.00   0.98155177   0.00590830
6414.00   0.97728837   0.00565150
6416.00   0.98150951   0.00562880
6418.00   0.98300874   0.00571697
6420.00   0.98371619   0.00598656
6422.00   0.98321831   0.00628918
6424.00   0.97946858   0.00659761
6426.00   0.97340721   0.00692714
6428.00   0.97536248   0.00681196
6430.00   0.98636931   0.00602897
6432.00   0.99129307   0.00576432
6434.00   0.99520963   0.00595623
6436.00   0.99455410   0.00610334
6438.00   0.98552465   0.00601431
6440.00   0.97224313   0.00584660
6442.00   0.96736866   0.00582778
6444.00   0.96888530   0.00585762
6446.00   0.96681160   0.00599968
6448.00   0.96699059   0.00631309
6450.00   0.96133381   0.00654637
6452.00   0.94456166   0.00675573
6454.00   0.92592216   0.00684669
6456.00   0.92097396   0.00653602
6458.00   0.92745167   0.00567593
6460.00   0.92336583   0.00538349
6462.00   0.91323149   0.00554414
6464.00   0.90434915   0.00560380
6466.00   0.89588416   0.00559208
6468.00   0.88815343   0.00556445
6470.00   0.88196689   0.00551801
6472.00   0.87684768   0.00544466
6474.00   0.87405139   0.00545222
6476.00   0.87522131   0.00547571
6478.00   0.87377858   0.00560690
6480.00   0.87036508   0.00585216
6482.00   0.86657619   0.00612554
6484.00   0.86330897   0.00644902
6486.00   0.85999781   0.00678619
6488.00   0.85520530   0.00677713
6490.00   0.84856856   0.00644070
6492.00   0.84301561   0.00614527
6494.00   0.83794159   0.00563862
6496.00   0.83278370   0.00527873
6498.00   0.82709032   0.00527087
6500.00   0.82146627   0.00543043
6502.00   0.81732726   0.00544060
6504.00   0.81450188   0.00541444
6506.00   0.81141621   0.00539027
6508.00   0.80821228   0.00535255
6510.00   0.80587941   0.00531175
6512.00   0.80474180   0.00526224
6514.00   0.80410391   0.00521445
6516.00   0.80276698   0.00517892
6518.00   0.80035013   0.00513727
6520.00   0.80297756   0.00518667
6522.00   0.80999887   0.00531566
6524.00   0.81732583   0.00545465
6526.00   0.82781941   0.00567209
6528.00   0.83613467   0.00582447
6530.00   0.83656621   0.00577948
6532.00   0.83150685   0.00559395
6534.00   0.83352238   0.00554756
6536.00   0.83992404   0.00558032
6538.00   0.84549588   0.00558272
6540.00   0.85288924   0.00558532
6542.00   0.85835546   0.00557443
6544.00   0.85970813   0.00553054
6546.00   0.85869479   0.00547230
6548.00   0.85899615   0.00547166
6550.00   0.85809213   0.00555108
6552.00   0.86013186   0.00553853
6554.00   0.86267853   0.00544057
6556.00   0.86910397   0.00538033
6558.00   0.88160300   0.00537844
6560.00   0.89665776   0.00541311
6562.00   0.90820956   0.00548561
6564.00   0.91879064   0.00562192
6566.00   0.92783260   0.00568119
6568.00   0.93238562   0.00570485
6570.00   0.94179744   0.00570536
6572.00   0.95859784   0.00566319
6574.00   0.97589940   0.00561784
6576.00   0.98693436   0.00561878
6578.00   0.99437416   0.00564925
6580.00   1.00178993   0.00565783
6582.00   1.00685501   0.00566117
6584.00   1.01320434   0.00566032
6586.00   1.01841938   0.00561875
6588.00   1.02682233   0.00562508
6590.00   1.04354739   0.00575381
6592.00   1.06552064   0.00595586
6594.00   1.07503211   0.00606883
6596.00   1.07667840   0.00619841
6598.00   1.07581508   0.00619261
6600.00   1.06722152   0.00603524
6602.00   1.06110418   0.00587298
6604.00   1.05941844   0.00565837
6606.00   1.06132007   0.00548734
6608.00   1.07131648   0.00581627
6610.00   1.09369612   0.00675042
6612.00   1.10466087   0.00694408
6614.00   1.10620677   0.00658907
6616.00   1.11335719   0.00643359
6618.00   1.13097095   0.00664544
6620.00   1.14968479   0.00691638
6622.00   1.15397155   0.00692410
6624.00   1.13876534   0.00669997
6626.00   1.17438078   0.00689559
6628.00   1.19156873   0.00707612
6630.00   1.33363891   0.00785507
6632.00   1.67314982   0.00937326
6634.00   2.00673795   0.01066525
6636.00   2.18441582   0.01136855
6638.00   2.28473520   0.01183840
6640.00   2.18663096   0.01137993
6642.00   1.79434133   0.00938195
6644.00   1.54873931   0.00800882
6646.00   1.34628963   0.00693614
6648.00   1.20982063   0.00618976
6650.00   1.17307997   0.00603906
6652.00   1.20873654   0.00639015
6654.00   1.21770859   0.00643961
6656.00   1.24955082   0.00649038
6658.00   1.25746763   0.00649904
6660.00   1.25191188   0.00649052
6662.00   1.24193132   0.00643154
6664.00   1.22547233   0.00628375
6666.00   1.20710087   0.00609947
6668.00   1.20160329   0.00600147
6670.00   1.20665121   0.00594972
6672.00   1.20636177   0.00592278
6674.00   1.20603240   0.00591462
6676.00   1.20452130   0.00596474
6678.00   1.20071983   0.00610192
6680.00   1.19705200   0.00625577
6682.00   1.19661570   0.00636502
6684.00   1.19855762   0.00647785
6686.00   1.19878995   0.00643403
6688.00   1.19475341   0.00615443
6690.00   1.19862628   0.00603894
6692.00   1.21392858   0.00609620
6694.00   1.22760332   0.00616830
6696.00   1.23111129   0.00616773
6698.00   1.22883523   0.00613996
6700.00   1.22397685   0.00609551
6702.00   1.21148252   0.00594265
6704.00   1.20434284   0.00596910
6706.00   1.20087862   0.00621911
6708.00   1.19701266   0.00637781
6710.00   1.19000828   0.00632478
6712.00   1.18268466   0.00616723
6714.00   1.18264985   0.00606827
6716.00   1.19171977   0.00593976
6718.00   1.19245088   0.00588465
6720.00   1.18856788   0.00590429
6722.00   1.18437743   0.00591214
6724.00   1.17865837   0.00589058
6726.00   1.17384887   0.00586830
6728.00   1.17625332   0.00587745
6730.00   1.18668723   0.00591689
6732.00   1.18651664   0.00592042
6734.00   1.17990518   0.00590309
6736.00   1.17205834   0.00588273
6738.00   1.15816665   0.00584829
6740.00   1.14774466   0.00582014
6742.00   1.15251350   0.00582397
6744.00   1.16890287   0.00585161
6746.00   1.17311394   0.00585601
6748.00   1.17109227   0.00584898
6750.00   1.16921806   0.00584303
6752.00   1.16681027   0.00583846
6754.00   1.16241729   0.00582833
6756.00   1.15416992   0.00579664
6758.00   1.14351094   0.00575604
6760.00   1.13858604   0.00578852
6762.00   1.13826311   0.00588979
6764.00   1.13660884   0.00597273
6766.00   1.13398254   0.00610907
6768.00   1.13392603   0.00616844
6770.00   1.13809884   0.00609403
6772.00   1.14448524   0.00595412
6774.00   1.14978254   0.00587074
6776.00   1.15820456   0.00575757
6778.00   1.15718091   0.00578618
6780.00   1.14223242   0.00597150
6782.00   1.13769150   0.00610956
6784.00   1.14540565   0.00619815
6786.00   1.16027021   0.00626090
6788.00   1.18092668   0.00624347
6790.00   1.21149993   0.00605097
6792.00   1.22709346   0.00649971
6794.00   1.24086106   0.00780092
6796.00   1.23693824   0.00817799
6798.00   1.20437360   0.00768555
6800.00   1.17398155   0.00698406
6802.00   1.16988516   0.00647452
6804.00   1.18062997   0.00593672
6806.00   1.18838727   0.00625584
6808.00   1.21343982   0.00780446
6810.00   1.20951176   0.00806879
6812.00   1.17754889   0.00737603
6814.00   1.14306688   0.00657915
6816.00   1.11287189   0.00603813
6818.00   1.08389509   0.00557852
6820.00   1.06889796   0.00541981
6822.00   1.07144248   0.00570028
6824.00   1.06214976   0.00576132
6826.00   1.04662991   0.00575709
6828.00   1.03368282   0.00580884
6830.00   1.02459955   0.00599133
6832.00   1.01786184   0.00617471
6834.00   1.01368821   0.00614854
6836.00   1.01434112   0.00595110
6838.00   1.00801039   0.00581431
6840.00   0.99672133   0.00563157
6842.00   0.98546702   0.00550042
6844.00   0.97399801   0.00539551
6846.00   0.96202320   0.00536448
6848.00   0.94917381   0.00550683
6850.00   0.93495709   0.00581165
6852.00   0.92600244   0.00583532
6854.00   0.91954559   0.00540699
6856.00   0.91741049   0.00554085
6858.00   0.92587721   0.00636496
6860.00   0.92877012   0.00697038
6862.00   0.91445702   0.00696151
6864.00   0.88960505   0.00661757
6866.00   0.87117398   0.00645288
6868.00   0.84684652   0.00625460
6870.00   0.83778530   0.00612977
6872.00   0.84512347   0.00609324
6874.00   0.85073507   0.00604049
6876.00   0.84958971   0.00593379
6878.00   0.84564722   0.00580519
6880.00   0.83992279   0.00568958
6882.00   0.83200598   0.00552854
6884.00   0.82200015   0.00550406
6886.00   0.80644536   0.00565054
6888.00   0.79523683   0.00571325
6890.00   0.78922850   0.00565484
6892.00   0.78667337   0.00555376
6894.00   0.78730559   0.00548111
6896.00   0.79244578   0.00540062
6898.00   0.79457992   0.00535324
6900.00   0.79612368   0.00529815
6902.00   0.79702848   0.00532306
6904.00   0.79575872   0.00548562
6906.00   0.79583049   0.00562325
6908.00   0.80029595   0.00559776
6910.00   0.80775493   0.00546717
6912.00   0.81694096   0.00541321
6914.00   0.83366132   0.00537268
6916.00   0.84052992   0.00535371
6918.00   0.83946216   0.00537238
6920.00   0.83520192   0.00538392
6922.00   0.82777441   0.00533992
6924.00   0.81795770   0.00528205
6926.00   0.81607109   0.00538180
6928.00   0.81719029   0.00572948
6930.00   0.82537138   0.00578282
6932.00   0.84439802   0.00558712
6934.00   0.86047542   0.00547349
6936.00   0.86945987   0.00555150
6938.00   0.87656188   0.00568767
6940.00   0.88819259   0.00571886
6942.00   0.90127951   0.00569311
6944.00   0.91838789   0.00569179
6946.00   0.94413418   0.00568917
6948.00   0.96249604   0.00568683
6950.00   0.96852338   0.00559564
6952.00   0.97439617   0.00560153
6954.00   0.99441212   0.00600068
6956.00   1.02514064   0.00672277
6958.00   1.04273093   0.00680191
6960.00   1.05100393   0.00635258
6962.00   1.06239641   0.00607251
6964.00   1.07614017   0.00584831
6966.00   1.08921993   0.00570558
6968.00   1.09912860   0.00571938
6970.00   1.10714889   0.00585444
6972.00   1.12107098   0.00591604
6974.00   1.14389253   0.00598293
6976.00   1.15681446   0.00601929
6978.00   1.15952921   0.00597779
6980.00   1.16531467   0.00600887
6982.00   1.18064880   0.00620774
6984.00   1.19950020   0.00646545
6986.00   1.21010435   0.00654850
6988.00   1.21424580   0.00653426
6990.00   1.22179198   0.00648353
6992.00   1.22855258   0.00628070
6994.00   1.23801184   0.00619645
6996.00   1.25437260   0.00625613
6998.00   1.26995611   0.00642844
7000.00   1.27075136   0.00676827
7002.00   1.25677145   0.00737698
7004.00   1.26001704   0.00741501
7006.00   1.28284264   0.00681847
7008.00   1.28741205   0.00660857
7010.00   1.26536906   0.00696210
7012.00   1.24384105   0.00729632
7014.00   1.24764132   0.00715488
7016.00   1.26717770   0.00669798
7018.00   1.27605689   0.00653753
7020.00   1.28374588   0.00651875
7022.00   1.28818512   0.00651841
7024.00   1.28964603   0.00663394
7026.00   1.28848433   0.00668309
7028.00   1.28364193   0.00652932
7030.00   1.27610993   0.00625716
7032.00   1.27341712   0.00616953
7034.00   1.27539134   0.00607249
7036.00   1.27358031   0.00627349
7038.00   1.26969743   0.00694342
7040.00   1.26557279   0.00729058
7042.00   1.26105797   0.00710053
7044.00   1.25666571   0.00665706
7046.00   1.25467432   0.00639827
7048.00   1.25485420   0.00601756
7050.00   1.25439417   0.00612904
7052.00   1.25593889   0.00677160
7054.00   1.25427186   0.00720465
7056.00   1.24910903   0.00752390
7058.00   1.24136579   0.00766629
7060.00   1.23038256   0.00738399
7062.00   1.21425891   0.00661624
7064.00   1.20868814   0.00625350
7066.00   1.21342432   0.00608018
7068.00   1.21349299   0.00597994
7070.00   1.21035409   0.00602843
7072.00   1.20565391   0.00610209
7074.00   1.19967139   0.00609855
7076.00   1.19222307   0.00606756
7078.00   1.18499184   0.00607572
7080.00   1.17981482   0.00593136
7082.00   1.16880429   0.00618475
7084.00   1.14662945   0.00700528
7086.00   1.13198888   0.00747746
7088.00   1.13528728   0.00726738
7090.00   1.14776444   0.00667741
7092.00   1.15037048   0.00633712
7094.00   1.14808249   0.00594696
7096.00   1.14818275   0.00577707
7098.00   1.14804006   0.00586312
7100.00   1.14894950   0.00593087
7102.00   1.15431213   0.00585167
7104.00   1.15819645   0.00583429
7106.00   1.14869416   0.00625113
7108.00   1.12733936   0.00711244
7110.00   1.11069286   0.00728382
7112.00   1.08751643   0.00701792
7114.00   1.07596791   0.00674071
7116.00   1.08154213   0.00635547
7118.00   1.08918715   0.00597179
7120.00   1.08351767   0.00580246
7122.00   1.06987178   0.00579015
7124.00   1.06527472   0.00574681
7126.00   1.06244576   0.00574581
7128.00   1.06662011   0.00575540
7130.00   1.08157051   0.00577560
7132.00   1.09567201   0.00582035
7134.00   1.10293543   0.00591844
7136.00   1.10655653   0.00604775
7138.00   1.10390818   0.00605786
7140.00   1.09228122   0.00593800
7142.00   1.08378780   0.00590335
7144.00   1.07189047   0.00592005
7146.00   1.06544936   0.00592585
7148.00   1.06795752   0.00586639
7150.00   1.07593322   0.00580994
7152.00   1.08464670   0.00594160
7154.00   1.09990430   0.00631314
7156.00   1.10545707   0.00639068
7158.00   1.10205567   0.00627129
7160.00   1.10181451   0.00616455
7162.00   1.10723233   0.00605686
7164.00   1.11323118   0.00597247
7166.00   1.11443627   0.00600144
7168.00   1.11287761   0.00612983
7170.00   1.10998297   0.00620341
7172.00   1.10040927   0.00628658
7174.00   1.09916270   0.00633402
7176.00   1.10878229   0.00633674
7178.00   1.11915267   0.00633032
7180.00   1.12242866   0.00634480
7182.00   1.12217045   0.00636737
7184.00   1.12309599   0.00636225
7186.00   1.11912668   0.00618803
7188.00   1.12476659   0.00634121
7190.00   1.14453018   0.00693433
7192.00   1.15872014   0.00732700
7194.00   1.15711284   0.00726606
7196.00   1.14689636   0.00695423
7198.00   1.13998055   0.00671128
7200.00   1.12839019   0.00608790
7202.00   1.12465978   0.00619819
7204.00   1.12395585   0.00711694
7206.00   1.12941527   0.00761554
7208.00   1.14244461   0.00748276
7210.00   1.16104257   0.00709240
7212.00   1.18300593   0.00688902
7214.00   1.21561885   0.00662326
7216.00   1.22872388   0.00665723
7218.00   1.22857356   0.00705510
7220.00   1.22437119   0.00727813
7222.00   1.21587718   0.00723321
7224.00   1.20245600   0.00721482
7226.00   1.18242240   0.00757569
7228.00   1.15345132   0.00823119
7230.00   1.14192986   0.00826550
7232.00   1.14396203   0.00777462
7234.00   1.14467692   0.00742268
7236.00   1.14600182   0.00701321
7238.00   1.14923787   0.00676475
7240.00   1.15528464   0.00696622
7242.00   1.16366422   0.00745200
7244.00   1.16983879   0.00750962
7246.00   1.17786419   0.00729808
7248.00   1.17955494   0.00713872
7250.00   1.17220104   0.00691233
7252.00   1.16848147   0.00670937
7254.00   1.17495060   0.00649305
7256.00   1.18524051   0.00633863
7258.00   1.18627417   0.00661018
7260.00   1.18032718   0.00730278
7262.00   1.17740309   0.00775208
7264.00   1.16925097   0.00836473
7266.00   1.17083180   0.00857924
7268.00   1.18889546   0.00821325
7270.00   1.21124411   0.00760843
7272.00   1.21977961   0.00728564
7274.00   1.21847737   0.00696288
7276.00   1.22701430   0.00713117
7278.00   1.24518526   0.00804725
7280.00   1.25467432   0.00835608
7282.00   1.25681007   0.00797004
7284.00   1.25292361   0.00750201
7286.00   1.23984659   0.00753677
7288.00   1.21691096   0.00784479
7290.00   1.21438134   0.00794193
7292.00   1.23548806   0.00798929
7294.00   1.23736393   0.00799977
7296.00   1.22264171   0.00786539
7298.00   1.20662463   0.00785078
7300.00   1.19261086   0.00821696
7302.00   1.17983603   0.00873699
7304.00   1.18871486   0.00863378
7306.00   1.22736454   0.00784156
7308.00   1.24386883   0.00746139
7310.00   1.25177515   0.00721612
7312.00   1.25440788   0.00707306
7314.00   1.24927330   0.00704664
7316.00   1.24080408   0.00711915
7318.00   1.24219072   0.00723108
7320.00   1.25191116   0.00747625
7322.00   1.25427973   0.00752862
7324.00   1.25407660   0.00749069
7326.00   1.25141835   0.00736438
7328.00   1.24470508   0.00707036
7330.00   1.23717821   0.00674757
7332.00   1.23362923   0.00657405
7334.00   1.23303366   0.00641395
7336.00   1.22774124   0.00677475
7338.00   1.21591020   0.00784149
7340.00   1.21096349   0.00829747
7342.00   1.21422076   0.00837139
7344.00   1.21791291   0.00817623
7346.00   1.21784341   0.00759171
7348.00   1.21625376   0.00654701
7350.00   1.20724428   0.00613496
7352.00   1.18306446   0.00619835
7354.00   1.17571199   0.00630985
7356.00   1.18394506   0.00662998
7358.00   1.19111824   0.00697363
7360.00   1.19176233   0.00732553
7362.00   1.18932641   0.00766692
7364.00   1.18252027   0.00777832
7366.00   1.16819835   0.00773811
7368.00   1.15948987   0.00759907
7370.00   1.15216327   0.00725586
7372.00   1.14709783   0.00692742
7374.00   1.14448690   0.00661340
7376.00   1.14404774   0.00634004
7378.00   1.14563489   0.00625314
7380.00   1.14991701   0.00635986
7382.00   1.15373743   0.00637557
7384.00   1.16001928   0.00639819
7386.00   1.16295207   0.00640188
7388.00   1.16299844   0.00637350
7390.00   1.16021693   0.00634624
7392.00   1.15313053   0.00633708
7394.00   1.14138889   0.00632295
7396.00   1.13605952   0.00646960
7398.00   1.13470256   0.00686652
7400.00   1.13342261   0.00702172
7402.00   1.13183653   0.00702140
7404.00   1.13267887   0.00690944
7406.00   1.13914847   0.00663743
7408.00   1.14911759   0.00622170
7410.00   1.15039897   0.00605550
7412.00   1.14402282   0.00610717
7414.00   1.14090359   0.00607206
7416.00   1.13725305   0.00597063
7418.00   1.13533151   0.00597017
7420.00   1.13767159   0.00615950
7422.00   1.14093375   0.00642468
7424.00   1.13629758   0.00656847
7426.00   1.12313259   0.00672084
7428.00   1.11778426   0.00667907
7430.00   1.11626768   0.00637363
7432.00   1.11570883   0.00617006
7434.00   1.11673141   0.00609575
7436.00   1.11818695   0.00611190
7438.00   1.11741793   0.00624332
7440.00   1.11443913   0.00651184
7442.00   1.11638725   0.00665908
7444.00   1.12549078   0.00686432
7446.00   1.12785804   0.00684308
7448.00   1.12239349   0.00648786
7450.00   1.11571908   0.00610194
7452.00   1.11244500   0.00597590
7454.00   1.11038351   0.00599502
7456.00   1.10837424   0.00598336
7458.00   1.10800934   0.00602175
7460.00   1.10540342   0.00604265
7462.00   1.10012698   0.00605769
7464.00   1.09549940   0.00607571
7466.00   1.09304690   0.00609998
7468.00   1.09173381   0.00612817
7470.00   1.09042168   0.00615738
7472.00   1.09044909   0.00619599
7474.00   1.08862197   0.00621853
7476.00   1.08439577   0.00623028
7478.00   1.08191597   0.00623795
7480.00   1.08358145   0.00624907
7482.00   1.08577430   0.00625161
7484.00   1.08163261   0.00621955
7486.00   1.07108343   0.00615050
7488.00   1.06739628   0.00610242
7490.00   1.06888878   0.00605161
7492.00   1.06830752   0.00601532
7494.00   1.06612670   0.00595837
7496.00   1.06230474   0.00595339
7498.00   1.05500185   0.00610219
7500.00   1.04370463   0.00637504
7502.00   1.04018283   0.00655543
7504.00   1.04276872   0.00685683
7506.00   1.04457605   0.00683992
7508.00   1.04646909   0.00632979
7510.00   1.04917121   0.00588604
7512.00   1.05346060   0.00597600
7514.00   1.05890369   0.00636494
7516.00   1.06133592   0.00669663
7518.00   1.06220412   0.00736670
7520.00   1.06152165   0.00743208
7522.00   1.05783415   0.00683094
7524.00   1.05499732   0.00637513
7526.00   1.05414009   0.00643357
7528.00   1.05447519   0.00674307
7530.00   1.05651498   0.00707098
7532.00   1.06635451   0.00771576
7534.00   1.05972469   0.00778872
7536.00   1.03120816   0.00735200
7538.00   1.01727235   0.00702765
7540.00   1.02864456   0.00692988
7542.00   1.04588068   0.00690040
7544.00   1.04409111   0.00682441
7546.00   1.03023219   0.00676700
7548.00   1.02342582   0.00662411
7550.00   1.01864755   0.00636533
7552.00   1.01272392   0.00616557
7554.00   1.00590193   0.00601292
7556.00   0.99840033   0.00590418
7558.00   0.98926520   0.00583375
7560.00   0.97832972   0.00579587
7562.00   0.97472596   0.00595195
7564.00   0.97875339   0.00628468
7566.00   0.97960669   0.00662481
7568.00   0.98037767   0.00718319
7570.00   0.97889566   0.00748788
7572.00   0.97249722   0.00720629
7574.00   0.96326059   0.00656702
7576.00   0.96002573   0.00658346
7578.00   0.96840835   0.00730068
7580.00   0.95878386   0.00735026
7582.00   0.92943066   0.00687556
7584.00   0.90837824   0.00656947
7586.00   0.90829879   0.00662300
7588.00   0.91292077   0.00688140
7590.00   0.89228988   0.00724962
7592.00   0.84318322   0.00748883
7594.00   0.83133185   0.00864696
7596.00   0.82977605   0.00998077
7598.00   0.85828996   0.01190992
7600.00   0.95127815   0.01517044
7602.00   1.03682804   0.01746388
7604.00   1.01381326   0.01678476
7606.00   0.90410537   0.01335990
7608.00   0.87258226   0.01160561
7610.00   0.87899721   0.01044885
7612.00   0.88217181   0.00945068
7614.00   0.89543545   0.00892527
7616.00   0.90195596   0.00859880
7618.00   0.88218755   0.00807724
7620.00   0.84514242   0.00753490
7622.00   0.83929294   0.00803307
7624.00   0.86285466   0.00986264
7626.00   0.86699557   0.01040350
7628.00   0.85668367   0.01023753
7630.00   0.84968609   0.00985480
7632.00   0.85533345   0.00929478
7634.00   0.86537147   0.00854190
7636.00   0.86146706   0.00817676
7638.00   0.84129459   0.00819334
7640.00   0.83812827   0.00798097
7642.00   0.84583062   0.00764936
7644.00   0.85362935   0.00738695
7646.00   0.86141366   0.00725698
7648.00   0.86868644   0.00717948
7650.00   0.87140310   0.00704388
7652.00   0.87086266   0.00686918
7654.00   0.86882865   0.00678383
7656.00   0.86229110   0.00681861
7658.00   0.85864586   0.00676827
7660.00   0.85810483   0.00660756
7662.00   0.85878664   0.00642302
7664.00   0.86088228   0.00629603
7666.00   0.86567813   0.00619847
7668.00   0.85771674   0.00605378
7670.00   0.83247346   0.00581616
7672.00   0.82066268   0.00570385
7674.00   0.82118064   0.00566670
7676.00   0.82236636   0.00574230
7678.00   0.81637669   0.00601314
7680.00   0.80809277   0.00639653
7682.00   0.81309366   0.00649838
7684.00   0.82887715   0.00626344
7686.00   0.84539235   0.00638373
7688.00   0.87589723   0.00689969
7690.00   0.89194471   0.00714688
7692.00   0.87920183   0.00685316
7694.00   0.85423994   0.00633113
7696.00   0.84898806   0.00629932
7698.00   0.85446823   0.00670140
7700.00   0.85734922   0.00668285
7702.00   0.86267197   0.00619567
7704.00   0.86760300   0.00612518
7706.00   0.87195671   0.00677459
7708.00   0.87619412   0.00745395
7710.00   0.88043678   0.00751759
7712.00   0.88454700   0.00718142
7714.00   0.88909394   0.00707315
7716.00   0.89507210   0.00702434
7718.00   0.89885348   0.00693916
7720.00   0.89784634   0.00675644
7722.00   0.89913887   0.00664238
7724.00   0.91045004   0.00679871
7726.00   0.92887717   0.00714146
7728.00   0.93339932   0.00707949
7730.00   0.92366964   0.00663086
7732.00   0.92403293   0.00636320
7734.00   0.93027729   0.00611541
7736.00   0.93912876   0.00599765
7738.00   0.95009625   0.00611522
7740.00   0.96321625   0.00637569
7742.00   0.97547740   0.00651980
7744.00   0.98584282   0.00634261
7746.00   1.00173771   0.00688789
7748.00   1.02857602   0.00821688
7750.00   1.04512084   0.00893283
7752.00   1.04569185   0.00891249
7754.00   1.03780580   0.00851901
7756.00   1.02934241   0.00803360
7758.00   1.01324725   0.00708096
7760.00   1.00848305   0.00665078
7762.00   1.00986278   0.00655129
7764.00   1.01526010   0.00663629
7766.00   1.02740514   0.00709866
7768.00   1.04080749   0.00750647
7770.00   1.04949164   0.00736823
7772.00   1.05670011   0.00679646
7774.00   1.05711925   0.00671101
7776.00   1.04488742   0.00692065
7778.00   1.04396653   0.00711133
7780.00   1.05830836   0.00740602
7782.00   1.06835079   0.00762586
7784.00   1.05919862   0.00764216
7786.00   1.03901637   0.00753169
7788.00   1.03541780   0.00747676
7790.00   1.04501414   0.00743112
7792.00   1.04709244   0.00733608
7794.00   1.04548693   0.00716162
7796.00   1.04423904   0.00702165
7798.00   1.04427397   0.00696956
7800.00   1.04502904   0.00695941
7802.00   1.04748583   0.00691507
7804.00   1.05487978   0.00687576
7806.00   1.05316293   0.00679934
7808.00   1.04481161   0.00664587
7810.00   1.03489923   0.00656233
7812.00   1.02195907   0.00656607
7814.00   1.00884044   0.00663145
7816.00   1.00152624   0.00676010
7818.00   0.99828786   0.00698297
7820.00   0.99472898   0.00708706
7822.00   0.99280608   0.00714686
7824.00   0.99081367   0.00715260
7826.00   0.98789811   0.00706393
7828.00   0.98641253   0.00697333
7830.00   0.98973614   0.00698076
7832.00   0.99716306   0.00704956
7834.00   0.99467808   0.00702071
7836.00   0.97898060   0.00678086
7838.00   0.97584921   0.00686389
7840.00   0.98469973   0.00735720
7842.00   0.99338406   0.00771406
7844.00   0.99649578   0.00769592
7846.00   0.99729478   0.00747714
7848.00   0.99716920   0.00732074
7850.00   0.99620318   0.00690922
7852.00   0.99242818   0.00698510
7854.00   0.98616558   0.00757412
7856.00   0.97809595   0.00796717
7858.00   0.96603775   0.00805971
7860.00   0.95362639   0.00799479
7862.00   0.95030993   0.00780711
7864.00   0.95465279   0.00737414
7866.00   0.95660186   0.00711935
7868.00   0.95962733   0.00689990
7870.00   0.96263653   0.00677686
7872.00   0.96598405   0.00676824
7874.00   0.96904051   0.00684351
7876.00   0.97037661   0.00692359
7878.00   0.96974850   0.00695983
7880.00   0.97383964   0.00755950
7882.00   0.98310214   0.00885113
7884.00   0.98935354   0.00947316
7886.00   0.99544114   0.00970980
7888.00   0.99759752   0.00964998
7890.00   0.99050617   0.00916777
7892.00   0.97660446   0.00824337
7894.00   0.97496378   0.00783334
7896.00   0.98438722   0.00788833
7898.00   0.98721230   0.00765231
7900.00   0.98742306   0.00714903
7902.00   0.98584700   0.00674993
7904.00   0.98034531   0.00662095
7906.00   0.97373527   0.00667872
7908.00   0.97784323   0.00689919
7910.00   0.99428159   0.00743385
7912.00   1.00094223   0.00767736
7914.00   1.00631332   0.00783056
7916.00   1.00510454   0.00788288
7918.00   0.99335337   0.00782712
7920.00   0.97795415   0.00767708
7922.00   0.96991485   0.00743342
7924.00   0.96398318   0.00700079
7926.00   0.96436518   0.00681456
7928.00   0.97335774   0.00671316
7930.00   0.98003733   0.00681402
7932.00   0.98422635   0.00718900
7934.00   0.98850441   0.00761496
7936.00   0.99511760   0.00794677
7938.00   1.00365365   0.00828258
7940.00   1.00684762   0.00833233
7942.00   1.00820601   0.00802953
7944.00   1.00425279   0.00791381
7946.00   0.99232650   0.00792129
7948.00   0.98068619   0.00796420
7950.00   0.97397918   0.00804773
7952.00   0.96951449   0.00815773
7954.00   0.96476388   0.00804287
7956.00   0.96054423   0.00769873
7958.00   0.95712036   0.00740650
7960.00   0.95266795   0.00689395
7962.00   0.95193642   0.00667126
7964.00   0.95960134   0.00705562
7966.00   0.96935511   0.00765003
7968.00   0.96515709   0.00781844
7970.00   0.94407576   0.00784354
7972.00   0.94408667   0.00765988
7974.00   0.95909446   0.00701933
7976.00   0.97308648   0.00662371
7978.00   0.99068868   0.00665190
7980.00   1.00338852   0.00681531
7982.00   0.99383670   0.00682130
7984.00   0.96346664   0.00676115
7986.00   0.95220971   0.00685956
7988.00   0.95206833   0.00716399
7990.00   0.94809186   0.00728735
7992.00   0.94233984   0.00722774
7994.00   0.93471527   0.00712715
7996.00   0.92291218   0.00705039
7998.00   0.90759599   0.00695677
8000.00   0.90124434   0.00707441
8002.00   0.90368050   0.00753072
8004.00   0.90164828   0.00762790
8006.00   0.89486414   0.00744623
8008.00   0.89185387   0.00720900
8010.00   0.89747274   0.00692927
8012.00   0.90782720   0.00662822
8014.00   0.91391754   0.00672801
8016.00   0.92024785   0.00740532
8018.00   0.92254078   0.00745930
8020.00   0.91943699   0.00700378
8022.00   0.91828519   0.00673277
8024.00   0.92216432   0.00685874
8026.00   0.92646867   0.00712402
8028.00   0.92326707   0.00726881
8030.00   0.91148567   0.00742945
8032.00   0.91181654   0.00745504
8034.00   0.92199153   0.00734782
8036.00   0.92953402   0.00724558
8038.00   0.93642002   0.00707792
8040.00   0.94030052   0.00697278
8042.00   0.93702519   0.00711682
8044.00   0.92819721   0.00744717
8046.00   0.91619921   0.00768123
8048.00   0.89326394   0.00818302
8050.00   0.88142836   0.00809898
8052.00   0.88215011   0.00714616
8054.00   0.88250756   0.00620834
8056.00   0.87466347   0.00610741
8058.00   0.86288315   0.00650527
8060.00   0.85313398   0.00697760
8062.00   0.83985007   0.00817900
8064.00   0.83457202   0.00823640
8066.00   0.83775699   0.00717704
8068.00   0.84014356   0.00618063
8070.00   0.83865798   0.00587278
8072.00   0.83589137   0.00590828
8074.00   0.83407182   0.00593273
8076.00   0.83180964   0.00616381
8078.00   0.83126801   0.00626441
8080.00   0.83430672   0.00633326
8082.00   0.83369756   0.00638574
8084.00   0.82692665   0.00637624
8086.00   0.81875545   0.00639312
8088.00   0.81497735   0.00660605
8090.00   0.81246817   0.00701407
8092.00   0.81553465   0.00711398
8094.00   0.82371801   0.00697696
8096.00   0.83423108   0.00690618
8098.00   0.85549998   0.00692947
8100.00   0.86918712   0.00690779
8102.00   0.85497046   0.00670211
8104.00   0.82001579   0.00634191
8106.00   0.80601180   0.00620495
8108.00   0.80542082   0.00628473
8110.00   0.79727846   0.00622636
8112.00   0.78335625   0.00605634
8114.00   0.77042490   0.00588934
8116.00   0.76093578   0.00577040
8118.00   0.75354898   0.00567827
8120.00   0.74988192   0.00565121
8122.00   0.74920976   0.00564530
8124.00   0.75201499   0.00576678
8126.00   0.76517093   0.00598402
8128.00   0.76933771   0.00627246
8130.00   0.75444013   0.00674091
8132.00   0.73437864   0.00717532
8134.00   0.73523962   0.00713242
8136.00   0.75437015   0.00662988
8138.00   0.75760043   0.00638922
8140.00   0.75287259   0.00613447
8142.00   0.74788004   0.00604378
8144.00   0.74226004   0.00621534
8146.00   0.73600042   0.00643520
8148.00   0.72967535   0.00647350
8150.00   0.72226334   0.00641720
8152.00   0.71988082   0.00640540
8154.00   0.72283077   0.00640719
8156.00   0.72394729   0.00637764
8158.00   0.72277457   0.00629850
8160.00   0.72307557   0.00622836
8162.00   0.72716582   0.00618960
8164.00   0.73386478   0.00617016
8166.00   0.74253875   0.00630039
8168.00   0.75844616   0.00666799
8170.00   0.76501715   0.00680608
8172.00   0.76381928   0.00673429
8174.00   0.76144862   0.00672792
8176.00   0.75957793   0.00689601
8178.00   0.75732374   0.00714346
8180.00   0.75673383   0.00736536
8182.00   0.75731266   0.00764573
8184.00   0.75807470   0.00781111
8186.00   0.76407433   0.00789710
8188.00   0.76180309   0.00796804
8190.00   0.74228776   0.00795520
8192.00   0.72127616   0.00798890
8194.00   0.72528458   0.00837466
8196.00   0.75037986   0.00917837
8198.00   0.75941628   0.00917076
8200.00   0.77105200   0.00821299
8202.00   0.76428282   0.00788257
8204.00   0.72787273   0.00857593
8206.00   0.69097954   0.00916329
8208.00   0.68159854   0.00876334
8210.00   0.68822628   0.00762149
8212.00   0.69345164   0.00689780
8214.00   0.70977414   0.00590332
8216.00   0.71581084   0.00567268
8218.00   0.71249890   0.00656010
8220.00   0.70789605   0.00726825
8222.00   0.70398504   0.00729794
8224.00   0.70012414   0.00702100
8226.00   0.70728266   0.00691351
8228.00   0.73257935   0.00670567
8230.00   0.73908085   0.00673565
8232.00   0.73200315   0.00712171
8234.00   0.72502738   0.00727420
8236.00   0.72103029   0.00693605
8238.00   0.71780872   0.00639421
8240.00   0.71645933   0.00630981
8242.00   0.71799290   0.00661101
8244.00   0.71635211   0.00660733
8246.00   0.71570110   0.00645081
8248.00   0.70930088   0.00631223
8250.00   0.69556332   0.00619867
8252.00   0.67799467   0.00609035
8254.00   0.65928560   0.00599334
8256.00   0.63596815   0.00591501
8258.00   0.62402219   0.00579113
8260.00   0.62371570   0.00555442
8262.00   0.61830121   0.00546855
8264.00   0.60682148   0.00555084
8266.00   0.59689194   0.00568762
8268.00   0.59497106   0.00582919
8270.00   0.59832400   0.00600293
8272.00   0.59333664   0.00604433
8274.00   0.58276159   0.00564933
8276.00   0.57277584   0.00599866
8278.00   0.55982625   0.00710029
8280.00   0.54941875   0.00791465
8282.00   0.54580116   0.00827912
8284.00   0.54518276   0.00839209
8286.00   0.53626484   0.00806487
8288.00   0.51586449   0.00677890
8290.00   0.50986552   0.00633493
8292.00   0.51400983   0.00651003
8294.00   0.51867151   0.00669299
8296.00   0.52396977   0.00684422
8298.00   0.52881235   0.00698071
8300.00   0.52762800   0.00695471
8302.00   0.52150387   0.00684309
8304.00   0.51607794   0.00655216
8306.00   0.51210499   0.00570538
8308.00   0.50206673   0.00539662
8310.00   0.48252323   0.00592119
8312.00   0.46203128   0.00656283
8314.00   0.44873619   0.00688418
8316.00   0.43860185   0.00717393
8318.00   0.43530482   0.00685432
8320.00   0.44508809   0.00546395
8322.00   0.44438970   0.00465352
8324.00   0.43224517   0.00456192
8326.00   0.42124006   0.00466794
8328.00   0.41849160   0.00468567
8330.00   0.42011356   0.00476772
8332.00   0.42272651   0.00494595
8334.00   0.42977273   0.00514880
8336.00   0.43375045   0.00553134
8338.00   0.43621069   0.00609682
8340.00   0.43828884   0.00661907
8342.00   0.44094306   0.00714038
8344.00   0.44299650   0.00758717
8346.00   0.44120792   0.00763444
8348.00   0.43446976   0.00732006
8350.00   0.43205434   0.00704474
8352.00   0.43052790   0.00654960
8354.00   0.43168610   0.00617675
8356.00   0.43832681   0.00605430
8358.00   0.44506606   0.00599731
8360.00   0.44336694   0.00574958
8362.00   0.43531173   0.00534514
8364.00   0.42990616   0.00512648
8366.00   0.42231762   0.00503675
8368.00   0.41854763   0.00496583
8370.00   0.41839901   0.00490391
8372.00   0.42070127   0.00490811
8374.00   0.42550921   0.00504182
8376.00   0.43314415   0.00527877
8378.00   0.43743041   0.00539524
8380.00   0.43904856   0.00549704
8382.00   0.44252944   0.00550176
8384.00   0.44648546   0.00530431
8386.00   0.45197132   0.00521431
8388.00   0.45863727   0.00529171
8390.00   0.46707225   0.00553365
8392.00   0.48248971   0.00635389
8394.00   0.51501966   0.00810530
8396.00   0.52396882   0.00845474
8398.00   0.51295978   0.00793121
8400.00   0.50499254   0.00735860
8402.00   0.50573426   0.00686772
8404.00   0.50877625   0.00636879
8406.00   0.50775093   0.00604985
8408.00   0.50054646   0.00575681
8410.00   0.50829929   0.00599488
8412.00   0.53387779   0.00706458
8414.00   0.54948324   0.00743383
8416.00   0.55511355   0.00696125
8418.00   0.55375868   0.00624334
8420.00   0.54299307   0.00596645
8422.00   0.51994228   0.00585464
8424.00   0.51667726   0.00605144
8426.00   0.52987003   0.00676076
8428.00   0.53721249   0.00708966
8430.00   0.54020000   0.00721220
8432.00   0.54379153   0.00715164
8434.00   0.55076379   0.00681598
8436.00   0.55970210   0.00620694
8438.00   0.56768620   0.00584345
8440.00   0.57561618   0.00544617
8442.00   0.58385795   0.00541884
8444.00   0.58778739   0.00555421
8446.00   0.59935760   0.00613576
8448.00   0.63060617   0.00752993
8450.00   0.66812617   0.00892217
8452.00   0.67083979   0.00879184
8454.00   0.63646704   0.00690636
8456.00   0.63100833   0.00626490
8458.00   0.64358389   0.00632118
8460.00   0.64874953   0.00652298
8462.00   0.64025891   0.00696188
8464.00   0.62854123   0.00739863
8466.00   0.62607288   0.00734504
8468.00   0.62988847   0.00691779
8470.00   0.62827194   0.00659128
8472.00   0.62182289   0.00609507
8474.00   0.61992753   0.00575259
8476.00   0.62260848   0.00561034
8478.00   0.62777025   0.00556341
8480.00   0.63429725   0.00552993
8482.00   0.64279002   0.00554962
8484.00   0.65218806   0.00562086
8486.00   0.66837579   0.00579370
8488.00   0.67367285   0.00590031
8490.00   0.66664386   0.00595956
8492.00   0.65961546   0.00601349
8494.00   0.65892130   0.00600602
8496.00   0.66082013   0.00599164
8498.00   0.66214716   0.00642632
8500.00   0.65825319   0.00731835
8502.00   0.66853404   0.00784756
8504.00   0.69666928   0.00841456
8506.00   0.71784067   0.00865377
8508.00   0.72506779   0.00843658
8510.00   0.72523659   0.00792296
8512.00   0.72383970   0.00737041
8514.00   0.71406156   0.00633614
8516.00   0.71600157   0.00607281
8518.00   0.72793120   0.00669128
8520.00   0.73691005   0.00694265
8522.00   0.74281007   0.00671751
8524.00   0.74663907   0.00636728
8526.00   0.74611497   0.00619205
8528.00   0.73887664   0.00600395
8530.00   0.74840689   0.00627496
8532.00   0.77828312   0.00722611
8534.00   0.79394829   0.00753667
8536.00   0.79468614   0.00724976
8538.00   0.79359019   0.00683335
8540.00   0.79872948   0.00659218
8542.00   0.80611795   0.00637837
8544.00   0.81487137   0.00632739
8546.00   0.83069873   0.00636316
8548.00   0.83595926   0.00659787
8550.00   0.82584888   0.00720887
8552.00   0.82350302   0.00759081
8554.00   0.84141570   0.00752157
8556.00   0.86940563   0.00719762
8558.00   0.88621688   0.00691144
8560.00   0.89690489   0.00615772
8562.00   0.91124624   0.00630629
8564.00   0.92932737   0.00740806
8566.00   0.94273305   0.00801484
8568.00   0.94924349   0.00799910
8570.00   0.95205063   0.00770062
8572.00   0.95455581   0.00735078
8574.00   0.95382380   0.00664516
8576.00   0.95777082   0.00649517
8578.00   0.96060145   0.00674306
8580.00   0.97225958   0.00708704
8582.00   0.99735802   0.00768005
8584.00   1.02430975   0.00818134
8586.00   1.04145908   0.00826467
8588.00   1.05362630   0.00808466
8590.00   1.06523883   0.00784350
8592.00   1.07211947   0.00704778
8594.00   1.08286607   0.00698239
8596.00   1.09661901   0.00770732
8598.00   1.11167324   0.00846608
8600.00   1.12578368   0.00904301
8602.00   1.14040172   0.00956819
8604.00   1.16608071   0.00957035
8606.00   1.21065223   0.00891605
8608.00   1.23570979   0.00861765
8610.00   1.24943042   0.00844640
8612.00   1.25725830   0.00833074
8614.00   1.25769889   0.00824026
8616.00   1.25384676   0.00821130
8618.00   1.25846195   0.00831454
8620.00   1.26729286   0.00855048
8622.00   1.27799058   0.00878835
8624.00   1.29468131   0.00916308
8626.00   1.30751276   0.00938418
8628.00   1.31666899   0.00937649
8630.00   1.32189429   0.00931216
8632.00   1.31918979   0.00941921
8634.00   1.30568206   0.00966156
8636.00   1.30965567   0.00965146
8638.00   1.32181156   0.00943852
8640.00   1.34296060   0.00924797
8642.00   1.38209736   0.00896897
8644.00   1.41847265   0.00878880
8646.00   1.43353021   0.00890250
8648.00   1.43550646   0.00921898
8650.00   1.43747401   0.00960724
8652.00   1.42915690   0.01021765
8654.00   1.42948258   0.01064155
8656.00   1.44255733   0.01118434
8658.00   1.44741905   0.01133285
8660.00   1.42785490   0.01063347
8662.00   1.39696622   0.00935111
8664.00   1.39784813   0.00901187
8666.00   1.43498039   0.00961104
8668.00   1.44011736   0.00955353
8670.00   1.42610192   0.00914797
8672.00   1.41314137   0.00882311
8674.00   1.40392840   0.00870176
8676.00   1.39645565   0.00866240
8678.00   1.39469635   0.00859177
8680.00   1.40151429   0.00853035
8682.00   1.39634967   0.00849905
8684.00   1.37862420   0.00847202
8686.00   1.36891007   0.00850789
8688.00   1.37001014   0.00866522
8690.00   1.37368715   0.00881048
8692.00   1.37171459   0.00878547
8694.00   1.36610627   0.00863716
8696.00   1.37029099   0.00855848
8698.00   1.38605332   0.00844362
8700.00   1.39404988   0.00842771
8702.00   1.39793718   0.00858314
8704.00   1.39651465   0.00868266
8706.00   1.38650870   0.00854834
8708.00   1.36959124   0.00826616
8710.00   1.35933971   0.00816204
8712.00   1.35144937   0.00816505
8714.00   1.34457886   0.00815026
8716.00   1.33969939   0.00813321
8718.00   1.33513343   0.00815620
8720.00   1.33075070   0.00822645
8722.00   1.32638013   0.00834070
8724.00   1.31971467   0.00850918
8726.00   1.30536520   0.00850486
8728.00   1.30702591   0.00914796
8730.00   1.32254684   0.01063530
8732.00   1.33773708   0.01137381
8734.00   1.35584700   0.01121815
8736.00   1.37033427   0.01066374
8738.00   1.36454737   0.01020987
8740.00   1.33855295   0.00957686
8742.00   1.33015776   0.00906921
8744.00   1.33165288   0.00839857
8746.00   1.33015120   0.00817391
8748.00   1.33125305   0.00834321
8750.00   1.32542300   0.00893744
8752.00   1.29683530   0.01019877
8754.00   1.24831009   0.01194324
8756.00   1.24105740   0.01214029
8758.00   1.26877749   0.01090149
8760.00   1.28610742   0.01033954
8762.00   1.30521536   0.01020192
8764.00   1.31846213   0.01019932
8766.00   1.31852412   0.01027540
8768.00   1.31045043   0.01044531
8770.00   1.31091106   0.01041816
8772.00   1.31858253   0.01021414
8774.00   1.31791496   0.01011144
8776.00   1.31625938   0.01005705
8778.00   1.30552173   0.00998421
8780.00   1.27541316   0.00987186
8782.00   1.24085259   0.00974103
8784.00   1.23793912   0.00961844
8786.00   1.26238811   0.00950621
8788.00   1.27240086   0.00934976
8790.00   1.28217018   0.00908573
8792.00   1.28769445   0.00894162
8794.00   1.28714991   0.00901752
8796.00   1.28448677   0.00910738
8798.00   1.28481865   0.00891070
8800.00   1.28691220   0.00840510
8802.00   1.28384256   0.00858872
8804.00   1.28034198   0.00963084
8806.00   1.26867104   0.00990359
8808.00   1.24410844   0.00938172
8810.00   1.22035456   0.00875456
8812.00   1.20805442   0.00853125
8814.00   1.20211589   0.00848687
8816.00   1.19350111   0.00861319
8818.00   1.19015932   0.00844468
8820.00   1.17623734   0.00946554
8822.00   1.14689386   0.01188927
8824.00   1.12444973   0.01335957
8826.00   1.11869371   0.01338677
8828.00   1.12230384   0.01265225
8830.00   1.12635410   0.01198997
8832.00   1.14334989   0.01068630
8834.00   1.14011168   0.00995745
8836.00   1.11828387   0.00965737
8838.00   1.10107744   0.00939798
8840.00   1.09165788   0.00900250
8842.00   1.08622110   0.00875265
8844.00   1.08484924   0.00917319
8846.00   1.08980477   0.01033980
8848.00   1.08937061   0.01046798
8850.00   1.08153105   0.00990212
8852.00   1.08334720   0.00937100
8854.00   1.10047591   0.00869444
8856.00   1.11768985   0.00810933
8858.00   1.12031555   0.00808981
8860.00   1.11445129   0.00851853
8862.00   1.10587823   0.00866557
8864.00   1.08711553   0.00875975
8866.00   1.07582390   0.00885135
8868.00   1.06914341   0.00895641
8870.00   1.06612039   0.00901425
8872.00   1.06717587   0.00894983
8874.00   1.07199311   0.00881090
8876.00   1.07729304   0.00889976
8878.00   1.08500111   0.00910345
8880.00   1.09254825   0.00942578
8882.00   1.10540760   0.01005104
8884.00   1.11070013   0.01042856
8886.00   1.10422826   0.01041762
8888.00   1.08980286   0.01017630
8890.00   1.07058251   0.00982663
8892.00   1.03907049   0.00894336
8894.00   1.02080691   0.00896087
8896.00   1.00725162   0.00982338
8898.00   1.00064671   0.01040235
8900.00   1.00326109   0.01079410
8902.00   1.01063383   0.01093919
8904.00   1.01724815   0.01044773
8906.00   1.02735198   0.00912651
8908.00   1.02868581   0.00868642
8910.00   1.02391922   0.00881906
8912.00   1.01690042   0.00903365
8914.00   1.00734305   0.00933597
8916.00   0.99479800   0.00982001
8918.00   0.97795504   0.01063602
8920.00   0.95692265   0.01168792
8922.00   0.94247943   0.01196132
8924.00   0.92826551   0.01191273
8926.00   0.92304802   0.01135074
8928.00   0.93100584   0.00952909
8930.00   0.93651676   0.00797423
8932.00   0.93218613   0.00816525
8934.00   0.92294121   0.00928091
8936.00   0.91395450   0.00983746
8938.00   0.89460814   0.01078238
8940.00   0.89487165   0.01073978
8942.00   0.91399437   0.00953127
8944.00   0.92946911   0.00869443
8946.00   0.93809944   0.00885250
8948.00   0.94263858   0.00939181
8950.00   0.94053531   0.00964410
8952.00   0.93122470   0.00987125
8954.00   0.92209852   0.01009947
8956.00   0.90439570   0.01038894
8958.00   0.89730823   0.01053920
8960.00   0.90687156   0.01057335
8962.00   0.91802651   0.01048091
8964.00   0.91336960   0.01017942
8966.00   0.89734763   0.00962296
8968.00   0.89786583   0.00934428
8970.00   0.90915823   0.00927356
8972.00   0.92066020   0.00913122
8974.00   0.93976426   0.00892821
8976.00   0.95290583   0.00874594
8978.00   0.95076311   0.00860703
8980.00   0.93821555   0.00850269
8982.00   0.91812783   0.00860509
8984.00   0.86938274   0.00894021
8986.00   0.85844618   0.00919990
8988.00   0.88387597   0.00957235
8990.00   0.90481865   0.00976309
8992.00   0.90834522   0.00958170
8994.00   0.90404248   0.00923294
8996.00   0.89466298   0.00927491
8998.00   0.86639363   0.00957935
9000.00   0.86815017   0.00983257
9002.00   0.90134680   0.01026075
9004.00   0.91983974   0.01047207
9006.00   0.91678357   0.01034546
9008.00   0.90370065   0.01011856
9010.00   0.88710678   0.01015956
9012.00   0.85740441   0.01046310
9014.00   0.85398275   0.01019419
9016.00   0.87758583   0.00922307
9018.00   0.88802916   0.00860385
9020.00   0.88811469   0.00844486
9022.00   0.88104063   0.00841556
9024.00   0.86402380   0.00827857
9026.00   0.83647090   0.00814277
9028.00   0.82517385   0.00803399
9030.00   0.82473552   0.00787101
9032.00   0.82367969   0.00789061
9034.00   0.82842684   0.00796496
9036.00   0.82872516   0.00828734
9038.00   0.81469351   0.00913532
9040.00   0.79367095   0.01016176
9042.00   0.79496711   0.01020229
9044.00   0.82629764   0.00921778
9046.00   0.82637554   0.00883566
9048.00   0.80033571   0.00872429
9050.00   0.78186548   0.00860053
9052.00   0.78077859   0.00834953
9054.00   0.78651309   0.00810269
9056.00   0.78767782   0.00809853
9058.00   0.78849441   0.00836913
9060.00   0.78980392   0.00838210
9062.00   0.79107493   0.00820264
9064.00   0.79310834   0.00812072
9066.00   0.79523301   0.00812636
9068.00   0.79875320   0.00822347
9070.00   0.80715740   0.00849796
9072.00   0.82218552   0.00897268
9074.00   0.81992757   0.00908567
9076.00   0.80227798   0.00896807
9078.00   0.78741467   0.00881283
9080.00   0.76764542   0.00849685
9082.00   0.75475675   0.00822613
9084.00   0.76103139   0.00819101
9086.00   0.78083903   0.00830652
9088.00   0.78892386   0.00844446
9090.00   0.80061460   0.00880392
9092.00   0.79413497   0.00886168
9094.00   0.76698625   0.00859529
9096.00   0.73923331   0.00839528
9098.00   0.71372229   0.00843522
9100.00   0.69099408   0.00859116
9102.00   0.69307542   0.00873604
9104.00   0.72512192   0.00898648
9106.00   0.73897344   0.00908006
9108.00   0.75273842   0.00915969
9110.00   0.75590044   0.00905396
9112.00   0.74204385   0.00862143
9114.00   0.72190052   0.00805794
9116.00   0.71290988   0.00776870
9118.00   0.70807135   0.00758784
9120.00   0.70724547   0.00764997
9122.00   0.71356523   0.00802623
9124.00   0.71774352   0.00835257
9126.00   0.71971375   0.00872752
9128.00   0.72132796   0.00900776
9130.00   0.72419292   0.00901289
9132.00   0.72819138   0.00881040
9134.00   0.72665453   0.00863518
9136.00   0.71446961   0.00831183
9138.00   0.71489567   0.00813375
9140.00   0.73216546   0.00805780
9142.00   0.74513847   0.00807512
9144.00   0.74057651   0.00820691
9146.00   0.72622442   0.00843206
9148.00   0.71734744   0.00861337
9150.00   0.70484501   0.00889470
9152.00   0.70111442   0.00895651
9154.00   0.70538336   0.00874802
9156.00   0.71068490   0.00864852
9158.00   0.71358055   0.00884571
9160.00   0.71796483   0.00912589
9162.00   0.73166400   0.00909102
9164.00   0.75549328   0.00853056
9166.00   0.77388638   0.00892315
9168.00   0.79824030   0.01029041
9170.00   0.80925959   0.01099384
9172.00   0.80306375   0.01107235
9174.00   0.78776562   0.01075636
9176.00   0.77009171   0.00995329
9178.00   0.74313265   0.00822455
9180.00   0.73326552   0.00756178
9182.00   0.73758322   0.00776679
9184.00   0.73901874   0.00802786
9186.00   0.73950666   0.00857718
9188.00   0.73964828   0.00906549
9190.00   0.73796785   0.00923512
9192.00   0.73479223   0.00923914
9194.00   0.73882252   0.00901912
9196.00   0.75027376   0.00829631
9198.00   0.75886935   0.00795451
9200.00   0.76774937   0.00777430
9202.00   0.77473330   0.00789732
9204.00   0.77747726   0.00847541
9206.00   0.77805775   0.00928919
9208.00   0.78388125   0.00979838
9210.00   0.79311347   0.01048582
9212.00   0.80279452   0.01045803
9214.00   0.81519705   0.00955464
9216.00   0.82643384   0.00891224
9218.00   0.83535725   0.00894839
9220.00   0.84348917   0.00922760
9222.00   0.85323453   0.00925178
9224.00   0.86647886   0.00920478
9226.00   0.86969793   0.00915570
9228.00   0.86036563   0.00897639
9230.00   0.85848558   0.00898208
9232.00   0.86997873   0.00923470
9234.00   0.87968957   0.00955010
9236.00   0.87097251   0.00980676
9238.00   0.84886080   0.01010734
9240.00   0.83420259   0.01003042
9242.00   0.80833471   0.00945920
9244.00   0.80846655   0.00916637
9246.00   0.84422165   0.00912768
9248.00   0.87715018   0.00913050
9250.00   0.88173836   0.00905892
9252.00   0.87155128   0.00897373
9254.00   0.86858189   0.00894154
9256.00   0.85981715   0.00892060
9258.00   0.86295557   0.00897402
9260.00   0.88004225   0.00916104
9262.00   0.89359611   0.00927612
9264.00   0.89900261   0.00922686
9266.00   0.89920676   0.00910425
9268.00   0.89125669   0.00907488
9270.00   0.86925900   0.00900901
9272.00   0.86025709   0.00916809
9274.00   0.85692722   0.00940657
9276.00   0.85687482   0.00988139
9278.00   0.86061114   0.01071338
9280.00   0.86712384   0.01156855
9282.00   0.87624830   0.01210334
9284.00   0.89472538   0.01262312
9286.00   0.88390899   0.01241355
9288.00   0.84373254   0.01094357
9290.00   0.81173587   0.01036670
9292.00   0.78255558   0.01104087
9294.00   0.75906301   0.01183498
9296.00   0.74478519   0.01193252
9298.00   0.73687333   0.01167209
9300.00   0.75301200   0.01220812
9302.00   0.80219340   0.01306220
9304.00   0.83646327   0.01428584
9306.00   0.88201678   0.01616513
9308.00   0.89781702   0.01762818
9310.00   0.84702492   0.01828265
9312.00   0.75720274   0.01853654
9314.00   0.73008364   0.01895022
9316.00   0.74078184   0.01949195
9318.00   0.75025964   0.01960513
9320.00   0.78671151   0.01940689
9322.00   0.80348223   0.01903133
9324.00   0.78370690   0.01847024
9326.00   0.74767375   0.01772378
9328.00   0.72426367   0.01683697
9330.00   0.69755119   0.01536083
9332.00   0.68835521   0.01503889
9334.00   0.69992387   0.01566652
9336.00   0.70387614   0.01642788
9338.00   0.69039500   0.01771637
9340.00   0.68189692   0.01870778
9342.00   0.70826215   0.01827232
9344.00   0.76636899   0.01655657
9346.00   0.78214014   0.01584092
9348.00   0.78473067   0.01586998
9350.00   0.75817305   0.01531888
9352.00   0.67141861   0.01388451
9354.00   0.60355216   0.01252323
9356.00   0.62345898   0.01222485
9358.00   0.69834560   0.01263409
9360.00   0.71119744   0.01273242
9362.00   0.67190266   0.01179938
9364.00   0.68008626   0.01332178
9366.00   0.72550064   0.01589550
9368.00   0.77213091   0.01932652
9370.00   0.81848943   0.02413855
9372.00   0.85946065   0.02878869
9374.00   0.84103119   0.03019503
9376.00   0.74904400   0.02992845
9378.00   0.70834845   0.02857304
9380.00   0.68224126   0.02455937
9382.00   0.66893828   0.02062999
9384.00   0.66993964   0.01733168
9386.00   0.68242496   0.01443439
9388.00   0.70162135   0.01284523
9390.00   0.73364282   0.01340355
9392.00   0.75648296   0.01305018
9394.00   0.78676391   0.01274950
9396.00   0.79524893   0.01252652
9398.00   0.77363193   0.01240987
9400.00   0.74568403   0.01234494
9402.00   0.73205417   0.01227290
9404.00   0.72281873   0.01221761
9406.00   0.72335452   0.01221906
9408.00   0.73444808   0.01193467
9410.00   0.74791843   0.01241078
9412.00   0.77364272   0.01382057
9414.00   0.79103851   0.01497818
9416.00   0.79050976   0.01538722
9418.00   0.77698714   0.01543954
9420.00   0.73950177   0.01564230
9422.00   0.64266849   0.01584323
9424.00   0.61776406   0.01595720
9426.00   0.65364730   0.01606720
9428.00   0.68352526   0.01601732
9430.00   0.68813360   0.01549943
9432.00   0.68503445   0.01492532
9434.00   0.68786019   0.01553070
9436.00   0.69071555   0.01705608
9438.00   0.69644088   0.01823290
9440.00   0.70329064   0.02026131
9442.00   0.71381861   0.02074078
9444.00   0.73691970   0.01898298
9446.00   0.75495619   0.01629656
9448.00   0.73910505   0.01485633
9450.00   0.69213444   0.01383918
9452.00   0.67627311   0.01396488
9454.00   0.67642659   0.01549413
9456.00   0.67754030   0.01680773
9458.00   0.68306667   0.01862535
9460.00   0.68961942   0.01974694
9462.00   0.69244570   0.01911213
9464.00   0.69340867   0.01708578
9466.00   0.70372248   0.01607285
9468.00   0.73108464   0.01504416
9470.00   0.73810369   0.01490646
9472.00   0.73052365   0.01562524
9474.00   0.71525931   0.01678012
9476.00   0.68913716   0.01863953
9478.00   0.65689451   0.02062013
9480.00   0.64935929   0.02050201
9482.00   0.66826981   0.01833053
9484.00   0.66847110   0.01676697
9486.00   0.66237152   0.01415469
9488.00   0.65269083   0.01257072
9490.00   0.63114053   0.01326045
9492.00   0.61223727   0.01494187
9494.00   0.63066959   0.01613475
9496.00   0.68847108   0.01780365
9498.00   0.70932388   0.01803359
9500.00   0.71119744   0.01704297
9502.00   0.71131635   0.01611269
9504.00   0.70527548   0.01509804
9506.00   0.69998485   0.01410163
9508.00   0.70798838   0.01347421
9510.00   0.72751689   0.01311808
9512.00   0.72362173   0.01300458
9514.00   0.69604295   0.01306832
9516.00   0.68175673   0.01357792
9518.00   0.67380315   0.01479292
9520.00   0.67361230   0.01579238
9522.00   0.68519801   0.01616289
9524.00   0.70628762   0.01619295
9526.00   0.72269464   0.01589123
9528.00   0.73932707   0.01467950
9530.00   0.75633657   0.01435972
9532.00   0.78440708   0.01493634
9534.00   0.79496258   0.01524452
9536.00   0.77188253   0.01482426
9538.00   0.73208416   0.01409877
9540.00   0.71185780   0.01384814
9542.00   0.69517452   0.01384688
9544.00   0.69131768   0.01390178
9546.00   0.71218538   0.01404455
9548.00   0.71559227   0.01434548
9550.00   0.68901658   0.01494865
9552.00   0.65569055   0.01554366
9554.00   0.64490306   0.01562819
9556.00   0.64740443   0.01518029
9558.00   0.64626348   0.01564148
9560.00   0.64544272   0.01680317
9562.00   0.64927024   0.01772748
9564.00   0.66324806   0.01887058
9566.00   0.67388219   0.01949060
9568.00   0.66863143   0.01874004
9570.00   0.65280670   0.01677655
9572.00   0.63628525   0.01572646
9574.00   0.60585326   0.01520720
9576.00   0.59333998   0.01437912
9578.00   0.59744549   0.01307384
9580.00   0.60461181   0.01204594
9582.00   0.61154038   0.01194320
9584.00   0.61922288   0.01241626
9586.00   0.61304277   0.01248501
9588.00   0.58158213   0.01233394
9590.00   0.58115137   0.01253394
9592.00   0.61053610   0.01302974
9594.00   0.62828135   0.01347878
9596.00   0.62036544   0.01389263
9598.00   0.60376215   0.01422164
9600.00   0.60309708   0.01418950
9602.00   0.61749220   0.01369857
9604.00   0.60788035   0.01367536
9606.00   0.56663489   0.01418119
9608.00   0.55168378   0.01419688
9610.00   0.57420713   0.01340255
9612.00   0.60594046   0.01248418
9614.00   0.62010890   0.01239094
9616.00   0.62950701   0.01285232
9618.00   0.62512958   0.01305273
9620.00   0.59274614   0.01338010
9622.00   0.58587450   0.01345012
9624.00   0.60628933   0.01319154
9626.00   0.63021487   0.01291626
9628.00   0.64086509   0.01276585
9630.00   0.64648622   0.01266455
9632.00   0.66927516   0.01314862
9634.00   0.71027839   0.01455697
9636.00   0.74092245   0.01497447
9638.00   0.77675951   0.01458101
9640.00   0.79525530   0.01427797
9642.00   0.78302538   0.01446165
9644.00   0.75237375   0.01481619
9646.00   0.73059201   0.01490144
9648.00   0.69446480   0.01413906
9650.00   0.69237918   0.01526207
9652.00   0.73494929   0.01879416
9654.00   0.75105339   0.02005180
9656.00   0.72008920   0.01808907
9658.00   0.67545664   0.01465036
9660.00   0.66011274   0.01347078
9662.00   0.66099983   0.01382363
9664.00   0.65479904   0.01361260
9666.00   0.64744312   0.01355819
9668.00   0.64317691   0.01350602
9670.00   0.63841438   0.01320304
9672.00   0.64017159   0.01323662
9674.00   0.66074085   0.01441030
9676.00   0.69909674   0.01637835
9678.00   0.70084441   0.01658560
9680.00   0.66612399   0.01526326
9682.00   0.65213645   0.01460701
9684.00   0.65469313   0.01443639
9686.00   0.65684968   0.01426406
9688.00   0.65113556   0.01376659
9690.00   0.64169663   0.01312917
9692.00   0.62791491   0.01310221
9694.00   0.60011601   0.01374059
9696.00   0.59142762   0.01399173
9698.00   0.59152210   0.01410658
9700.00   0.60367358   0.01421108
9702.00   0.63952672   0.01437573
9704.00   0.68194115   0.01451190
9706.00   0.68329775   0.01441704
9708.00   0.64654130   0.01395985
9710.00   0.63575006   0.01400073
9712.00   0.63942075   0.01445746
9714.00   0.63406873   0.01479224
9716.00   0.61394697   0.01499127
9718.00   0.59145862   0.01512440
9720.00   0.57908100   0.01521119
9722.00   0.56925714   0.01527470
9724.00   0.57723987   0.01511357
9726.00   0.60881817   0.01418587
9728.00   0.63097125   0.01433796
9730.00   0.64591146   0.01593706
9732.00   0.65886271   0.01733459
9734.00   0.67352587   0.01764388
9736.00   0.68855524   0.01739558
9738.00   0.69120502   0.01691908
9740.00   0.67979008   0.01559261
9742.00   0.67392462   0.01490919
9744.00   0.67251605   0.01478078
9746.00   0.66683722   0.01470892
9748.00   0.65042597   0.01449297
9750.00   0.62902170   0.01426347
9752.00   0.62058067   0.01409794
9754.00   0.62735057   0.01406842
9756.00   0.61842465   0.01382964
9758.00   0.59404904   0.01326481
9760.00   0.57918549   0.01295825
9762.00   0.58155489   0.01314689
9764.00   0.59022892   0.01350617
9766.00   0.59058863   0.01359422
9768.00   0.58705753   0.01361059
9770.00   0.58646470   0.01345824
9772.00   0.58493620   0.01297773
9774.00   0.58768016   0.01271024
9776.00   0.60158461   0.01268062
9778.00   0.61118007   0.01278243
9780.00   0.59552890   0.01291297
9782.00   0.55827647   0.01306179
9784.00   0.55349296   0.01372134
9786.00   0.57648468   0.01422508
9788.00   0.58593035   0.01593485
9790.00   0.59109312   0.01937968
9792.00   0.58705848   0.02169169
9794.00   0.56180274   0.02170332
9796.00   0.52255034   0.02035792
9798.00   0.52539152   0.01957999
9800.00   0.56314445   0.01853350
9802.00   0.59450829   0.01768614
9804.00   0.64313012   0.01686521
9806.00   0.67463040   0.01625380
9808.00   0.67524135   0.01596985
9810.00   0.65770590   0.01593512
9812.00   0.63898915   0.01598962
9814.00   0.60120255   0.01648288
9816.00   0.58960509   0.01626894
9818.00   0.59900016   0.01531809
9820.00   0.60494447   0.01463048
9822.00   0.60442561   0.01440602
9824.00   0.60308081   0.01436645
9826.00   0.60543352   0.01429430
9828.00   0.61187917   0.01434419
9830.00   0.60876822   0.01413652
9832.00   0.59918600   0.01361681
9834.00   0.58698410   0.01328878
9836.00   0.56613690   0.01305742
9838.00   0.54927468   0.01303573
9840.00   0.54980201   0.01339054
9842.00   0.56264651   0.01404022
9844.00   0.56591976   0.01460460
9846.00   0.56406128   0.01535995
9848.00   0.56653011   0.01580574
9850.00   0.57156545   0.01610020
9852.00   0.57854360   0.01617216
9854.00   0.58931750   0.01582684
9856.00   0.60197580   0.01522517
9858.00   0.60470802   0.01531785
9860.00   0.59664947   0.01576831
9862.00   0.59511185   0.01653180
9864.00   0.59420508   0.01786182
9866.00   0.59625977   0.01890854
9868.00   0.60318702   0.01958398
9870.00   0.61216933   0.02004517
9872.00   0.61778963   0.02031182
9874.00   0.62414783   0.02050166
9876.00   0.62225258   0.02010637
9878.00   0.60701507   0.01883139
9880.00   0.60164201   0.01786663
9882.00   0.60906571   0.01725050
9884.00   0.62091339   0.01690922
9886.00   0.63057303   0.01694463
9888.00   0.64191419   0.01737186
9890.00   0.64710498   0.01775143
9892.00   0.64678603   0.01841103
9894.00   0.64692128   0.01874447
9896.00   0.65085942   0.01892059
9898.00   0.64839375   0.01880173
9900.00   0.62622470   0.01803290
9902.00   0.59065574   0.01670080
9904.00   0.59420556   0.01671199
9906.00   0.64191872   0.01764859
9908.00   0.65751606   0.01873056
9910.00   0.65925145   0.02052122
9912.00   0.64850587   0.02181335
9914.00   0.61730570   0.02230637
9916.00   0.57595295   0.02234377
9918.00   0.56420732   0.02211953
9920.00   0.57401699   0.02142008
9922.00   0.58037424   0.02071585
9924.00   0.59716046   0.01953888
9926.00   0.60626113   0.01873655
9928.00   0.60220402   0.01839482
9930.00   0.59411263   0.01851848
9932.00   0.59379691   0.01936571
9934.00   0.59718895   0.02099246
9936.00   0.60028315   0.02201173
9938.00   0.60669047   0.02250826
9940.00   0.60931230   0.02365367
9942.00   0.61659056   0.02587045
9944.00   0.61140251   0.02770057
9946.00   0.56586725   0.02797253
9948.00   0.48353118   0.02719194
9950.00   0.47897792   0.02717456
9952.00   0.56048256   0.02746178
9954.00   0.57977062   0.02758846
9956.00   0.54347867   0.02778353
9958.00   0.50723535   0.02770686
9960.00   0.49658099   0.02698501
9962.00   0.49707848   0.02583846
9964.00   0.50723451   0.02549775
9966.00   0.54497844   0.02568819
9968.00   0.55196279   0.02595266
9970.00   0.54016834   0.02725301
9972.00   0.52107209   0.02728934
9974.00   0.48775807   0.02469053
9976.00   0.45271751   0.02061021
9978.00   0.45770550   0.01918352
9980.00   0.50448346   0.01999698
9982.00   0.51766831   0.01995013
9984.00   0.51569855   0.02011687
9986.00   0.51205647   0.02014370
9988.00   0.50384563   0.01996346
9990.00   0.49617127   0.01972627
9992.00   0.50069839   0.01957718
9994.00   0.51768547   0.01943379
9996.00   0.51108396   0.01944621
9998.00   0.47458670   0.01923769
10000.00   0.46362269   0.01982225
10002.00   0.47110271   0.02070150
10004.00   0.49566448   0.02250358
10006.00   0.54925096   0.02599138
10008.00   0.62884980   0.03031221
10010.00   0.64757806   0.03197831
10012.00   0.62663364   0.03226192
10014.00   0.59362477   0.03217873
10016.00   0.51995498   0.03125492
10018.00   0.46312180   0.03007904
10020.00   0.45600837   0.02879188
10022.00   0.47216138   0.02732285
10024.00   0.45434490   0.02627858
10026.00   0.39300439   0.02566079
10028.00   0.39610553   0.02482910
10030.00   0.46199688   0.02381690
10032.00   0.50536734   0.02305348
10034.00   0.50543815   0.02256248
10036.00   0.49072009   0.02240698
10038.00   0.49405167   0.02296449
10040.00   0.51437390   0.02466606
10042.00   0.49183950   0.02439705
10044.00   0.42038977   0.02215191
10046.00   0.37401089   0.02064322
10048.00   0.34939119   0.02000972
10050.00   0.34189439   0.01987608
10052.00   0.35957021   0.02016505
10054.00   0.40518060   0.02096968
10056.00   0.41640335   0.02155505
10058.00   0.40733114   0.02224233
10060.00   0.39834097   0.02277284
10062.00   0.37815267   0.02316686
10064.00   0.36542922   0.02351429
10066.00   0.37843582   0.02380648
10068.00   0.40646175   0.02405776
10070.00   0.40148053   0.02462191
10072.00   0.34717685   0.02481071
10074.00   0.35374981   0.02642432
10076.00   0.42491823   0.03006298
10078.00   0.47294950   0.03217093
10080.00   0.46801081   0.03182633
10082.00   0.43654153   0.03022606
10084.00   0.40470585   0.02915071
10086.00   0.34314764   0.02776781
10088.00   0.32929102   0.02661029
10090.00   0.34789774   0.02506697
10092.00   0.37525210   0.02447245
10094.00   0.42896661   0.02544873
10096.00   0.47522783   0.02684617
10098.00   0.44886717   0.02737035
10100.00   0.35506788   0.02765201
10102.00   0.32822302   0.02736816
10104.00   0.34695041   0.02625620
10106.00   0.34550315   0.02535714
10108.00   0.31484157   0.02441496
10110.00   0.29328927   0.02375719
10112.00   0.31695235   0.02363376
10114.00   0.37280852   0.02387679
10116.00   0.38487875   0.02567056
10118.00   0.38134214   0.02862526
10120.00   0.35402942   0.03169749
10122.00   0.28195044   0.03660838
10124.00   0.22294037   0.03915140
10126.00   0.20035231   0.03725386
10128.00   0.20111501   0.03239740
10130.00   0.23735514   0.02998158
10132.00   0.36700556   0.02849611
10134.00   0.37893793   0.02725052
10136.00   0.28051916   0.02656617
10138.00   0.22279868   0.02640554
10140.00   0.24856052   0.02699677
10142.00   0.30638826   0.02793643
10144.00   0.33837086   0.02833524
10146.00   0.37306443   0.02843855
10148.00   0.38359568   0.02878879
10150.00   0.36933628   0.02934768
10152.00   0.35671481   0.02971901
10154.00   0.34159216   0.02977491
10156.00   0.32971421   0.02984086
10158.00   0.33559412   0.03022522
10160.00   0.35956591   0.03073989
10162.00   0.34700122   0.03173310
10164.00   0.29498172   0.03303504
10166.00   0.26839611   0.03466051
10168.00   0.25081781   0.03644379
10170.00   0.25664422   0.03862364
10172.00   0.31069997   0.04208618
10174.00   0.40074813   0.04613788
10176.00   0.42744288   0.04535945
10178.00   0.40972543   0.03819399
10180.00   0.39853221   0.03515586
10182.00   0.38111326   0.03442425
10184.00   0.35768172   0.03537353
10186.00   0.32287619   0.03840828
10188.00   0.28401640   0.04237769
10190.00   0.26915389   0.04424919
10192.00   0.26044869   0.04605018
10194.00   0.28570381   0.04520140
10196.00   0.37933904   0.04026229
10198.00   0.41965926   0.03684372
10200.00   0.36982545   0.03658077
10202.00   0.29267314   0.03776439
10204.00   0.26854435   0.03894084
10206.00   0.26734847   0.04102019
10208.00   0.27411368   0.04188883
10210.00   0.30759874   0.04237722
10212.00   0.32531017   0.04215447
10214.00   0.31921974   0.03990993
10216.00   0.31639758   0.03850994
10218.00   0.34445518   0.04184851
10220.00   0.39503324   0.04817893
10222.00   0.41086626   0.04862036
10224.00   0.40252271   0.04315946
10226.00   0.39732721   0.04190090
10228.00   0.39811909   0.04563486
10230.00   0.38427779   0.04774376
10232.00   0.33222321   0.04463203
10234.00   0.25953850   0.03806454
10236.00   0.25426677   0.03504891
10238.00   0.33558598   0.03447076
10240.00   0.33381227   0.03339030
10242.00   0.26649132   0.03288166
10244.00   0.21531233   0.03243053
10246.00   0.20109251   0.03175392
10248.00   0.20436119   0.03119913
10250.00   0.21446495   0.03149627
10252.00   0.24434288   0.03282995
10254.00   0.25618017   0.03313896
10256.00   0.26862028   0.03260768
10258.00   0.26104295   0.03259175
10260.00   0.22642696   0.03347186
10262.00   0.18009067   0.03437495
10264.00   0.13278499   0.03426634
10266.00   0.06564890   0.03327496
10268.00   0.07923036   0.03365138
10270.00   0.17535116   0.03363279
10272.00   0.24782813   0.03632196
10274.00   0.31758946   0.04164125
10276.00   0.37087956   0.04708324
10278.00   0.39159155   0.05160124
10280.00   0.38756058   0.05589402
10282.00   0.36483252   0.05992838
10284.00   0.31319457   0.06550606
10286.00   0.25922343   0.06704214
10288.00   0.17494051   0.06448091
10290.00   0.11683998   0.06194320
10292.00   0.11272921   0.06138990
10294.00   0.14129971   0.06150002
10296.00   0.16890128   0.06077697
10298.00   0.21246807   0.06048720
10300.00   0.25561780   0.05799458
10302.00   0.33362451   0.05221423
10304.00   0.36111906   0.04731417
10306.00   0.29663962   0.04464951
10308.00   0.20601389   0.04322418
10310.00   0.19548927   0.04212891
10312.00   0.23141918   0.04200241
10314.00   0.26895210   0.04191322
10316.00   0.35541511   0.04218734
10318.00   0.39105424   0.04273165
10320.00   0.36562398   0.04416166
10322.00   0.31787109   0.04511766
10324.00   0.27366224   0.04385934
10326.00   0.21553685   0.04058351
10328.00   0.20199873   0.03998285
10330.00   0.21756007   0.04153437
10332.00   0.25010106   0.04224541
10334.00   0.34414852   0.04249935
10336.00   0.39605415   0.04273510
10338.00   0.32365268   0.04278371
10340.00   0.17503951   0.04279067
10342.00   0.10838699   0.04502197
10344.00   0.08982594   0.05008540
10346.00   0.04706972   0.05236920
10348.00   -0.02372403   0.05411250
10350.00   -0.06061747   0.05395506
10352.00   -0.05981291   0.05010032
10354.00   -0.01546351   0.04425544
10356.00   0.13956456   0.04338568
10358.00   0.51415622   0.04575611
10360.00   0.56851274   0.04892574
10362.00   0.32180342   0.05501273
10364.00   0.19182514   0.05883929
10366.00   0.25667161   0.06042409
10368.00   0.36058602   0.06078890
10370.00   0.33892027   0.06023480
10372.00   0.23383535   0.05821615
10374.00   0.21181418   0.05717774
10376.00   0.27064270   0.05699022
10378.00   0.25402036   0.05570895
10380.00   0.12684160   0.05153895
10382.00   0.01286653   0.04876981
10384.00   0.01293083   0.05292545
10386.00   0.08248971   0.06118283
10388.00   0.14565676   0.06144370
10390.00   0.24498796   0.05463288
10392.00   0.32587948   0.05149445
10394.00   0.42136306   0.05060602
10396.00   0.47750390   0.05050567
10398.00   0.44988635   0.05082515
10400.00   0.37445682   0.05172101
10402.00   0.36919931   0.05243498
10404.00   0.43559897   0.05411448
10406.00   0.42336220   0.05376969
10408.00   0.36252347   0.04994895
10410.00   0.29275322   0.04896779
10412.00   0.21925399   0.05372343
10414.00   0.13819973   0.05968519
10416.00   0.04806176   0.06144727
10418.00   -0.10132034   0.06135030
10420.00   -0.07390014   0.06010291
10422.00   0.18560196   0.05637930
10424.00   0.29685828   0.05297618
10426.00   0.19625877   0.04966989
10428.00   0.06103129   0.04669718
10430.00   0.05823370   0.04496755
10432.00   0.12152372   0.04439314
10434.00   0.19098307   0.04385755
10436.00   0.32443947   0.04361263
10438.00   0.40195200   0.04408896
10440.00   0.45254064   0.04623767
10442.00   0.45360383   0.04749670
10444.00   0.34972113   0.04565836
10446.00   0.16920429   0.04164189
10448.00   0.18910740   0.04144985
10450.00   0.47920054   0.04476650
10452.00   0.49217021   0.04595114
10454.00   0.20995693   0.04597431
10456.00   0.04395842   0.04621884
10458.00   0.19311650   0.04671672
10460.00   0.47233516   0.04766181
10462.00   0.52694213   0.05083728
10464.00   0.44451454   0.05829980
10466.00   0.39503971   0.05834550
10468.00   0.29018798   0.05144243
10470.00   0.23599437   0.04603035
10472.00   0.25032926   0.04387030
10474.00   0.30366674   0.04366812
10476.00   0.38070896   0.04563081
10478.00   0.52168167   0.05097921
10480.00   0.53625065   0.05086232
10482.00   0.43367678   0.04590070
10484.00   0.36852625   0.04254718
10486.00   0.34626806   0.03983108
10488.00   0.31959960   0.03916153
10490.00   0.24343999   0.04328392
10492.00   0.12865499   0.05063058
10494.00   0.11221696   0.05275983
10496.00   0.20364946   0.05300188
10498.00   0.22576112   0.05134977
10500.00   0.17695434   0.04561760
10502.00   0.15051834   0.04009802
10504.00   0.20615996   0.03857771
10506.00   0.30404329   0.03941658
10508.00   0.33509594   0.03929259
10510.00   0.32880813   0.03911705
10512.00   0.31689405   0.03981544
10514.00   0.28231552   0.04144993
10516.00   0.24715678   0.04299200
10518.00   0.20530507   0.04463026
10520.00   0.16986397   0.04594724
10522.00   0.18967000   0.04540624
10524.00   0.27960840   0.04278763
10526.00   0.29352045   0.04141838
10528.00   0.24367458   0.04013144
10530.00   0.22547761   0.03946153
10532.00   0.26261380   0.03979570
10534.00   0.30082586   0.04037666
10536.00   0.27710402   0.03998810
10538.00   0.20709543   0.03849133
10540.00   0.17310005   0.04052103
10542.00   0.13706721   0.04749983
10544.00   0.13452090   0.04911850
10546.00   0.17311721   0.04487884
10548.00   0.22281551   0.03997874
10550.00   0.27219582   0.03934342
10552.00   0.32880339   0.04097826
10554.00   0.32080629   0.04104858
10556.00   0.22589122   0.04061295
10558.00   0.19748925   0.04051686
10560.00   0.22099453   0.04041674
10562.00   0.24016541   0.04069056
10564.00   0.22883630   0.04181403
10566.00   0.20791776   0.04323814
10568.00   0.21461397   0.04322140
10570.00   0.25167656   0.04158607
10572.00   0.25995195   0.04130580
10574.00   0.23568220   0.04166666
10576.00   0.23909147   0.04221912
10578.00   0.30416963   0.04327273
10580.00   0.37521809   0.04421465
10582.00   0.35356441   0.04364326
10584.00   0.24108778   0.04134637
10586.00   0.23078401   0.04110011
10588.00   0.31185192   0.04253966
10590.00   0.33527040   0.04327381
10592.00   0.28774092   0.04301723
10594.00   0.22425088   0.04287273
10596.00   0.18181589   0.04405631
10598.00   0.13764133   0.04626001
10600.00   0.15473816   0.04619668
10602.00   0.26567480   0.04395017
10604.00   0.30105278   0.04268666
10606.00   0.25860775   0.04198614
10608.00   0.22054373   0.04156910
10610.00   0.23522604   0.04120015
10612.00   0.27496767   0.04104550
10614.00   0.29167485   0.04222725
10616.00   0.33403617   0.04503645
10618.00   0.29620484   0.04681773
10620.00   0.13341442   0.04923168
10622.00   0.04266210   0.04985509
10624.00   0.10572102   0.04700756
10626.00   0.23799092   0.04241246
10628.00   0.30372208   0.04153174
10630.00   0.36687773   0.04349874
10632.00   0.37728357   0.04428239
10634.00   0.30876929   0.04576042
10636.00   0.28118348   0.04603596
10638.00   0.32991979   0.04457823
10640.00   0.38373962   0.04239855
10642.00   0.35025418   0.04076380
10644.00   0.24521391   0.03896979
10646.00   0.21501483   0.03818236
10648.00   0.21834713   0.03840411
10650.00   0.23820093   0.03867456
10652.00   0.28927031   0.03928937
10654.00   0.34277466   0.03983362
10656.00   0.37586045   0.03993519
10658.00   0.40026265   0.03978253
10660.00   0.40191245   0.03933752
10662.00   0.37574241   0.03805632
10664.00   0.35360008   0.03769199
10666.00   0.31607631   0.03823572
10668.00   0.29486793   0.03876354
10670.00   0.31809992   0.03894813
10672.00   0.36193457   0.03898431
10674.00   0.34438241   0.03873475
10676.00   0.26607236   0.03770944
10678.00   0.22680309   0.03773650
10680.00   0.18130368   0.03925413
10682.00   0.17339012   0.03953003
10684.00   0.23779954   0.03741834
10686.00   0.32101995   0.03434134
10688.00   0.31410998   0.03317834
10690.00   0.22073467   0.03291024
10692.00   0.22602040   0.03372340
10694.00   0.31156275   0.03668743
10696.00   0.36151701   0.03812860
10698.00   0.36652556   0.03803987
10700.00   0.36072820   0.03723447
10702.00   0.37057841   0.03603365
10704.00   0.38552788   0.03394028
10706.00   0.39575812   0.03338891
10708.00   0.40791550   0.03441906
10710.00   0.41121715   0.03459006
10712.00   0.39417735   0.03407656
10714.00   0.38876456   0.03344482
10716.00   0.42447862   0.03298071
10718.00   0.48571828   0.03253718
10720.00   0.49969405   0.03211122
10722.00   0.47017193   0.03115434
10724.00   0.46834126   0.03148631
10726.00   0.48071194   0.03352103
10728.00   0.49515390   0.03479301
10730.00   0.51743466   0.03436339
10732.00   0.53753930   0.03317023
10734.00   0.51048994   0.03288700
10736.00   0.43021765   0.03265363
10738.00   0.38441733   0.03341657
10740.00   0.33975276   0.03621858
10742.00   0.31597552   0.03704355
10744.00   0.31613973   0.03464617
10746.00   0.33506620   0.03116656
10748.00   0.36929759   0.03038967
10750.00   0.42235529   0.03144723
10752.00   0.48226884   0.03156663
10754.00   0.58329976   0.03209930
10756.00   0.63283497   0.03161195
10758.00   0.60250050   0.02858821
10760.00   0.57756805   0.02642107
10762.00   0.64685374   0.02982894
10764.00   0.78169560   0.03631942
10766.00   0.79813886   0.03709292
10768.00   0.73648018   0.03417995
10770.00   0.66516221   0.03170384
10772.00   0.54205805   0.02776103
10774.00   0.43792176   0.02444393
10776.00   0.38560006   0.02403115
10778.00   0.36702892   0.02549312
10780.00   0.39800343   0.02602699
10782.00   0.53062445   0.02667329
10784.00   0.57035434   0.02727948
10786.00   0.54355115   0.02822062
10788.00   0.52971387   0.02858568
10790.00   0.54987192   0.02798673
10792.00   0.58239764   0.02690499
10794.00   0.61151296   0.02623455
10796.00   0.66515738   0.02546551
10798.00   0.64774501   0.02536013
10800.00   0.56299728   0.02621830
10802.00   0.48618910   0.02649327
10804.00   0.39792439   0.02611435
10806.00   0.33197767   0.02535824
10808.00   0.35244542   0.02421010
10810.00   0.44871375   0.02228604
10812.00   0.49508819   0.02188655
10814.00   0.52891898   0.02208396
10816.00   0.56063437   0.02364441
10818.00   0.59030825   0.02765309
10820.00   0.61413014   0.03038548
10822.00   0.63552469   0.02943773
10824.00   0.65376449   0.02592370
10826.00   0.62253004   0.02602891
10828.00   0.51748180   0.02974486
10830.00   0.47039241   0.03013287
10832.00   0.45699000   0.02786564
10834.00   0.45854226   0.02557550
10836.00   0.47092608   0.02449082
10838.00   0.49601489   0.02393209
10840.00   0.52674270   0.02353426
