# File created by shivutils (I.Shivvers)
# wl(A)   flm    er(optional)
3438.00   3.19170499   0.49005070
3440.00   3.00379395   0.49547073
3442.00   3.53028965   0.49221784
3444.00   3.46205664   0.48495990
3446.00   3.11361194   0.48747930
3448.00   3.19986582   0.50485158
3450.00   3.56805754   0.53090334
3452.00   4.29785299   0.56688243
3454.00   3.78186727   0.54662734
3456.00   3.66687346   0.54614753
3458.00   4.32706547   0.55962169
3460.00   3.24387217   0.53931081
3462.00   2.21083498   0.50378990
3464.00   3.27793169   0.52239043
3466.00   3.07204199   0.51653486
3468.00   4.61567307   0.55486208
3470.00   4.13709021   0.54637718
3472.00   3.34753513   0.52363724
3474.00   4.03313112   0.52206653
3476.00   3.25525737   0.52607882
3478.00   4.40197229   0.57852358
3480.00   3.83640885   0.59323323
3482.00   3.54956937   0.59793532
3484.00   3.63593459   0.57956350
3486.00   2.54856682   0.55388248
3488.00   3.42451739   0.55628455
3490.00   3.07190156   0.54254520
3492.00   3.69282079   0.54311603
3494.00   3.40202856   0.53722167
3496.00   3.36468983   0.53416926
3498.00   3.60835409   0.53488070
3500.00   2.85763502   0.50740892
3502.00   3.08402491   0.51332563
3504.00   3.53361034   0.51866752
3506.00   3.22245240   0.51112133
3508.00   3.93001628   0.52992910
3510.00   3.26167464   0.52031630
3512.00   3.18127370   0.51717085
3514.00   2.87152267   0.48784769
3516.00   3.09108210   0.50404489
3518.00   2.61479497   0.48501825
3520.00   3.33914828   0.48544219
3522.00   2.87585902   0.47992945
3524.00   2.79495096   0.47525427
3526.00   2.38980126   0.45990679
3528.00   3.02217436   0.47695211
3530.00   2.60012388   0.46915829
3532.00   3.14242506   0.46782419
3534.00   2.53279495   0.45732829
3536.00   2.77372217   0.46504402
3538.00   3.37932849   0.48304206
3540.00   2.94600415   0.49543270
3542.00   4.11397505   0.53484529
3544.00   3.01339817   0.53217208
3546.00   3.71527648   0.53435785
3548.00   4.08192778   0.52597451
3550.00   2.75835156   0.48676991
3552.00   3.52834272   0.51125002
3554.00   3.29571676   0.51078719
3556.00   3.20358634   0.50236642
3558.00   2.80450892   0.48634827
3560.00   3.31565452   0.48473728
3562.00   2.86596465   0.46949449
3564.00   3.71570516   0.47214484
3566.00   3.33357978   0.45721054
3568.00   3.01606202   0.44966656
3570.00   2.09125733   0.42230046
3572.00   3.16599345   0.43912131
3574.00   3.51741028   0.44531709
3576.00   4.77780962   0.46772379
3578.00   3.76198649   0.44827172
3580.00   2.80104375   0.41684842
3582.00   3.65226316   0.43193123
3584.00   3.67845631   0.41425890
3586.00   3.31888962   0.40490919
3588.00   3.56020141   0.41730702
3590.00   3.04604220   0.41121897
3592.00   3.48960853   0.41153845
3594.00   3.48132467   0.40720612
3596.00   3.81674504   0.41087854
3598.00   3.98039770   0.40345299
3600.00   3.94317317   0.40616673
3602.00   3.89711761   0.40165377
3604.00   4.19030094   0.40402487
3606.00   3.93630099   0.39279380
3608.00   3.86710525   0.38825661
3610.00   3.40667725   0.38310832
3612.00   2.82138181   0.37975761
3614.00   4.03407955   0.41263306
3616.00   4.31312656   0.41919646
3618.00   3.31534100   0.39978811
3620.00   3.73810291   0.39671171
3622.00   3.02122402   0.37752718
3624.00   3.10870767   0.37533519
3626.00   3.08020782   0.37472555
3628.00   3.64439058   0.39000732
3630.00   3.70468616   0.40017417
3632.00   3.35510111   0.39761579
3634.00   3.19287229   0.38789985
3636.00   3.66625214   0.39492992
3638.00   3.20078444   0.38305387
3640.00   3.72641492   0.38713363
3642.00   3.15238476   0.37800917
3644.00   3.59725523   0.39348352
3646.00   3.43288207   0.39748228
3648.00   3.29557180   0.46104747
3650.00   3.00266957   0.50464040
3652.00   3.60579443   0.47543320
3654.00   3.58912969   0.44429052
3656.00   2.99864602   0.40784061
3658.00   3.15908456   0.36813474
3660.00   3.27660203   0.36781517
3662.00   3.38891411   0.40499473
3664.00   3.67542720   0.39957023
3666.00   2.91035104   0.34171164
3668.00   3.60939193   0.33404127
3670.00   3.62779045   0.33072576
3672.00   3.35205269   0.32136694
3674.00   3.61117983   0.32524866
3676.00   3.45860767   0.31775585
3678.00   3.70373511   0.31789181
3680.00   3.14396834   0.30704498
3682.00   2.89299965   0.29782957
3684.00   3.55543113   0.31377959
3686.00   2.94393039   0.29019889
3688.00   2.87177396   0.29505166
3690.00   3.31747842   0.30137679
3692.00   3.50471711   0.30911416
3694.00   3.39893532   0.30607909
3696.00   3.18562150   0.31093952
3698.00   2.70366120   0.30163988
3700.00   3.26524687   0.31766939
3702.00   3.31827617   0.31735432
3704.00   2.97643518   0.30568507
3706.00   3.23498440   0.30684811
3708.00   2.92205215   0.29838932
3710.00   3.09119034   0.29893291
3712.00   3.17431450   0.30010998
3714.00   3.24143076   0.29774863
3716.00   3.36812186   0.29825705
3718.00   3.71610212   0.30253920
3720.00   2.69357514   0.28023118
3722.00   3.28046489   0.29097435
3724.00   2.60933781   0.27826786
3726.00   2.73176789   0.28051049
3728.00   2.84291387   0.28960866
3730.00   2.93518209   0.28945181
3732.00   2.42402911   0.29335469
3734.00   2.93854022   0.30102232
3736.00   2.66208076   0.29845706
3738.00   3.26601505   0.30888858
3740.00   2.39494491   0.30186602
3742.00   2.65601850   0.29979891
3744.00   2.31158543   0.28791666
3746.00   2.61646795   0.28171730
3748.00   2.93657351   0.28980193
3750.00   2.29645514   0.27267396
3752.00   2.24865031   0.27190417
3754.00   2.55111647   0.27851519
3756.00   2.16859126   0.27124554
3758.00   1.91189468   0.25956854
3760.00   2.71292186   0.26818034
3762.00   2.49164057   0.26141033
3764.00   2.69497895   0.26776752
3766.00   8.52482891   0.35449252
3768.00   19.64752960   0.48401240
3770.00   26.86923599   0.56305438
3772.00   17.43188667   0.46753532
3774.00   6.34051514   0.32757494
3776.00   2.64312363   0.26910153
3778.00   2.18704319   0.25840741
3780.00   1.50092113   0.24475926
3782.00   2.50988269   0.26148865
3784.00   2.37377048   0.25600010
3786.00   2.53058648   0.25182825
3788.00   2.19836640   0.24794552
3790.00   2.56703758   0.26107681
3792.00   2.21186590   0.25762263
3794.00   2.36288023   0.25347164
3796.00   2.27518511   0.24579406
3798.00   1.88289106   0.23661673
3800.00   2.25164914   0.24408785
3802.00   2.31712317   0.25148916
3804.00   2.27701259   0.24566208
3806.00   1.90599477   0.23527171
3808.00   2.15216136   0.23549791
3810.00   2.07835627   0.23244099
3812.00   2.26513720   0.24348903
3814.00   2.53036308   0.25139502
3816.00   2.12642455   0.23585768
3818.00   1.77964759   0.23360258
3820.00   2.44818783   0.24453165
3822.00   1.75006616   0.22850205
3824.00   2.33430767   0.23618437
3826.00   2.34809685   0.23868525
3828.00   2.36831665   0.24871761
3830.00   2.19911885   0.25304180
3832.00   1.96816719   0.24728395
3834.00   1.87478364   0.23461153
3836.00   1.70833194   0.22781628
3838.00   2.28776860   0.23389500
3840.00   2.31826830   0.23407342
3842.00   2.21434426   0.23032647
3844.00   2.42355204   0.23230092
3846.00   2.41951180   0.22748876
3848.00   2.12815666   0.22199190
3850.00   2.70016050   0.22879878
3852.00   1.95688641   0.21104595
3854.00   2.23154950   0.21715949
3856.00   1.87307096   0.20527953
3858.00   1.76057577   0.20034821
3860.00   2.17037606   0.20909423
3862.00   1.91260171   0.20603898
3864.00   2.25211525   0.21025719
3866.00   2.31921840   0.20437129
3868.00   2.07639909   0.20260859
3870.00   2.10316157   0.19829211
3872.00   2.66398573   0.20998016
3874.00   2.01261592   0.20422134
3876.00   2.38688231   0.20814049
3878.00   2.74547005   0.20859827
3880.00   2.71637535   0.20423374
3882.00   2.40702343   0.19774655
3884.00   2.76083779   0.20192465
3886.00   2.59408355   0.20086893
3888.00   2.51869106   0.19758183
3890.00   2.58451128   0.20185816
3892.00   2.98495913   0.20772624
3894.00   2.92334223   0.20940328
3896.00   2.70919037   0.20750843
3898.00   3.17040634   0.21533175
3900.00   3.02451944   0.21102645
3902.00   3.05009007   0.21244529
3904.00   3.01631331   0.22470672
3906.00   3.37886691   0.24226050
3908.00   3.37722063   0.25300771
3910.00   4.00094271   0.26031315
3912.00   5.10616922   0.27523243
3914.00   4.89009762   0.26284790
3916.00   3.75426960   0.23464705
3918.00   3.48474193   0.23169944
3920.00   3.67091703   0.22250853
3922.00   3.63005710   0.21917368
3924.00   3.76710033   0.21697931
3926.00   4.13576794   0.22403675
3928.00   3.56926298   0.21257903
3930.00   4.26291847   0.22414786
3932.00   4.83573627   0.23764722
3934.00   5.01796913   0.24046250
3936.00   3.81082225   0.21748269
3938.00   3.65675592   0.21538888
3940.00   3.90636134   0.22239563
3942.00   3.96765471   0.23024704
3944.00   4.04220486   0.23402889
3946.00   4.04403067   0.22835428
3948.00   4.23378038   0.22849362
3950.00   4.02009487   0.22425500
3952.00   4.37318850   0.22523621
3954.00   3.68481016   0.21542270
3956.00   4.11601543   0.21901086
3958.00   4.28059101   0.22324069
3960.00   4.26338673   0.22794461
3962.00   3.97677898   0.22467461
3964.00   3.88005328   0.21473767
3966.00   4.09593534   0.21226987
3968.00   4.24331808   0.21029702
3970.00   3.99520683   0.20710585
3972.00   4.26687479   0.21236131
3974.00   4.56092072   0.21991758
3976.00   4.60742998   0.22036017
3978.00   4.60929155   0.21857466
3980.00   4.76015997   0.22102453
3982.00   4.13281250   0.21347663
3984.00   4.69446945   0.22067298
3986.00   5.13204908   0.22503509
3988.00   4.90259314   0.22230533
3990.00   4.50922251   0.21591775
3992.00   4.74706221   0.22028728
3994.00   5.19123745   0.22920561
3996.00   4.96824455   0.23053388
3998.00   4.85941505   0.22936800
4000.00   4.87666464   0.22458927
4002.00   5.02178335   0.22279955
4004.00   5.04539156   0.22042455
4006.00   5.44454527   0.22745335
4008.00   4.71844387   0.22183952
4010.00   5.44561768   0.23268093
4012.00   5.69092274   0.23331609
4014.00   6.35178661   0.23812108
4016.00   6.17853737   0.23598531
4018.00   5.30708075   0.23640241
4020.00   5.15578175   0.24436688
4022.00   5.24626684   0.25056860
4024.00   5.15726376   0.24577321
4026.00   5.22206783   0.23808365
4028.00   5.00503922   0.22715904
4030.00   5.64985657   0.23284164
4032.00   5.29442501   0.22659934
4034.00   5.50905895   0.22612527
4036.00   5.50423908   0.22502889
4038.00   5.58769417   0.22472021
4040.00   5.59715319   0.22457729
4042.00   5.31351328   0.22815542
4044.00   5.66228151   0.29963103
4046.00   5.87069988   0.36178961
4048.00   5.55360460   0.33469683
4050.00   5.64726973   0.25801805
4052.00   5.05779600   0.22527120
4054.00   4.96078253   0.22533950
4056.00   5.79990721   0.23080048
4058.00   5.59180355   0.22122748
4060.00   5.20985317   0.21590495
4062.00   5.56743383   0.22042494
4064.00   5.44778299   0.21786034
4066.00   5.24993181   0.21694063
4068.00   5.37508821   0.21795198
4070.00   5.08757734   0.21265949
4072.00   5.38792324   0.21314140
4074.00   5.49050808   0.21868759
4076.00   5.52706909   0.23486578
4078.00   5.46115208   0.23911649
4080.00   5.52557421   0.23198485
4082.00   5.39603901   0.22375444
4084.00   4.97279358   0.21772963
4086.00   5.41084528   0.21943857
4088.00   4.99908400   0.21013206
4090.00   5.53694344   0.20989506
4092.00   5.47602463   0.20670372
4094.00   5.45024395   0.20621641
4096.00   5.57498503   0.20751642
4098.00   5.54269028   0.20624714
4100.00   5.55103159   0.20580302
4102.00   5.54258394   0.20302798
4104.00   5.14754820   0.19807465
4106.00   5.32209587   0.19934240
4108.00   5.11803865   0.19841498
4110.00   5.27944899   0.19942096
4112.00   5.63233137   0.20295018
4114.00   5.19871187   0.19742280
4116.00   5.29195929   0.19863191
4118.00   5.28712034   0.19637959
4120.00   5.03654432   0.19223030
4122.00   5.28765821   0.19573253
4124.00   5.46836805   0.19844849
4126.00   5.22865105   0.19672953
4128.00   5.27354717   0.19587776
4130.00   5.37579679   0.19884455
4132.00   5.43525982   0.20197068
4134.00   5.27260590   0.19937563
4136.00   5.29163885   0.19645102
4138.00   5.30510187   0.19850932
4140.00   5.27214432   0.19798900
4142.00   5.41361618   0.19554527
4144.00   5.04237747   0.18885514
4146.00   6.06747389   0.20257071
4148.00   5.89362478   0.20763668
4150.00   6.07607508   0.20150554
4152.00   5.19720030   0.19583370
4154.00   5.67696285   0.19982716
4156.00   5.11988592   0.19093603
4158.00   5.10067940   0.18907747
4160.00   4.78159666   0.18527721
4162.00   4.90812111   0.19058332
4164.00   5.09198570   0.19837767
4166.00   5.05950069   0.19906791
4168.00   4.96832848   0.19318251
4170.00   5.07027006   0.19085841
4172.00   5.15374565   0.18836370
4174.00   4.90305281   0.18477383
4176.00   4.85263157   0.18377405
4178.00   5.27780581   0.18926345
4180.00   5.22424126   0.18689902
4182.00   5.14487314   0.18466593
4184.00   5.08209038   0.18204400
4186.00   5.31143379   0.18525891
4188.00   4.82821608   0.18037640
4190.00   5.18002224   0.18364340
4192.00   4.95322323   0.18111669
4194.00   5.00127792   0.18121372
4196.00   4.89383125   0.17748304
4198.00   5.02733374   0.17829068
4200.00   5.09448671   0.17949326
4202.00   4.95677137   0.17815872
4204.00   4.90757275   0.17832547
4206.00   4.87663555   0.17857271
4208.00   5.11115885   0.18264152
4210.00   4.99348545   0.18060242
4212.00   4.87570715   0.17879878
4214.00   4.83210945   0.17758673
4216.00   4.89703655   0.17671578
4218.00   4.77631903   0.17528686
4220.00   4.83185148   0.17551745
4222.00   5.03370237   0.17647600
4224.00   4.74222231   0.17184675
4226.00   4.75926256   0.17195851
4228.00   4.66463947   0.17027895
4230.00   4.67808819   0.17132309
4232.00   4.59495687   0.17248899
4234.00   4.70830536   0.17324963
4236.00   4.52484703   0.17272520
4238.00   4.25515842   0.16994151
4240.00   4.45994282   0.16915472
4242.00   4.51958513   0.16769148
4244.00   4.63502550   0.17713304
4246.00   4.18824148   0.18274124
4248.00   4.56213188   0.18425035
4250.00   4.83675528   0.17620032
4252.00   4.88584614   0.17257988
4254.00   4.53494358   0.16781899
4256.00   4.30934954   0.16614802
4258.00   4.39234924   0.16670038
4260.00   4.51150846   0.16646372
4262.00   4.31206131   0.16410947
4264.00   4.32041264   0.16367626
4266.00   4.64848757   0.16704583
4268.00   4.39808893   0.16434142
4270.00   4.55184317   0.16656332
4272.00   4.39013863   0.16363740
4274.00   4.64678574   0.16742943
4276.00   4.50051975   0.16500397
4278.00   4.34905100   0.16421556
4280.00   4.12892342   0.16155632
4282.00   4.40103388   0.16539200
4284.00   4.31334496   0.16341783
4286.00   4.71842146   0.16770118
4288.00   4.68193817   0.16641243
4290.00   4.36388636   0.16075063
4292.00   4.22486973   0.16035168
4294.00   4.38041210   0.16323170
4296.00   4.48859930   0.16386378
4298.00   4.38054323   0.16166034
4300.00   4.46749210   0.16312999
4302.00   4.28164434   0.15951034
4304.00   4.76970530   0.16539314
4306.00   4.57093477   0.16514145
4308.00   4.57240438   0.16526841
4310.00   4.67901087   0.16837826
4312.00   4.31884670   0.17176473
4314.00   4.43077326   0.17750011
4316.00   4.69882345   0.17646423
4318.00   4.03813934   0.16892941
4320.00   4.38969517   0.17424500
4322.00   4.14996910   0.17173915
4324.00   4.58492136   0.17439397
4326.00   4.11578083   0.16828121
4328.00   4.22058201   0.16527614
4330.00   4.55677366   0.16698122
4332.00   4.39614058   0.16590275
4334.00   4.38922596   0.16469710
4336.00   4.18986940   0.16480315
4338.00   4.12312412   0.16499162
4340.00   3.93236375   0.16425389
4342.00   4.22143793   0.16723894
4344.00   4.10892534   0.16851214
4346.00   4.15041780   0.17392853
4348.00   4.06308413   0.17427294
4350.00   3.93532705   0.16916791
4352.00   3.82053041   0.16648318
4354.00   3.92963839   0.18575934
4356.00   4.46481705   0.28856185
4358.00   3.52684212   0.33940181
4360.00   4.30315018   0.30751494
4362.00   3.98780704   0.22643226
4364.00   3.91862321   0.18169269
4366.00   3.53956723   0.16689494
4368.00   3.45678711   0.16380000
4370.00   3.87090158   0.16579048
4372.00   3.75750136   0.16653566
4374.00   3.62655568   0.16865142
4376.00   3.52849030   0.16582990
4378.00   3.58698535   0.16149366
4380.00   3.59623718   0.15843792
4382.00   3.55859160   0.15662007
4384.00   3.50572824   0.15446314
4386.00   4.13779449   0.16156906
4388.00   5.65996790   0.18444502
4390.00   5.82621098   0.18589340
4392.00   5.24992609   0.17294937
4394.00   3.85895801   0.15852830
4396.00   3.28579807   0.15227059
4398.00   3.47303367   0.15660289
4400.00   3.60370302   0.16035795
4402.00   3.72517800   0.16236119
4404.00   3.85702777   0.16109739
4406.00   3.94168496   0.16148828
4408.00   4.08853769   0.16440701
4410.00   4.12859726   0.16460492
4412.00   3.57315755   0.16148613
4414.00   3.93624949   0.16580412
4416.00   4.01077604   0.16581002
4418.00   4.00350142   0.16442849
4420.00   4.18675423   0.16555318
4422.00   4.00496531   0.16340691
4424.00   4.24688673   0.16411017
4426.00   4.33571339   0.16495934
4428.00   3.96125913   0.16030855
4430.00   4.36424351   0.16373806
4432.00   4.08599472   0.16143900
4434.00   4.26295948   0.16234824
4436.00   4.28454685   0.16138431
4438.00   4.15010834   0.16052115
4440.00   4.51206493   0.16381004
4442.00   4.44110012   0.16139616
4444.00   4.55375957   0.16313092
4446.00   4.43484163   0.16162993
4448.00   4.40404654   0.16072123
4450.00   4.36331320   0.15983152
4452.00   4.49378681   0.16027161
4454.00   4.37988186   0.15861666
4456.00   4.29238844   0.15856038
4458.00   4.34487677   0.15893017
4460.00   4.17390203   0.15643801
4462.00   4.25767183   0.15804760
4464.00   4.53803539   0.16044036
4466.00   4.17474222   0.15751348
4468.00   4.12849855   0.16051364
4470.00   4.51597643   0.15967911
4472.00   4.56810904   0.15919726
4474.00   4.42941618   0.15802889
4476.00   4.38342428   0.15742022
4478.00   4.44258785   0.15723623
4480.00   4.52865314   0.15766004
4482.00   4.56669903   0.15846661
4484.00   4.50801849   0.15752356
4486.00   4.36612463   0.15580662
4488.00   4.46091843   0.15698133
4490.00   4.65055990   0.15919288
4492.00   4.16164207   0.15589674
4494.00   4.21752310   0.15569499
4496.00   4.59582520   0.15892409
4498.00   4.70060730   0.16006577
4500.00   4.63481045   0.15937306
4502.00   4.51504278   0.15706669
4504.00   4.67843962   0.15897852
4506.00   4.99346495   0.16059853
4508.00   4.84217691   0.15948351
4510.00   4.76814032   0.15787378
4512.00   4.68802500   0.15752943
4514.00   4.50122547   0.15532048
4516.00   4.85114956   0.15838222
4518.00   4.90484762   0.15908358
4520.00   4.86140728   0.15778840
4522.00   5.12686777   0.16063538
4524.00   5.07318592   0.15978192
4526.00   5.16117525   0.15988813
4528.00   5.11389399   0.15944961
4530.00   5.00822878   0.15920979
4532.00   4.80564260   0.15690766
4534.00   5.18098068   0.15966119
4536.00   5.21442318   0.15988232
4538.00   5.30582714   0.15979984
4540.00   5.26084423   0.16064028
4542.00   5.20728064   0.16052142
4544.00   5.04667330   0.15951805
4546.00   5.20788860   0.16040920
4548.00   5.65821028   0.16205074
4550.00   5.39629030   0.15964898
4552.00   5.50350571   0.15937641
4554.00   5.22835493   0.15710594
4556.00   5.10288620   0.15606634
4558.00   5.08964443   0.15595329
4560.00   5.23872089   0.15624690
4562.00   5.40526772   0.15730178
4564.00   5.11303902   0.15360661
4566.00   5.39765501   0.15572357
4568.00   5.25815678   0.15378949
4570.00   5.48223734   0.15600158
4572.00   5.83835506   0.16049741
4574.00   5.55224991   0.15741925
4576.00   5.70611477   0.15810469
4578.00   5.59154987   0.15685061
4580.00   5.53444815   0.15536062
4582.00   5.52395105   0.15497822
4584.00   5.82930851   0.15689693
4586.00   5.63737011   0.15488063
4588.00   5.67741871   0.15647857
4590.00   5.92238045   0.15839221
4592.00   5.80244732   0.15750903
4594.00   5.72865057   0.15690620
4596.00   6.28379059   0.16157852
4598.00   5.90531921   0.15800586
4600.00   6.13839197   0.15954165
4602.00   5.96469736   0.15731537
4604.00   6.29233932   0.16009803
4606.00   6.13839149   0.15883042
4608.00   6.46388817   0.16234818
4610.00   6.72357416   0.16403309
4612.00   6.72463942   0.16416092
4614.00   6.27821922   0.16016483
4616.00   6.49522734   0.16143009
4618.00   6.68558598   0.16288115
4620.00   6.32075787   0.15956260
4622.00   6.44969130   0.16107920
4624.00   6.64953279   0.16142091
4626.00   6.30200243   0.15901619
4628.00   6.49439716   0.16036928
4630.00   6.57597208   0.15974919
4632.00   6.33054447   0.15846740
4634.00   6.55354261   0.15991390
4636.00   6.58186865   0.15914258
4638.00   6.57901573   0.15868084
4640.00   6.19735289   0.15636495
4642.00   6.53856564   0.15903918
4644.00   6.50432920   0.15758222
4646.00   6.74338627   0.16002969
4648.00   6.77025843   0.16090950
4650.00   6.67082071   0.16003585
4652.00   6.51619625   0.15927699
4654.00   6.16700792   0.15717544
4656.00   6.72749758   0.16206372
4658.00   6.65402555   0.16308632
4660.00   6.62530661   0.16375265
4662.00   6.60982037   0.16504146
4664.00   6.82148075   0.16715486
4666.00   6.84224510   0.16896796
4668.00   6.57375956   0.16821162
4670.00   7.04809189   0.17184839
4672.00   6.93317366   0.17073086
4674.00   6.82323027   0.16890213
4676.00   6.67732239   0.16669028
4678.00   7.20176172   0.16930108
4680.00   6.60097170   0.16316073
4682.00   6.74251318   0.16354614
4684.00   6.92122269   0.16418748
4686.00   6.54395342   0.16066793
4688.00   6.94187117   0.16349795
4690.00   7.22429657   0.16527891
4692.00   6.96951866   0.16258378
4694.00   6.66168022   0.15966620
4696.00   6.95638037   0.16173106
4698.00   6.52219963   0.15753540
4700.00   6.77690172   0.15930909
4702.00   6.63756895   0.15826052
4704.00   6.51632738   0.15789324
4706.00   6.57846785   0.15913291
4708.00   6.76968622   0.16122782
4710.00   6.63322687   0.16080366
4712.00   6.77376747   0.16103050
4714.00   6.72245693   0.16019258
4716.00   6.60662746   0.15830009
4718.00   6.68451786   0.15818344
4720.00   6.59639740   0.15751779
4722.00   6.66554499   0.15862156
4724.00   6.40245819   0.15551537
4726.00   6.13188839   0.15598284
4728.00   6.42609787   0.16127518
4730.00   6.50873327   0.16274922
4732.00   6.11071825   0.15962666
4734.00   6.47235060   0.16276053
4736.00   6.48848677   0.16458125
4738.00   6.34519720   0.16566470
4740.00   6.34387732   0.16681419
4742.00   6.08937836   0.16679601
4744.00   5.96633720   0.16350384
4746.00   6.24093342   0.16027603
4748.00   6.30265141   0.15719596
4750.00   6.04116201   0.15392634
4752.00   6.09535456   0.15552837
4754.00   6.15384245   0.15554971
4756.00   5.73804522   0.15010524
4758.00   5.80297232   0.14813299
4760.00   5.55677748   0.14485608
4762.00   5.77820778   0.14643058
4764.00   5.82635212   0.14639798
4766.00   5.88056231   0.14596272
4768.00   5.79298878   0.14499728
4770.00   5.61997223   0.14316873
4772.00   5.67378283   0.14304449
4774.00   5.41006947   0.14118728
4776.00   5.33835077   0.14155646
4778.00   5.52762842   0.14549106
4780.00   5.55095387   0.14595358
4782.00   5.43294859   0.14314871
4784.00   5.43946648   0.14162348
4786.00   5.18574953   0.13865873
4788.00   5.10140800   0.13863784
4790.00   5.04888248   0.13841899
4792.00   5.03472233   0.13832998
4794.00   4.97404385   0.13707015
4796.00   5.02663279   0.13669086
4798.00   5.14142847   0.13799685
4800.00   4.89724302   0.13537417
4802.00   4.69755363   0.13359798
4804.00   4.72365713   0.13436647
4806.00   4.79481554   0.13505727
4808.00   4.98541307   0.13715024
4810.00   4.63167381   0.13349050
4812.00   4.64180946   0.13369748
4814.00   4.49151468   0.13253127
4816.00   4.38934660   0.13187736
4818.00   4.53391790   0.13361213
4820.00   4.36451578   0.13285725
4822.00   4.34138680   0.13261628
4824.00   4.40368366   0.13396499
4826.00   4.25587988   0.13281029
4828.00   4.40923643   0.13443616
4830.00   4.13072872   0.13190804
4832.00   4.55216026   0.13612357
4834.00   4.21786261   0.13355377
4836.00   4.07861853   0.13213320
4838.00   3.92468977   0.13095975
4840.00   4.21719217   0.13457359
4842.00   3.58070326   0.12723741
4844.00   3.73836708   0.12830301
4846.00   3.72811079   0.12809220
4848.00   3.85537148   0.12872358
4850.00   3.93653989   0.12977651
4852.00   4.01074123   0.13064949
4854.00   3.62554359   0.12536570
4856.00   3.70054674   0.12529011
4858.00   3.91251779   0.12674867
4860.00   3.68883014   0.12496071
4862.00   3.82976151   0.12677507
4864.00   3.75370336   0.12645026
4866.00   3.50019956   0.12415070
4868.00   3.51949048   0.12426994
4870.00   3.63187647   0.12504196
4872.00   3.79759717   0.12625800
4874.00   3.64819908   0.12529385
4876.00   3.52812648   0.12407875
4878.00   3.64398766   0.12635337
4880.00   3.67395139   0.12692118
4882.00   3.62542963   0.12559308
4884.00   3.50522399   0.12415990
4886.00   3.67399025   0.12495965
4888.00   3.38966036   0.12200856
4890.00   3.63521433   0.12380379
4892.00   3.77263808   0.12595819
4894.00   3.55842757   0.12351295
4896.00   3.64724612   0.12410515
4898.00   3.60122347   0.12324854
4900.00   3.64962769   0.12338317
4902.00   3.76075506   0.12380226
4904.00   3.89458370   0.12511414
4906.00   3.67413568   0.12431400
4908.00   3.75405121   0.12481261
4910.00   3.97116351   0.12704295
4912.00   4.07069159   0.12829454
4914.00   6.83045721   0.15943374
4916.00   7.67875147   0.18002221
4918.00   7.00015497   0.17389093
4920.00   6.16996384   0.15402281
4922.00   5.39204264   0.14357989
4924.00   4.57979631   0.13197257
4926.00   4.13803101   0.12654865
4928.00   4.04689693   0.12512352
4930.00   4.01024246   0.12535100
4932.00   4.34915066   0.12897354
4934.00   4.50039816   0.13073283
4936.00   4.41652632   0.12979206
4938.00   4.35258484   0.12931967
4940.00   4.69714975   0.13261241
4942.00   4.91456556   0.13467564
4944.00   4.73327827   0.13229035
4946.00   4.91281319   0.13357271
4948.00   5.16452551   0.13541022
4950.00   5.16912222   0.13572736
4952.00   5.26212406   0.13791659
4954.00   5.23789024   0.13835450
4956.00   5.70723248   0.14110276
4958.00   5.95747709   0.14395556
4960.00   6.05731583   0.14374918
4962.00   5.90264988   0.14325377
4964.00   5.85711241   0.14292058
4966.00   6.20864677   0.14701092
4968.00   6.21145630   0.14752306
4970.00   6.37374067   0.14982940
4972.00   6.53080082   0.15384899
4974.00   6.59875107   0.15649748
4976.00   6.40320969   0.15721120
4978.00   6.57371378   0.16281360
4980.00   6.75032520   0.16750911
4982.00   6.61556721   0.16903964
4984.00   7.04523945   0.17169870
4986.00   7.16803551   0.17049663
4988.00   7.05184889   0.16730924
4990.00   7.44899511   0.16735816
4992.00   7.54763222   0.16569217
4994.00   7.63287973   0.16330977
4996.00   7.53890944   0.15986739
4998.00   7.54577494   0.15869699
5000.00   7.57877684   0.15700942
5002.00   7.37873173   0.15533641
5004.00   7.61554193   0.15582784
5006.00   7.39641142   0.15351973
5008.00   7.49982738   0.15433219
5010.00   7.66102076   0.15514229
5012.00   9.04323101   0.16812289
5014.00   10.62249660   0.18711989
5016.00   10.82310963   0.18952452
5018.00   9.90407467   0.18138082
5020.00   8.30761719   0.17266880
5022.00   8.10087204   0.16089916
5024.00   7.45163631   0.15373059
5026.00   7.16449642   0.15067227
5028.00   7.16045475   0.15127544
5030.00   7.10140085   0.15148833
5032.00   6.76259089   0.14872007
5034.00   7.24124432   0.15207836
5036.00   6.88180256   0.14836966
5038.00   6.71558857   0.14649235
5040.00   7.12261963   0.14949867
5042.00   6.87812042   0.14753483
5044.00   6.91151190   0.14848569
5046.00   6.63308668   0.14645393
5048.00   6.52211523   0.14498103
5050.00   6.53240013   0.14520973
5052.00   6.22247934   0.14302023
5054.00   6.47898960   0.14557049
5056.00   6.00953054   0.14129999
5058.00   6.35023737   0.14447553
5060.00   8.35359859   0.17060220
5062.00   13.31100845   0.23639679
5064.00   13.83522701   0.24592707
5066.00   12.28736877   0.23152901
5068.00   9.49298668   0.21314272
5070.00   7.82046413   0.18785332
5072.00   7.18605137   0.16410625
5074.00   6.33765030   0.14852531
5076.00   5.91339397   0.14404142
5078.00   5.68658352   0.14387076
5080.00   5.58411074   0.14871489
5082.00   5.95853662   0.15891287
5084.00   5.47592735   0.15935113
5086.00   5.90006542   0.16283351
5088.00   5.70414925   0.15724063
5090.00   5.55697918   0.15035224
5092.00   5.35202789   0.14347160
5094.00   5.16064453   0.13988574
5096.00   5.61911154   0.14375007
5098.00   5.29778719   0.14337060
5100.00   5.39290857   0.14478496
5102.00   5.37503910   0.14286242
5104.00   5.38195372   0.14001407
5106.00   5.69263363   0.14135806
5108.00   5.42087221   0.13871083
5110.00   5.45062876   0.13848428
5112.00   5.60750580   0.14056323
5114.00   5.69359875   0.14185624
5116.00   5.31812334   0.13918206
5118.00   5.30019522   0.13788599
5120.00   5.42672873   0.13855374
5122.00   5.45387268   0.13779640
5124.00   5.52417040   0.13845330
5126.00   5.25333929   0.13586366
5128.00   5.59849310   0.13897027
5130.00   5.37043905   0.13763367
5132.00   5.61279726   0.13983741
5134.00   5.58314371   0.13950580
5136.00   5.66080570   0.14010322
5138.00   5.47834396   0.13895136
5140.00   5.59823942   0.14005397
5142.00   5.52914047   0.13958530
5144.00   5.46579361   0.13987452
5146.00   5.68431330   0.14288737
5148.00   5.62767220   0.14335363
5150.00   5.84017420   0.14786012
5152.00   5.58323526   0.14765631
5154.00   5.69119883   0.14942132
5156.00   5.80258322   0.14928348
5158.00   5.77581978   0.14744802
5160.00   5.72926188   0.14522037
5162.00   5.71111250   0.14408244
5164.00   5.71692181   0.14287770
5166.00   5.87164164   0.14335366
5168.00   5.80473709   0.14294128
5170.00   5.80954790   0.14256580
5172.00   5.50650263   0.14028950
5174.00   5.58552790   0.14085926
5176.00   6.12598467   0.14595036
5178.00   5.91669035   0.14472994
5180.00   5.76543951   0.14336178
5182.00   5.82737017   0.14347705
5184.00   5.78908062   0.14327332
5186.00   5.59800720   0.14233771
5188.00   5.95430708   0.14559060
5190.00   6.01605463   0.14662126
5192.00   5.63331223   0.14336978
5194.00   5.79465771   0.14471111
5196.00   5.53108978   0.14347191
5198.00   5.66385412   0.14539592
5200.00   5.62936640   0.14535297
5202.00   5.68082428   0.14579284
5204.00   5.79169750   0.14668065
5206.00   5.69444036   0.14592990
5208.00   5.65551090   0.14628735
5210.00   5.52693796   0.14657727
5212.00   6.03058195   0.15058850
5214.00   6.02069616   0.15030526
5216.00   5.85051584   0.14944476
5218.00   5.68256998   0.14807993
5220.00   5.66370201   0.14891313
5222.00   5.81192589   0.14940667
5224.00   6.01066160   0.15072440
5226.00   6.07819128   0.15069245
5228.00   5.92677259   0.14963295
5230.00   5.73739862   0.14830649
5232.00   5.78557396   0.14923818
5234.00   6.11235428   0.15227960
5236.00   5.91512346   0.15111001
5238.00   5.80834389   0.15088455
5240.00   6.10424042   0.15334567
5242.00   5.97223425   0.15192206
5244.00   5.82568121   0.15003729
5246.00   5.99861908   0.15238729
5248.00   5.94219494   0.15243758
5250.00   5.84118366   0.15085743
5252.00   5.95949459   0.15225554
5254.00   6.10069799   0.15463300
5256.00   6.28660154   0.15773655
5258.00   5.91743803   0.15540403
5260.00   6.27890253   0.15851155
5262.00   6.11565828   0.15609804
5264.00   6.25436115   0.15680677
5266.00   6.11501837   0.15514749
5268.00   6.25009060   0.15689000
5270.00   6.20737267   0.15706937
5272.00   6.29516983   0.15798905
5274.00   6.26480865   0.15848264
5276.00   6.26327658   0.15934259
5278.00   6.40767765   0.16076431
5280.00   6.26542425   0.15906566
5282.00   6.33949471   0.16104011
5284.00   6.32328081   0.16167468
5286.00   6.22955465   0.16192603
5288.00   6.32790518   0.16284658
5290.00   6.52656174   0.16504221
5292.00   6.50672054   0.16414876
5294.00   6.80392599   0.16729859
5296.00   6.51586199   0.16469562
5298.00   6.66198683   0.16700350
5300.00   6.62177277   0.16678816
5302.00   6.60917425   0.16773796
5304.00   6.76028013   0.16913623
5306.00   6.66680336   0.16867806
5308.00   6.82800961   0.17005466
5310.00   6.59889746   0.16905241
5312.00   6.83558273   0.17204304
5314.00   6.75695944   0.17134827
5316.00   7.14183521   0.17505682
5318.00   6.76917124   0.17215388
5320.00   7.01943254   0.17420441
5322.00   6.84898853   0.17344928
5324.00   7.19029045   0.17790973
5326.00   7.19875240   0.17757304
5328.00   7.21406603   0.17822815
5330.00   6.95002317   0.17743489
5332.00   7.00050926   0.17881955
5334.00   7.08075714   0.17910087
5336.00   6.83005571   0.17774267
5338.00   7.08326054   0.18117397
5340.00   6.90908480   0.18107955
5342.00   7.12857342   0.18345433
5344.00   7.39826441   0.18575163
5346.00   7.34306383   0.18659125
5348.00   7.79027081   0.19235189
5350.00   7.29161453   0.18920586
5352.00   7.06185865   0.18737432
5354.00   7.38755226   0.19164677
5356.00   7.01027584   0.19007365
5358.00   7.14579821   0.18991116
5360.00   7.28979969   0.18987404
5362.00   7.53944349   0.19114210
5364.00   7.31892586   0.18902110
5366.00   7.34066868   0.18860380
5368.00   7.65913010   0.19220288
5370.00   7.84102392   0.19476241
5372.00   7.79210329   0.19564317
5374.00   7.97684431   0.19916411
5376.00   8.09647655   0.20132469
5378.00   8.04493904   0.20031218
5380.00   8.09805679   0.20160063
5382.00   7.84348106   0.19910586
5384.00   8.12282467   0.20164646
5386.00   7.58337307   0.19658990
5388.00   8.26585674   0.20494042
5390.00   7.65995741   0.20076673
5392.00   7.76080990   0.20439549
5394.00   7.66972685   0.20308788
5396.00   7.89426136   0.20442633
5398.00   8.35413647   0.20989914
5400.00   8.03850365   0.20619026
5402.00   8.38593769   0.21065876
5404.00   7.64301062   0.20531441
5406.00   7.72077608   0.20732898
5408.00   7.75305128   0.20820290
5410.00   8.20139217   0.21365476
5412.00   7.64005947   0.21061839
5414.00   7.80354452   0.21433690
5416.00   7.60936642   0.21471591
5418.00   8.34262371   0.22302549
5420.00   7.66687059   0.21775112
5422.00   7.82892942   0.21998674
5424.00   7.85528231   0.22077467
5426.00   7.51372910   0.21682279
5428.00   7.98308611   0.22240859
5430.00   7.47552681   0.21878730
5432.00   7.48390627   0.21811789
5434.00   7.29163837   0.21702102
5436.00   7.86840487   0.08096690
5438.00   7.84998798   0.08513379
5440.00   7.78290796   0.09857891
5442.00   7.71864939   0.10010485
5444.00   7.56990194   0.08937582
5446.00   7.53388119   0.08285391
5448.00   7.76058531   0.09023358
5450.00   8.07383347   0.10147857
5452.00   8.02632523   0.10235512
5454.00   7.64416122   0.09388020
5456.00   7.48867321   0.09494764
5458.00   7.38634777   0.10117462
5460.00   7.34739017   0.10808171
5462.00   7.35875082   0.11914072
5464.00   7.44524288   0.12716146
5466.00   7.67563486   0.12026639
5468.00   8.10535812   0.09603357
5470.00   8.24629879   0.08466210
5472.00   8.14204025   0.08015251
5474.00   8.13171577   0.07874550
5476.00   8.22551727   0.08253472
5478.00   8.31834030   0.08800932
5480.00   8.32263374   0.09303312
5482.00   8.26676178   0.09915257
5484.00   8.32849407   0.09743327
5486.00   8.50233650   0.08508176
5488.00   8.61514664   0.07916305
5490.00   8.66654682   0.07852895
5492.00   8.74501610   0.07967105
5494.00   8.90967464   0.08158681
5496.00   9.12098694   0.08460065
5498.00   9.25942230   0.08581156
5500.00   9.36290932   0.08672801
5502.00   9.44712830   0.08594778
5504.00   9.52600384   0.08065850
5506.00   9.54975605   0.07935679
5508.00   9.47969437   0.08686390
5510.00   9.36717701   0.09631424
5512.00   9.32631111   0.09757754
5514.00   9.30101109   0.09339894
5516.00   9.34262943   0.09053860
5518.00   9.48089600   0.08498298
5520.00   9.58374214   0.08200634
5522.00   9.64077854   0.08363813
5524.00   9.67791557   0.08616227
5526.00   9.70442772   0.08518647
5528.00   9.70503807   0.08187993
5530.00   9.75416088   0.08049747
5532.00   9.88326836   0.07960514
5534.00   9.92203808   0.07955547
5536.00   9.87062836   0.08112372
5538.00   9.77939796   0.08240232
5540.00   9.66984749   0.08164077
5542.00   9.52757263   0.07953013
5544.00   9.43459225   0.07898309
5546.00   9.39107895   0.07986780
5548.00   9.30649948   0.07948121
5550.00   9.16620731   0.07753287
5552.00   9.05822849   0.07621700
5554.00   9.03294277   0.07695097
5556.00   9.05385685   0.07868558
5558.00   9.04073143   0.07890467
5560.00   9.04508591   0.07818209
5562.00   8.99068928   0.07769249
5564.00   8.88653183   0.07455428
5566.00   8.76969242   0.07575987
5568.00   8.61158085   0.08258057
5570.00   8.46388340   0.09242118
5572.00   8.47131920   0.10423449
5574.00   8.62689018   0.12130852
5576.00   8.70682907   0.12644321
5578.00   8.86779213   0.12511455
5580.00   8.85201263   0.12076085
5582.00   8.54403114   0.11095495
5584.00   8.20434856   0.09854171
5586.00   8.15743160   0.08948400
5588.00   8.31958675   0.08163409
5590.00   8.25913811   0.07565147
5592.00   8.01129341   0.07288554
5594.00   7.90234470   0.07064756
5596.00   7.93295002   0.06989980
5598.00   7.98637581   0.06967572
5600.00   8.00212383   0.06871203
5602.00   8.01218605   0.06755481
5604.00   7.95368528   0.06954906
5606.00   7.79687738   0.07544071
5608.00   7.70946169   0.07827134
5610.00   7.67735243   0.08084957
5612.00   7.63422346   0.08069569
5614.00   7.55020237   0.07503045
5616.00   7.44830275   0.06560885
5618.00   7.36464262   0.06273922
5620.00   7.26300955   0.06619736
5622.00   7.22494364   0.06575481
5624.00   7.28478813   0.06225930
5626.00   7.27838469   0.06177551
5628.00   7.14102030   0.06722999
5630.00   6.97044706   0.07350502
5632.00   6.91894436   0.07412078
5634.00   6.95136881   0.07109634
5636.00   6.94255209   0.06854811
5638.00   6.93610954   0.06342833
5640.00   6.91840792   0.06048892
5642.00   6.89224195   0.06085132
5644.00   6.85367632   0.06211146
5646.00   6.79278278   0.06208372
5648.00   6.70849085   0.06167038
5650.00   6.65016174   0.06155020
5652.00   6.62525892   0.06162706
5654.00   6.55938768   0.06150483
5656.00   6.43822765   0.06104556
5658.00   6.32664299   0.06073904
5660.00   6.28086901   0.06083811
5662.00   6.27120209   0.06121098
5664.00   6.16110563   0.06218787
5666.00   5.94143200   0.06451052
5668.00   5.79904175   0.06524075
5670.00   5.69130850   0.06453965
5672.00   5.60623550   0.06404004
5674.00   5.56055689   0.06417803
5676.00   5.53040838   0.06470086
5678.00   5.41892004   0.06597744
5680.00   5.22832298   0.06807235
5682.00   5.08577108   0.07003154
5684.00   4.93666077   0.07282927
5686.00   4.82753992   0.07445252
5688.00   4.77711678   0.07475529
5690.00   4.75331020   0.07407612
5692.00   4.71492481   0.07236130
5694.00   4.69583178   0.06915282
5696.00   4.60427761   0.06646175
5698.00   4.39360714   0.06318317
5700.00   4.29165888   0.06065766
5702.00   4.33654022   0.05911815
5704.00   4.39933777   0.05804552
5706.00   4.36620045   0.05702069
5708.00   4.28344631   0.05627999
5710.00   4.21697187   0.05554643
5712.00   4.11474514   0.05492410
5714.00   4.07254696   0.05439549
5716.00   4.10481644   0.05405047
5718.00   4.13165903   0.05368722
5720.00   4.10274792   0.05316293
5722.00   4.04739332   0.05255738
5724.00   4.02625561   0.05206284
5726.00   4.03216982   0.05151195
5728.00   4.01776552   0.05124363
5730.00   3.99010611   0.05115644
5732.00   3.96431065   0.05129104
5734.00   3.93107533   0.05183394
5736.00   3.90651584   0.05251254
5738.00   3.95341420   0.05253146
5740.00   4.09293985   0.05204122
5742.00   4.14589643   0.05165348
5744.00   4.14307928   0.05096615
5746.00   4.15234470   0.05059281
5748.00   4.17745590   0.05065453
5750.00   4.21108341   0.05093218
5752.00   4.25822258   0.05122984
5754.00   4.32402420   0.05169062
5756.00   4.36536551   0.05193288
5758.00   4.36357212   0.04937014
5760.00   4.41747236   0.05226395
5762.00   4.54012394   0.06225408
5764.00   4.67695713   0.07063604
5766.00   4.79058456   0.07302398
5768.00   4.90117788   0.07238381
5770.00   4.97150040   0.07032989
5772.00   4.99982786   0.06344908
5774.00   5.03184271   0.05995646
5776.00   5.02407265   0.05839802
5778.00   5.06207180   0.05919918
5780.00   5.21440125   0.06381883
5782.00   5.43242550   0.07034534
5784.00   5.54995155   0.07167698
5786.00   5.58926964   0.06890097
5788.00   5.67522335   0.06791350
5790.00   5.78772974   0.06721206
5792.00   5.88523006   0.06637054
5794.00   5.94068575   0.06522823
5796.00   5.98991108   0.06395151
5798.00   6.11265802   0.06276835
5800.00   6.32094097   0.06115775
5802.00   6.43255949   0.06097372
5804.00   6.46966743   0.06254583
5806.00   6.53043270   0.06328483
5808.00   6.62260199   0.06265631
5810.00   6.72562504   0.06190626
5812.00   6.82889271   0.06252049
5814.00   6.94062328   0.06416021
5816.00   7.03582668   0.06470421
5818.00   7.09030199   0.06265267
5820.00   7.20348597   0.06478542
5822.00   7.41690493   0.07330991
5824.00   7.60382366   0.07955515
5826.00   7.64390612   0.07789526
5828.00   7.58576393   0.07081759
5830.00   7.66911411   0.06785222
5832.00   7.90844059   0.06566162
5834.00   7.99252272   0.06521140
5836.00   7.96471262   0.06575097
5838.00   7.89197159   0.06873120
5840.00   7.74711609   0.07670417
5842.00   7.57046223   0.08590637
5844.00   7.65411901   0.08512972
5846.00   8.03396702   0.07200745
5848.00   8.22558498   0.06821974
5850.00   8.38411331   0.07035743
5852.00   8.47633648   0.07204485
5854.00   8.45096111   0.07216053
5856.00   8.38927364   0.07191937
5858.00   8.47635269   0.07163961
5860.00   8.71537876   0.07101722
5862.00   8.75817871   0.07086134
5864.00   8.63107777   0.07097191
5866.00   8.57441711   0.07120675
5868.00   8.62222767   0.07171424
5870.00   8.67914295   0.07219714
5872.00   8.65215683   0.07225019
5874.00   8.56860828   0.07200308
5876.00   8.53225994   0.07184274
5878.00   8.53196621   0.06935276
5880.00   8.49721146   0.07166877
5882.00   8.40181065   0.07739599
5884.00   8.33348465   0.08579501
5886.00   8.35805511   0.09746715
5888.00   8.44329262   0.11095726
5890.00   8.52222347   0.11854361
5892.00   8.62638092   0.12566379
5894.00   8.72804642   0.12647477
5896.00   8.86566448   0.12066165
5898.00   8.95635033   0.11277481
5900.00   8.95864201   0.10355336
5902.00   8.90623760   0.09225942
5904.00   8.85822392   0.08381250
5906.00   8.74506378   0.07702586
5908.00   8.73846340   0.07191929
5910.00   8.84438992   0.06977693
5912.00   8.90218067   0.06871939
5914.00   8.88504028   0.06903251
5916.00   8.82719421   0.07012121
5918.00   8.73818588   0.07013357
5920.00   8.57128143   0.06971611
5922.00   8.54049873   0.06935724
5924.00   8.61347198   0.06861971
5926.00   8.68701839   0.06834634
5928.00   8.80004597   0.06864292
5930.00   8.88576603   0.06915817
5932.00   8.84699249   0.06964395
5934.00   8.71029758   0.07026203
5936.00   8.63528919   0.07051841
5938.00   8.55241776   0.07089863
5940.00   8.51533985   0.07039611
5942.00   8.55388737   0.06855541
5944.00   8.57328415   0.06681634
5946.00   8.49787998   0.06624459
5948.00   8.36879635   0.06630960
5950.00   8.33109188   0.06596656
5952.00   8.36874485   0.06536424
5954.00   8.36740780   0.06521211
5956.00   8.35362339   0.06571731
5958.00   8.33460712   0.06585465
5960.00   8.31022739   0.06519640
5962.00   8.28169823   0.06411006
5964.00   8.25979996   0.06305952
5966.00   8.28625679   0.05945044
5968.00   8.18715763   0.06241477
5970.00   7.91368437   0.07356044
5972.00   7.75406456   0.07827951
5974.00   7.77588749   0.07439396
5976.00   7.86446905   0.06712749
5978.00   7.89065218   0.06395423
5980.00   7.90553713   0.06227081
5982.00   7.91854572   0.06133474
5984.00   7.92397547   0.06251923
5986.00   7.93006849   0.06260170
5988.00   7.93867922   0.06134885
5990.00   7.94397593   0.05993105
5992.00   7.93926287   0.05930659
5994.00   7.92604065   0.05908433
5996.00   7.92313147   0.05893288
5998.00   7.94274473   0.05897518
6000.00   7.92605782   0.05917844
6002.00   7.85978985   0.05988915
6004.00   7.80473614   0.06025728
6006.00   7.79772854   0.05953802
6008.00   7.81702042   0.05819127
6010.00   7.82377052   0.05827820
6012.00   7.83770609   0.06019399
6014.00   7.83883333   0.06018158
6016.00   7.82736588   0.05832980
6018.00   7.81734848   0.05711631
6020.00   7.82437325   0.05652914
6022.00   7.82792282   0.05712090
6024.00   7.77206564   0.06215144
6026.00   7.64727306   0.07313798
6028.00   7.57807922   0.07536158
6030.00   7.52862597   0.07231309
6032.00   7.49311209   0.06860522
6034.00   7.47174072   0.06342282
6036.00   7.46419573   0.05779256
6038.00   7.47365761   0.05542013
6040.00   7.51250648   0.05569136
6042.00   7.49682856   0.05550394
6044.00   7.41151953   0.05622146
6046.00   7.38464737   0.05673278
6048.00   7.44014740   0.05656747
6050.00   7.48963881   0.05709658
6052.00   7.45325422   0.06022636
6054.00   7.36159277   0.06522248
6056.00   7.33606815   0.06437358
6058.00   7.35729599   0.05649416
6060.00   7.35607195   0.05306595
6062.00   7.34375381   0.05342733
6064.00   7.32834387   0.05445914
6066.00   7.31019640   0.05508789
6068.00   7.28990555   0.05587076
6070.00   7.28082132   0.05575802
6072.00   7.28668261   0.05439703
6074.00   7.27875710   0.05423423
6076.00   7.24207115   0.05520996
6078.00   7.24012136   0.05558328
6080.00   7.31243229   0.05458550
6082.00   7.40582514   0.05316294
6084.00   7.41118526   0.05312172
6086.00   7.35302877   0.05403430
6088.00   7.30811691   0.05476943
6090.00   7.23694372   0.05611798
6092.00   7.18609190   0.05675067
6094.00   7.15092039   0.05644082
6096.00   7.13778543   0.05577053
6098.00   7.16806126   0.05526234
6100.00   7.24417639   0.05454108
6102.00   7.28554678   0.05464842
6104.00   7.33180380   0.05550969
6106.00   7.34080124   0.05630242
6108.00   7.30457973   0.05728841
6110.00   7.25520754   0.05811531
6112.00   7.21529770   0.05852064
6114.00   7.17383528   0.05865568
6116.00   7.12695789   0.05826881
6118.00   7.07373667   0.05717222
6120.00   7.02146769   0.05620902
6122.00   6.95292711   0.05491790
6124.00   6.90813684   0.05397573
6126.00   6.91673708   0.05386391
6128.00   6.95375681   0.05422235
6130.00   6.94390392   0.05410963
6132.00   6.89470863   0.05388242
6134.00   6.87478876   0.05348787
6136.00   6.86226463   0.05268577
6138.00   6.86147213   0.05217031
6140.00   6.88300562   0.05217759
6142.00   6.90950394   0.05240650
6144.00   6.90440226   0.05245421
6146.00   6.88459158   0.05252210
6148.00   6.83856344   0.05241252
6150.00   6.74496841   0.05076537
6152.00   6.67756271   0.05178448
6154.00   6.63103819   0.05699588
6156.00   6.60787916   0.06193894
6158.00   6.62779140   0.06290983
6160.00   6.69410133   0.06168356
6162.00   6.70953274   0.05959916
6164.00   6.70128059   0.05422721
6166.00   6.68352079   0.05100381
6168.00   6.64461517   0.05011957
6170.00   6.60689831   0.04987637
6172.00   6.58343458   0.04929052
6174.00   6.56727171   0.04887101
6176.00   6.57807875   0.04863406
6178.00   6.61668348   0.04852917
6180.00   6.65808296   0.04871785
6182.00   6.72006416   0.04920946
6184.00   6.77201080   0.04986250
6186.00   6.80354357   0.05089593
6188.00   6.82133961   0.05198766
6190.00   6.82205629   0.05173674
6192.00   6.76796770   0.04875173
6194.00   6.80079031   0.04992992
6196.00   6.92221498   0.05564667
6198.00   7.00809145   0.05835865
6200.00   7.02776194   0.05668896
6202.00   7.02699327   0.05322692
6204.00   7.06089306   0.05132443
6206.00   7.12203741   0.04947268
6208.00   7.13537073   0.04875720
6210.00   7.08307981   0.04938199
6212.00   7.08896542   0.04988150
6214.00   7.18895483   0.05054615
6216.00   7.28477907   0.05100041
6218.00   7.27044535   0.05059427
6220.00   7.17696285   0.04946550
6222.00   7.16963673   0.04903024
6224.00   7.20703602   0.04884550
6226.00   7.24777651   0.04886628
6228.00   7.32420874   0.04915997
6230.00   7.37553406   0.04957927
6232.00   7.36182261   0.04969074
6234.00   7.30470276   0.04976007
6236.00   7.22403097   0.05221547
6238.00   7.05130482   0.05872926
6240.00   6.99044180   0.05999194
6242.00   7.02540922   0.05704236
6244.00   7.05810642   0.05411362
6246.00   7.05560160   0.05259967
6248.00   7.04505062   0.05163368
6250.00   7.05144501   0.05137766
6252.00   7.08215141   0.05250821
6254.00   7.07265472   0.05226162
6256.00   7.03313828   0.05092163
6258.00   6.99013615   0.05001709
6260.00   6.95394564   0.04937858
6262.00   6.90600824   0.04941947
6264.00   6.81037951   0.05159210
6266.00   6.64426804   0.05644546
6268.00   6.61847448   0.05632169
6270.00   6.74118185   0.05135008
6272.00   6.78535700   0.04834998
6274.00   6.75344896   0.04766812
6276.00   6.69097090   0.04770860
6278.00   6.61294556   0.04751641
6280.00   6.50433969   0.04756041
6282.00   6.46648073   0.04756044
6284.00   6.49916744   0.04770168
6286.00   6.49512577   0.04769165
6288.00   6.46096516   0.04742577
6290.00   6.43254423   0.04730547
6292.00   6.43521643   0.04747305
6294.00   6.45238733   0.04786256
6296.00   6.42391443   0.04885900
6298.00   6.32777405   0.04986359
6300.00   6.30898762   0.05226912
6302.00   6.37577486   0.05792392
6304.00   6.39817667   0.06020269
6306.00   6.32127523   0.05642381
6308.00   6.20530748   0.04940929
6310.00   6.15315914   0.04660779
6312.00   6.13622952   0.04610641
6314.00   6.11064482   0.04600633
6316.00   6.10546494   0.04734468
6318.00   6.07527542   0.04882165
6320.00   5.98421240   0.05099314
6322.00   5.90323544   0.05274768
6324.00   5.94316769   0.05212649
6326.00   6.09337378   0.04921804
6328.00   6.12798357   0.04846464
6330.00   6.10070276   0.04955938
6332.00   6.06840754   0.04925162
6334.00   6.00073719   0.04704300
6336.00   5.95092058   0.04481653
6338.00   5.98841810   0.04442025
6340.00   6.09125185   0.04518142
6342.00   6.05726910   0.04477634
6344.00   5.87990904   0.04286852
6346.00   5.80043411   0.04301932
6348.00   5.77386808   0.04426798
6350.00   5.78346777   0.04700410
6352.00   5.85680580   0.05263981
6354.00   5.96513891   0.05903454
6356.00   5.92079306   0.05895929
6358.00   5.68251896   0.05217239
6360.00   5.61759710   0.04859594
6362.00   5.64832830   0.04507837
6364.00   5.69623995   0.04272016
6366.00   5.75799942   0.04248144
6368.00   5.82804203   0.04337188
6370.00   5.85798407   0.04321900
6372.00   5.86610365   0.04242548
6374.00   5.85475302   0.04292248
6376.00   5.80757427   0.04406259
6378.00   5.77040148   0.04588775
6380.00   5.74230623   0.04902856
6382.00   5.72172689   0.05191959
6384.00   5.71575785   0.05287003
6386.00   5.72584724   0.05270853
6388.00   5.71965551   0.05173387
6390.00   5.71866941   0.04861759
6392.00   5.68871450   0.04689432
6394.00   5.58725214   0.04613677
6396.00   5.52504683   0.04645700
6398.00   5.60514832   0.04891305
6400.00   5.78255272   0.05293331
6402.00   5.86230373   0.05180517
6404.00   5.89751530   0.04382459
6406.00   5.93232250   0.04095384
6408.00   5.95101118   0.04279401
6410.00   5.96785355   0.04477482
6412.00   5.99293661   0.04557663
6414.00   6.01783133   0.04601243
6416.00   6.02036095   0.04519461
6418.00   6.01014709   0.04159216
6420.00   5.98187351   0.04141372
6422.00   5.91526794   0.04389851
6424.00   5.87122965   0.04605037
6426.00   5.84824848   0.04800675
6428.00   5.85519886   0.04938223
6430.00   5.94448566   0.04817471
6432.00   6.16285133   0.04325908
6434.00   6.18930721   0.04301334
6436.00   6.05089760   0.04614976
6438.00   5.96348095   0.04886076
6440.00   5.93089294   0.05202497
6442.00   5.91747379   0.05434352
6444.00   5.91015100   0.05389513
6446.00   5.91842794   0.05117244
6448.00   5.91081524   0.04937892
6450.00   5.88944244   0.04706664
6452.00   5.87989473   0.04541826
6454.00   5.89093733   0.04435309
6456.00   5.89164352   0.04378471
6458.00   5.86161757   0.04397246
6460.00   5.81135035   0.04480040
6462.00   5.74996185   0.04416602
6464.00   5.65593767   0.04180369
6466.00   5.58963156   0.04081274
6468.00   5.53835917   0.04089487
6470.00   5.49626732   0.04098227
6472.00   5.45870876   0.04068797
6474.00   5.43070984   0.04030107
6476.00   5.42872286   0.04007638
6478.00   5.46703529   0.03996417
6480.00   5.47057390   0.03980684
6482.00   5.46070147   0.03958793
6484.00   5.44060135   0.03948760
6486.00   5.40083981   0.03940202
6488.00   5.35858059   0.03953086
6490.00   5.34921122   0.04035028
6492.00   5.36806870   0.04188007
6494.00   5.36507607   0.04281680
6496.00   5.37419701   0.04341894
6498.00   5.34065676   0.04419548
6500.00   5.24380589   0.04523429
6502.00   5.13830709   0.04622809
6504.00   5.07585192   0.04703579
6506.00   5.03338718   0.04784833
6508.00   5.00657654   0.04746529
6510.00   5.01065159   0.04568611
6512.00   5.00193405   0.04430012
6514.00   4.98435926   0.04281389
6516.00   4.96773100   0.04165283
6518.00   4.95692730   0.04131373
6520.00   4.94924641   0.04154621
6522.00   4.94127846   0.04124783
6524.00   4.92297602   0.04074252
6526.00   4.93166876   0.04022215
6528.00   4.98709154   0.03897121
6530.00   5.01031733   0.03875208
6532.00   4.95947504   0.04048128
6534.00   4.87868214   0.04306669
6536.00   4.85964394   0.04475795
6538.00   4.87028980   0.04711490
6540.00   4.90086555   0.04680916
6542.00   4.96210241   0.04317100
6544.00   5.03170586   0.04076979
6546.00   5.12723160   0.04073412
6548.00   5.21526718   0.04151820
6550.00   5.22948408   0.04169709
6552.00   5.17679453   0.04201333
6554.00   5.17486095   0.04158296
6556.00   5.17879009   0.03975344
6558.00   5.21154594   0.03928280
6560.00   5.28888941   0.04055675
6562.00   5.37026024   0.04208959
6564.00   5.41854858   0.04292474
6566.00   5.44987679   0.04359817
6568.00   5.48101902   0.04331813
6570.00   5.49235964   0.04164873
6572.00   5.52868080   0.04076348
6574.00   5.58973169   0.03977639
6576.00   5.65377378   0.03989058
6578.00   5.71714687   0.04224660
6580.00   5.78009272   0.04577643
6582.00   5.80186844   0.04732444
6584.00   5.75688982   0.04782375
6586.00   5.77950430   0.04839351
6588.00   5.83206415   0.04886370
6590.00   5.91540146   0.04889198
6592.00   6.05478907   0.04817418
6594.00   6.21204090   0.04709626
6596.00   6.28099298   0.04656677
6598.00   6.29965401   0.04553434
6600.00   6.27926254   0.04696510
6602.00   6.15955925   0.05209616
6604.00   6.10550976   0.05408475
6606.00   6.13519001   0.05187920
6608.00   6.20727396   0.04823794
6610.00   6.29807329   0.04661035
6612.00   6.43432474   0.04582118
6614.00   6.50790167   0.04482488
6616.00   6.54128981   0.04395999
6618.00   6.57194328   0.04326261
6620.00   6.58150148   0.04228830
6622.00   6.60108471   0.04206946
6624.00   6.56812811   0.04345666
6626.00   6.47050285   0.04593207
6628.00   7.13963890   0.04923931
6630.00   8.41715431   0.05350357
6632.00   9.90496922   0.05777176
6634.00   12.35264587   0.06360692
6636.00   14.07344437   0.06734520
6638.00   14.20163822   0.06706291
6640.00   13.30902195   0.06452902
6642.00   12.11466122   0.06465974
6644.00   9.62493324   0.06862478
6646.00   8.32346249   0.06644561
6648.00   7.53794146   0.05712038
6650.00   7.11891079   0.04924469
6652.00   7.16837883   0.04697008
6654.00   7.50063562   0.04760502
6656.00   7.61108065   0.04790911
6658.00   7.72782087   0.05015581
6660.00   7.71181726   0.04974298
6662.00   7.56560707   0.04697455
6664.00   7.40779686   0.04494319
6666.00   7.21560621   0.04340705
6668.00   7.02524805   0.04282633
6670.00   6.89762163   0.04459422
6672.00   6.80113745   0.04851901
6674.00   6.77465916   0.05001472
6676.00   6.83235407   0.05066797
6678.00   6.89107370   0.05059149
6680.00   6.97183609   0.04919456
6682.00   7.05413246   0.04777800
6684.00   7.12532806   0.04751470
6686.00   7.19309139   0.04788086
6688.00   7.20767975   0.04767410
6690.00   7.17535591   0.04744940
6692.00   7.13134623   0.04672944
6694.00   7.05277681   0.04454763
6696.00   6.97752333   0.04360371
6698.00   6.90895319   0.04586020
6700.00   6.85093021   0.04940733
6702.00   6.86518574   0.05002850
6704.00   6.98082256   0.04882955
6706.00   7.01518869   0.04775309
6708.00   7.01614809   0.04555561
6710.00   7.00173187   0.04393759
6712.00   6.96068144   0.04315694
6714.00   6.91414690   0.04310386
6716.00   6.92027044   0.04418897
6718.00   6.99841022   0.04674237
6720.00   6.94269800   0.04796283
6722.00   6.72261047   0.04900085
6724.00   6.61983013   0.04919148
6726.00   6.67526960   0.04834545
6728.00   6.76313019   0.04694328
6730.00   6.76796579   0.04526417
6732.00   6.73416853   0.04279883
6734.00   6.72238779   0.04238718
6736.00   6.73613453   0.04454395
6738.00   6.70196104   0.04489451
6740.00   6.59474754   0.04346002
6742.00   6.50437737   0.04196256
6744.00   6.49546385   0.04153275
6746.00   6.53437185   0.04162339
6748.00   6.54394865   0.04159620
6750.00   6.55630541   0.04186009
6752.00   6.55394411   0.04179931
6754.00   6.54670620   0.04142403
6756.00   6.52020454   0.04110966
6758.00   6.45475483   0.04081092
6760.00   6.37320375   0.04066461
6762.00   6.35060120   0.04154528
6764.00   6.38421106   0.04423181
6766.00   6.38009644   0.04439045
6768.00   6.36248255   0.04236517
6770.00   6.34263897   0.04089699
6772.00   6.30104208   0.04024617
6774.00   6.27376890   0.04024536
6776.00   6.34047508   0.04153918
6778.00   6.51271582   0.04461769
6780.00   6.55757284   0.04490940
6782.00   6.46493912   0.04200426
6784.00   6.48599052   0.04159175
6786.00   6.64290905   0.04343823
6788.00   6.83863926   0.04687058
6790.00   7.00505638   0.05227558
6792.00   7.18020582   0.05940848
6794.00   7.28897142   0.06201100
6796.00   7.39282274   0.06298592
6798.00   7.37575626   0.06136721
6800.00   7.17545414   0.05476700
6802.00   6.99795485   0.04817786
6804.00   6.98624992   0.04635791
6806.00   7.05695152   0.04738356
6808.00   6.99498129   0.04706655
6810.00   6.85319185   0.04764434
6812.00   6.70765305   0.04658331
6814.00   6.49292755   0.04331654
6816.00   6.33016014   0.04079630
6818.00   6.27038527   0.04022212
6820.00   6.26295090   0.04082782
6822.00   6.22707748   0.04209894
6824.00   6.20414400   0.04503629
6826.00   6.15135717   0.04605188
6828.00   6.05319452   0.04621193
6830.00   5.99153662   0.04582329
6832.00   5.99458504   0.04402089
6834.00   6.00895214   0.04235319
6836.00   5.96026182   0.04384947
6838.00   5.85966015   0.04770828
6840.00   5.82324743   0.05017084
6842.00   5.86385393   0.05453759
6844.00   5.82993174   0.05452860
6846.00   5.69852638   0.04807748
6848.00   5.55881023   0.04013695
6850.00   5.48170090   0.03738388
6852.00   5.43528843   0.03789512
6854.00   5.39762926   0.03929647
6856.00   5.40305996   0.04456834
6858.00   5.36511564   0.04594871
6860.00   5.29127026   0.04373041
6862.00   5.20701885   0.04170603
6864.00   5.10785198   0.04220024
6866.00   5.00127602   0.04380258
6868.00   4.98355675   0.04428672
6870.00   5.08775425   0.04477153
6872.00   5.08740950   0.04423127
6874.00   5.03140068   0.04236129
6876.00   4.96005630   0.04062653
6878.00   4.87373209   0.03933237
6880.00   4.77806282   0.03834087
6882.00   4.70707989   0.03804468
6884.00   4.63853788   0.03822910
6886.00   4.61108351   0.03926305
6888.00   4.62130260   0.04162816
6890.00   4.64470005   0.04333415
6892.00   4.70226955   0.04481589
6894.00   4.75352192   0.04548112
6896.00   4.73023129   0.04386405
6898.00   4.64522409   0.03957971
6900.00   4.60585213   0.03782629
6902.00   4.58920813   0.03774871
6904.00   4.55955648   0.03743748
6906.00   4.50433588   0.03704462
6908.00   4.46333265   0.03681134
6910.00   4.47143793   0.03685918
6912.00   4.51387453   0.03714588
6914.00   4.54169893   0.03731808
6916.00   4.57533884   0.03750104
6918.00   4.60247040   0.03767740
6920.00   4.61862612   0.03786673
6922.00   4.64219284   0.03802897
6924.00   4.68662882   0.03817475
6926.00   4.74111319   0.03828574
6928.00   4.77196646   0.03820483
6930.00   4.78282309   0.03776665
6932.00   4.80276585   0.03772207
6934.00   4.80699110   0.03778726
6936.00   4.84034061   0.03813617
6938.00   4.91165161   0.03852018
6940.00   5.01192904   0.03935229
6942.00   5.14283657   0.04182831
6944.00   5.33511114   0.04671273
6946.00   5.44601059   0.04725504
6948.00   5.49196625   0.04411351
6950.00   5.55460739   0.04184772
6952.00   5.64898157   0.04043155
6954.00   5.73610210   0.03978624
6956.00   5.77760315   0.04002387
6958.00   5.78866386   0.04029542
6960.00   5.78095388   0.04637048
6962.00   5.67710304   0.06073749
6964.00   5.70621729   0.06443345
6966.00   5.89682198   0.05845006
6968.00   6.09933424   0.05020284
6970.00   6.20841408   0.04583399
6972.00   6.27552223   0.04284470
6974.00   6.38797235   0.04123812
6976.00   6.56228971   0.04245036
6978.00   6.64624166   0.04265172
6980.00   6.62490320   0.04264848
6982.00   6.63140774   0.04273049
6984.00   6.72643471   0.04284614
6986.00   6.86303091   0.04309602
6988.00   6.97053003   0.04408849
6990.00   7.10438347   0.04456671
6992.00   7.15930939   0.04800295
6994.00   7.11711693   0.05641162
6996.00   7.11682653   0.05962947
6998.00   7.20126295   0.05489017
7000.00   7.30738735   0.04672226
7002.00   7.35472298   0.04478456
7004.00   7.39004755   0.04616801
7006.00   7.34120083   0.04930889
7008.00   7.14128780   0.05836422
7010.00   7.05712652   0.06067745
7012.00   7.12718916   0.05448904
7014.00   7.22913837   0.04572208
7016.00   7.25274038   0.04291331
7018.00   7.24192619   0.04375131
7020.00   7.24571753   0.04326817
7022.00   7.22995377   0.04288710
7024.00   7.25144196   0.04332466
7026.00   7.34921551   0.04388931
7028.00   7.40548658   0.04587142
7030.00   7.31797695   0.05122391
7032.00   7.14160204   0.05804043
7034.00   7.11015892   0.05752236
7036.00   7.18421745   0.04769248
7038.00   7.22501373   0.04484456
7040.00   7.28331757   0.04839919
7042.00   7.31808710   0.05059803
7044.00   7.31316853   0.04875283
7046.00   7.28159475   0.04520099
7048.00   7.23430729   0.04397758
7050.00   7.12833023   0.04419810
7052.00   7.11049986   0.04399189
7054.00   7.18570995   0.04380396
7056.00   7.21441507   0.04398104
7058.00   7.16994524   0.04388852
7060.00   7.09564924   0.04469937
7062.00   7.03070021   0.04903840
7064.00   6.95104504   0.05732040
7066.00   6.90045452   0.05763288
7068.00   6.89948797   0.04888453
7070.00   6.84439421   0.04601197
7072.00   6.69846869   0.05184592
7074.00   6.56360531   0.05799124
7076.00   6.53296661   0.05973262
7078.00   6.56575346   0.05980653
7080.00   6.63823080   0.05725525
7082.00   6.83706713   0.04879582
7084.00   6.91174173   0.04391441
7086.00   6.88314104   0.04259701
7088.00   6.81723785   0.04256049
7090.00   6.73526859   0.04225456
7092.00   6.62720490   0.04263692
7094.00   6.54915476   0.04640276
7096.00   6.44383621   0.05596617
7098.00   6.43617582   0.05771274
7100.00   6.57219028   0.05387888
7102.00   6.63745403   0.04967064
7104.00   6.53799152   0.04553842
7106.00   6.37273741   0.04192264
7108.00   6.31610203   0.04498245
7110.00   6.33253336   0.05514073
7112.00   6.29889727   0.05797429
7114.00   6.23038864   0.05854302
7116.00   6.19101095   0.05684981
7118.00   6.19041634   0.05087668
7120.00   6.20958996   0.04307166
7122.00   6.23771620   0.04010972
7124.00   6.29620218   0.04082784
7126.00   6.28298092   0.04097182
7128.00   6.22777987   0.04114923
7130.00   6.13918066   0.04361311
7132.00   5.95151615   0.05040299
7134.00   5.81071424   0.05502364
7136.00   5.87389851   0.05254942
7138.00   6.08502340   0.04425902
7140.00   6.15462208   0.04118242
7142.00   6.16035700   0.04074752
7144.00   6.16557598   0.04114338
7146.00   6.12065744   0.04274280
7148.00   6.11734819   0.04540231
7150.00   6.23547506   0.05015906
7152.00   6.41616011   0.05547430
7154.00   6.44127941   0.05461787
7156.00   6.35268021   0.04596200
7158.00   6.27241087   0.04231532
7160.00   6.12317181   0.04120884
7162.00   6.02132320   0.04095646
7164.00   6.00491333   0.04128178
7166.00   6.03191376   0.04234847
7168.00   6.04824638   0.04356903
7170.00   6.07083607   0.04387713
7172.00   6.11674547   0.04851326
7174.00   6.17564678   0.05911722
7176.00   6.26241159   0.06332698
7178.00   6.41642094   0.06017132
7180.00   6.55806303   0.05442109
7182.00   6.57213831   0.05157086
7184.00   6.48959637   0.04878682
7186.00   6.43532324   0.05081213
7188.00   6.29624081   0.06040388
7190.00   6.29723930   0.06276107
7192.00   6.49125767   0.05773614
7194.00   6.68461609   0.05125861
7196.00   6.72611713   0.04862412
7198.00   6.68507433   0.04778688
7200.00   6.68542147   0.04712850
7202.00   6.68916893   0.04565244
7204.00   6.68263435   0.04852805
7206.00   6.66498470   0.05591448
7208.00   6.64626217   0.06230342
7210.00   6.60992670   0.06754171
7212.00   6.57593155   0.07164778
7214.00   6.66080332   0.06899765
7216.00   6.92758322   0.05546653
7218.00   7.01445103   0.04882696
7220.00   7.02832174   0.04596816
7222.00   6.96950769   0.04422107
7224.00   6.78323364   0.04327511
7226.00   6.56121397   0.04351463
7228.00   6.51231527   0.04430298
7230.00   6.56488180   0.04566117
7232.00   6.66999388   0.04836943
7234.00   6.96429205   0.05327022
7236.00   7.08869267   0.05637762
7238.00   6.99153328   0.05636042
7240.00   6.81946468   0.05709757
7242.00   6.69509649   0.06383835
7244.00   6.54971695   0.07509235
7246.00   6.50319767   0.07459065
7248.00   6.56828356   0.06031664
7250.00   6.58330107   0.05431936
7252.00   6.52848673   0.05844250
7254.00   6.51075554   0.06394943
7256.00   6.61202240   0.06761613
7258.00   6.79244184   0.07128523
7260.00   6.92567396   0.06860056
7262.00   7.08083057   0.05571257
7264.00   7.17421103   0.04924722
7266.00   7.20825815   0.04765043
7268.00   7.22943068   0.04823081
7270.00   7.24196148   0.05015776
7272.00   7.24964285   0.05366877
7274.00   7.31327438   0.05783785
7276.00   7.45670891   0.06578031
7278.00   7.51262140   0.06647736
7280.00   7.54376745   0.06089183
7282.00   7.51415730   0.05596892
7284.00   7.37378883   0.05313019
7286.00   7.20837975   0.05119319
7288.00   7.18117952   0.05008294
7290.00   7.25347090   0.05027994
7292.00   7.29016876   0.05001988
7294.00   7.33645535   0.04975007
7296.00   7.38363314   0.04979300
7298.00   7.43853474   0.05031049
7300.00   7.48794556   0.05089432
7302.00   7.52070522   0.05107329
7304.00   7.54678679   0.05096582
7306.00   7.51865244   0.05151242
7308.00   7.41016483   0.05289089
7310.00   7.35318232   0.05350970
7312.00   7.31342125   0.05322759
7314.00   7.31786060   0.05311551
7316.00   7.41683960   0.05379166
7318.00   7.58138704   0.05490608
7320.00   7.59312057   0.05625467
7322.00   7.44140148   0.05951473
7324.00   7.41395044   0.05926631
7326.00   7.48639774   0.05527508
7328.00   7.52656794   0.05157326
7330.00   7.47617197   0.04971353
7332.00   7.39005566   0.04883168
7334.00   7.36586857   0.04891508
7336.00   7.39486551   0.05078896
7338.00   7.37046909   0.05132585
7340.00   7.31109762   0.05155256
7342.00   7.25586414   0.05128320
7344.00   7.19219589   0.05021416
7346.00   7.14462328   0.04885556
7348.00   7.17438698   0.04809405
7350.00   7.29071951   0.04748572
7352.00   7.30317545   0.04759216
7354.00   7.24166346   0.04878198
7356.00   7.19791794   0.04938380
7358.00   7.17000246   0.04936909
7360.00   7.14217663   0.04920544
7362.00   7.10429764   0.04921540
7364.00   7.05873442   0.04926009
7366.00   7.03388596   0.04921144
7368.00   7.02625513   0.04892033
7370.00   7.01681614   0.04899740
7372.00   7.00916147   0.04980578
7374.00   7.00354290   0.05014226
7376.00   7.01046658   0.04919195
7378.00   7.02147388   0.04741398
7380.00   6.96493387   0.04622748
7382.00   6.80914116   0.04482960
7384.00   6.74479294   0.04426755
7386.00   6.74173784   0.04459058
7388.00   6.74085236   0.04497484
7390.00   6.71717978   0.04516002
7392.00   6.69781017   0.04539424
7394.00   6.73174334   0.04595243
7396.00   6.82700157   0.04690644
7398.00   6.87488985   0.04749073
7400.00   6.90148687   0.04808969
7402.00   6.92704964   0.04828841
7404.00   6.97277546   0.04743331
7406.00   6.99718666   0.04679521
7408.00   6.92825985   0.04868563
7410.00   6.75997543   0.05303044
7412.00   6.71682596   0.05308195
7414.00   6.76754856   0.04946762
7416.00   6.78825188   0.04688490
7418.00   6.78625965   0.04483327
7420.00   6.77878809   0.04341950
7422.00   6.77306795   0.04331209
7424.00   6.76602983   0.04435086
7426.00   6.75107050   0.04462912
7428.00   6.72054577   0.04467617
7430.00   6.70623922   0.04487031
7432.00   6.71032858   0.04507815
7434.00   6.71028519   0.04543116
7436.00   6.69889259   0.04620125
7438.00   6.67941427   0.04713197
7440.00   6.63617325   0.04698437
7442.00   6.53287649   0.04568946
7444.00   6.51092815   0.04495890
7446.00   6.56663370   0.04423283
7448.00   6.59857035   0.04370995
7450.00   6.57265902   0.04348008
7452.00   6.52864313   0.04344617
7454.00   6.52255917   0.04344758
7456.00   6.54584169   0.04356640
7458.00   6.54101133   0.04371673
7460.00   6.52106380   0.04396214
7462.00   6.49968052   0.04419093
7464.00   6.47721481   0.04440695
7466.00   6.45200729   0.04461077
7468.00   6.42352390   0.04477924
7470.00   6.39106798   0.04490826
7472.00   6.36118221   0.04510015
7474.00   6.30661058   0.04543119
7476.00   6.30517149   0.04556116
7478.00   6.37325573   0.04440129
7480.00   6.44714546   0.04460220
7482.00   6.48862267   0.04910253
7484.00   6.51831198   0.05593326
7486.00   6.48787785   0.05692596
7488.00   6.37949133   0.05370552
7490.00   6.30481911   0.05113347
7492.00   6.24434710   0.04625192
7494.00   6.18249989   0.04340550
7496.00   6.10589409   0.04612944
7498.00   6.02714396   0.05142503
7500.00   5.99323940   0.05347966
7502.00   5.98369551   0.05539586
7504.00   6.01015615   0.05454750
7506.00   6.09852076   0.04991570
7508.00   6.16711235   0.04590478
7510.00   6.19446468   0.04348233
7512.00   6.20815849   0.04217959
7514.00   6.24191475   0.04273503
7516.00   6.29970455   0.04575345
7518.00   6.30001211   0.04681866
7520.00   6.25405979   0.04712982
7522.00   6.20359850   0.04737897
7524.00   6.13504696   0.04765499
7526.00   6.07168627   0.04769341
7528.00   6.04904222   0.04722354
7530.00   6.05584526   0.04628881
7532.00   6.05591297   0.04539750
7534.00   6.05567455   0.04409437
7536.00   6.07198763   0.04324605
7538.00   6.11511660   0.04198784
7540.00   6.15411806   0.04211138
7542.00   6.17529774   0.04549637
7544.00   6.18619204   0.05070482
7546.00   6.13884068   0.05255848
7548.00   6.00438976   0.05337054
7550.00   5.93208694   0.05236658
7552.00   5.87752771   0.04811050
7554.00   5.86115408   0.04427587
7556.00   5.90538073   0.04225925
7558.00   5.98660994   0.04166310
7560.00   6.03205299   0.04420277
7562.00   6.07988977   0.05021031
7564.00   6.08902597   0.05428050
7566.00   6.09485054   0.05925960
7568.00   6.03218985   0.06193587
7570.00   5.84250975   0.06148038
7572.00   5.62622499   0.05972992
7574.00   5.56038380   0.05949053
7576.00   5.59257460   0.06042168
7578.00   5.62520695   0.05849789
7580.00   5.74058628   0.05255466
7582.00   5.78366327   0.04894140
7584.00   5.74005651   0.04705041
7586.00   5.66804218   0.04819987
7588.00   5.62199354   0.05447543
7590.00   5.58716631   0.06408568
7592.00   5.46424294   0.07092997
7594.00   5.21171045   0.07778154
7596.00   5.06454945   0.08321669
7598.00   4.95945978   0.08880696
7600.00   4.94774437   0.09207412
7602.00   5.05658770   0.09029958
7604.00   5.27243185   0.08507966
7606.00   5.66331768   0.08750190
7608.00   6.52547646   0.09998722
7610.00   6.79743671   0.10034484
7612.00   6.66999435   0.09130740
7614.00   6.37330294   0.08048681
7616.00   5.85955477   0.06836438
7618.00   5.23633957   0.05458343
7620.00   5.02341509   0.05255393
7622.00   5.13994503   0.06446694
7624.00   5.14122725   0.06816448
7626.00   5.18967533   0.07213065
7628.00   5.20500422   0.07228430
7630.00   5.16406775   0.06598498
7632.00   5.10869789   0.05701977
7634.00   5.09159231   0.05405575
7636.00   5.09523106   0.05548294
7638.00   5.09585762   0.05481280
7640.00   5.11765289   0.05423802
7642.00   5.11009121   0.05334757
7644.00   5.06793118   0.05206117
7646.00   5.01445580   0.05059668
7648.00   4.95623684   0.04901812
7650.00   4.88131237   0.04717388
7652.00   4.90528250   0.04639436
7654.00   5.08029175   0.04699080
7656.00   5.11634588   0.04671404
7658.00   5.02935219   0.04508938
7660.00   4.92275476   0.04436140
7662.00   4.83197832   0.04619414
7664.00   4.74006271   0.04934960
7666.00   4.71931171   0.05074358
7668.00   4.77461529   0.05274698
7670.00   4.80359221   0.05140016
7672.00   4.83916140   0.04506284
7674.00   4.86876631   0.03992133
7676.00   4.88403320   0.03925988
7678.00   4.89535618   0.04079367
7680.00   4.92680454   0.04147250
7682.00   4.98840380   0.04261356
7684.00   5.00069141   0.04350311
7686.00   4.97241640   0.04482086
7688.00   4.94848537   0.04523561
7690.00   4.92392445   0.04388247
7692.00   4.90714550   0.04248571
7694.00   4.91736174   0.04364666
7696.00   4.94259977   0.04646032
7698.00   5.00757933   0.04899831
7700.00   5.18073845   0.05403748
7702.00   5.22776604   0.05471557
7704.00   5.10958195   0.04914819
7706.00   4.98227453   0.04316212
7708.00   4.96587229   0.04369468
7710.00   5.00541401   0.04803768
7712.00   5.04711390   0.05007820
7714.00   5.12797260   0.05274793
7716.00   5.18728924   0.05340844
7718.00   5.24759674   0.05174122
7720.00   5.28492689   0.05013195
7722.00   5.27550125   0.04963595
7724.00   5.23850775   0.04969871
7726.00   5.24641991   0.05071583
7728.00   5.26307726   0.05464881
7730.00   5.32242060   0.05415652
7732.00   5.43899202   0.04920463
7734.00   5.54562092   0.04526347
7736.00   5.61948442   0.04411802
7738.00   5.68830824   0.04454983
7740.00   5.79421949   0.04597579
7742.00   5.94601059   0.04912179
7744.00   6.03193998   0.05115501
7746.00   6.07655144   0.05337692
7748.00   6.10885477   0.05465076
7750.00   6.11925268   0.05484674
7752.00   6.12491131   0.05447127
7754.00   6.15167904   0.05395707
7756.00   6.18681717   0.05303438
7758.00   6.24188948   0.05221747
7760.00   6.33622885   0.05129504
7762.00   6.39823437   0.05039089
7764.00   6.44864321   0.04947058
7766.00   6.46328592   0.04857201
7768.00   6.40305471   0.04764063
7770.00   6.28299332   0.04667978
7772.00   6.25554991   0.04648287
7774.00   6.29453850   0.04712881
7776.00   6.31515217   0.04751116
7778.00   6.36106157   0.04775466
7780.00   6.37033367   0.04820293
7782.00   6.29788542   0.04892500
7784.00   6.18304110   0.04988463
7786.00   6.13731432   0.05130639
7788.00   6.13932943   0.05388838
7790.00   6.12091923   0.05473332
7792.00   6.10075998   0.05442374
7794.00   6.08324051   0.05390874
7796.00   6.05894232   0.05333915
7798.00   6.04446745   0.05253818
7800.00   6.08233976   0.05137825
7802.00   6.18777895   0.04940423
7804.00   6.20673418   0.04889896
7806.00   6.17367125   0.05007599
7808.00   6.12862873   0.05029432
7810.00   6.04072714   0.04872641
7812.00   5.96959448   0.04743962
7814.00   6.00217104   0.04865480
7816.00   6.11986732   0.05129195
7818.00   6.15118599   0.05523659
7820.00   6.16480303   0.06400239
7822.00   6.12143469   0.06547988
7824.00   5.99448299   0.05892768
7826.00   5.86324692   0.05100722
7828.00   5.77507734   0.04746778
7830.00   5.70527983   0.04612055
7832.00   5.67108107   0.04552037
7834.00   5.65749836   0.04743041
7836.00   5.69417763   0.04797002
7838.00   5.83629131   0.04786438
7840.00   5.91920948   0.04779624
7842.00   5.85889149   0.04785765
7844.00   5.73127508   0.04805088
7846.00   5.68771887   0.04891040
7848.00   5.68167734   0.05042493
7850.00   5.67726088   0.05176809
7852.00   5.70733738   0.05383604
7854.00   5.70932388   0.05476312
7856.00   5.65879726   0.05394208
7858.00   5.59642935   0.05244116
7860.00   5.58091259   0.05161858
7862.00   5.59070444   0.05000930
7864.00   5.61407661   0.05244125
7866.00   5.69253540   0.06091045
7868.00   5.71235418   0.06340750
7870.00   5.65614176   0.05899426
7872.00   5.58302784   0.05274147
7874.00   5.53737354   0.05016162
7876.00   5.49322319   0.04926943
7878.00   5.51141405   0.04875221
7880.00   5.60066986   0.04948279
7882.00   5.66949749   0.05020710
7884.00   5.75907803   0.05149529
7886.00   5.80975676   0.05247463
7888.00   5.77005339   0.05258912
7890.00   5.67022562   0.05217191
7892.00   5.61638641   0.05171604
7894.00   5.55496359   0.05105064
7896.00   5.54003906   0.05013626
7898.00   5.55715609   0.04728237
7900.00   5.60672426   0.04696937
7902.00   5.72310066   0.05221132
7904.00   5.85769224   0.05872820
7906.00   5.85095024   0.05940165
7908.00   5.71692753   0.05522403
7910.00   5.63715076   0.05417084
7912.00   5.52994061   0.05425132
7914.00   5.47196817   0.05443012
7916.00   5.48230743   0.05420679
7918.00   5.52552271   0.05452007
7920.00   5.56964445   0.05709333
7922.00   5.65616417   0.06238467
7924.00   5.62072706   0.06217692
7926.00   5.41429043   0.05679760
7928.00   5.34486294   0.05298533
7930.00   5.43450689   0.05060756
7932.00   5.55919695   0.04893384
7934.00   5.63882923   0.04797241
7936.00   5.71785593   0.04791488
7938.00   5.70129442   0.04713002
7940.00   5.55949068   0.04570139
7942.00   5.48929310   0.04506354
7944.00   5.47255516   0.04522062
7946.00   5.45517683   0.04550498
7948.00   5.40605164   0.04561377
7950.00   5.34547424   0.04572111
7952.00   5.32597733   0.04584198
7954.00   5.33387756   0.04554522
7956.00   5.35226917   0.04625780
7958.00   5.40177631   0.04784854
7960.00   5.43917656   0.04946258
7962.00   5.44379616   0.05110275
7964.00   5.44034624   0.05264221
7966.00   5.47566223   0.05339361
7968.00   5.54563522   0.05374164
7970.00   5.59204102   0.05334519
7972.00   5.66271782   0.05180718
7974.00   5.67034578   0.05050838
7976.00   5.57580471   0.04928411
7978.00   5.45987415   0.04844809
7980.00   5.42752934   0.04888672
7982.00   5.44544172   0.05058429
7984.00   5.44070816   0.05108118
7986.00   5.42753792   0.05060235
7988.00   5.43422365   0.05094434
7990.00   5.47132683   0.05249800
7992.00   5.50617504   0.05376468
7994.00   5.52338743   0.05337296
7996.00   5.53449059   0.05182634
7998.00   5.45565319   0.05252394
8000.00   5.23716402   0.05621943
8002.00   5.13175821   0.05655241
8004.00   5.11253214   0.05405138
8006.00   5.10664034   0.05090152
8008.00   5.07542706   0.04686243
8010.00   5.04700804   0.04233622
8012.00   5.08464575   0.04511806
8014.00   5.19382334   0.05646455
8016.00   5.27850056   0.05965406
8018.00   5.41699553   0.05977337
8020.00   5.47109604   0.05854849
8022.00   5.38644838   0.05530798
8024.00   5.23436260   0.05096752
8026.00   5.12360525   0.04950537
8028.00   4.98878241   0.05056657
8030.00   4.93287468   0.04975152
8032.00   4.95336342   0.04780106
8034.00   4.96406364   0.04640219
8036.00   4.96472168   0.04578891
8038.00   4.96382523   0.04544858
8040.00   4.96041250   0.04490434
8042.00   4.95568609   0.04427692
8044.00   4.94372320   0.04421514
8046.00   4.93066645   0.04477881
8048.00   4.90339088   0.04513455
8050.00   4.84622431   0.04544799
8052.00   4.80068636   0.04562928
8054.00   4.80369854   0.04550511
8056.00   4.83825350   0.04514721
8058.00   4.83785152   0.04517050
8060.00   4.83250237   0.04576012
8062.00   4.79877329   0.04562068
8064.00   4.71664810   0.04471622
8066.00   4.65247583   0.04390835
8068.00   4.63681316   0.04358735
8070.00   4.64659357   0.04348464
8072.00   4.64947033   0.04328671
8074.00   4.68241310   0.04324717
8076.00   4.65628958   0.04287487
8078.00   4.55415201   0.04194592
8080.00   4.49776363   0.04147206
8082.00   4.51626873   0.04178835
8084.00   4.56996155   0.04242604
8086.00   4.62112999   0.04278444
8088.00   4.70636559   0.04313722
8090.00   4.72027636   0.04332776
8092.00   4.66437721   0.04329742
8094.00   4.63209438   0.04337366
8096.00   4.63338232   0.04361160
8098.00   4.63352966   0.04384451
8100.00   4.60060406   0.04393229
8102.00   4.54403973   0.04394882
8104.00   4.50687599   0.04380058
8106.00   4.50251484   0.04357276
8108.00   4.44442368   0.04308688
8110.00   4.30544376   0.04200737
8112.00   4.18629742   0.04117792
8114.00   4.15884018   0.04129455
8116.00   4.18524790   0.04200132
8118.00   4.17705011   0.04231933
8120.00   4.17363882   0.04282904
8122.00   4.14659500   0.04274531
8124.00   4.08133030   0.04177279
8126.00   4.03533173   0.04119642
8128.00   4.02618742   0.04158325
8130.00   4.04192781   0.04245378
8132.00   4.08720160   0.04315573
8134.00   4.21468067   0.04415627
8136.00   4.22027254   0.04459725
8138.00   4.11990261   0.04456902
8140.00   4.04250717   0.04458696
8142.00   3.99759197   0.04472077
8144.00   3.97368741   0.04486590
8146.00   3.98731256   0.04497654
8148.00   4.04541254   0.04510050
8150.00   4.07468939   0.04508251
8152.00   4.11092758   0.04427251
8154.00   4.11587286   0.04477724
8156.00   4.08245802   0.04671921
8158.00   4.03378153   0.04921186
8160.00   3.97478485   0.05215080
8162.00   3.88874578   0.05593300
8164.00   3.93713784   0.05549472
8166.00   4.16972971   0.04980017
8168.00   4.25814581   0.04717100
8170.00   4.22716427   0.04705279
8172.00   4.16778755   0.04775342
8174.00   4.11055279   0.04850412
8176.00   4.04075575   0.04970664
8178.00   4.03410864   0.05154496
8180.00   4.09336138   0.05491651
8182.00   4.12045479   0.05632550
8184.00   4.17261028   0.05593245
8186.00   4.16669655   0.05612177
8188.00   4.05584431   0.05721980
8190.00   3.89250922   0.05911549
8192.00   3.78269315   0.06315450
8194.00   3.62978101   0.07170483
8196.00   3.65860558   0.07175469
8198.00   3.91902709   0.06402642
8200.00   4.07123566   0.05755340
8202.00   4.06601381   0.05409889
8204.00   3.99808288   0.05171343
8206.00   3.93864822   0.04902736
8208.00   3.83553147   0.04654855
8210.00   3.82325435   0.04505483
8212.00   3.90918088   0.04471708
8214.00   3.94022679   0.04462883
8216.00   3.91367912   0.04507769
8218.00   3.87463427   0.04565070
8220.00   3.84980798   0.04581000
8222.00   3.82505727   0.04573422
8224.00   3.82292247   0.04661622
8226.00   3.87362027   0.04799095
8228.00   3.85588193   0.04990976
8230.00   3.73807716   0.05387262
8232.00   3.66240406   0.05582272
8234.00   3.72688198   0.05327113
8236.00   3.86407018   0.04763407
8238.00   3.87447715   0.04460881
8240.00   3.76147389   0.04229897
8242.00   3.75352526   0.04099078
8244.00   3.82404375   0.04134708
8246.00   3.86928248   0.04171253
8248.00   3.86951423   0.04173310
8250.00   3.83956361   0.04170905
8252.00   3.76340413   0.04159669
8254.00   3.60420990   0.04118639
8256.00   3.54511762   0.04143881
8258.00   3.56596661   0.04284832
8260.00   3.56195307   0.04308213
8262.00   3.52883148   0.04141404
8264.00   3.48050499   0.03933782
8266.00   3.41369057   0.03885234
8268.00   3.31797290   0.03923431
8270.00   3.27307105   0.04006765
8272.00   3.27094102   0.04166439
8274.00   3.25727034   0.04330467
8276.00   3.24591494   0.04494973
8278.00   3.22170544   0.04685878
8280.00   3.16627836   0.04951002
8282.00   3.08726525   0.05268374
8284.00   3.01618862   0.05350933
8286.00   2.89224839   0.05198466
8288.00   2.87777734   0.05165486
8290.00   2.98621559   0.05188594
8292.00   3.09036303   0.05229956
8294.00   3.15575528   0.05252911
8296.00   3.19589615   0.05291663
8298.00   3.11638403   0.05488504
8300.00   2.84764123   0.06098229
8302.00   2.74416304   0.06021229
8304.00   2.72611690   0.05271133
8306.00   2.72449994   0.04592448
8308.00   2.73126030   0.04251191
8310.00   2.75144601   0.04086231
8312.00   2.77222705   0.04006662
8314.00   2.81534243   0.04152901
8316.00   2.80420494   0.04104533
8318.00   2.74320889   0.03936367
8320.00   2.68933916   0.03799241
8322.00   2.63817596   0.03695538
8324.00   2.59291220   0.03612489
8326.00   2.56950903   0.03556124
8328.00   2.56865644   0.03527068
8330.00   2.53046155   0.03515343
8332.00   2.45446396   0.03390634
8334.00   2.40285158   0.03569911
8336.00   2.36670732   0.04034050
8338.00   2.34442973   0.04541181
8340.00   2.33561325   0.05028046
8342.00   2.34017491   0.05528602
8344.00   2.37376237   0.05781728
8346.00   2.47574234   0.05968198
8348.00   2.49960113   0.05903080
8350.00   2.46134639   0.05502369
8352.00   2.41086340   0.05051115
8354.00   2.34655881   0.04642832
8356.00   2.27977943   0.04231517
8358.00   2.30764484   0.04004209
8360.00   2.45524096   0.04018242
8362.00   2.50389576   0.03944042
8364.00   2.51768661   0.03900950
8366.00   2.49984455   0.03833871
8368.00   2.42473769   0.03697038
8370.00   2.33769536   0.03559894
8372.00   2.33348155   0.03561869
8374.00   2.39015937   0.03661329
8376.00   2.42784882   0.03795156
8378.00   2.49473381   0.04074945
8380.00   2.52146220   0.04200681
8382.00   2.47845960   0.04154318
8384.00   2.43979383   0.04047825
8386.00   2.48583293   0.03942345
8388.00   2.58935618   0.03763483
8390.00   2.66772079   0.03922557
8392.00   2.77296495   0.04396768
8394.00   2.82681108   0.04729110
8396.00   2.81914115   0.05070852
8398.00   2.80733609   0.05285107
8400.00   2.82365704   0.05270026
8402.00   2.85101390   0.05090193
8404.00   2.89027643   0.04918026
8406.00   2.96319818   0.04604501
8408.00   2.99686646   0.04411676
8410.00   3.00220680   0.04300344
8412.00   2.99971461   0.04225834
8414.00   2.99400306   0.04129222
8416.00   2.98260975   0.04084071
8418.00   2.96961570   0.04319024
8420.00   2.91579747   0.04807721
8422.00   2.96439433   0.05177981
8424.00   3.12163091   0.05690578
8426.00   3.24691844   0.05924882
8428.00   3.33969903   0.05796069
8430.00   3.39600658   0.05498894
8432.00   3.36047435   0.05295344
8434.00   3.20561886   0.05081859
8436.00   3.20626783   0.04827888
8438.00   3.32142425   0.04452521
8440.00   3.41264868   0.04201917
8442.00   3.48135686   0.04089663
8444.00   3.55378485   0.04088717
8446.00   3.64937186   0.04216336
8448.00   3.76438522   0.04480165
8450.00   3.83683896   0.04564830
8452.00   3.90451765   0.04419830
8454.00   3.91281772   0.04561895
8456.00   3.82904148   0.04944982
8458.00   3.75997996   0.05364648
8460.00   3.76759505   0.05844986
8462.00   3.81609011   0.06335716
8464.00   3.86350393   0.06240984
8466.00   3.97698665   0.05383313
8468.00   3.98195171   0.04976432
8470.00   3.87064934   0.04817963
8472.00   3.79159760   0.04693804
8474.00   3.78377676   0.04544107
8476.00   3.81575513   0.04419137
8478.00   3.88293839   0.04331552
8480.00   4.01446676   0.04242038
8482.00   4.09965277   0.04303484
8484.00   4.17731428   0.04559576
8486.00   4.23255634   0.04729060
8488.00   4.26667738   0.04769241
8490.00   4.27735996   0.04788040
8492.00   4.25510311   0.04884566
8494.00   4.19541025   0.04991641
8496.00   4.15008974   0.05244830
8498.00   4.06505442   0.05845636
8500.00   4.05510902   0.05981065
8502.00   4.14274120   0.05550089
8504.00   4.24641705   0.05011678
8506.00   4.29775047   0.04827426
8508.00   4.32572985   0.04825018
8510.00   4.38883448   0.04833765
8512.00   4.50796366   0.04935653
8514.00   4.55254269   0.05050340
8516.00   4.49948120   0.05315531
8518.00   4.47616720   0.05416916
8520.00   4.56810999   0.05122652
8522.00   4.71483421   0.04560233
8524.00   4.74244595   0.04369620
8526.00   4.64341831   0.04461705
8528.00   4.65324497   0.04474049
8530.00   4.73588181   0.04516992
8532.00   4.80558395   0.04572326
8534.00   4.82858324   0.04640449
8536.00   4.84574366   0.04716805
8538.00   4.92749453   0.04782252
8540.00   5.08928823   0.04842521
8542.00   5.14629745   0.04905917
8544.00   5.11336374   0.04955521
8546.00   5.11301231   0.05033255
8548.00   5.15019417   0.05176218
8550.00   5.20719719   0.05302335
8552.00   5.27764320   0.05309092
8554.00   5.36016703   0.05229274
8556.00   5.48325634   0.05153384
8558.00   5.69635582   0.04998533
8560.00   5.81820536   0.04924843
8562.00   5.84842491   0.04900776
8564.00   5.84627867   0.04955399
8566.00   5.83910847   0.05124956
8568.00   5.81070232   0.05383513
8570.00   5.83324146   0.05643242
8572.00   5.87353992   0.06141093
8574.00   5.95944214   0.06185353
8576.00   6.09590912   0.05707131
8578.00   6.25393772   0.05277522
8580.00   6.45173597   0.05245922
8582.00   6.66356325   0.05399152
8584.00   6.72281265   0.05414221
8586.00   6.58990288   0.05347798
8588.00   6.61079121   0.05411092
8590.00   6.70519114   0.05623487
8592.00   6.81155396   0.05746141
8594.00   6.91149664   0.05707385
8596.00   7.02906990   0.05612165
8598.00   7.19968796   0.05611882
8600.00   7.43871164   0.05647695
8602.00   7.60921335   0.05716553
8604.00   7.74291658   0.05846871
8606.00   7.87161732   0.05951528
8608.00   7.99316072   0.06006399
8610.00   8.10834503   0.06075165
8612.00   8.22798061   0.06217159
8614.00   8.35680962   0.06397431
8616.00   8.41782379   0.06650279
8618.00   8.41000175   0.07020881
8620.00   8.41502953   0.07300740
8622.00   8.40047550   0.07555743
8624.00   8.41266346   0.07728442
8626.00   8.49612522   0.07760938
8628.00   8.62906361   0.07686356
8630.00   8.73104382   0.07632452
8632.00   8.84405136   0.07557768
8634.00   8.92148018   0.07450823
8636.00   8.94613552   0.07282252
8638.00   8.99270916   0.07130189
8640.00   9.10019875   0.06992712
8642.00   9.23473263   0.06891677
8644.00   9.32621002   0.06998424
8646.00   9.37750340   0.07359257
8648.00   9.47238350   0.07545124
8650.00   9.61874008   0.07689442
8652.00   9.72377491   0.07792179
8654.00   9.77034092   0.07846868
8656.00   9.78236389   0.07868730
8658.00   9.77607918   0.07884485
8660.00   9.73280811   0.07881912
8662.00   9.71433640   0.07869370
8664.00   9.71627045   0.07860179
8666.00   9.69378853   0.07806294
8668.00   9.64669037   0.07693560
8670.00   9.58301163   0.07556825
8672.00   9.49232864   0.07387053
8674.00   9.36207008   0.07132017
8676.00   9.36191082   0.07315406
8678.00   9.52869892   0.08125122
8680.00   9.56929111   0.08335789
8682.00   9.52133369   0.08035216
8684.00   9.41999245   0.07605891
8686.00   9.23280907   0.07172096
8688.00   8.98121929   0.06657475
8690.00   8.98447609   0.06732880
8692.00   9.31007671   0.07589536
8694.00   9.36434078   0.07778954
8696.00   9.25001621   0.07614724
8698.00   9.10337734   0.07335923
8700.00   8.93419075   0.06926569
8702.00   8.75348568   0.06417258
8704.00   8.69402599   0.06201907
8706.00   8.75156689   0.06254134
8708.00   8.75048637   0.06211777
8710.00   8.74309635   0.06168046
8712.00   8.73136234   0.06170997
8714.00   8.71382427   0.06233810
8716.00   8.69325638   0.06331611
8718.00   8.67736340   0.06448394
8720.00   8.67186356   0.06634422
8722.00   8.62691689   0.06634581
8724.00   8.55420685   0.06471493
8726.00   8.46614170   0.06320891
8728.00   8.33410358   0.06113910
8730.00   8.21868992   0.05960911
8732.00   8.17750645   0.06016729
8734.00   8.18332577   0.06229694
8736.00   8.24184990   0.06336160
8738.00   8.39261723   0.06464124
8740.00   8.50338936   0.06490787
8742.00   8.62973976   0.06395416
8744.00   8.69804001   0.06290781
8746.00   8.64998817   0.06220918
8748.00   8.52273083   0.06165611
8750.00   8.42917347   0.06219584
8752.00   8.29679394   0.06298962
8754.00   8.23419762   0.06561515
8756.00   8.23823929   0.07046718
8758.00   8.23677063   0.07461642
8760.00   8.21149731   0.07792024
8762.00   8.17762375   0.08044904
8764.00   8.13732243   0.08077487
8766.00   8.07118797   0.07850672
8768.00   8.05538177   0.07772423
8770.00   8.06492329   0.07720096
8772.00   8.10494041   0.07692170
8774.00   8.20823097   0.07729253
8776.00   8.31078339   0.07752719
8778.00   8.31275749   0.07637043
8780.00   8.24235630   0.07409083
8782.00   8.18594837   0.07198626
8784.00   8.08359814   0.06898058
8786.00   8.03431702   0.06698557
8788.00   8.04798603   0.06575477
8790.00   8.07447243   0.06553346
8792.00   8.07318878   0.06687602
8794.00   8.06098557   0.06956997
8796.00   8.08461571   0.07128520
8798.00   8.18390942   0.07458483
8800.00   8.17957211   0.07381690
8802.00   8.07179928   0.06748278
8804.00   7.95718861   0.06164972
8806.00   7.87812233   0.06065549
8808.00   7.80883646   0.06216547
8810.00   7.73959589   0.06195344
8812.00   7.68866873   0.06065459
8814.00   7.60620165   0.06124438
8816.00   7.44598150   0.06228933
8818.00   7.37454367   0.06522829
8820.00   7.48577356   0.07094101
8822.00   7.65233803   0.07737880
8824.00   7.62311029   0.08155564
8826.00   7.43067360   0.08536553
8828.00   7.36103773   0.08682452
8830.00   7.36987543   0.08669523
8832.00   7.32911348   0.08494873
8834.00   7.21459389   0.08023828
8836.00   7.08482265   0.07475919
8838.00   6.99975538   0.07237120
8840.00   6.93797588   0.07214276
8842.00   6.86799622   0.07085823
8844.00   6.78383398   0.06919991
8846.00   6.73558187   0.06827451
8848.00   6.72446489   0.06808686
8850.00   6.73087311   0.06832619
8852.00   6.73319435   0.06861477
8854.00   6.73954630   0.06908365
8856.00   6.83158541   0.07135098
8858.00   7.08961010   0.07645239
8860.00   7.16127586   0.07866455
8862.00   7.11019325   0.07750025
8864.00   6.98199558   0.07809009
8866.00   6.74248648   0.08485407
8868.00   6.43785954   0.09287702
8870.00   6.33409309   0.08928173
8872.00   6.41769791   0.06906827
8874.00   6.39671469   0.06092884
8876.00   6.32535124   0.06035604
8878.00   6.29397821   0.06245830
8880.00   6.33814144   0.06765533
8882.00   6.40656042   0.07381649
8884.00   6.42467880   0.07622463
8886.00   6.44520378   0.07734716
8888.00   6.35800266   0.07594385
8890.00   6.09300661   0.07007484
8892.00   5.95974731   0.06595206
8894.00   5.97716904   0.06381503
8896.00   6.06601429   0.06312924
8898.00   6.18557072   0.06431290
8900.00   6.37584877   0.06759820
8902.00   6.45096970   0.06878604
8904.00   6.47752762   0.06963403
8906.00   6.43731260   0.06912846
8908.00   6.28327131   0.06554770
8910.00   6.13498974   0.06320360
8912.00   6.07135057   0.06588428
8914.00   6.05161905   0.07139751
8916.00   6.06415462   0.07483101
8918.00   6.18982267   0.07958192
8920.00   6.17600632   0.08035821
8922.00   6.04552460   0.07749117
8924.00   5.90236902   0.07372512
8926.00   5.74711704   0.06933568
8928.00   5.59892797   0.06430618
8930.00   5.62441492   0.06221326
8932.00   5.84199762   0.06212595
8934.00   5.95640469   0.06364752
8936.00   6.09305668   0.06855464
8938.00   6.14744425   0.07161318
8940.00   6.08944988   0.07224499
8942.00   5.96686649   0.07171440
8944.00   5.83038950   0.07063834
8946.00   5.61741018   0.06747301
8948.00   5.54662943   0.06868332
8950.00   5.56109667   0.07335966
8952.00   5.62560081   0.07757384
8954.00   5.79312706   0.08252396
8956.00   5.95538807   0.08634463
8958.00   5.98840523   0.08678320
8960.00   5.93910694   0.08465715
8962.00   5.90409279   0.08372062
8964.00   5.86748934   0.08390001
8966.00   5.77841234   0.08148464
8968.00   5.61627150   0.07539249
8970.00   5.45401001   0.06896494
8972.00   5.32877207   0.06454541
8974.00   5.22090673   0.06121548
8976.00   5.15371704   0.05963523
8978.00   5.15722990   0.05996158
8980.00   5.10461092   0.06157316
8982.00   4.99034548   0.06552050
8984.00   4.91818380   0.06894795
8986.00   4.93649292   0.07155396
8988.00   4.99649334   0.07349545
8990.00   5.00590849   0.07332084
8992.00   4.97652149   0.06968559
8994.00   4.99807739   0.06999395
8996.00   5.04200459   0.07146560
8998.00   5.11239958   0.07552750
9000.00   5.25349712   0.08485434
9002.00   5.38198280   0.09293592
9004.00   5.35238028   0.09139460
9006.00   5.19524050   0.08122976
9008.00   5.08007812   0.07665702
9010.00   4.88298464   0.07383533
9012.00   4.81699657   0.07173160
9014.00   4.90668917   0.07064684
9016.00   5.04694557   0.07040038
9018.00   5.16977787   0.07091389
9020.00   5.31638813   0.07237374
9022.00   5.36078215   0.07258202
9024.00   5.31588411   0.07290983
9026.00   5.27519512   0.07134685
9028.00   5.22654152   0.06665546
9030.00   5.15362072   0.06236929
9032.00   5.03421164   0.06100428
9034.00   4.88555384   0.06133776
9036.00   4.81030130   0.06145700
9038.00   4.76961517   0.06207683
9040.00   4.77124262   0.06306745
9042.00   4.84012699   0.06484832
9044.00   4.90272617   0.06629282
9046.00   4.94488478   0.06689110
9048.00   4.97600842   0.06730165
9050.00   4.98402500   0.06877271
9052.00   4.98312044   0.07130803
9054.00   4.93352699   0.07268473
9056.00   4.80880499   0.07436566
9058.00   4.72095490   0.07419764
9060.00   4.67625952   0.07098889
9062.00   4.65845585   0.06689956
9064.00   4.67048454   0.06529657
9066.00   4.72721624   0.06509481
9068.00   4.72456694   0.06514373
9070.00   4.69098902   0.06697631
9072.00   4.64161396   0.06701073
9074.00   4.54331398   0.06458111
9076.00   4.46752882   0.06215590
9078.00   4.49036360   0.06202068
9080.00   4.58306170   0.06325465
9082.00   4.58784056   0.06344838
9084.00   4.55265999   0.06342866
9086.00   4.49521494   0.06317209
9088.00   4.36697721   0.06200951
9090.00   4.28161621   0.06164064
9092.00   4.30406523   0.06294500
9094.00   4.38900709   0.06527902
9096.00   4.44854403   0.06788852
9098.00   4.52985239   0.07252525
9100.00   4.58066607   0.07388356
9102.00   4.62522125   0.07313166
9104.00   4.63885736   0.07172134
9106.00   4.61149311   0.06968115
9108.00   4.55625772   0.06705090
9110.00   4.49132967   0.06464459
9112.00   4.38794756   0.06164743
9114.00   4.34294271   0.06023275
9116.00   4.36423397   0.06046049
9118.00   4.34075451   0.06048422
9120.00   4.26073647   0.06013968
9122.00   4.15780735   0.05992211
9124.00   4.04555559   0.06016197
9126.00   3.89202237   0.06063407
9128.00   3.89076495   0.06191203
9130.00   4.02481127   0.06406724
9132.00   4.15197134   0.06611785
9134.00   4.32750559   0.06871676
9136.00   4.47096920   0.07064459
9138.00   4.51338196   0.07103363
9140.00   4.48834133   0.07036913
9142.00   4.43353271   0.06906854
9144.00   4.25843191   0.06355789
9146.00   4.21624374   0.06479242
9148.00   4.31649494   0.07409978
9150.00   4.38070297   0.08005662
9152.00   4.31203890   0.07874926
9154.00   4.18953943   0.07384875
9156.00   4.18727779   0.07229469
9158.00   4.33856392   0.07292859
9160.00   4.30059719   0.07119621
9162.00   4.04589748   0.06534768
9164.00   3.93629622   0.06365167
9166.00   4.06356573   0.07035857
9168.00   4.30340815   0.07838746
9170.00   4.53584766   0.07911978
9172.00   4.90697193   0.07518961
9174.00   4.94048595   0.07241718
9176.00   4.65817261   0.06797733
9178.00   4.43673754   0.06446325
9180.00   4.21458817   0.06140876
9182.00   4.06920815   0.05981766
9184.00   4.17275953   0.06193313
9186.00   4.50681591   0.06750986
9188.00   4.56134129   0.06790920
9190.00   4.39541006   0.06339706
9192.00   4.34848261   0.06227881
9194.00   4.40459871   0.06528389
9196.00   4.46573400   0.06749108
9198.00   4.46600151   0.06566623
9200.00   4.43962193   0.06135695
9202.00   4.50538635   0.06026131
9204.00   4.68159914   0.06104519
9206.00   4.77199030   0.06196569
9208.00   4.80137825   0.06375652
9210.00   4.83400059   0.06552533
9212.00   4.88467407   0.06701349
9214.00   4.94607687   0.06841002
9216.00   5.04387045   0.06968906
9218.00   5.22682428   0.07119261
9220.00   5.27756214   0.07171994
9222.00   5.22938919   0.07078268
9224.00   5.17288494   0.07084662
9226.00   5.12373161   0.07287614
9228.00   5.05803156   0.07515711
9230.00   4.93709230   0.07535767
9232.00   4.69792271   0.07403947
9234.00   4.75793695   0.07343556
9236.00   5.16868401   0.07275788
9238.00   5.37939024   0.07226413
9240.00   5.36002254   0.07206547
9242.00   5.28273678   0.07187997
9244.00   5.27175522   0.07061227
9246.00   5.27140188   0.06783276
9248.00   5.26976919   0.07302258
9250.00   5.29202557   0.08905453
9252.00   5.27084637   0.09286208
9254.00   5.17377281   0.08607586
9256.00   5.11125517   0.07754931
9258.00   5.15975189   0.07271790
9260.00   5.27469969   0.06905709
9262.00   5.34136772   0.06743231
9264.00   5.44553661   0.06936003
9266.00   5.43619537   0.06948456
9268.00   5.29585123   0.06848380
9270.00   5.17914820   0.06837197
9272.00   5.13555765   0.06976722
9274.00   5.12235785   0.07208088
9276.00   5.10256577   0.07493759
9278.00   5.08384371   0.07946171
9280.00   5.09123182   0.08135020
9282.00   5.18333864   0.07782437
9284.00   5.16993904   0.08104184
9286.00   4.96917439   0.09544554
9288.00   4.73612118   0.10893044
9290.00   4.69435930   0.11056139
9292.00   4.79990149   0.10447370
9294.00   4.76563406   0.10007407
9296.00   4.64878321   0.08762945
9298.00   4.55316544   0.08669280
9300.00   4.40242624   0.09806860
9302.00   4.34198713   0.11349089
9304.00   4.55997276   0.12883221
9306.00   5.00288391   0.14531627
9308.00   5.16361094   0.16197915
9310.00   5.19275141   0.18076153
9312.00   5.15293789   0.19583263
9314.00   4.96492100   0.21410343
9316.00   4.79529190   0.22305001
9318.00   4.75155878   0.21479526
9320.00   4.76390362   0.19410013
9322.00   4.67455959   0.18001315
9324.00   4.52229643   0.16147967
9326.00   4.36604118   0.15273018
9328.00   4.12686062   0.15463413
9330.00   3.97459722   0.15794873
9332.00   4.00500059   0.16192998
9334.00   4.09698820   0.16615938
9336.00   4.00013876   0.16531181
9338.00   3.72452760   0.16146980
9340.00   3.63484931   0.15430316
9342.00   3.64848256   0.13944615
9344.00   3.68102264   0.12725118
9346.00   3.73953891   0.11842295
9348.00   3.81391811   0.11334162
9350.00   3.87499785   0.11519430
9352.00   3.93430448   0.12443506
9354.00   3.99751854   0.12847511
9356.00   4.14519644   0.13311373
9358.00   4.12360334   0.13347191
9360.00   3.83065915   0.12487245
9362.00   3.57846308   0.11921985
9364.00   3.63286638   0.12548019
9366.00   3.87793326   0.13795750
9368.00   4.01484156   0.16521570
9370.00   4.20898867   0.20533955
9372.00   4.25342178   0.23414822
9374.00   4.06461239   0.26812065
9376.00   3.97299862   0.28539726
9378.00   4.13996267   0.27574262
9380.00   4.45642328   0.24744789
9382.00   4.78320122   0.22451317
9384.00   5.33392096   0.18981478
9386.00   5.55431604   0.16504580
9388.00   5.62087059   0.15068869
9390.00   5.49798536   0.13656734
9392.00   5.04495382   0.11795805
9394.00   4.48966980   0.09967311
9396.00   4.36585236   0.09299944
9398.00   4.57630348   0.09991214
9400.00   4.61171865   0.10402668
9402.00   4.67551899   0.11277069
9404.00   4.63213301   0.11804558
9406.00   4.39388227   0.11946137
9408.00   4.15443516   0.11964185
9410.00   4.16139746   0.12025339
9412.00   4.35036707   0.11982237
9414.00   4.38830042   0.12407716
9416.00   4.39214182   0.13377509
9418.00   4.33475780   0.13946246
9420.00   4.18871593   0.14256932
9422.00   4.02849293   0.14406446
9424.00   3.85636735   0.14379375
9426.00   3.66272831   0.14178182
9428.00   3.84499240   0.14130221
9430.00   4.68345499   0.13923915
9432.00   4.81464863   0.14211741
9434.00   4.26615191   0.15080205
9436.00   3.81056714   0.15807010
9438.00   3.72262979   0.16256766
9440.00   3.82089686   0.16514270
9442.00   4.08514738   0.16220444
9444.00   4.80255699   0.15004754
9446.00   4.97391367   0.14540783
9448.00   4.79565954   0.14218518
9450.00   4.55190134   0.14455143
9452.00   4.19417953   0.15644048
9454.00   3.83141112   0.16967063
9456.00   3.79463220   0.17215399
9458.00   4.05030346   0.16661884
9460.00   4.11088037   0.16670704
9462.00   4.09323788   0.17232205
9464.00   4.10284853   0.17103057
9466.00   4.11078310   0.15752213
9468.00   4.16259480   0.14326520
9470.00   4.37115097   0.14463827
9472.00   4.75389194   0.15656951
9474.00   4.68838835   0.16230932
9476.00   4.07109690   0.17190763
9478.00   3.87159657   0.17141874
9480.00   4.06429720   0.15800576
9482.00   4.30963755   0.14274774
9484.00   4.45569468   0.13421966
9486.00   4.58181286   0.12889762
9488.00   4.49969959   0.12608585
9490.00   4.14273882   0.12755123
9492.00   3.94749856   0.12927325
9494.00   3.68055511   0.13053249
9496.00   3.66613984   0.13574561
9498.00   4.15396976   0.14892907
9500.00   4.87547541   0.16365144
9502.00   5.11668777   0.16621673
9504.00   5.10951376   0.16153090
9506.00   4.98520327   0.15323570
9508.00   4.56742907   0.13112706
9510.00   4.24535561   0.11622967
9512.00   4.05274868   0.11747710
9514.00   3.94343138   0.12569402
9516.00   3.93297982   0.13045163
9518.00   4.00821829   0.13503794
9520.00   4.20612812   0.14397770
9522.00   4.69472885   0.16423638
9524.00   4.93159723   0.16818240
9526.00   4.87557459   0.15142745
9528.00   4.72859716   0.12845269
9530.00   4.63479805   0.11760062
9532.00   4.52125931   0.11309420
9534.00   4.46387434   0.11086212
9536.00   4.43240738   0.11456979
9538.00   4.44277668   0.11798187
9540.00   4.54802656   0.12356544
9542.00   4.60983229   0.12784450
9544.00   4.54508877   0.12821530
9546.00   4.40143204   0.12645227
9548.00   4.23673868   0.12853181
9550.00   3.93029499   0.13466047
9552.00   3.81641817   0.13671507
9554.00   3.91032076   0.13585626
9556.00   3.92864585   0.13517392
9558.00   3.70107961   0.13436440
9560.00   3.42594099   0.13442259
9562.00   3.55188155   0.14060310
9564.00   4.07622528   0.15573414
9566.00   4.32618809   0.15779406
9568.00   4.56576395   0.15150595
9570.00   4.62305880   0.14359827
9572.00   4.38656378   0.13017480
9574.00   4.07173586   0.11723384
9576.00   3.98941731   0.12128194
9578.00   4.03931427   0.13971199
9580.00   4.04444742   0.14430161
9582.00   4.10544014   0.14460604
9584.00   4.08731556   0.14122044
9586.00   3.95161414   0.12873533
9588.00   3.82029557   0.11746097
9590.00   3.79858685   0.12216589
9592.00   3.84176993   0.13717546
9594.00   3.86822414   0.13687454
9596.00   3.93970346   0.12388118
9598.00   3.94602442   0.11741570
9600.00   3.88696027   0.11544966
9602.00   3.82074833   0.11451209
9604.00   3.79002523   0.11367594
9606.00   3.76399231   0.11335041
9608.00   3.63725448   0.11084975
9610.00   3.35909390   0.10418604
9612.00   3.22722793   0.10283290
9614.00   3.12167168   0.10533152
9616.00   3.13890457   0.10864877
9618.00   3.37820053   0.11351199
9620.00   3.69849133   0.11815459
9622.00   3.77195263   0.11710321
9624.00   3.67362332   0.11067926
9626.00   3.62515116   0.10628955
9628.00   3.46798921   0.09940422
9630.00   3.46650600   0.09643774
9632.00   3.67866302   0.09597264
9634.00   3.97333908   0.10112067
9636.00   4.23256063   0.11818022
9638.00   4.54975557   0.14495815
9640.00   4.62990046   0.15052752
9642.00   4.51893139   0.14337803
9644.00   4.36852074   0.13514477
9646.00   4.06530809   0.11840565
9648.00   3.82388854   0.10380429
9650.00   3.85828924   0.10803375
9652.00   4.07780027   0.12412006
9654.00   4.12445259   0.12650385
9656.00   4.13399839   0.12228952
9658.00   4.06148767   0.11842620
9660.00   3.85137701   0.11080327
9662.00   3.67211270   0.10533132
9664.00   3.59998393   0.10670596
9666.00   3.58423924   0.11152740
9668.00   3.58127785   0.11151809
9670.00   3.63405609   0.10819597
9672.00   3.64949512   0.10673244
9674.00   3.68993449   0.10585099
9676.00   3.65883017   0.10490777
9678.00   3.47173429   0.10357732
9680.00   3.25869131   0.10231581
9682.00   3.28449559   0.10193022
9684.00   3.49431992   0.10207834
9686.00   3.65958190   0.10293116
9688.00   3.98493814   0.10483913
9690.00   4.07479286   0.10653228
9692.00   3.80259013   0.10780872
9694.00   3.47416162   0.10924953
9696.00   3.42171764   0.11177815
9698.00   3.51958227   0.11559524
9700.00   3.61063266   0.11539900
9702.00   3.88331532   0.11023130
9704.00   3.90922427   0.10841788
9706.00   3.61112213   0.10895986
9708.00   3.33121228   0.11139287
9710.00   3.29624271   0.11658614
9712.00   3.39190125   0.12383148
9714.00   3.52690387   0.12609287
9716.00   3.85102129   0.12400785
9718.00   3.97660017   0.12423787
9720.00   3.94569802   0.12651388
9722.00   3.89312482   0.12731376
9724.00   3.86146760   0.12495722
9726.00   3.82360983   0.12075847
9728.00   3.78951621   0.11744470
9730.00   3.78080106   0.11254306
9732.00   3.70605326   0.11131936
9734.00   3.54822636   0.11449358
9736.00   3.43207741   0.11588353
9738.00   3.34894848   0.11290113
9740.00   3.32359767   0.10967362
9742.00   3.46395373   0.11342853
9744.00   3.82794714   0.12310058
9746.00   3.90576458   0.12730959
9748.00   3.78180122   0.13215113
9750.00   3.68084574   0.13091657
9752.00   3.60224724   0.11979332
9754.00   3.51063871   0.10621151
9756.00   3.38426161   0.10135347
9758.00   3.22415137   0.10241017
9760.00   3.11422825   0.09928472
9762.00   3.03395915   0.09432805
9764.00   2.96090007   0.09016907
9766.00   2.86987233   0.08566039
9768.00   2.83153653   0.08261769
9770.00   2.90272498   0.08273789
9772.00   3.05209517   0.08520526
9774.00   3.16949677   0.08772828
9776.00   3.35396457   0.09090743
9778.00   3.40513659   0.09503445
9780.00   3.26552320   0.09964873
9782.00   3.22493958   0.10533165
9784.00   3.44368720   0.11321760
9786.00   3.75855350   0.12135901
9788.00   3.80976415   0.12495325
9790.00   3.65590024   0.12525630
9792.00   3.58869767   0.12597243
9794.00   3.48268533   0.12590870
9796.00   3.44489622   0.12534465
9798.00   3.54655004   0.12460119
9800.00   3.65867472   0.12307002
9802.00   3.55999827   0.11922932
9804.00   3.25071239   0.11160029
9806.00   3.23261046   0.11056159
9808.00   3.50504708   0.11550912
9810.00   3.58979869   0.11873882
9812.00   3.42702317   0.12132237
9814.00   3.25307393   0.12279241
9816.00   3.27060318   0.12174402
9818.00   3.39988995   0.11845930
9820.00   3.46867037   0.11705330
9822.00   3.58965278   0.11757752
9824.00   3.58660603   0.11559109
9826.00   3.43758845   0.10985829
9828.00   3.28173947   0.10511871
9830.00   3.19270802   0.10388675
9832.00   3.12829518   0.10507303
9834.00   3.05849242   0.11066131
9836.00   2.90658116   0.12589045
9838.00   2.96438360   0.12846881
9840.00   3.23257327   0.11953593
9842.00   3.49433136   0.11373415
9844.00   3.71416354   0.11728111
9846.00   3.90748119   0.12426696
9848.00   3.99491501   0.12779623
9850.00   4.00085497   0.13266835
9852.00   3.94917440   0.13054787
9854.00   3.73670626   0.11849229
9856.00   3.64062929   0.11098918
9858.00   3.73224211   0.11049373
9860.00   3.86826992   0.11402060
9862.00   3.89438725   0.12000645
9864.00   3.90024662   0.12923647
9866.00   3.73101759   0.13733408
9868.00   3.20580506   0.14838877
9870.00   3.02976179   0.15395176
9872.00   3.33529925   0.15543470
9874.00   3.62943673   0.15328458
9876.00   3.45510983   0.14563431
9878.00   2.98286533   0.13152677
9880.00   3.02713084   0.12580206
9882.00   3.55266070   0.12530331
9884.00   3.78843999   0.12657236
9886.00   3.84914327   0.13209139
9888.00   3.85768557   0.13707997
9890.00   3.85054731   0.13962904
9892.00   3.80896258   0.14101778
9894.00   3.77612543   0.14107653
9896.00   3.80089164   0.14033557
9898.00   3.66615415   0.13722530
9900.00   3.29205585   0.12864606
9902.00   3.06878853   0.12361978
9904.00   3.16949677   0.12452049
9906.00   3.37451100   0.12964988
9908.00   3.29500818   0.13929428
9910.00   2.99294257   0.15599686
9912.00   2.85598731   0.16334002
9914.00   2.79368329   0.16409896
9916.00   2.72198653   0.16755956
9918.00   2.57045674   0.17836012
9920.00   2.48691750   0.18580720
9922.00   2.69653893   0.17639756
9924.00   3.18777847   0.14914379
9926.00   3.35948777   0.13683008
9928.00   3.31865239   0.13168243
9930.00   3.33509994   0.13124783
9932.00   3.39728284   0.13597861
9934.00   3.44355416   0.14546946
9936.00   3.42116427   0.15915717
9938.00   3.35015488   0.17603482
9940.00   3.40449047   0.19273971
9942.00   3.63359427   0.21485317
9944.00   3.68354368   0.22689067
9946.00   3.59218645   0.23323105
9948.00   3.47064734   0.23544987
9950.00   3.35750985   0.23244551
9952.00   3.22937560   0.22557777
9954.00   3.09436107   0.22339422
9956.00   2.92337871   0.22543159
9958.00   2.80712032   0.22276925
9960.00   2.66696429   0.21715903
9962.00   2.64688087   0.21071030
9964.00   2.85851502   0.20334122
9966.00   3.12817979   0.19522353
9968.00   3.10656214   0.18759274
9970.00   2.80626655   0.17841695
9972.00   2.81830502   0.17506588
9974.00   3.12967348   0.18055077
9976.00   3.23509455   0.18009149
9978.00   3.02445006   0.17058992
9980.00   2.78924298   0.15948445
9982.00   2.84463000   0.15610023
9984.00   3.10351133   0.15801084
9986.00   3.13873219   0.15572445
9988.00   3.10085750   0.14668164
9990.00   2.95527029   0.14833570
9992.00   2.50944376   0.16408826
9994.00   2.23574352   0.17715514
9996.00   2.53102589   0.17665908
9998.00   3.19765568   0.16869330
10000.00   3.56722569   0.17888212
10002.00   4.01835918   0.20440708
10004.00   4.06677341   0.21886188
10006.00   3.64380312   0.22810487
10008.00   3.24084496   0.23695135
10010.00   3.01666617   0.24875180
10012.00   2.86752844   0.25983158
10014.00   2.82323074   0.26022178
10016.00   3.00925851   0.25086606
10018.00   2.92618775   0.24239723
10020.00   2.56926632   0.22783086
10022.00   2.37366581   0.21659255
10024.00   2.43563557   0.21243271
10026.00   2.61176276   0.21078059
10028.00   2.76710820   0.20494466
10030.00   3.01468134   0.19671094
10032.00   3.05341482   0.18970363
10034.00   2.87235093   0.18110484
10036.00   2.78757048   0.17600204
10038.00   2.86259699   0.17637783
10040.00   2.90492082   0.17777170
10042.00   2.70236683   0.17577174
10044.00   2.30320024   0.17208119
10046.00   2.18779945   0.16907153
10048.00   2.17189384   0.16132212
10050.00   2.33642483   0.16346735
10052.00   2.85597825   0.17747477
10054.00   3.26940179   0.19038959
10056.00   3.27344131   0.19686876
10058.00   3.03529143   0.20053230
10060.00   2.81748152   0.20092373
10062.00   2.40228033   0.19445057
10064.00   2.20663571   0.19370595
10066.00   2.16295648   0.19797684
10068.00   2.16129923   0.20045313
10070.00   2.19271135   0.19706528
10072.00   2.24984169   0.19224423
10074.00   2.22642875   0.19704521
10076.00   2.02949524   0.20837381
10078.00   2.17429662   0.22014162
10080.00   2.73503947   0.24051072
10082.00   3.05410075   0.24980780
10084.00   3.01478028   0.24528417
10086.00   2.82285309   0.23376381
10088.00   2.67212439   0.22198249
10090.00   2.48701286   0.20363997
10092.00   2.24348330   0.19466309
10094.00   1.79204559   0.19203494
10096.00   1.60939014   0.19256496
10098.00   1.75447965   0.19830492
10100.00   1.98661399   0.20517196
10102.00   2.14233828   0.21023035
10104.00   2.31647325   0.21549883
10106.00   2.26771784   0.21340014
10108.00   1.90383768   0.20078616
10110.00   1.77706575   0.19505489
10112.00   1.81858921   0.19062296
10114.00   1.92742586   0.19381319
10116.00   2.09745908   0.20996243
10118.00   2.32298589   0.23301892
10120.00   2.38598585   0.24856062
10122.00   2.34436846   0.26750824
10124.00   2.26357627   0.27286449
10126.00   2.05346203   0.26706570
10128.00   1.90928912   0.25828189
10130.00   1.90831661   0.24692501
10132.00   1.96686196   0.23306490
10134.00   1.95734811   0.22285813
10136.00   1.96217084   0.21083233
10138.00   1.84267235   0.21129169
10140.00   1.51351368   0.22712801
10142.00   1.34466040   0.23688827
10144.00   1.42876065   0.23907000
10146.00   1.57372022   0.23890711
10148.00   1.55241013   0.24006879
10150.00   1.42834425   0.24071434
10152.00   1.40631759   0.24273075
10154.00   1.40012014   0.24771653
10156.00   1.47301328   0.24881944
10158.00   1.62700725   0.24186896
10160.00   1.83947265   0.23831981
10162.00   2.11837792   0.24871741
10164.00   2.47130084   0.26749489
10166.00   2.68587065   0.28335693
10168.00   2.93043566   0.30668566
10170.00   2.89351606   0.31565300
10172.00   2.53432989   0.31267816
10174.00   2.12692952   0.30629534
10176.00   1.75016141   0.29900670
10178.00   1.37264776   0.28947598
10180.00   1.22159040   0.28344589
10182.00   1.28816342   0.27839163
10184.00   1.32547152   0.27640015
10186.00   1.43772781   0.27940983
10188.00   1.53579867   0.28063405
10190.00   1.60663700   0.27776098
10192.00   1.65906000   0.27358335
10194.00   1.66835403   0.27205205
10196.00   1.58830404   0.27033260
10198.00   1.66640675   0.27430680
10200.00   2.04759097   0.28510442
10202.00   2.08260512   0.29330206
10204.00   1.56922090   0.29847261
10206.00   0.97083896   0.30275348
10208.00   0.79003412   0.30791843
10210.00   0.80006808   0.31405917
10212.00   1.07298183   0.31486535
10214.00   1.88390243   0.31042561
10216.00   2.30689335   0.30693594
10218.00   2.38890004   0.30212438
10220.00   2.33517098   0.29919228
10222.00   2.25592279   0.30225497
10224.00   2.09725881   0.30950868
10226.00   1.81988704   0.30950439
10228.00   1.20121741   0.30522153
10230.00   1.01058340   0.29974997
10232.00   1.16163588   0.29040742
10234.00   1.41505301   0.28176561
10236.00   1.78049231   0.27682862
10238.00   2.20293975   0.27341738
10240.00   2.16946411   0.26615447
10242.00   1.65691888   0.25407264
10244.00   1.40513659   0.24656236
10246.00   1.04677987   0.23967950
10248.00   0.99383026   0.23738745
10250.00   1.49750316   0.24271609
10252.00   2.16746378   0.25080517
10254.00   2.30079794   0.25323308
10256.00   2.08619547   0.25207037
10258.00   1.95725691   0.25407252
10260.00   1.68316019   0.25674638
10262.00   1.54886854   0.26113525
10264.00   1.59385622   0.26828727
10266.00   1.69699812   0.27555001
10268.00   1.75011957   0.27963492
10270.00   1.79790914   0.28120321
10272.00   1.86806560   0.28822166
10274.00   2.06473827   0.29481944
10276.00   2.03288531   0.31021604
10278.00   1.70938551   0.31176943
10280.00   1.38594973   0.34743655
10282.00   1.26402938   0.44875833
10284.00   1.23982084   0.56720626
10286.00   1.10964906   0.60871869
10288.00   0.92628419   0.62901533
10290.00   0.74855471   0.60547364
10292.00   0.38296092   0.49673909
10294.00   0.30024415   0.39039740
10296.00   0.78488630   0.36457101
10298.00   1.56325102   0.38418731
10300.00   1.99402726   0.37380540
10302.00   2.46934080   0.35999027
10304.00   2.41929817   0.34658161
10306.00   1.75883496   0.33012214
10308.00   1.21252656   0.31666759
10310.00   0.84331691   0.30803543
10312.00   0.57802778   0.30241165
10314.00   0.47713730   0.29750121
10316.00   0.50347221   0.29366654
10318.00   0.72352773   0.29457629
10320.00   1.36814904   0.30033201
10322.00   1.68032312   0.30699190
10324.00   1.58500540   0.31644627
10326.00   1.38718939   0.32502118
10328.00   1.28966391   0.32788241
10330.00   1.15957987   0.32624167
10332.00   1.42510295   0.33273700
10334.00   2.18395710   0.34642726
10336.00   2.67713857   0.35593128
10338.00   3.05346584   0.36393175
10340.00   3.29030347   0.36952731
10342.00   3.32939053   0.37151408
10344.00   3.20606375   0.37073702
10346.00   3.09233618   0.37047806
10348.00   3.04472136   0.37120435
10350.00   2.67448497   0.36751854
10352.00   1.88815022   0.35908946
10354.00   1.21092224   0.35017037
10356.00   0.75640804   0.34030277
10358.00   0.46045882   0.33090726
10360.00   0.47110599   0.32989532
10362.00   0.85491228   0.33037028
10364.00   1.13081133   0.34801885
10366.00   1.49295747   0.38510787
10368.00   1.80216062   0.41379917
10370.00   2.15337634   0.43676758
10372.00   2.36548829   0.45283899
10374.00   2.04801750   0.45377475
10376.00   1.15340185   0.44021896
10378.00   0.89758593   0.43088090
10380.00   1.15082335   0.41950369
10382.00   1.13285983   0.40644118
10384.00   0.78565890   0.38643554
10386.00   0.42803413   0.37033042
10388.00   0.22541586   0.36982647
10390.00   0.05232286   0.38016221
10392.00   0.57282835   0.39818314
10394.00   2.16847897   0.43450397
10396.00   2.90528226   0.45321724
10398.00   3.05156255   0.46722004
10400.00   2.91334176   0.46664980
10402.00   2.53797340   0.43760273
10404.00   1.91841793   0.38553682
10406.00   1.47207367   0.36495528
10408.00   0.77952909   0.36318853
10410.00   0.74886459   0.36962906
10412.00   1.50224543   0.39796326
10414.00   2.01751614   0.41639003
10416.00   2.01031971   0.41538423
10418.00   1.75225818   0.40738744
10420.00   1.44555891   0.41164753
10422.00   0.86125404   0.42565235
10424.00   0.63353765   0.42820224
10426.00   0.57982749   0.42983285
10428.00   0.66727453   0.41915128
10430.00   0.91763049   0.38329920
10432.00   1.28929079   0.34214842
10434.00   1.78983426   0.33646053
10436.00   2.59541178   0.35913941
10438.00   2.53110433   0.36185464
10440.00   1.46657228   0.36247814
10442.00   0.96310925   0.35426253
10444.00   0.92672980   0.32838100
10446.00   1.10889435   0.30383143
10448.00   1.50214803   0.30295628
10450.00   2.15489411   0.31759310
10452.00   2.14331555   0.31907296
10454.00   1.36217093   0.30531541
10456.00   1.16507494   0.31475234
10458.00   1.36588120   0.34714648
10460.00   1.68189657   0.37576917
10462.00   2.09712052   0.39585310
10464.00   2.58339930   0.41073650
10466.00   2.63574529   0.40506026
10468.00   2.05303097   0.36408031
10470.00   2.13477468   0.35350445
10472.00   2.87734222   0.36764699
10474.00   3.23610330   0.37264019
10476.00   2.82383513   0.35797352
10478.00   2.14065433   0.33593571
10480.00   1.95612228   0.32628983
10482.00   2.06837320   0.32380733
10484.00   2.03041720   0.32071716
10486.00   2.04147124   0.32177633
10488.00   1.92137086   0.32030746
10490.00   1.54471719   0.31314421
10492.00   1.18505692   0.30718303
10494.00   1.17503822   0.31124526
10496.00   1.39118886   0.32237324
10498.00   1.67595756   0.33247614
10500.00   2.26527667   0.34754464
10502.00   2.58444548   0.35642746
10504.00   2.65977073   0.35988835
10506.00   2.63197947   0.36110455
10508.00   2.55371499   0.36249733
10510.00   2.39420581   0.36301002
10512.00   2.32989979   0.35650554
10514.00   2.47676873   0.32911816
10516.00   2.25809002   0.33157670
10518.00   1.55067706   0.36329767
10520.00   1.02804101   0.39146838
10522.00   0.97125328   0.41248500
10524.00   1.17918348   0.42759001
10526.00   1.46284068   0.41198823
10528.00   2.16415119   0.34366053
10530.00   2.31529093   0.31830174
10532.00   1.94834507   0.32293648
10534.00   1.78016949   0.32879120
10536.00   2.05090642   0.33395195
10538.00   2.40784788   0.33911595
10540.00   2.32913756   0.33585742
10542.00   1.86387360   0.32371002
10544.00   1.78931916   0.32063439
10546.00   2.02680874   0.32440582
10548.00   2.08846879   0.32541636
10550.00   1.94627368   0.32317150
10552.00   1.73060143   0.32013312
10554.00   1.49931777   0.31750768
10556.00   1.18007398   0.31401324
10558.00   1.19054973   0.31629980
10560.00   1.55234253   0.32560310
10562.00   1.76665831   0.33080590
10564.00   1.93879044   0.33363074
10566.00   2.01850271   0.33479089
10568.00   1.91280651   0.33315057
10570.00   1.67088819   0.32929239
10572.00   1.62596989   0.33228922
10574.00   1.78378093   0.34313393
10576.00   1.74309170   0.34766975
10578.00   1.45711792   0.34788260
10580.00   1.31687701   0.34835786
10582.00   1.53259456   0.35059375
10584.00   1.90224886   0.35343570
10586.00   1.98799908   0.35620958
10588.00   1.90318942   0.36003059
10590.00   1.83496058   0.36163789
10592.00   1.67783999   0.36065102
10594.00   1.57163751   0.36100534
10596.00   1.54988539   0.36432776
10598.00   1.55772316   0.36778015
10600.00   1.53325486   0.36712343
10602.00   1.50278819   0.36297035
10604.00   1.46032977   0.36127532
10606.00   1.31830490   0.35871989
10608.00   1.34642613   0.35969150
10610.00   1.67224705   0.36659822
10612.00   1.96306169   0.37310553
10614.00   1.87698948   0.37309000
10616.00   1.53631139   0.36888891
10618.00   1.32571769   0.36649311
10620.00   0.95535237   0.36000070
10622.00   0.94021440   0.36182198
10624.00   1.31418741   0.37319764
10626.00   1.75560641   0.38474399
10628.00   2.14336371   0.39303151
10630.00   2.53604507   0.39994726
10632.00   2.64260364   0.39932349
10634.00   2.42783499   0.38848007
10636.00   2.35070086   0.38352361
10638.00   2.32206464   0.38164026
10640.00   2.25120282   0.37904555
10642.00   2.10906363   0.37453723
10644.00   1.92211831   0.36910895
10646.00   1.70941675   0.36356968
10648.00   1.33685648   0.35610050
10650.00   1.30981672   0.35262087
10652.00   1.65822399   0.35355476
10654.00   1.85470724   0.35280833
10656.00   1.80666482   0.34934217
10658.00   1.69199431   0.34508374
10660.00   1.67467499   0.34178576
10662.00   1.66533661   0.33841926
10664.00   1.79016340   0.33685473
10666.00   2.20106459   0.33645600
10668.00   2.31227493   0.33742997
10670.00   2.06760430   0.33396643
10672.00   1.74252331   0.33908433
10674.00   1.50180483   0.37004673
10676.00   1.24303460   0.41796142
10678.00   1.33241892   0.42264777
10680.00   1.82387221   0.39385906
10682.00   2.14960766   0.37042552
10684.00   2.46930718   0.33696547
10686.00   2.67559695   0.30910736
10688.00   2.66350532   0.30287161
10690.00   2.50811315   0.31043330
10692.00   2.47668123   0.30733648
10694.00   2.60337114   0.30143061
10696.00   2.45209551   0.29537904
10698.00   1.92473674   0.28608936
10700.00   1.62535119   0.27965873
10702.00   1.78378165   0.27912858
10704.00   2.13533974   0.28116229
10706.00   2.27379131   0.27985591
10708.00   2.35959315   0.27750096
10710.00   2.37665224   0.27393943
10712.00   2.25115466   0.26844859
10714.00   2.21264315   0.26304734
10716.00   2.32892275   0.25565946
10718.00   2.45310783   0.25027585
10720.00   2.41274309   0.25454319
10722.00   2.26737309   0.26799920
10724.00   2.11050701   0.27002752
10726.00   1.71328545   0.26199868
10728.00   1.68863451   0.26069883
10730.00   2.17721057   0.26983964
10732.00   2.66443586   0.27558437
10734.00   2.72113204   0.26660329
10736.00   2.53390121   0.24668001
10738.00   2.64635301   0.23506682
10740.00   3.14425397   0.22597905
10742.00   3.15041590   0.21847475
10744.00   2.55739665   0.21261936
10746.00   2.14148712   0.20956983
10748.00   2.28912663   0.21081156
10750.00   2.72930026   0.21502554
10752.00   3.03978968   0.21681233
10754.00   3.63457990   0.22141668
10756.00   3.62322187   0.21768199
10758.00   3.01969838   0.20270582
10760.00   2.51387000   0.19213171
10762.00   2.15756011   0.19226497
10764.00   1.94809508   0.19637591
10766.00   2.18788028   0.19530834
10768.00   3.01076508   0.19159666
10770.00   3.25837350   0.18998925
10772.00   3.04348087   0.17915542
10774.00   3.09120178   0.18828791
10776.00   3.56554961   0.22856954
10778.00   4.05247498   0.26229444
10780.00   4.11600351   0.26150918
10782.00   3.90749669   0.23674382
10784.00   3.73108435   0.22242133
10786.00   3.50651860   0.20462087
10788.00   3.17548776   0.19094609
10790.00   2.56507754   0.17996152
10792.00   2.10569501   0.17464635
10794.00   2.16316056   0.18072519
10796.00   2.56223297   0.19517478
10798.00   2.72823453   0.19409484
10800.00   2.95719385   0.18130778
10802.00   2.92787361   0.17075685
10804.00   2.52962351   0.15611739
10806.00   2.25167155   0.14394769
10808.00   2.34140897   0.13938180
10810.00   2.59457469   0.13953798
10812.00   2.61488867   0.13717309
10814.00   2.34835553   0.13377640
10816.00   2.51327181   0.13360564
10818.00   3.21762657   0.13748966
10820.00   3.55621147   0.13953562
10822.00   3.26753378   0.13649675
10824.00   2.73834491   0.13369958
10826.00   2.44105101   0.14089105
10828.00   2.09810567   0.15594037
10830.00   2.14980340   0.16485852
10832.00   2.82846332   0.17956561
10834.00   3.02891636   0.17876521
10836.00   2.51459479   0.15304467
10838.00   1.96446896   0.11836661
10840.00   2.07356644   0.10670918
10842.00   2.62178063   0.11248367
10844.00   2.75184822   0.11298747
10846.00   2.65496731   0.11958212
10848.00   2.61745644   0.11990041
10850.00   2.53922963   0.10942676
10852.00   2.54230881   0.10379354
10854.00   2.83984661   0.11823130
10856.00   3.31234765   0.14084966
10858.00   3.00736475   0.14341225
