# File created by shivutils (I.Shivvers)
# wl(A)   flm    er(optional)
3438.00   0.59193856   0.23671483
3440.00   -0.23756064   0.24245608
3442.00   0.21451284   0.26387632
3444.00   0.27867940   0.28591445
3446.00   0.79756403   0.30504766
3448.00   -0.20740999   0.32115534
3450.00   0.41091871   0.35102689
3452.00   0.21572104   0.35692137
3454.00   0.99439335   0.36576650
3456.00   0.31203324   0.34460476
3458.00   -0.13135824   0.34128696
3460.00   1.06036329   0.34397903
3462.00   0.00465680   0.32760587
3464.00   0.51524484   0.33206716
3466.00   0.15329613   0.32709438
3468.00   0.71125329   0.33217302
3470.00   0.08502834   0.32422942
3472.00   0.41559723   0.32269573
3474.00   0.15622345   0.31704637
3476.00   0.03947534   0.33380267
3478.00   0.49901542   0.36228928
3480.00   0.76077574   0.39476761
3482.00   0.81236160   0.40750366
3484.00   0.10925828   0.37922305
3486.00   0.10551698   0.39368159
3488.00   0.02096801   0.37817320
3490.00   0.96649987   0.37507039
3492.00   0.30063894   0.35527441
3494.00   -0.12874167   0.34866571
3496.00   0.01113778   0.32852018
3498.00   0.61152935   0.34027275
3500.00   0.23987527   0.33690429
3502.00   0.74972731   0.33240619
3504.00   -0.21383171   0.32716167
3506.00   0.80413479   0.32082561
3508.00   0.13645446   0.31854987
3510.00   0.43945891   0.33527809
3512.00   0.24170503   0.32298297
3514.00   0.82874495   0.31988603
3516.00   0.60097665   0.31436682
3518.00   0.95905733   0.32509476
3520.00   0.26461318   0.30624893
3522.00   0.73427987   0.31135592
3524.00   0.35903367   0.30217814
3526.00   0.26174796   0.30036384
3528.00   0.27056450   0.29378083
3530.00   0.74927664   0.31286162
3532.00   0.42658344   0.30401975
3534.00   0.60517293   0.30920342
3536.00   0.67360687   0.30803120
3538.00   0.55354893   0.32478964
3540.00   1.02231598   0.35483617
3542.00   0.64676082   0.37171373
3544.00   0.25375018   0.37286064
3546.00   1.20224428   0.38090014
3548.00   0.69254124   0.36373836
3550.00   0.79147714   0.35921201
3552.00   0.57740617   0.37081373
3554.00   0.24229711   0.36969188
3556.00   0.49097508   0.36469591
3558.00   0.96739173   0.36024195
3560.00   1.10743070   0.35280952
3562.00   0.60761166   0.33672911
3564.00   0.77103758   0.32786363
3566.00   0.75765926   0.32865259
3568.00   1.15664387   0.32848230
3570.00   0.27563837   0.30963540
3572.00   0.17657693   0.31871819
3574.00   0.43904901   0.31670800
3576.00   0.93601328   0.30684602
3578.00   1.13823819   0.31342307
3580.00   0.53465420   0.29955009
3582.00   -0.24649322   0.29093325
3584.00   0.63621753   0.27967182
3586.00   0.88689142   0.27416244
3588.00   0.80213439   0.28843474
3590.00   0.78378850   0.29070830
3592.00   0.39278960   0.27790317
3594.00   -0.04926168   0.26785606
3596.00   0.47249445   0.27367783
3598.00   0.58952588   0.27751410
3600.00   0.69832575   0.26555881
3602.00   0.13820817   0.26118946
3604.00   0.46031728   0.26013559
3606.00   1.13640046   0.26140276
3608.00   0.83289492   0.25871912
3610.00   0.55096287   0.26529139
3612.00   0.26128706   0.27729544
3614.00   0.25737491   0.28257728
3616.00   0.63051778   0.29037845
3618.00   0.40834299   0.26896095
3620.00   0.77220410   0.27331653
3622.00   1.15133119   0.27763563
3624.00   0.59578580   0.26684046
3626.00   0.86654055   0.26711959
3628.00   -0.04695905   0.27233961
3630.00   0.09798968   0.29045412
3632.00   0.54005390   0.28651521
3634.00   0.35604775   0.27774423
3636.00   0.72606456   0.27673113
3638.00   0.80571961   0.27345920
3640.00   0.97223985   0.28430012
3642.00   0.94263208   0.29313377
3644.00   0.66062236   0.29740945
3646.00   0.91008216   0.31144711
3648.00   1.11904967   0.42529985
3650.00   -0.00029939   0.47581294
3652.00   0.42665672   0.42714575
3654.00   0.78077286   0.38461128
3656.00   0.27498898   0.34305063
3658.00   0.18505187   0.28621376
3660.00   1.15312254   0.30139402
3662.00   0.25942069   0.34006965
3664.00   0.28519118   0.32468584
3666.00   0.76486212   0.25752586
3668.00   0.74463046   0.23649007
3670.00   0.42476538   0.23111750
3672.00   0.98133111   0.23039669
3674.00   0.44165710   0.21457024
3676.00   0.88046974   0.21836333
3678.00   0.55032772   0.21030658
3680.00   0.85432452   0.21347021
3682.00   0.65100294   0.20750034
3684.00   0.80248839   0.20293261
3686.00   1.01894021   0.20335287
3688.00   0.88438869   0.20548052
3690.00   0.62967980   0.20202760
3692.00   0.11230192   0.20907740
3694.00   0.83541912   0.20699127
3696.00   0.46960843   0.19937514
3698.00   1.10747004   0.21806975
3700.00   1.05608642   0.22342813
3702.00   0.91376358   0.22037157
3704.00   0.49109542   0.21044482
3706.00   0.93820447   0.21339427
3708.00   0.90366715   0.20811309
3710.00   0.44946927   0.19858496
3712.00   0.80641741   0.20174374
3714.00   1.13843274   0.20712349
3716.00   1.26428950   0.20101580
3718.00   1.25881815   0.20136452
3720.00   1.09603989   0.20548719
3722.00   0.69180888   0.18812604
3724.00   0.42673880   0.18780868
3726.00   0.62149388   0.19319718
3728.00   0.73863971   0.19923215
3730.00   0.55610609   0.19852468
3732.00   0.60750693   0.20434642
3734.00   0.43239498   0.20175928
3736.00   0.85225958   0.20711033
3738.00   0.46690869   0.20743479
3740.00   1.14458919   0.22031474
3742.00   0.84061182   0.20897038
3744.00   0.75102466   0.19843204
3746.00   0.75686693   0.19106773
3748.00   0.54027033   0.19176641
3750.00   0.60086769   0.18951425
3752.00   0.89922148   0.18797876
3754.00   0.76633757   0.18782972
3756.00   1.02775979   0.18799719
3758.00   0.70230311   0.18151477
3760.00   1.10902834   0.18199998
3762.00   0.72504967   0.16950539
3764.00   0.21757868   0.16291991
3766.00   0.72602671   0.16953719
3768.00   0.41374251   0.16040932
3770.00   0.73789907   0.17169553
3772.00   0.83412063   0.17560984
3774.00   0.43202090   0.16837114
3776.00   0.92003518   0.17385861
3778.00   0.62818193   0.16639104
3780.00   0.43249711   0.16313176
3782.00   0.46913147   0.16452909
3784.00   0.87072390   0.17377959
3786.00   1.72724748   0.18890002
3788.00   3.33722401   0.21773219
3790.00   2.91164184   0.21845256
3792.00   1.24663174   0.18978187
3794.00   0.82281935   0.17380340
3796.00   0.76759899   0.16542687
3798.00   0.67925954   0.16156790
3800.00   0.53900719   0.15941054
3802.00   0.78568512   0.16865768
3804.00   0.68922830   0.16642708
3806.00   0.22607730   0.15819561
3808.00   0.31859535   0.15589896
3810.00   0.51282716   0.15873258
3812.00   0.51760668   0.16633856
3814.00   0.21690777   0.16659825
3816.00   0.56718117   0.16572283
3818.00   0.49494088   0.16412561
3820.00   0.21989642   0.16479589
3822.00   0.50451314   0.16366518
3824.00   0.34221411   0.16375847
3826.00   0.28279218   0.16729613
3828.00   0.38901514   0.17934757
3830.00   0.77424592   0.18931076
3832.00   0.55417550   0.18442388
3834.00   0.44847059   0.17541575
3836.00   0.48839095   0.17079045
3838.00   0.54115993   0.17171197
3840.00   0.47366697   0.17231557
3842.00   0.56604612   0.16977368
3844.00   0.28772551   0.16388251
3846.00   0.24068458   0.16211636
3848.00   0.30397195   0.15840411
3850.00   0.09469754   0.15276220
3852.00   0.20330589   0.15163548
3854.00   0.55912948   0.15588208
3856.00   0.58922189   0.15482873
3858.00   0.41341227   0.14624752
3860.00   0.13899484   0.14516458
3862.00   0.16873887   0.14854188
3864.00   0.57028204   0.15390968
3866.00   0.18339494   0.14561035
3868.00   0.31672519   0.14254135
3870.00   0.46180433   0.14338762
3872.00   0.22582114   0.14842117
3874.00   0.30530253   0.15609211
3876.00   0.39927536   0.15437745
3878.00   0.42676175   0.14297238
3880.00   0.42111030   0.14004087
3882.00   0.26378146   0.13763602
3884.00   0.49604109   0.14105929
3886.00   0.43963316   0.13904659
3888.00   0.19043443   0.13571005
3890.00   0.33642206   0.13669670
3892.00   0.43517751   0.13913924
3894.00   0.44045642   0.14285959
3896.00   0.29954439   0.14237498
3898.00   0.51889461   0.14419894
3900.00   0.29295325   0.14297932
3902.00   0.17500554   0.14468773
3904.00   0.17602152   0.16243523
3906.00   -0.24833097   0.19163433
3908.00   0.22296393   0.20390987
3910.00   0.64735520   0.20572960
3912.00   0.47594860   0.20020312
3914.00   0.47184068   0.18500504
3916.00   0.58304423   0.16722637
3918.00   0.60882676   0.15771089
3920.00   0.45575455   0.14795229
3922.00   0.51092225   0.14602926
3924.00   0.34161019   0.14124657
3926.00   0.32915175   0.13925080
3928.00   0.41702232   0.13767582
3930.00   0.45035964   0.14129283
3932.00   0.35304901   0.15189877
3934.00   0.41251042   0.15187109
3936.00   0.39664161   0.13755032
3938.00   0.15909682   0.13555387
3940.00   0.51218969   0.14541370
3942.00   0.22907986   0.15440424
3944.00   0.51465416   0.16086772
3946.00   0.30501938   0.15133101
3948.00   0.04345506   0.14089859
3950.00   0.51301229   0.13943493
3952.00   0.68459678   0.14065084
3954.00   0.37656152   0.13404813
3956.00   0.38519210   0.13052148
3958.00   0.51436853   0.13665017
3960.00   0.43819860   0.14615977
3962.00   0.58864051   0.14572047
3964.00   0.62729353   0.13373801
3966.00   0.52771413   0.12665342
3968.00   0.84679568   0.12737247
3970.00   0.57240891   0.12152863
3972.00   0.66679823   0.12961538
3974.00   0.53937685   0.12896208
3976.00   0.59365845   0.12759461
3978.00   0.81952888   0.13737392
3980.00   0.74728280   0.13093163
3982.00   0.82557297   0.13018773
3984.00   0.71757638   0.12805371
3986.00   0.55581605   0.12637870
3988.00   0.66144758   0.12824079
3990.00   1.01243508   0.13195097
3992.00   1.03606272   0.13149174
3994.00   1.00811112   0.13889456
3996.00   0.73152781   0.14328617
3998.00   0.76045650   0.14198659
4000.00   0.97223216   0.13342029
4002.00   0.96309751   0.12928881
4004.00   0.92022133   0.13182215
4006.00   1.06982803   0.13580519
4008.00   1.05004954   0.13820043
4010.00   0.90361220   0.13935560
4012.00   1.12443542   0.13940416
4014.00   0.91634679   0.13360646
4016.00   0.84488904   0.13504545
4018.00   0.81380910   0.15521613
4020.00   0.62483972   0.17081055
4022.00   0.54908437   0.17714965
4024.00   1.18329489   0.17506479
4026.00   0.99341619   0.15513255
4028.00   0.59769958   0.14172232
4030.00   0.64969480   0.13966730
4032.00   0.87070239   0.13869327
4034.00   0.89628989   0.13601667
4036.00   1.07250178   0.13505010
4038.00   0.89037609   0.13136606
4040.00   0.92935282   0.13245614
4042.00   0.81648314   0.14798455
4044.00   0.75234109   0.26327136
4046.00   1.12655222   0.33067569
4048.00   1.52168560   0.28511161
4050.00   0.83209628   0.17969884
4052.00   1.06310952   0.14879301
4054.00   1.05732942   0.14970601
4056.00   1.01904380   0.14263481
4058.00   1.12265539   0.13460389
4060.00   0.97236919   0.13107684
4062.00   0.90100235   0.12893412
4064.00   1.02109396   0.13194545
4066.00   0.91867244   0.13114072
4068.00   0.96943247   0.12991667
4070.00   0.88924396   0.12522131
4072.00   1.23023784   0.12650248
4074.00   1.06606305   0.13508616
4076.00   0.79202014   0.15829010
4078.00   1.06326532   0.16845830
4080.00   1.10950661   0.15336350
4082.00   0.85360801   0.14315724
4084.00   1.21785235   0.14355101
4086.00   1.38048971   0.14201061
4088.00   1.11163902   0.13184534
4090.00   1.01357698   0.12106915
4092.00   1.00508130   0.12006161
4094.00   1.12971199   0.12101404
4096.00   1.18337011   0.12049095
4098.00   0.86405766   0.11652418
4100.00   0.83567697   0.11663877
4102.00   0.95556915   0.11426724
4104.00   1.13765907   0.11523435
4106.00   0.78672820   0.11380125
4108.00   0.93826038   0.11619741
4110.00   1.02517796   0.11727410
4112.00   0.89451325   0.12064904
4114.00   1.09740627   0.11581818
4116.00   1.03091753   0.11560483
4118.00   1.28385997   0.11607439
4120.00   1.14897859   0.11274664
4122.00   0.95220041   0.11146197
4124.00   1.21893322   0.11588199
4126.00   0.97674423   0.11259277
4128.00   1.16594589   0.11722184
4130.00   1.23325145   0.12151359
4132.00   0.96959549   0.12299613
4134.00   1.12866592   0.12356065
4136.00   1.24718797   0.11972247
4138.00   0.85222852   0.11901280
4140.00   1.07204390   0.12317985
4142.00   1.08674216   0.11607761
4144.00   1.05198443   0.11038259
4146.00   1.21395683   0.11289191
4148.00   1.05321145   0.10996599
4150.00   0.94210219   0.11667662
4152.00   0.99747431   0.12303150
4154.00   0.95730358   0.11932054
4156.00   1.19574893   0.11632694
4158.00   0.99698025   0.11243994
4160.00   0.97800636   0.11315977
4162.00   1.11857200   0.12194626
4164.00   1.16426373   0.13079497
4166.00   0.97772217   0.12912226
4168.00   0.97718918   0.11839593
4170.00   1.21379888   0.11703227
4172.00   1.08329487   0.11246020
4174.00   0.84100622   0.10731847
4176.00   1.02605700   0.11078918
4178.00   0.81095922   0.10971119
4180.00   0.65476376   0.10604011
4182.00   0.89336598   0.10575350
4184.00   0.92484272   0.10603185
4186.00   0.94273794   0.10650581
4188.00   0.99497002   0.10651273
4190.00   0.95838737   0.10496761
4192.00   1.01034796   0.10641380
4194.00   0.91030484   0.10430891
4196.00   1.07449508   0.10572165
4198.00   0.95383650   0.10292304
4200.00   0.99255925   0.10331748
4202.00   0.87465578   0.10337014
4204.00   0.89341027   0.10474256
4206.00   0.77989072   0.10486909
4208.00   1.08494997   0.10944637
4210.00   1.19126940   0.11262328
4212.00   1.07476044   0.11006092
4214.00   1.16485405   0.10969204
4216.00   1.18495905   0.10912237
4218.00   0.91773582   0.10566778
4220.00   0.96106714   0.10604674
4222.00   1.19858277   0.10842565
4224.00   1.25290799   0.10900047
4226.00   0.87555110   0.10445625
4228.00   0.98958695   0.10431221
4230.00   1.26970541   0.11082771
4232.00   0.98355806   0.10957336
4234.00   0.90820265   0.10943472
4236.00   1.06224239   0.11463286
4238.00   1.02980697   0.11295495
4240.00   0.87344617   0.10692079
4242.00   0.90060890   0.10517788
4244.00   1.01603210   0.12164783
4246.00   0.72676331   0.13291600
4248.00   1.03285694   0.13117604
4250.00   1.02769887   0.11456603
4252.00   1.08120394   0.10847376
4254.00   0.92768264   0.10685394
4256.00   0.81644189   0.10710371
4258.00   1.12952006   0.10984486
4260.00   0.92472512   0.10612407
4262.00   0.92383701   0.10511773
4264.00   0.78445357   0.10335927
4266.00   0.97926432   0.10521603
4268.00   1.00023413   0.10532753
4270.00   0.86774564   0.10515185
4272.00   1.02464116   0.10709317
4274.00   0.99548078   0.10785342
4276.00   1.22375584   0.10986120
4278.00   1.14730322   0.11032138
4280.00   1.34168756   0.11193929
4282.00   0.95058781   0.10887245
4284.00   1.10387909   0.11029921
4286.00   1.23932886   0.11006324
4288.00   1.11020315   0.10836588
4290.00   1.07898414   0.10593864
4292.00   1.07355320   0.10887729
4294.00   1.16773820   0.10926653
4296.00   1.19171107   0.10995367
4298.00   0.99069035   0.10607935
4300.00   1.07876003   0.10633818
4302.00   1.03578365   0.10579562
4304.00   0.86156577   0.10597344
4306.00   1.00195193   0.10972635
4308.00   0.72645074   0.10686225
4310.00   0.95622993   0.11138256
4312.00   0.60579908   0.12207022
4314.00   0.72763354   0.12663634
4316.00   0.85185373   0.12003361
4318.00   0.80544513   0.12201181
4320.00   0.88816863   0.12384733
4322.00   0.78827322   0.12292800
4324.00   0.74642450   0.12052360
4326.00   0.88738024   0.11656578
4328.00   0.89074206   0.11223385
4330.00   0.72022909   0.10736984
4332.00   1.00560093   0.11007424
4334.00   0.89176661   0.11101532
4336.00   0.80413866   0.11330572
4338.00   0.81392330   0.11604441
4340.00   0.76633793   0.11645190
4342.00   0.86975700   0.11626254
4344.00   0.84923166   0.12142423
4346.00   0.59735578   0.12680615
4348.00   0.57484621   0.12763105
4350.00   0.80102187   0.12430298
4352.00   0.62272024   0.12081517
4354.00   0.78782243   0.16671436
4356.00   1.05493641   0.29452440
4358.00   1.02702463   0.34458256
4360.00   0.90819913   0.28495079
4362.00   0.91242367   0.19399337
4364.00   0.87066013   0.14059928
4366.00   0.98813134   0.12985949
4368.00   1.01281726   0.12618123
4370.00   0.83074546   0.12489164
4372.00   0.93407047   0.12847391
4374.00   0.98678982   0.13039716
4376.00   0.91411668   0.12653348
4378.00   1.06519675   0.12385808
4380.00   1.24180317   0.12102278
4382.00   1.06182790   0.11763888
4384.00   0.92442375   0.11572088
4386.00   1.04561901   0.11595601
4388.00   0.90694547   0.11454098
4390.00   1.02234566   0.11544704
4392.00   0.88310218   0.11530529
4394.00   1.12924767   0.11627562
4396.00   0.74673617   0.11438178
4398.00   0.95585257   0.12054023
4400.00   0.81010920   0.12220364
4402.00   0.96783412   0.12250867
4404.00   0.83616817   0.11789553
4406.00   0.91500604   0.11742662
4408.00   0.86660451   0.11770790
4410.00   1.36643910   0.12282013
4412.00   1.55471170   0.12686053
4414.00   1.03135467   0.12586741
4416.00   1.11576402   0.12541290
4418.00   0.85529518   0.12042771
4420.00   0.90068984   0.11860746
4422.00   0.73339933   0.11763167
4424.00   0.89441454   0.11760866
4426.00   1.04231203   0.11896711
4428.00   0.94557601   0.11816464
4430.00   0.88838995   0.11649013
4432.00   0.97905797   0.11664089
4434.00   1.10997927   0.11659936
4436.00   0.98980850   0.11566579
4438.00   1.01569343   0.11666839
4440.00   0.99715167   0.11558736
4442.00   1.21420956   0.11580741
4444.00   1.03364742   0.11373971
4446.00   0.87532777   0.11132203
4448.00   0.86159801   0.11174165
4450.00   0.82348543   0.11107007
4452.00   0.84274721   0.11097229
4454.00   0.87220591   0.11059967
4456.00   0.58782077   0.10896973
4458.00   0.75756049   0.11046696
4460.00   0.61346310   0.10813683
4462.00   0.75585014   0.10952131
4464.00   0.98474294   0.11071470
4466.00   0.63807172   0.10827502
4468.00   0.81344622   0.10859615
4470.00   0.73523146   0.10686308
4472.00   0.47602078   0.10484619
4474.00   0.85572052   0.10787383
4476.00   1.00737154   0.10755450
4478.00   0.88205522   0.10683377
4480.00   0.88510150   0.10694558
4482.00   0.57191658   0.10486936
4484.00   0.70172924   0.10589758
4486.00   0.78368717   0.10675475
4488.00   0.85021007   0.10678480
4490.00   0.93018025   0.10658831
4492.00   1.01889014   0.10976117
4494.00   0.88292408   0.10946197
4496.00   0.92984617   0.10971922
4498.00   0.79809684   0.10757983
4500.00   0.74412662   0.10731966
4502.00   1.07466507   0.10794736
4504.00   0.70347828   0.10537231
4506.00   0.83996898   0.10630879
4508.00   0.68199056   0.10479684
4510.00   0.75167489   0.10370621
4512.00   0.91575974   0.10476521
4514.00   0.93626678   0.10494697
4516.00   0.84361982   0.10320240
4518.00   0.93078768   0.10329189
4520.00   0.79930902   0.10222105
4522.00   0.97775578   0.10358926
4524.00   0.91078532   0.10322080
4526.00   0.94963837   0.10197679
4528.00   0.99272811   0.10343231
4530.00   0.83290470   0.10275946
4532.00   0.88772315   0.10325266
4534.00   1.00232780   0.10388973
4536.00   1.02618372   0.10363091
4538.00   0.89970803   0.10073519
4540.00   1.04566753   0.10311268
4542.00   0.91681451   0.10360561
4544.00   1.00948739   0.10596159
4546.00   0.99174309   0.10349809
4548.00   1.30318344   0.10315506
4550.00   0.92243159   0.10075130
4552.00   0.81159002   0.09925492
4554.00   0.76763141   0.09782873
4556.00   1.08483374   0.10057609
4558.00   0.97240257   0.09921274
4560.00   1.00459421   0.09860750
4562.00   0.87220424   0.09706538
4564.00   0.95396638   0.09540912
4566.00   0.92161918   0.09562624
4568.00   0.89775151   0.09472892
4570.00   0.95924443   0.09549820
4572.00   0.80145848   0.09545764
4574.00   0.91708654   0.09701317
4576.00   0.93414021   0.09496452
4578.00   0.84582418   0.09406139
4580.00   0.75802356   0.09208583
4582.00   0.97593832   0.09220023
4584.00   0.98757595   0.09190674
4586.00   0.98005003   0.09215056
4588.00   0.89677948   0.09097901
4590.00   0.87931973   0.09149169
4592.00   0.80244261   0.09118082
4594.00   0.96815735   0.09318982
4596.00   0.77875119   0.09050184
4598.00   0.83509988   0.09007833
4600.00   0.96711403   0.09008680
4602.00   1.01029551   0.09046500
4604.00   1.10846126   0.09102084
4606.00   0.99444228   0.09012045
4608.00   1.08729994   0.09187409
4610.00   1.09615338   0.09230013
4612.00   0.92244810   0.08997060
4614.00   1.14958966   0.09139567
4616.00   1.21469402   0.09148242
4618.00   1.14232183   0.08953215
4620.00   1.18087554   0.08974465
4622.00   1.09809291   0.08897224
4624.00   1.12948489   0.08913717
4626.00   1.13991022   0.08896191
4628.00   1.29804337   0.09034676
4630.00   1.31426382   0.09017599
4632.00   1.24969363   0.08966012
4634.00   1.16721201   0.08804908
4636.00   1.30055165   0.08828719
4638.00   1.26602364   0.08916490
4640.00   1.47421193   0.09019466
4642.00   1.22498751   0.08818942
4644.00   1.51171529   0.08938655
4646.00   1.39698601   0.08914201
4648.00   1.18496644   0.08809974
4650.00   1.24504185   0.08919757
4652.00   1.23181236   0.09003156
4654.00   1.29116666   0.09069177
4656.00   1.18852246   0.09073021
4658.00   1.20367444   0.09269319
4660.00   1.40835369   0.09659627
4662.00   1.46983194   0.09845458
4664.00   1.40340042   0.09983518
4666.00   1.27967954   0.10143699
4668.00   1.36844230   0.10488322
4670.00   1.49268746   0.10574865
4672.00   1.20618677   0.10217784
4674.00   1.42507923   0.10132238
4676.00   1.38610196   0.09936021
4678.00   1.45169353   0.09715076
4680.00   1.62947237   0.09721129
4682.00   1.42563331   0.09446487
4684.00   1.29129219   0.09264225
4686.00   1.46232247   0.09331240
4688.00   1.34593284   0.09154705
4690.00   1.15236390   0.08958186
4692.00   1.31023753   0.09097751
4694.00   1.46610022   0.09116900
4696.00   1.35830557   0.08949140
4698.00   1.39200413   0.08820586
4700.00   1.32148075   0.08788972
4702.00   1.34013319   0.08931652
4704.00   1.11350143   0.08801092
4706.00   1.14450324   0.08992589
4708.00   1.19902813   0.09146710
4710.00   1.13518274   0.09009768
4712.00   1.26263034   0.09074304
4714.00   1.45279455   0.09155303
4716.00   1.21765709   0.08796504
4718.00   1.35582542   0.08794543
4720.00   1.29447007   0.08783062
4722.00   1.23988855   0.08777745
4724.00   1.35486543   0.08927090
4726.00   1.41733646   0.09425723
4728.00   1.46423912   0.09852061
4730.00   1.13524449   0.09785874
4732.00   1.51960361   0.10176678
4734.00   1.27831030   0.10123666
4736.00   1.27126443   0.10363925
4738.00   1.27740371   0.10646797
4740.00   1.12739050   0.10888778
4742.00   1.29044199   0.11234520
4744.00   1.36777806   0.10878739
4746.00   1.30359364   0.09872422
4748.00   1.34490943   0.09271988
4750.00   1.32730138   0.09215218
4752.00   1.37654936   0.09373413
4754.00   1.28755367   0.09111523
4756.00   1.37973452   0.08776083
4758.00   1.34015119   0.08505210
4760.00   1.38924611   0.08392068
4762.00   1.48297203   0.08368640
4764.00   1.54397798   0.08353223
4766.00   1.43693972   0.08155215
4768.00   1.42969394   0.08124211
4770.00   1.40379882   0.08080959
4772.00   1.19046986   0.07837013
4774.00   1.28448510   0.07962804
4776.00   1.31550050   0.08341050
4778.00   1.26025367   0.08430605
4780.00   1.56781006   0.08729775
4782.00   1.50689983   0.08426557
4784.00   1.54360759   0.08328115
4786.00   1.41679716   0.08052342
4788.00   1.46006501   0.08184878
4790.00   1.44240642   0.08216225
4792.00   1.43514037   0.08202804
4794.00   1.36745179   0.07996374
4796.00   1.36213779   0.07919046
4798.00   1.29968429   0.07866374
4800.00   1.38787270   0.07891994
4802.00   1.19198763   0.07739544
4804.00   1.40071177   0.07890932
4806.00   1.56692612   0.08067326
4808.00   1.19302809   0.07825427
4810.00   1.21499348   0.07903853
4812.00   1.33485627   0.08032519
4814.00   1.34286559   0.08012271
4816.00   1.31401062   0.08036064
4818.00   1.53926373   0.08277436
4820.00   1.27564597   0.08156504
4822.00   1.36004853   0.08309606
4824.00   1.32115746   0.08318992
4826.00   1.29587913   0.08379769
4828.00   1.54196823   0.08581782
4830.00   1.34087920   0.08425880
4832.00   1.26077378   0.08467831
4834.00   1.22191262   0.08402801
4836.00   1.31519163   0.08552200
4838.00   1.18672490   0.08643726
4840.00   1.33970571   0.08831313
4842.00   1.16731763   0.08470459
4844.00   1.21234071   0.08415768
4846.00   1.18108845   0.08398658
4848.00   1.26560926   0.08501673
4850.00   1.33403420   0.08554908
4852.00   1.25428462   0.08551729
4854.00   1.25322175   0.08429348
4856.00   1.24398935   0.08223584
4858.00   1.21090293   0.08267115
4860.00   1.17494953   0.08255697
4862.00   1.16855121   0.08312693
4864.00   1.25936317   0.08412205
4866.00   1.22719085   0.08408182
4868.00   1.17689204   0.08335476
4870.00   1.40002990   0.08541286
4872.00   1.33999598   0.08525576
4874.00   1.29798639   0.08597983
4876.00   1.12871385   0.08477866
4878.00   1.14233673   0.08480616
4880.00   1.21434367   0.08608844
4882.00   1.31800056   0.08558068
4884.00   1.15733707   0.08342402
4886.00   1.28896630   0.08390519
4888.00   1.14464068   0.08219440
4890.00   1.22875583   0.08254334
4892.00   1.21501470   0.08233672
4894.00   1.01753724   0.08166821
4896.00   1.27295041   0.08382777
4898.00   1.12452471   0.08199584
4900.00   1.02352989   0.08052066
4902.00   1.18366599   0.08135682
4904.00   1.01955986   0.08034957
4906.00   1.07626629   0.08188466
4908.00   1.21223569   0.08427782
4910.00   1.04147792   0.08236896
4912.00   1.07124734   0.08311614
4914.00   0.96412849   0.08231203
4916.00   1.09362233   0.08407231
4918.00   0.95369923   0.08196114
4920.00   0.98350650   0.08261106
4922.00   0.84147012   0.08060657
4924.00   1.17042625   0.08205751
4926.00   1.07777166   0.08026633
4928.00   0.95128274   0.07839958
4930.00   0.82143116   0.07740612
4932.00   0.95922542   0.07909656
4934.00   1.07056463   0.07977759
4936.00   0.98132074   0.07944967
4938.00   1.21384370   0.08363253
4940.00   1.70078385   0.08842640
4942.00   1.28864396   0.08420423
4944.00   1.12541687   0.08095323
4946.00   1.00205612   0.07966494
4948.00   0.88815361   0.07888364
4950.00   0.85140991   0.07867099
4952.00   0.81872988   0.07993659
4954.00   0.79130423   0.08070815
4956.00   0.75496948   0.07943086
4958.00   0.82321209   0.07920850
4960.00   0.69163275   0.07828645
4962.00   0.74379981   0.07882963
4964.00   0.63950121   0.07892993
4966.00   0.57238609   0.08012059
4968.00   0.48981300   0.08134477
4970.00   0.61917585   0.08442800
4972.00   0.55829829   0.08868963
4974.00   0.59680676   0.09312437
4976.00   0.64988858   0.09851661
4978.00   0.59067041   0.10578892
4980.00   0.59359431   0.11154297
4982.00   0.49328148   0.11455255
4984.00   0.79043245   0.11516632
4986.00   0.81123859   0.11136056
4988.00   0.62905800   0.10478297
4990.00   0.34321520   0.09741800
4992.00   0.65418679   0.09431618
4994.00   0.58348596   0.08962321
4996.00   0.67073178   0.08534718
4998.00   0.65301549   0.08207942
5000.00   0.48132101   0.08288791
5002.00   0.62610728   0.07805723
5004.00   0.59860885   0.07699162
5006.00   0.80570918   0.07571797
5008.00   0.74841219   0.07487293
5010.00   0.48210871   0.07111674
5012.00   0.68547571   0.07277859
5014.00   0.53869379   0.07141001
5016.00   0.81901455   0.07483279
5018.00   0.83109975   0.07698510
5020.00   0.87969774   0.07681409
5022.00   0.67515481   0.07421604
5024.00   0.91401714   0.07509074
5026.00   0.95108908   0.07536764
5028.00   0.93824685   0.07613678
5030.00   1.00244498   0.07774075
5032.00   0.87277359   0.07567462
5034.00   0.84714121   0.07383565
5036.00   1.15313780   0.07512669
5038.00   1.06028092   0.07441558
5040.00   1.23946166   0.07518863
5042.00   1.10218155   0.07469787
5044.00   1.07669330   0.07470347
5046.00   1.19050264   0.07588164
5048.00   1.17629790   0.07544667
5050.00   1.14841247   0.07503037
5052.00   1.07033110   0.07459659
5054.00   1.08554327   0.07455407
5056.00   1.22473538   0.07516275
5058.00   1.22493291   0.07647661
5060.00   1.21382105   0.07712919
5062.00   1.36930788   0.08093408
5064.00   1.38283610   0.08298175
5066.00   1.44574845   0.08484196
5068.00   1.51759017   0.08937856
5070.00   1.46213901   0.09029243
5072.00   1.31343889   0.08702210
5074.00   1.57790267   0.08632416
5076.00   1.34340334   0.08420558
5078.00   1.43765092   0.08892214
5080.00   1.75583386   0.09998605
5082.00   1.59682131   0.10887866
5084.00   1.75656557   0.11610685
5086.00   2.12465215   0.11900628
5088.00   2.15441632   0.11239508
5090.00   2.03630447   0.10270579
5092.00   2.02346110   0.09607251
5094.00   1.76505578   0.09073835
5096.00   1.80253875   0.09225723
5098.00   1.58088028   0.09394364
5100.00   1.57954574   0.09357938
5102.00   1.66616309   0.09070768
5104.00   1.89624846   0.08922475
5106.00   1.84104574   0.08704706
5108.00   1.79415727   0.08512578
5110.00   1.75905454   0.08575382
5112.00   1.75653052   0.08623061
5114.00   1.77147520   0.08672903
5116.00   1.73234725   0.08671346
5118.00   1.73426044   0.08597554
5120.00   1.78142512   0.08524536
5122.00   1.66886127   0.08367621
5124.00   1.54024076   0.08172867
5126.00   1.51369047   0.08092010
5128.00   1.67455995   0.08208586
5130.00   1.61942530   0.08240516
5132.00   1.53187788   0.08147935
5134.00   1.57798994   0.08225583
5136.00   1.67388880   0.08260143
5138.00   1.54566622   0.08152311
5140.00   1.59918904   0.08281633
5142.00   1.47668374   0.08190438
5144.00   1.27878308   0.08187146
5146.00   1.26736546   0.08332821
5148.00   1.31814194   0.08576237
5150.00   1.12056637   0.08768827
5152.00   1.07383537   0.09116925
5154.00   1.28559291   0.09362617
5156.00   1.19469786   0.08984118
5158.00   1.15185869   0.08630490
5160.00   1.10641873   0.08348376
5162.00   1.13302982   0.08091269
5164.00   1.12883914   0.07936484
5166.00   1.24807191   0.07921639
5168.00   0.96913165   0.07551744
5170.00   1.01821184   0.07572758
5172.00   1.02481413   0.07651051
5174.00   0.97961938   0.07608368
5176.00   0.95740205   0.07680345
5178.00   0.93704766   0.07608841
5180.00   1.09604633   0.07724056
5182.00   1.09238982   0.07730669
5184.00   1.01434946   0.07729298
5186.00   0.98781013   0.07720703
5188.00   1.07605875   0.07796828
5190.00   1.06511188   0.07831298
5192.00   1.02216315   0.07798321
5194.00   1.25052023   0.08071906
5196.00   1.00454152   0.07896473
5198.00   1.10045516   0.08128770
5200.00   1.01331329   0.08095496
5202.00   1.10550010   0.08129393
5204.00   1.05615461   0.08010674
5206.00   1.07180536   0.08028336
5208.00   1.36303127   0.08469293
5210.00   1.17121935   0.08482886
5212.00   1.16360652   0.08488047
5214.00   1.31387675   0.08524137
5216.00   1.31100380   0.08564707
5218.00   1.29348862   0.08616795
5220.00   1.36383319   0.08740294
5222.00   1.43931210   0.08730773
5224.00   1.35448766   0.08572059
5226.00   1.38771975   0.08491988
5228.00   1.41486394   0.08552162
5230.00   1.29623950   0.08555437
5232.00   1.46547365   0.08606888
5234.00   1.54401708   0.08661985
5236.00   1.48887002   0.08641320
5238.00   1.48494339   0.08715646
5240.00   1.59212780   0.08861730
5242.00   1.34074652   0.08596025
5244.00   1.39881599   0.08697478
5246.00   1.36914182   0.08600444
5248.00   1.43584621   0.08650626
5250.00   1.40595043   0.08611874
5252.00   1.41674411   0.08627290
5254.00   1.64226615   0.09006408
5256.00   1.48316634   0.09075701
5258.00   1.47544599   0.09112871
5260.00   1.41415739   0.09025864
5262.00   1.35042870   0.08900607
5264.00   1.36191595   0.08756196
5266.00   1.34854019   0.08635147
5268.00   1.20469046   0.08504166
5270.00   1.46099257   0.08835368
5272.00   1.41993654   0.08864298
5274.00   1.35409737   0.08779137
5276.00   1.38230407   0.08845054
5278.00   1.33711612   0.08787049
5280.00   1.45680952   0.08909450
5282.00   1.41452527   0.09041188
5284.00   1.18470764   0.09054878
5286.00   1.42558050   0.09249707
5288.00   1.48449481   0.09236589
5290.00   1.41579127   0.09091748
5292.00   1.48786891   0.09151967
5294.00   1.32073390   0.09016207
5296.00   1.30754042   0.09001493
5298.00   1.44951880   0.09204543
5300.00   1.45814288   0.09339982
5302.00   1.39298034   0.09360072
5304.00   1.44363332   0.09358244
5306.00   1.51439440   0.09299117
5308.00   1.39853585   0.09331140
5310.00   1.27681780   0.09280551
5312.00   1.29033136   0.09206126
5314.00   1.54852641   0.09494898
5316.00   1.38860297   0.09342945
5318.00   1.26765847   0.09237078
5320.00   1.51874399   0.09498254
5322.00   1.63069487   0.09756929
5324.00   1.49016249   0.09640154
5326.00   1.42021072   0.09553670
5328.00   1.25023437   0.09529077
5330.00   1.44409907   0.09730162
5332.00   1.60787392   0.09938915
5334.00   1.27963841   0.09772842
5336.00   1.47977757   0.09968993
5338.00   1.34625459   0.10042499
5340.00   1.33439875   0.10214268
5342.00   1.38451505   0.10332404
5344.00   1.30961037   0.10224457
5346.00   1.36609173   0.10604071
5348.00   1.44192111   0.10892898
5350.00   1.37830365   0.10808092
5352.00   1.32947266   0.10925034
5354.00   1.25632691   0.11152610
5356.00   1.49338365   0.11235848
5358.00   1.24371099   0.10667603
5360.00   1.25152373   0.10521799
5362.00   1.52868152   0.10576969
5364.00   1.54170549   0.10501680
5366.00   1.45474637   0.10338948
5368.00   1.38860381   0.10352352
5370.00   1.38374829   0.10468432
5372.00   1.47395933   0.10786819
5374.00   1.63825750   0.11156193
5376.00   1.17577982   0.10859939
5378.00   1.28402996   0.10932340
5380.00   1.66999245   0.11191358
5382.00   1.56906307   0.11242472
5384.00   1.51969588   0.11090583
5386.00   1.52863109   0.11114138
5388.00   1.56711805   0.11456459
5390.00   1.66443586   0.11870772
5392.00   1.53175199   0.11930747
5394.00   1.38752186   0.11590936
5396.00   1.65274251   0.11833402
5398.00   1.38949990   0.11721884
5400.00   1.43557215   0.11989980
5402.00   1.65671623   0.12070811
5404.00   1.56257999   0.12144493
5406.00   1.59604800   0.12343463
5408.00   1.79810417   0.12749779
5410.00   1.46715188   0.12565626
5412.00   1.40807307   0.12996027
5414.00   1.47444522   0.13514879
5416.00   1.45339918   0.13810822
5418.00   1.41878998   0.13919988
5420.00   1.53803623   0.14130105
5422.00   1.51874912   0.14154218
5424.00   1.63257301   0.14233463
5426.00   1.42939687   0.14052011
5428.00   1.58659577   0.13933793
5430.00   1.56255329   0.13986152
5432.00   1.33949947   0.13875227
5434.00   1.43228471   0.05241361
5436.00   1.58382428   0.05302011
5438.00   1.69049668   0.05415920
5440.00   1.64140046   0.05651831
5442.00   1.50079656   0.05950559
5444.00   1.46858823   0.05919708
5446.00   1.46711683   0.05353181
5448.00   1.52107239   0.05384395
5450.00   1.67887044   0.05630147
5452.00   1.79352427   0.06277990
5454.00   1.78981876   0.07509926
5456.00   1.74705625   0.08782276
5458.00   1.83255112   0.09244616
5460.00   2.10906243   0.09255798
5462.00   2.08159518   0.09215643
5464.00   1.75982082   0.09064711
5466.00   1.54611444   0.08615201
5468.00   1.49897838   0.07533257
5470.00   1.51088369   0.06160346
5472.00   1.49808812   0.05563331
5474.00   1.50343347   0.05658197
5476.00   1.47923517   0.05587592
5478.00   1.40455925   0.05786467
5480.00   1.38924229   0.05782672
5482.00   1.44794655   0.05534305
5484.00   1.52093375   0.05234175
5486.00   1.56170964   0.05009530
5488.00   1.59158444   0.04778082
5490.00   1.61857677   0.04927449
5492.00   1.64836061   0.05588426
5494.00   1.65413737   0.05831447
5496.00   1.65188384   0.05850118
5498.00   1.61522889   0.05723692
5500.00   1.50087976   0.05378666
5502.00   1.34322572   0.04839614
5504.00   1.33076930   0.04699276
5506.00   1.47370505   0.04981894
5508.00   1.51186287   0.04994033
5510.00   1.50605118   0.04853866
5512.00   1.48982477   0.04771457
5514.00   1.45566797   0.04835672
5516.00   1.42030561   0.04945892
5518.00   1.44937921   0.04945388
5520.00   1.55756474   0.04876428
5522.00   1.57577026   0.04817459
5524.00   1.53242660   0.04739569
5526.00   1.49548113   0.04654424
5528.00   1.45623422   0.04550675
5530.00   1.42870796   0.04448691
5532.00   1.44897902   0.04382356
5534.00   1.51295125   0.04340038
5536.00   1.54536867   0.04314711
5538.00   1.60395360   0.04281309
5540.00   1.58538806   0.04325764
5542.00   1.45567143   0.04527869
5544.00   1.32499623   0.04665902
5546.00   1.27607346   0.04546477
5548.00   1.26925945   0.04237569
5550.00   1.28656936   0.04124803
5552.00   1.37817848   0.04135639
5554.00   1.40127742   0.04109657
5556.00   1.35741043   0.04075859
5558.00   1.32413065   0.04051966
5560.00   1.33987939   0.03994903
5562.00   1.37743127   0.03953352
5564.00   1.39145732   0.04201077
5566.00   1.39657640   0.04298124
5568.00   1.39901888   0.05240672
5570.00   1.37195158   0.06762972
5572.00   1.38461113   0.07908030
5574.00   1.46897864   0.08869181
5576.00   1.58010185   0.09564897
5578.00   1.64588273   0.09505640
5580.00   1.71836436   0.08739208
5582.00   1.68845236   0.07983775
5584.00   1.51387084   0.06583835
5586.00   1.41924715   0.05396014
5588.00   1.40797532   0.04706185
5590.00   1.44902647   0.04322193
5592.00   1.54919994   0.04015830
5594.00   1.73127937   0.03988493
5596.00   1.79132545   0.03964626
5598.00   1.77262151   0.04118948
5600.00   1.74732125   0.04195204
5602.00   1.68256605   0.04254137
5604.00   1.62961411   0.04252688
5606.00   1.62969923   0.04115063
5608.00   1.66220367   0.03863562
5610.00   1.70094204   0.03791410
5612.00   1.79709649   0.03832343
5614.00   1.81251109   0.03897054
5616.00   1.74524641   0.04065828
5618.00   1.68759787   0.04175252
5620.00   1.66172254   0.04143718
5622.00   1.65827870   0.04046470
5624.00   1.72677302   0.04051181
5626.00   1.91199458   0.04098485
5628.00   1.98559678   0.04179214
5630.00   2.00591779   0.04386865
5632.00   2.00072336   0.04456193
5634.00   1.94939005   0.04296181
5636.00   1.89054716   0.04046996
5638.00   1.91361284   0.03944911
5640.00   2.00898337   0.03913329
5642.00   2.04332352   0.03899290
5644.00   2.05912375   0.03949573
5646.00   2.05416656   0.03975559
5648.00   2.01937890   0.03973616
5650.00   1.97462022   0.03967245
5652.00   1.93654072   0.03968547
5654.00   1.89242077   0.03967233
5656.00   1.89328194   0.04010394
5658.00   1.96864176   0.04098855
5660.00   1.97214651   0.04176384
5662.00   1.88198698   0.04233918
5664.00   1.81442237   0.04318025
5666.00   1.85851800   0.04461055
5668.00   1.96428418   0.04639427
5670.00   1.95371425   0.04787927
5672.00   1.86079550   0.04827489
5674.00   1.77932250   0.05097955
5676.00   1.64841914   0.05530614
5678.00   1.56535697   0.05986750
5680.00   1.57527995   0.06475595
5682.00   1.63469017   0.06955343
5684.00   1.66867614   0.07263424
5686.00   1.73766577   0.07604825
5688.00   1.71700227   0.07513685
5690.00   1.60125804   0.06899996
5692.00   1.51355994   0.06353479
5694.00   1.47122622   0.05922333
5696.00   1.44458485   0.05593082
5698.00   1.41929424   0.05531581
5700.00   1.42480695   0.05762582
5702.00   1.32784784   0.05858161
5704.00   1.06337905   0.06166713
5706.00   0.95679635   0.06042470
5708.00   1.04513907   0.05189563
5710.00   1.17158246   0.04169031
5712.00   1.21648741   0.03931592
5714.00   1.23635519   0.04261168
5716.00   1.22175348   0.04299583
5718.00   1.13578451   0.04410662
5720.00   1.10641050   0.04348694
5722.00   1.11904943   0.04042834
5724.00   1.14684069   0.03754218
5726.00   1.18597698   0.03676995
5728.00   1.23662841   0.03714091
5730.00   1.25261211   0.03677661
5732.00   1.23303711   0.03585283
5734.00   1.23586512   0.03600438
5736.00   1.25335157   0.03731026
5738.00   1.26299167   0.03827985
5740.00   1.25454092   0.03851805
5742.00   1.23984993   0.03845140
5744.00   1.24146748   0.03847836
5746.00   1.26168883   0.03834194
5748.00   1.25514436   0.03847557
5750.00   1.22588778   0.03919758
5752.00   1.20234227   0.03919315
5754.00   1.19762492   0.03738897
5756.00   1.18503046   0.03584958
5758.00   1.12406731   0.03792134
5760.00   1.01478183   0.04251637
5762.00   0.96713537   0.04533125
5764.00   0.93978453   0.04845108
5766.00   0.95143563   0.05004382
5768.00   1.03967524   0.05029934
5770.00   1.11297023   0.04966804
5772.00   1.08514130   0.04817870
5774.00   0.99186510   0.04562544
5776.00   0.95217365   0.04370780
5778.00   0.92636144   0.04099042
5780.00   0.91244459   0.04030483
5782.00   0.92443192   0.04114669
5784.00   0.92775512   0.04340547
5786.00   0.89453888   0.04765657
5788.00   0.84706271   0.05272044
5790.00   0.86034864   0.05469957
5792.00   0.96209335   0.05579362
5794.00   0.96679479   0.05441767
5796.00   0.92097145   0.04904837
5798.00   0.84638411   0.04421519
5800.00   0.72059345   0.04116551
5802.00   0.58316380   0.03938367
5804.00   0.54256314   0.03972841
5806.00   0.59371728   0.04337049
5808.00   0.56863058   0.04351425
5810.00   0.48947367   0.04114530
5812.00   0.44361734   0.03957468
5814.00   0.43766159   0.03874614
5816.00   0.45007807   0.03868248
5818.00   0.46913627   0.04020387
5820.00   0.50593925   0.04339544
5822.00   0.51502383   0.04379965
5824.00   0.49883920   0.04179083
5826.00   0.49567029   0.04090871
5828.00   0.51719826   0.04093749
5830.00   0.52236664   0.04124350
5832.00   0.46987095   0.04157446
5834.00   0.37789026   0.04205963
5836.00   0.36143541   0.04241256
5838.00   0.38731194   0.04263344
5840.00   0.43487817   0.04304765
5842.00   0.55238742   0.04370436
5844.00   0.62712705   0.04426092
5846.00   0.60248518   0.04455478
5848.00   0.52336770   0.04472504
5850.00   0.46896186   0.04502066
5852.00   0.40217578   0.04517944
5854.00   0.35153699   0.04580515
5856.00   0.29439089   0.04663140
5858.00   0.27043590   0.04784846
5860.00   0.28816947   0.04994185
5862.00   0.33617979   0.05197114
5864.00   0.41065931   0.05218964
5866.00   0.54667550   0.05063958
5868.00   0.57865298   0.05079877
5870.00   0.50799006   0.05269397
5872.00   0.48476127   0.05297438
5874.00   0.53119284   0.04972147
5876.00   0.57718605   0.04740031
5878.00   0.55526787   0.05035731
5880.00   0.48715502   0.05526484
5882.00   0.45077020   0.06898151
5884.00   0.38414255   0.08614587
5886.00   0.40174025   0.10377083
5888.00   0.49489418   0.12519048
5890.00   0.63694257   0.14191180
5892.00   0.83604950   0.15267889
5894.00   1.08704507   0.16007893
5896.00   1.23670709   0.15590118
5898.00   1.38656843   0.13670516
5900.00   1.37762737   0.11900440
5902.00   1.15330684   0.09087306
5904.00   0.97105473   0.06225630
5906.00   0.92091006   0.04875936
5908.00   0.93158305   0.05015479
5910.00   0.94710839   0.04646347
5912.00   1.01682985   0.04761341
5914.00   1.03287923   0.04715119
5916.00   1.01013446   0.04723925
5918.00   0.99871868   0.04732438
5920.00   1.00461197   0.04732469
5922.00   1.01856816   0.04737180
5924.00   1.03847778   0.04757604
5926.00   1.07103860   0.04795928
5928.00   1.08420765   0.04814324
5930.00   1.08191681   0.04836342
5932.00   1.08287930   0.04827341
5934.00   1.08159709   0.04784939
5936.00   1.08619058   0.04720755
5938.00   1.10983586   0.04637250
5940.00   1.14981830   0.04526384
5942.00   1.16575027   0.04452144
5944.00   1.14824617   0.04385104
5946.00   1.17005181   0.04355257
5948.00   1.23639166   0.04378748
5950.00   1.29955781   0.04403253
5952.00   1.33287930   0.04401350
5954.00   1.35194302   0.04388567
5956.00   1.37755191   0.04369919
5958.00   1.40099609   0.04335443
5960.00   1.42677212   0.04311967
5962.00   1.46818864   0.04299055
5964.00   1.48601246   0.04278409
5966.00   1.45033216   0.04237455
5968.00   1.39869118   0.04191110
5970.00   1.41988444   0.04159545
5972.00   1.48774457   0.03959150
5974.00   1.57102025   0.04300012
5976.00   1.73972511   0.05331682
5978.00   1.81894886   0.05712296
5980.00   1.76703978   0.05296661
5982.00   1.66812754   0.04566536
5984.00   1.61270082   0.04229835
5986.00   1.55506480   0.04053642
5988.00   1.54350138   0.03949302
5990.00   1.59649169   0.03997829
5992.00   1.61016917   0.04077036
5994.00   1.56431818   0.04231285
5996.00   1.53349328   0.04383093
5998.00   1.58880067   0.04473262
6000.00   1.70436573   0.04536566
6002.00   1.73755348   0.04527294
6004.00   1.71254015   0.04459435
6006.00   1.70656264   0.04335907
6008.00   1.71345043   0.04081829
6010.00   1.70715821   0.03860240
6012.00   1.67101097   0.03767303
6014.00   1.61728358   0.03758744
6016.00   1.58271062   0.03817510
6018.00   1.54731655   0.04082118
6020.00   1.53393495   0.04090140
6022.00   1.54088318   0.03879089
6024.00   1.55464828   0.03710923
6026.00   1.57935500   0.03672200
6028.00   1.60647440   0.03681297
6030.00   1.60694790   0.03650151
6032.00   1.57741034   0.03595338
6034.00   1.58244288   0.03593522
6036.00   1.60785162   0.03609768
6038.00   1.63696861   0.03677423
6040.00   1.69081235   0.03870979
6042.00   1.72803652   0.04024201
6044.00   1.68037415   0.03916931
6046.00   1.55417836   0.03565698
6048.00   1.51628506   0.03447960
6050.00   1.53912568   0.03480202
6052.00   1.54079604   0.03482728
6054.00   1.50235438   0.03467890
6056.00   1.49577308   0.03468038
6058.00   1.59242511   0.03480629
6060.00   1.76247907   0.03502339
6062.00   1.81489968   0.03676203
6064.00   1.86556160   0.04090280
6066.00   1.74993312   0.04233546
6068.00   1.32112849   0.04231768
6070.00   1.05779183   0.04119729
6072.00   1.24915683   0.03800449
6074.00   1.65566075   0.03337100
6076.00   1.69275451   0.03332052
6078.00   1.41584611   0.03731952
6080.00   1.38134646   0.03982773
6082.00   1.50475025   0.04438877
6084.00   1.56049395   0.04555459
6086.00   1.47756386   0.04084786
6088.00   1.35587108   0.03321913
6090.00   1.33189368   0.03133136
6092.00   1.36533225   0.03394226
6094.00   1.38917994   0.03450750
6096.00   1.44674408   0.03498500
6098.00   1.47126925   0.03561975
6100.00   1.45459712   0.03632117
6102.00   1.42303193   0.03722398
6104.00   1.39927638   0.03853835
6106.00   1.37381589   0.04019120
6108.00   1.34179950   0.04162034
6110.00   1.29010987   0.04349794
6112.00   1.26490951   0.04431340
6114.00   1.26120234   0.04422553
6116.00   1.27251804   0.04358890
6118.00   1.30255699   0.04243511
6120.00   1.34947383   0.04068783
6122.00   1.36643994   0.03928755
6124.00   1.37074268   0.03742238
6126.00   1.35900629   0.03670971
6128.00   1.32428110   0.03738973
6130.00   1.28712773   0.03791047
6132.00   1.24695444   0.03781299
6134.00   1.20864272   0.03741501
6136.00   1.20852208   0.03663887
6138.00   1.25096023   0.03492401
6140.00   1.26915002   0.03434299
6142.00   1.29268587   0.03462401
6144.00   1.29451501   0.03488299
6146.00   1.26040077   0.03495343
6148.00   1.21495855   0.03509842
6150.00   1.19578767   0.03557673
6152.00   1.18809617   0.03634757
6154.00   1.18927205   0.03700044
6156.00   1.20932615   0.03796116
6158.00   1.22056854   0.03833295
6160.00   1.22417557   0.03818120
6162.00   1.22304702   0.03757098
6164.00   1.21412110   0.03627665
6166.00   1.19534683   0.03411539
6168.00   1.20509279   0.03331883
6170.00   1.27073777   0.03401891
6172.00   1.26487458   0.03367754
6174.00   1.18106735   0.03212138
6176.00   1.09404433   0.03084516
6178.00   1.03700542   0.03101346
6180.00   0.99259049   0.03196865
6182.00   0.99238002   0.03182857
6184.00   1.06499755   0.03099009
6186.00   1.07800043   0.03031632
6188.00   1.06135023   0.02937175
6190.00   1.02995253   0.02868092
6192.00   0.97252673   0.02831883
6194.00   0.90787464   0.02831913
6196.00   0.90368038   0.02912989
6198.00   0.94843853   0.03098920
6200.00   0.98554301   0.03199306
6202.00   1.04954195   0.03306937
6204.00   1.09041667   0.03332305
6206.00   1.09049046   0.03233700
6208.00   1.08388841   0.03088834
6210.00   1.11954331   0.03017729
6212.00   1.19411194   0.02981376
6214.00   1.20508742   0.02933362
6216.00   1.15878081   0.02883643
6218.00   1.13564193   0.02847813
6220.00   1.11761057   0.02796637
6222.00   1.12454545   0.02793413
6224.00   1.19139373   0.02923305
6226.00   1.30917728   0.03150604
6228.00   1.35946393   0.03199110
6230.00   1.37625825   0.03098955
6232.00   1.37829792   0.03074544
6234.00   1.35284328   0.03077351
6236.00   1.32215965   0.03114163
6238.00   1.29460692   0.03228687
6240.00   1.26620328   0.03375712
6242.00   1.25226521   0.03334145
6244.00   1.26258397   0.03068946
6246.00   1.24571860   0.02945096
6248.00   1.20304894   0.02862833
6250.00   1.17088842   0.02830706
6252.00   1.16096210   0.02871521
6254.00   1.16021872   0.02951148
6256.00   1.15163076   0.02991945
6258.00   1.13887405   0.03036872
6260.00   1.13450134   0.03033101
6262.00   1.13119662   0.02978280
6264.00   1.13908148   0.02925847
6266.00   1.17113066   0.02870252
6268.00   1.20069110   0.02819369
6270.00   1.18615472   0.02794662
6272.00   1.13013983   0.02789293
6274.00   1.13803375   0.02792928
6276.00   1.20843577   0.02819107
6278.00   1.24059808   0.02836044
6280.00   1.23230791   0.02842037
6282.00   1.22112811   0.02851548
6284.00   1.23716354   0.02869574
6286.00   1.26776958   0.02892146
6288.00   1.25360453   0.02954875
6290.00   1.18179071   0.03079992
6292.00   1.15994370   0.03147170
6294.00   1.17456448   0.03173868
6296.00   1.19742751   0.03192571
6298.00   1.22173870   0.03197283
6300.00   1.25011635   0.03200464
6302.00   1.26421058   0.03298880
6304.00   1.26216972   0.03592933
6306.00   1.27353704   0.03587797
6308.00   1.29477715   0.03321951
6310.00   1.31138289   0.03083572
6312.00   1.31046879   0.02934537
6314.00   1.31223917   0.02834668
6316.00   1.35966563   0.02808432
6318.00   1.45857096   0.02867865
6320.00   1.50178409   0.02928938
6322.00   1.51465619   0.03089537
6324.00   1.52063501   0.03128854
6326.00   1.51156986   0.02989887
6328.00   1.50164890   0.02816757
6330.00   1.51191533   0.02791526
6332.00   1.53516328   0.02859836
6334.00   1.55436218   0.02857135
6336.00   1.56854725   0.02818187
6338.00   1.59814179   0.02802141
6340.00   1.65809321   0.02813197
6342.00   1.70488763   0.02819231
6344.00   1.70259595   0.02796628
6346.00   1.66916966   0.02756780
6348.00   1.66696692   0.02737277
6350.00   1.66707635   0.02721014
6352.00   1.69360554   0.02722342
6354.00   1.76770616   0.02749340
6356.00   1.81830442   0.02771317
6358.00   1.81135821   0.02779005
6360.00   1.77597415   0.02778496
6362.00   1.76432931   0.02766376
6364.00   1.76559889   0.02737711
6366.00   1.74851775   0.02714530
6368.00   1.71486282   0.02679475
6370.00   1.68606615   0.02662794
6372.00   1.65669203   0.02673944
6374.00   1.63784671   0.02698301
6376.00   1.65946066   0.02718176
6378.00   1.72215354   0.02744657
6380.00   1.75995612   0.02756916
6382.00   1.80607855   0.02767126
6384.00   1.82298362   0.02758855
6386.00   1.79642451   0.02722876
6388.00   1.76407635   0.02681207
6390.00   1.76128972   0.02653271
6392.00   1.77200997   0.02627403
6394.00   1.79622519   0.02636227
6396.00   1.85742033   0.02674847
6398.00   1.88123822   0.02723427
6400.00   1.87062275   0.02803311
6402.00   1.85156250   0.02868076
6404.00   1.83332849   0.02897334
6406.00   1.81138778   0.02903233
6408.00   1.81021500   0.02857662
6410.00   1.82295489   0.02706213
6412.00   1.84382677   0.02651702
6414.00   1.90151584   0.02680687
6416.00   1.92337847   0.02695900
6418.00   1.87185788   0.02661903
6420.00   1.78650188   0.02610706
6422.00   1.74636054   0.02587098
6424.00   1.71345806   0.02579227
6426.00   1.71973991   0.02569337
6428.00   1.78784740   0.02568675
6430.00   1.82507265   0.02560590
6432.00   1.81709611   0.02538095
6434.00   1.79014790   0.02513915
6436.00   1.76476967   0.02506616
6438.00   1.72693777   0.02511788
6440.00   1.70881224   0.02511368
6442.00   1.70715654   0.02515688
6444.00   1.70073128   0.02510774
6446.00   1.69446671   0.02479755
6448.00   1.68250406   0.02463466
6450.00   1.65394747   0.02508724
6452.00   1.61102736   0.02598608
6454.00   1.59452271   0.02630818
6456.00   1.60941184   0.02646100
6458.00   1.59595323   0.02628368
6460.00   1.55538630   0.02551871
6462.00   1.51496553   0.02485730
6464.00   1.48322129   0.02476102
6466.00   1.45643020   0.02495453
6468.00   1.45789647   0.02487330
6470.00   1.50037348   0.02475333
6472.00   1.51312077   0.02447431
6474.00   1.50884056   0.02367950
6476.00   1.50701630   0.02340989
6478.00   1.52104032   0.02408767
6480.00   1.53324997   0.02520794
6482.00   1.50361693   0.02612826
6484.00   1.43001735   0.02755414
6486.00   1.38651860   0.02753148
6488.00   1.34536386   0.02602086
6490.00   1.32137203   0.02484692
6492.00   1.31811368   0.02392682
6494.00   1.32781231   0.02345920
6496.00   1.34370768   0.02424806
6498.00   1.37262309   0.02627153
6500.00   1.38817406   0.02682996
6502.00   1.39972949   0.02672339
6504.00   1.40456069   0.02634969
6506.00   1.40683484   0.02542362
6508.00   1.39777792   0.02441427
6510.00   1.36502588   0.02380343
6512.00   1.31251037   0.02339579
6514.00   1.28783107   0.02285984
6516.00   1.28082871   0.02082864
6518.00   1.27200770   0.02208470
6520.00   1.25534546   0.02717625
6522.00   1.25735390   0.03049206
6524.00   1.29676712   0.03060964
6526.00   1.35849261   0.02907385
6528.00   1.39741027   0.02770264
6530.00   1.43917048   0.02470145
6532.00   1.45207071   0.02349959
6534.00   1.43918931   0.02374803
6536.00   1.41793883   0.02411004
6538.00   1.38412392   0.02427413
6540.00   1.34683383   0.02459527
6542.00   1.33399105   0.02543430
6544.00   1.33652461   0.02712191
6546.00   1.34571064   0.02727094
6548.00   1.37930512   0.02615339
6550.00   1.39284909   0.02520110
6552.00   1.37492847   0.02424995
6554.00   1.35384154   0.02351730
6556.00   1.35913706   0.02341823
6558.00   1.37914109   0.02362501
6560.00   1.40412068   0.02539909
6562.00   1.44576693   0.02981320
6564.00   1.47749174   0.03126403
6566.00   1.50339317   0.03020407
6568.00   1.52354908   0.02837336
6570.00   1.53940582   0.02655719
6572.00   1.55055630   0.02420563
6574.00   1.53694355   0.02362400
6576.00   1.47950423   0.02519535
6578.00   1.46335697   0.02545527
6580.00   1.48212254   0.02503919
6582.00   1.49882877   0.02451474
6584.00   1.49691868   0.02397515
6586.00   1.48973811   0.02340238
6588.00   1.49915862   0.02326498
6590.00   1.51955783   0.02359279
6592.00   1.54209125   0.02368581
6594.00   1.59064448   0.02363743
6596.00   1.60542500   0.02377451
6598.00   1.56590366   0.02433652
6600.00   1.50394964   0.02490372
6602.00   1.46358824   0.02477176
6604.00   1.42545462   0.02407360
6606.00   1.39805150   0.02355050
6608.00   1.37915301   0.02281581
6610.00   1.36745489   0.02231197
6612.00   1.36962271   0.02210135
6614.00   1.37156677   0.02201554
6616.00   1.35472071   0.02191431
6618.00   1.32338321   0.02186258
6620.00   1.31711674   0.02185229
6622.00   1.33885598   0.02190003
6624.00   1.33815420   0.02196217
6626.00   1.32419825   0.02200959
6628.00   1.29637015   0.02213123
6630.00   1.24369657   0.02248359
6632.00   1.17285585   0.02296467
6634.00   1.14917123   0.02282190
6636.00   1.17685950   0.02184400
6638.00   1.16624546   0.02157153
6640.00   1.13563180   0.02196302
6642.00   1.09817779   0.02210443
6644.00   1.05140865   0.02149842
6646.00   1.00101817   0.02063568
6648.00   0.97589046   0.02072961
6650.00   0.98069143   0.02153824
6652.00   0.95558703   0.02222712
6654.00   0.89018339   0.02354798
6656.00   0.86581081   0.02401527
6658.00   0.90112901   0.02285200
6660.00   0.96315324   0.02147926
6662.00   1.01334536   0.02244333
6664.00   1.06085789   0.02505172
6666.00   1.14348483   0.02647662
6668.00   1.29773319   0.02802602
6670.00   1.37657773   0.02865739
6672.00   1.39646363   0.02850176
6674.00   1.35437524   0.02763229
6676.00   1.21232998   0.02568440
6678.00   0.96901470   0.02226707
6680.00   0.86957097   0.02066135
6682.00   0.84635657   0.01957990
6684.00   0.85385555   0.02054270
6686.00   0.92670333   0.02449985
6688.00   1.00108683   0.02733319
6690.00   1.04574752   0.02769794
6692.00   1.07769239   0.02677428
6694.00   1.08185542   0.02562133
6696.00   1.04867697   0.02268476
6698.00   1.02809489   0.02141269
6700.00   0.99488539   0.02144126
6702.00   0.98000187   0.02168120
6704.00   0.99767542   0.02197311
6706.00   1.03162551   0.02236665
6708.00   1.05285120   0.02243125
6710.00   1.07262659   0.02228161
6712.00   1.09024823   0.02213942
6714.00   1.10432017   0.02188604
6716.00   1.11951482   0.02166361
6718.00   1.13562477   0.02147305
6720.00   1.15290785   0.02131056
6722.00   1.17329717   0.02119641
6724.00   1.19777298   0.02112141
6726.00   1.21478570   0.02109673
6728.00   1.23469365   0.02115196
6730.00   1.23705029   0.02118607
6732.00   1.21061695   0.02120695
6734.00   1.18704581   0.02122596
6736.00   1.19562411   0.02125699
6738.00   1.22442389   0.02129835
6740.00   1.22984993   0.02125130
6742.00   1.23081374   0.02113706
6744.00   1.21391010   0.02099322
6746.00   1.16101778   0.02074167
6748.00   1.12568033   0.02055671
6750.00   1.13786197   0.02054291
6752.00   1.17666233   0.02062905
6754.00   1.20227623   0.02067243
6756.00   1.24237907   0.02074860
6758.00   1.25194478   0.02077595
6760.00   1.23209465   0.02064714
6762.00   1.21610963   0.02072455
6764.00   1.21284151   0.02129251
6766.00   1.21220422   0.02191027
6768.00   1.20406842   0.02171101
6770.00   1.19303834   0.02071391
6772.00   1.17621195   0.02030421
6774.00   1.14861441   0.02012968
6776.00   1.12751913   0.02001408
6778.00   1.11179519   0.01995395
6780.00   1.10219741   0.01997556
6782.00   1.10405457   0.02007907
6784.00   1.11864233   0.02025142
6786.00   1.11895108   0.02057724
6788.00   1.11602867   0.02142841
6790.00   1.10277390   0.02153446
6792.00   1.06694829   0.02070973
6794.00   1.03986502   0.01982069
6796.00   1.05003309   0.01954542
6798.00   1.08437920   0.01958113
6800.00   1.08834696   0.01957011
6802.00   1.06963086   0.01955501
6804.00   1.06430948   0.01979834
6806.00   1.06485975   0.02053259
6808.00   1.06865251   0.02095814
6810.00   1.07628727   0.02065623
6812.00   1.08669925   0.01998240
6814.00   1.09294856   0.01979062
6816.00   1.08050144   0.01949171
6818.00   1.11019325   0.02009624
6820.00   1.20302606   0.02121473
6822.00   1.24934912   0.02286689
6824.00   1.21075761   0.02564902
6826.00   1.14465785   0.02816746
6828.00   1.13627315   0.02820852
6830.00   1.16982603   0.02586520
6832.00   1.15541077   0.02560706
6834.00   1.09810972   0.02682532
6836.00   1.06647110   0.02725923
6838.00   1.06426311   0.02703474
6840.00   1.07315183   0.02627975
6842.00   1.08401382   0.02466793
6844.00   1.10581923   0.02186983
6846.00   1.09366369   0.02034074
6848.00   1.04122353   0.01958659
6850.00   1.01485050   0.01919913
6852.00   1.01369238   0.01936032
6854.00   1.01229548   0.01988519
6856.00   0.99508065   0.02067859
6858.00   0.97034740   0.02174336
6860.00   0.95372206   0.02270842
6862.00   0.93750024   0.02377338
6864.00   0.92914367   0.02468864
6866.00   0.93046921   0.02600842
6868.00   0.93162841   0.02646593
6870.00   0.92891878   0.02533956
6872.00   0.92540616   0.02327095
6874.00   0.92449355   0.02215747
6876.00   0.92443252   0.02098313
6878.00   0.92702866   0.02118146
6880.00   0.94162697   0.02345446
6882.00   0.94007283   0.02443369
6884.00   0.91322339   0.02350098
6886.00   0.87690794   0.02188293
6888.00   0.85068130   0.02124238
6890.00   0.82229435   0.02106510
6892.00   0.81506687   0.02074119
6894.00   0.82929808   0.02042879
6896.00   0.84182453   0.02024382
6898.00   0.86624163   0.02028920
6900.00   0.87753057   0.02032258
6902.00   0.83860463   0.02004473
6904.00   0.75671893   0.01951699
6906.00   0.74924189   0.01954859
6908.00   0.80867988   0.02012077
6910.00   0.83445132   0.02042996
6912.00   0.84547663   0.02064103
6914.00   0.84287095   0.02074500
6916.00   0.81834471   0.02065870
6918.00   0.77800739   0.02044164
6920.00   0.76520312   0.02049988
6922.00   0.78468245   0.02084814
6924.00   0.76935852   0.02095254
6926.00   0.71894056   0.02108984
6928.00   0.68347114   0.02091105
6930.00   0.67985713   0.02007664
6932.00   0.69172090   0.01895866
6934.00   0.69946903   0.01868692
6936.00   0.71137220   0.01899273
6938.00   0.72415501   0.01936567
6940.00   0.74505699   0.01998915
6942.00   0.75603569   0.02072416
6944.00   0.75240499   0.02189669
6946.00   0.74356836   0.02282853
6948.00   0.74091482   0.02249426
6950.00   0.74144244   0.02101522
6952.00   0.73416340   0.02017359
6954.00   0.71947193   0.01937146
6956.00   0.70691168   0.01873954
6958.00   0.69265109   0.01825333
6960.00   0.68277842   0.01798631
6962.00   0.68677747   0.01796328
6964.00   0.70216751   0.01815323
6966.00   0.69345546   0.01896395
6968.00   0.65247881   0.02092740
6970.00   0.64411926   0.02161176
6972.00   0.66570061   0.02132994
6974.00   0.68907756   0.02082902
6976.00   0.70349067   0.02033301
6978.00   0.71491057   0.01973021
6980.00   0.71737671   0.01953320
6982.00   0.70778126   0.01989596
6984.00   0.70384884   0.01971691
6986.00   0.70457751   0.01911739
6988.00   0.69866353   0.01860501
6990.00   0.67924410   0.01829297
6992.00   0.65573496   0.01809919
6994.00   0.64703363   0.01805476
6996.00   0.64933425   0.01823496
6998.00   0.64707822   0.01826608
7000.00   0.64667237   0.01821671
7002.00   0.64336884   0.01822367
7004.00   0.63544416   0.01826141
7006.00   0.62674725   0.01837093
7008.00   0.62290257   0.01871045
7010.00   0.62406778   0.01936929
7012.00   0.61164528   0.01913207
7014.00   0.57514596   0.01781995
7016.00   0.56573868   0.01710173
7018.00   0.58884263   0.01691343
7020.00   0.61457503   0.01697868
7022.00   0.62257290   0.01722102
7024.00   0.62275445   0.01768239
7026.00   0.62257040   0.01792323
7028.00   0.62729412   0.01816061
7030.00   0.61143750   0.01819270
7032.00   0.55823851   0.01793586
7034.00   0.52629632   0.01772773
7036.00   0.54884303   0.01765315
7038.00   0.59914666   0.01768701
7040.00   0.61783540   0.01810085
7042.00   0.62779313   0.01925037
7044.00   0.62489355   0.01944692
7046.00   0.60315591   0.01891746
7048.00   0.58269709   0.01848122
7050.00   0.56017095   0.01828520
7052.00   0.54332441   0.01818372
7054.00   0.55872947   0.01816542
7056.00   0.61364055   0.01829972
7058.00   0.62250626   0.01827826
7060.00   0.58986568   0.01810117
7062.00   0.58137387   0.01805222
7064.00   0.60715097   0.01818694
7066.00   0.63700873   0.01835029
7068.00   0.64018655   0.01838639
7070.00   0.62476367   0.01834333
7072.00   0.63898939   0.01841128
7074.00   0.67545778   0.01851744
7076.00   0.70781565   0.01869203
7078.00   0.73914081   0.01889701
7080.00   0.77255362   0.01920504
7082.00   0.81236613   0.01969226
7084.00   0.85639149   0.02030559
7086.00   0.87980413   0.02079045
7088.00   0.87676072   0.02139150
7090.00   0.89490503   0.02160956
7092.00   0.93632102   0.02162169
7094.00   0.96409333   0.02131911
7096.00   0.95674449   0.02044174
7098.00   0.93517631   0.01923070
7100.00   0.94870991   0.01878089
7102.00   0.99153733   0.01892198
7104.00   1.01687968   0.01894244
7106.00   1.03466618   0.01904809
7108.00   1.05656052   0.01926038
7110.00   1.08661520   0.01953639
7112.00   1.11804068   0.01994514
7114.00   1.14151442   0.02069144
7116.00   1.16051269   0.02196652
7118.00   1.17668939   0.02212413
7120.00   1.19722378   0.02126117
7122.00   1.19891751   0.02070827
7124.00   1.17272162   0.02042831
7126.00   1.14293933   0.02028657
7128.00   1.13207972   0.02031389
7130.00   1.13010383   0.02054052
7132.00   1.13409698   0.02048315
7134.00   1.15384161   0.02003788
7136.00   1.16134548   0.02003876
7138.00   1.14690661   0.02041785
7140.00   1.14729381   0.02094743
7142.00   1.19534528   0.02170079
7144.00   1.27060437   0.02258035
7146.00   1.28222322   0.02244197
7148.00   1.22192895   0.02095871
7150.00   1.22391498   0.02051748
7152.00   1.28068960   0.02084279
7154.00   1.31587279   0.02105101
7156.00   1.30167079   0.02084646
7158.00   1.26468897   0.02050539
7160.00   1.24036956   0.02036991
7162.00   1.21239579   0.02022205
7164.00   1.19225907   0.02042471
7166.00   1.16737723   0.02101980
7168.00   1.16393733   0.02153556
7170.00   1.20151222   0.02199199
7172.00   1.24251664   0.02236701
7174.00   1.22966337   0.02253100
7176.00   1.17602730   0.02252712
7178.00   1.14624119   0.02245973
7180.00   1.11251187   0.02216310
7182.00   1.09682345   0.02203718
7184.00   1.10394943   0.02188533
7186.00   1.11745477   0.02205354
7188.00   1.12431550   0.02310180
7190.00   1.13059270   0.02481811
7192.00   1.13804853   0.02492693
7194.00   1.15137851   0.02362256
7196.00   1.15359616   0.02281811
7198.00   1.14072669   0.02210807
7200.00   1.13165057   0.02155127
7202.00   1.13253999   0.02127509
7204.00   1.14067662   0.02120544
7206.00   1.17129350   0.02102633
7208.00   1.24215043   0.02057023
7210.00   1.27510035   0.02078210
7212.00   1.29474783   0.02192448
7214.00   1.29462934   0.02248196
7216.00   1.26245332   0.02191708
7218.00   1.21653962   0.02089000
7220.00   1.20323050   0.02056692
7222.00   1.22105634   0.02040586
7224.00   1.19920754   0.02089567
7226.00   1.13304603   0.02172925
7228.00   1.09959257   0.02321016
7230.00   1.10938442   0.02551409
7232.00   1.13665926   0.02790248
7234.00   1.16157627   0.02961846
7236.00   1.19898784   0.03089394
7238.00   1.20480037   0.03301433
7240.00   1.18308425   0.03683906
7242.00   1.16520047   0.03807543
7244.00   1.14395714   0.03694532
7246.00   1.12599790   0.03474955
7248.00   1.11745596   0.03191304
7250.00   1.11511993   0.02774785
7252.00   1.12394226   0.02571403
7254.00   1.16148961   0.02610248
7256.00   1.16520500   0.02539959
7258.00   1.13169622   0.02382068
7260.00   1.10619760   0.02276378
7262.00   1.11170244   0.02307721
7264.00   1.13120949   0.02417050
7266.00   1.13388896   0.02493966
7268.00   1.12985277   0.02544295
7270.00   1.12294316   0.02682577
7272.00   1.10392141   0.02936181
7274.00   1.09530783   0.03100339
7276.00   1.10168171   0.03157017
7278.00   1.11780608   0.03146549
7280.00   1.14333260   0.03072007
7282.00   1.19601560   0.02890353
7284.00   1.19320500   0.02765896
7286.00   1.12935865   0.02622737
7288.00   1.09687197   0.02538668
7290.00   1.10245383   0.02555570
7292.00   1.12105346   0.02589941
7294.00   1.13471961   0.02542013
7296.00   1.15175629   0.02435798
7298.00   1.16880143   0.02414440
7300.00   1.20143270   0.02472030
7302.00   1.20435047   0.02485928
7304.00   1.16292965   0.02435389
7306.00   1.12939155   0.02417480
7308.00   1.14495039   0.02505922
7310.00   1.18902218   0.02656466
7312.00   1.19595063   0.02767168
7314.00   1.17979217   0.02940309
7316.00   1.16897094   0.02959034
7318.00   1.14893126   0.02820661
7320.00   1.13954961   0.02673305
7322.00   1.15111363   0.02566728
7324.00   1.17469347   0.02475050
7326.00   1.19346523   0.02436983
7328.00   1.21873605   0.02453302
7330.00   1.23188531   0.02480526
7332.00   1.23199558   0.02525337
7334.00   1.23740458   0.02602099
7336.00   1.25654948   0.02745243
7338.00   1.27544940   0.02883586
7340.00   1.27047026   0.02905615
7342.00   1.24062479   0.02854478
7344.00   1.24043941   0.02763047
7346.00   1.26265025   0.02544669
7348.00   1.27767718   0.02399955
7350.00   1.28277338   0.02342551
7352.00   1.28922105   0.02337212
7354.00   1.30663049   0.02370794
7356.00   1.33149838   0.02455303
7358.00   1.35496843   0.02509769
7360.00   1.39609218   0.02565002
7362.00   1.40382648   0.02609299
7364.00   1.36716986   0.02654272
7366.00   1.33573925   0.02678289
7368.00   1.34196866   0.02669677
7370.00   1.36756992   0.02634775
7372.00   1.37428653   0.02568728
7374.00   1.36950600   0.02435188
7376.00   1.37330103   0.02347636
7378.00   1.38762343   0.02276976
7380.00   1.39312458   0.02228636
7382.00   1.37495160   0.02205903
7384.00   1.35051322   0.02208060
7386.00   1.36494088   0.02232692
7388.00   1.41946661   0.02261729
7390.00   1.44253778   0.02364549
7392.00   1.44673717   0.02582175
7394.00   1.45808005   0.02707459
7396.00   1.48775363   0.02719928
7398.00   1.51487005   0.02683752
7400.00   1.50778806   0.02657723
7402.00   1.46892130   0.02618581
7404.00   1.46025920   0.02556360
7406.00   1.47338820   0.02457586
7408.00   1.47401226   0.02365031
7410.00   1.45074797   0.02259795
7412.00   1.43736005   0.02173786
7414.00   1.46744239   0.02150536
7416.00   1.52924752   0.02177659
7418.00   1.56635118   0.02191791
7420.00   1.60561836   0.02217253
7422.00   1.62156391   0.02243352
7424.00   1.61187339   0.02272910
7426.00   1.59525549   0.02303875
7428.00   1.57558429   0.02335307
7430.00   1.55215728   0.02367610
7432.00   1.55567229   0.02399212
7434.00   1.58342135   0.02440114
7436.00   1.60774553   0.02458691
7438.00   1.64345384   0.02451457
7440.00   1.67134511   0.02453287
7442.00   1.68729734   0.02489485
7444.00   1.69456351   0.02525883
7446.00   1.69073510   0.02486535
7448.00   1.66418147   0.02362492
7450.00   1.66787446   0.02302399
7452.00   1.70205009   0.02261109
7454.00   1.71884644   0.02244408
7456.00   1.71013582   0.02260683
7458.00   1.69420540   0.02293788
7460.00   1.68898153   0.02322244
7462.00   1.68753946   0.02355015
7464.00   1.68532324   0.02391624
7466.00   1.69319808   0.02440281
7468.00   1.68220270   0.02475276
7470.00   1.64496946   0.02495213
7472.00   1.60729623   0.02512531
7474.00   1.58918488   0.02538329
7476.00   1.58138847   0.02568232
7478.00   1.57246506   0.02575742
7480.00   1.57072151   0.02574142
7482.00   1.56183982   0.02550212
7484.00   1.54185319   0.02495351
7486.00   1.52904177   0.02436373
7488.00   1.53496814   0.02382418
7490.00   1.55070770   0.02329235
7492.00   1.55291009   0.02293288
7494.00   1.54629147   0.02269394
7496.00   1.54362679   0.02258001
7498.00   1.53905630   0.02272167
7500.00   1.53835571   0.02276181
7502.00   1.54864931   0.02249513
7504.00   1.55880845   0.02221590
7506.00   1.54370391   0.02251833
7508.00   1.50140309   0.02340657
7510.00   1.48600686   0.02371946
7512.00   1.48613942   0.02355881
7514.00   1.48596728   0.02372407
7516.00   1.48962450   0.02422093
7518.00   1.49021947   0.02492608
7520.00   1.47433925   0.02591024
7522.00   1.44297159   0.02729338
7524.00   1.43435240   0.02760855
7526.00   1.44770694   0.02717623
7528.00   1.44664204   0.02659334
7530.00   1.42869794   0.02556169
7532.00   1.41305518   0.02449441
7534.00   1.41434395   0.02376817
7536.00   1.42552662   0.02322098
7538.00   1.42255783   0.02270534
7540.00   1.40689182   0.02191696
7542.00   1.40090847   0.02205090
7544.00   1.40388203   0.02338772
7546.00   1.40363503   0.02436281
7548.00   1.39760339   0.02446603
7550.00   1.38657796   0.02412493
7552.00   1.36158168   0.02367134
7554.00   1.29698634   0.02245683
7556.00   1.29730833   0.02230590
7558.00   1.35369682   0.02307235
7560.00   1.40326810   0.02366799
7562.00   1.44840825   0.02376524
7564.00   1.48010695   0.02390168
7566.00   1.45839763   0.02488772
7568.00   1.38436663   0.02677781
7570.00   1.33343196   0.02727328
7572.00   1.26150012   0.02705571
7574.00   1.22988713   0.02641583
7576.00   1.25087786   0.02486194
7578.00   1.28801978   0.02323312
7580.00   1.31353271   0.02277500
7582.00   1.34607542   0.02312102
7584.00   1.32605338   0.02324396
7586.00   1.23762441   0.02315942
7588.00   1.19279277   0.02387664
7590.00   1.16702533   0.02451781
7592.00   1.17186975   0.02659401
7594.00   1.23875046   0.02964779
7596.00   1.34908891   0.03356029
7598.00   1.35044038   0.04314880
7600.00   1.23319817   0.05837360
7602.00   1.20575511   0.06495462
7604.00   1.19961548   0.06966510
#7606.00   1.25350618   0.06994668
#7608.00   1.42699242   0.06266090
#7610.00   1.64606035   0.04935193
#7612.00   1.68467319   0.04187071
#7614.00   1.57872581   0.03850514
#7616.00   1.51681411   0.03497357
#7618.00   1.43364906   0.03376526
#7620.00   1.35316479   0.03326429
#7622.00   1.27228200   0.03376867
7624.00   1.19734418   0.03471204
7626.00   1.14229274   0.03475662
7628.00   1.09290731   0.03444070
7630.00   1.09698439   0.03386982
7632.00   1.17605722   0.03284006
7634.00   1.21894920   0.03179077
7636.00   1.22753227   0.03029541
7638.00   1.22282791   0.02916300
7640.00   1.21498764   0.02953017
7642.00   1.19870567   0.03104886
7644.00   1.18141484   0.03138077
7646.00   1.14972794   0.03161497
7648.00   1.13846970   0.03083627
7650.00   1.14529026   0.02770530
7652.00   1.15893495   0.02559657
7654.00   1.17750680   0.02745925
7656.00   1.20123243   0.03122724
7658.00   1.20985329   0.03290581
7660.00   1.22371531   0.03525866
7662.00   1.19878948   0.03435376
7664.00   1.12006319   0.02892921
7666.00   1.06114984   0.02395999
7668.00   1.04865396   0.02252399
7670.00   1.05472112   0.02285587
7672.00   1.03925896   0.02214703
7674.00   1.00623846   0.02131416
7676.00   1.00270426   0.02100450
7678.00   1.01810932   0.02113624
7680.00   1.04141629   0.02143783
7682.00   1.08690691   0.02203993
7684.00   1.12692809   0.02266642
7686.00   1.11391497   0.02286242
7688.00   1.05512512   0.02272302
7690.00   1.03260207   0.02295288
7692.00   1.02840078   0.02335920
7694.00   1.01689255   0.02381976
7696.00   0.99515867   0.02447948
7698.00   0.97727185   0.02502559
7700.00   0.97578275   0.02499218
7702.00   0.98587352   0.02450181
7704.00   0.98349595   0.02565731
7706.00   0.97498214   0.02707306
7708.00   0.96617496   0.03035387
7710.00   0.95163631   0.03637389
7712.00   0.94197190   0.04038823
7714.00   0.94843733   0.04129111
7716.00   0.96151394   0.04039968
7718.00   0.94282424   0.03819364
7720.00   0.88746291   0.03204593
7722.00   0.85890174   0.02854350
7724.00   0.83573949   0.02667449
7726.00   0.82577676   0.02523155
7728.00   0.83550894   0.02410349
7730.00   0.85537964   0.02342465
7732.00   0.86563700   0.02270423
7734.00   0.87297934   0.02205337
7736.00   0.88196397   0.02193734
7738.00   0.89409697   0.02184775
7740.00   0.90081203   0.02288452
7742.00   0.90088540   0.02519684
7744.00   0.89758283   0.02787157
7746.00   0.89182615   0.03039508
7748.00   0.87940997   0.03327664
7750.00   0.88889188   0.03428597
7752.00   0.91706514   0.03404124
7754.00   0.94509643   0.03340335
7756.00   0.99806213   0.03190989
7758.00   1.02357399   0.03019933
7760.00   0.96622205   0.02890249
7762.00   0.85043120   0.02774234
7764.00   0.81903809   0.02626313
7766.00   0.84519887   0.02401308
7768.00   0.85640967   0.02281897
7770.00   0.87092960   0.02246140
7772.00   0.88580728   0.02275863
7774.00   0.90267384   0.02381381
7776.00   0.91861117   0.02535990
7778.00   0.91541147   0.02643607
7780.00   0.89920491   0.02794750
7782.00   0.87196189   0.02801893
7784.00   0.81528330   0.02609110
7786.00   0.77908152   0.02529434
7788.00   0.77356058   0.02677277
7790.00   0.78536010   0.02884162
7792.00   0.80436432   0.02964275
7794.00   0.83985817   0.03010732
7796.00   0.86605239   0.02970259
7798.00   0.89215231   0.02775419
7800.00   0.91470450   0.02660608
7802.00   0.93694973   0.02624794
7804.00   0.95251644   0.02656857
7806.00   0.95151031   0.02798625
7808.00   0.93508625   0.03056139
7810.00   0.93304038   0.03064700
7812.00   0.93254215   0.02775140
7814.00   0.94316339   0.02727127
7816.00   0.97001207   0.02947142
7818.00   0.99679774   0.03151068
7820.00   1.01584697   0.03219657
7822.00   1.03113902   0.03227738
7824.00   1.02737856   0.03141431
7826.00   1.00153053   0.02838745
7828.00   0.98121870   0.02722654
7830.00   0.94814897   0.02790958
7832.00   0.93216252   0.02816350
7834.00   0.94291133   0.02687679
7836.00   0.97342771   0.02500536
7838.00   1.02344096   0.02489229
7840.00   1.11373007   0.02609825
7842.00   1.16601408   0.02711553
7844.00   1.19620371   0.02829714
7846.00   1.22606337   0.02980143
7848.00   1.25782621   0.03184265
7850.00   1.28820825   0.03388481
7852.00   1.31817269   0.03529695
7854.00   1.35207295   0.03667330
7856.00   1.36397076   0.03658657
7858.00   1.36481583   0.03337716
7860.00   1.34626365   0.03337637
7862.00   1.28216481   0.03856695
7864.00   1.23180103   0.04258319
7866.00   1.26256371   0.04075492
7868.00   1.35300410   0.03426978
7870.00   1.38917160   0.03161291
7872.00   1.39278316   0.03106949
7874.00   1.41544950   0.03051105
7876.00   1.46078718   0.03053452
7878.00   1.49531889   0.03077915
7880.00   1.49196231   0.03096963
7882.00   1.46813798   0.03126241
7884.00   1.49383521   0.03182100
7886.00   1.60069215   0.03317015
7888.00   1.60041189   0.03331112
7890.00   1.49085104   0.03261246
7892.00   1.41580653   0.03156279
7894.00   1.42250562   0.02996065
7896.00   1.46611524   0.02807654
7898.00   1.49643052   0.02734389
7900.00   1.52904546   0.02716508
7902.00   1.57826614   0.02810527
7904.00   1.66622937   0.03033411
7906.00   1.71640289   0.03246051
7908.00   1.72136807   0.03463450
7910.00   1.69674432   0.03662535
7912.00   1.64685047   0.03801758
7914.00   1.55747867   0.03925525
7916.00   1.50536025   0.03915020
7918.00   1.46817207   0.03765837
7920.00   1.43921173   0.03603148
7922.00   1.42558813   0.03371888
7924.00   1.41299140   0.03144321
7926.00   1.38190544   0.03017893
7928.00   1.33776987   0.02963847
7930.00   1.34706283   0.02909765
7932.00   1.42884982   0.02922218
7934.00   1.44949329   0.02872706
7936.00   1.42837811   0.02678049
7938.00   1.38820779   0.02607395
7940.00   1.32534301   0.02891888
7942.00   1.24651039   0.03304964
7944.00   1.22300363   0.03332959
7946.00   1.25629878   0.03047589
7948.00   1.25493860   0.02882280
7950.00   1.25407279   0.02656863
7952.00   1.22962999   0.02516254
7954.00   1.15891397   0.02515228
7956.00   1.07481599   0.02614437
7958.00   1.04989970   0.02782057
7960.00   1.06547737   0.03070940
7962.00   1.07984436   0.03224225
7964.00   1.09832871   0.03355945
7966.00   1.14291811   0.03399218
7968.00   1.23854256   0.03320608
7970.00   1.33311272   0.03195475
7972.00   1.35970140   0.03121875
7974.00   1.34417379   0.03060661
7976.00   1.30757332   0.03000190
7978.00   1.20374465   0.02931116
7980.00   1.15465128   0.02895551
7982.00   1.16090655   0.02871763
7984.00   1.18021202   0.02899478
7986.00   1.19075680   0.03026127
7988.00   1.20431364   0.03222235
7990.00   1.19178975   0.03333798
7992.00   1.15282369   0.03461028
7994.00   1.12100971   0.03466028
7996.00   1.08201492   0.03360356
7998.00   1.05278683   0.03193663
8000.00   1.04681122   0.02910425
8002.00   1.05215359   0.02546085
8004.00   1.03274739   0.02541147
8006.00   0.98919690   0.02901555
8008.00   0.96557349   0.03072172
8010.00   0.95038253   0.03291621
8012.00   0.93918568   0.03369385
8014.00   0.93321258   0.03210098
8016.00   0.92990857   0.02956948
8018.00   0.92144471   0.02917650
8020.00   0.90615296   0.03015437
8022.00   0.90693033   0.03076667
8024.00   0.92502952   0.03222832
8026.00   0.93555588   0.03248562
8028.00   0.93797672   0.03125414
8030.00   0.93674242   0.02936166
8032.00   0.93412995   0.02754519
8034.00   0.92926407   0.02526677
8036.00   0.92099088   0.02374116
8038.00   0.90624064   0.02265294
8040.00   0.89582920   0.02212430
8042.00   0.88910156   0.02245619
8044.00   0.88333100   0.02299089
8046.00   0.87572175   0.02332588
8048.00   0.86769599   0.02367183
8050.00   0.87023038   0.02400206
8052.00   0.87925464   0.02418215
8054.00   0.89562738   0.02468605
8056.00   0.93334079   0.02567465
8058.00   0.95495594   0.02635728
8060.00   0.94403428   0.02652693
8062.00   0.91453326   0.02634987
8064.00   0.88745821   0.02577388
8066.00   0.84751379   0.02455421
8068.00   0.82255882   0.02352080
8070.00   0.79746675   0.02182471
8072.00   0.79141980   0.02111668
8074.00   0.81363505   0.02207230
8076.00   0.84834087   0.02362556
8078.00   0.87400562   0.02461915
8080.00   0.90797138   0.02586554
8082.00   0.90457171   0.02566545
8084.00   0.85509098   0.02359118
8086.00   0.82907075   0.02241081
8088.00   0.82606322   0.02230810
8090.00   0.83349437   0.02261715
8092.00   0.84896034   0.02296822
8094.00   0.87751323   0.02356847
8096.00   0.87576300   0.02387003
8098.00   0.85040492   0.02407166
8100.00   0.82587612   0.02414223
8102.00   0.78760225   0.02406938
8104.00   0.76019102   0.02390091
8106.00   0.76427162   0.02365684
8108.00   0.78739405   0.02332335
8110.00   0.78584850   0.02292833
8112.00   0.76408863   0.02225337
8114.00   0.75856435   0.02197321
8116.00   0.76843488   0.02207426
8118.00   0.76979202   0.02214016
8120.00   0.75000530   0.02202581
8122.00   0.72303581   0.02186585
8124.00   0.71806449   0.02182008
8126.00   0.73001611   0.02173338
8128.00   0.73505527   0.02198439
8130.00   0.74580568   0.02259864
8132.00   0.74674630   0.02313611
8134.00   0.73494190   0.02362066
8136.00   0.71604210   0.02402130
8138.00   0.69410598   0.02418866
8140.00   0.66259712   0.02413924
8142.00   0.65051621   0.02418767
8144.00   0.65701544   0.02424941
8146.00   0.65650058   0.02427677
8148.00   0.65125710   0.02418394
8150.00   0.64270931   0.02417666
8152.00   0.62524271   0.02447345
8154.00   0.59825069   0.02498925
8156.00   0.61171365   0.02531327
8158.00   0.67640454   0.02565699
8160.00   0.70376742   0.02579562
8162.00   0.69389141   0.02548657
8164.00   0.69270736   0.02546510
8166.00   0.73233873   0.02598572
8168.00   0.78997642   0.02690559
8170.00   0.79192704   0.02868629
8172.00   0.72928923   0.03069661
8174.00   0.72079718   0.03389038
8176.00   0.74170518   0.03828283
8178.00   0.76740992   0.04214866
8180.00   0.79169130   0.04551770
8182.00   0.82066387   0.04846459
8184.00   0.86208647   0.05039741
8186.00   0.94185317   0.05134083
8188.00   0.93580228   0.05280612
8190.00   0.85712892   0.05488450
8192.00   0.77853024   0.05593571
8194.00   0.68063468   0.05629425
8196.00   0.59794623   0.05550981
8198.00   0.59796923   0.05224986
8200.00   0.67057371   0.04575747
8202.00   0.68674165   0.04147075
8204.00   0.67773420   0.03810350
8206.00   0.67546636   0.03504194
8208.00   0.68515867   0.03267200
8210.00   0.68451548   0.03074235
8212.00   0.64750350   0.02892552
8214.00   0.58335221   0.02745224
8216.00   0.58553219   0.02663112
8218.00   0.65320599   0.02657979
8220.00   0.68561476   0.02684909
8222.00   0.70875770   0.02814277
8224.00   0.71448803   0.02885037
8226.00   0.68871754   0.02814538
8228.00   0.64486927   0.02662991
8230.00   0.63686711   0.02572495
8232.00   0.66741431   0.02499129
8234.00   0.65941161   0.02422505
8236.00   0.61870307   0.02329500
8238.00   0.59249103   0.02274603
8240.00   0.59362197   0.02283766
8242.00   0.60570729   0.02324357
8244.00   0.61043245   0.02347497
8246.00   0.61831474   0.02388255
8248.00   0.61395389   0.02372520
8250.00   0.59375060   0.02289893
8252.00   0.58251339   0.02235573
8254.00   0.58713537   0.02221717
8256.00   0.59030890   0.02216309
8258.00   0.57119083   0.02192375
8260.00   0.53360426   0.02160911
8262.00   0.52139175   0.02126168
8264.00   0.53847432   0.02048697
8266.00   0.52783149   0.02046368
8268.00   0.47665590   0.02078563
8270.00   0.43722719   0.02195027
8272.00   0.45048949   0.02440687
8274.00   0.49606550   0.02757477
8276.00   0.50771821   0.02983654
8278.00   0.50778759   0.03171122
8280.00   0.49812058   0.03371785
8282.00   0.46300206   0.03621898
8284.00   0.44245473   0.03792289
8286.00   0.44856942   0.03816167
8288.00   0.47413251   0.03772671
8290.00   0.52794528   0.03854899
8292.00   0.63560718   0.04065734
8294.00   0.69138139   0.04115427
8296.00   0.73539174   0.04102570
8298.00   0.74369538   0.04005114
8300.00   0.69607776   0.03773522
8302.00   0.62723422   0.03464321
8304.00   0.59578478   0.03215913
8306.00   0.57653761   0.02955753
8308.00   0.57741135   0.02789102
8310.00   0.59987265   0.02671046
8312.00   0.63205981   0.02692525
8314.00   0.69319201   0.02987567
8316.00   0.74383748   0.03217196
8318.00   0.73614597   0.03067980
8320.00   0.68545628   0.02601253
8322.00   0.65704679   0.02350008
8324.00   0.62126940   0.02145003
8326.00   0.60365540   0.02040673
8328.00   0.61094129   0.02053258
8330.00   0.61533558   0.02162237
8332.00   0.59733009   0.02292063
8334.00   0.56802857   0.02477797
8336.00   0.55742568   0.03012566
8338.00   0.54912460   0.03858382
8340.00   0.56261563   0.04336245
8342.00   0.62257373   0.04802657
8344.00   0.64936107   0.05003493
8346.00   0.59844196   0.04817659
8348.00   0.51766837   0.04381524
8350.00   0.51099616   0.04049482
8352.00   0.55734771   0.03626885
8354.00   0.58579665   0.03306586
8356.00   0.63721704   0.03066205
8358.00   0.65593541   0.02871238
8360.00   0.62175059   0.02751635
8362.00   0.57217878   0.02677843
8364.00   0.55606639   0.02570509
8366.00   0.55266118   0.02451645
8368.00   0.56520128   0.02381797
8370.00   0.60733294   0.02316568
8372.00   0.63442874   0.02345693
8374.00   0.64692271   0.02502719
8376.00   0.65459704   0.02672424
8378.00   0.66500974   0.02789887
8380.00   0.67608172   0.02900180
8382.00   0.66742933   0.02870263
8384.00   0.63194805   0.02533790
8386.00   0.61425352   0.02550831
8388.00   0.59841359   0.02861731
8390.00   0.60173017   0.03232053
8392.00   0.64617246   0.03643879
8394.00   0.71530962   0.04068063
8396.00   0.72956359   0.04182247
8398.00   0.70441693   0.04085043
8400.00   0.68311727   0.03936047
8402.00   0.63388979   0.03586489
8404.00   0.61023957   0.03256518
8406.00   0.63539320   0.03008492
8408.00   0.68223447   0.02825140
8410.00   0.70555019   0.02790845
8412.00   0.73318297   0.02978787
8414.00   0.72109193   0.02985671
8416.00   0.66510451   0.02838826
8418.00   0.61656129   0.02818672
8420.00   0.57407266   0.02935772
8422.00   0.53812206   0.03148942
8424.00   0.51994789   0.03481111
8426.00   0.51877546   0.03957501
8428.00   0.50811803   0.04106100
8430.00   0.48329523   0.04113736
8432.00   0.48493725   0.03971471
8434.00   0.51783407   0.03557550
8436.00   0.55863571   0.03054763
8438.00   0.59415716   0.02663540
8440.00   0.63205385   0.02296879
8442.00   0.64531195   0.02167905
8444.00   0.63198936   0.02375395
8446.00   0.62809050   0.02510806
8448.00   0.63005412   0.02703394
8450.00   0.62657821   0.02842676
8452.00   0.60762221   0.02855279
8454.00   0.58192897   0.02811036
8456.00   0.58264953   0.02914348
8458.00   0.62786949   0.03099966
8460.00   0.61511940   0.03300699
8462.00   0.55895483   0.03652873
8464.00   0.50283396   0.03806900
8466.00   0.44538131   0.03686247
8468.00   0.39422485   0.03402567
8470.00   0.38669673   0.03097634
8472.00   0.42505199   0.02588916
8474.00   0.43192047   0.02271196
8476.00   0.42973235   0.02117283
8478.00   0.42292288   0.02007505
8480.00   0.41345933   0.01959622
8482.00   0.39682332   0.01973961
8484.00   0.36470309   0.02025097
8486.00   0.31491742   0.02124179
8488.00   0.29290262   0.02237721
8490.00   0.28485954   0.02385091
8492.00   0.28772113   0.02522413
8494.00   0.31152546   0.02655992
8496.00   0.33362821   0.02788355
8498.00   0.33859590   0.02940295
8500.00   0.33431882   0.03101828
8502.00   0.31848335   0.03118511
8504.00   0.26839989   0.03016995
8506.00   0.26098984   0.02894673
8508.00   0.29940546   0.02692375
8510.00   0.32715651   0.02473692
8512.00   0.31814083   0.02248688
8514.00   0.29332215   0.02016230
8516.00   0.28745091   0.01893853
8518.00   0.29159907   0.01910156
8520.00   0.29176769   0.01887934
8522.00   0.29461697   0.01885931
8524.00   0.29316607   0.01890695
8526.00   0.28114673   0.01895806
8528.00   0.26909384   0.01911432
8530.00   0.27698874   0.01954394
8532.00   0.30316776   0.02022970
8534.00   0.31566608   0.02082615
8536.00   0.32809067   0.02138571
8538.00   0.32965493   0.02206697
8540.00   0.30792329   0.02287027
8542.00   0.29130879   0.02373653
8544.00   0.31327349   0.02475374
8546.00   0.36368018   0.02601475
8548.00   0.39518064   0.02607454
8550.00   0.43244484   0.02501398
8552.00   0.44685808   0.02411312
8554.00   0.43045130   0.02308474
8556.00   0.41482210   0.02204161
8558.00   0.41684815   0.02101243
8560.00   0.42761537   0.01999054
8562.00   0.45502031   0.01976258
8564.00   0.51378840   0.02044440
8566.00   0.54601860   0.02084690
8568.00   0.56541556   0.02139942
8570.00   0.57533270   0.02176940
8572.00   0.56524318   0.02178004
8574.00   0.55010468   0.02162511
8576.00   0.58502960   0.02171421
8578.00   0.68075967   0.02189525
8580.00   0.71645534   0.02215567
8582.00   0.71251512   0.02251232
8584.00   0.71480948   0.02291435
8586.00   0.72455907   0.02328605
8588.00   0.74067169   0.02376243
8590.00   0.77700114   0.02450584
8592.00   0.84477031   0.02528745
8594.00   0.84900272   0.02685173
8596.00   0.76356542   0.02944815
8598.00   0.75880629   0.03119889
8600.00   0.86076528   0.03278336
8602.00   0.97337854   0.03341924
8604.00   1.01492548   0.03176245
8606.00   1.01926601   0.02770023
8608.00   1.03917718   0.02681523
8610.00   1.05794060   0.02785500
8612.00   1.07267702   0.02951379
8614.00   1.10206258   0.03116035
8616.00   1.10105813   0.03452282
8618.00   1.02619922   0.04116875
8620.00   0.90736383   0.04859857
8622.00   0.87656027   0.05021378
8624.00   0.90169048   0.04705203
8626.00   0.93331701   0.04585116
8628.00   1.02203190   0.04488869
8630.00   1.06772172   0.04383917
8632.00   1.03058124   0.04272583
8634.00   0.95364058   0.04144755
8636.00   0.90294462   0.03946484
8638.00   0.83950204   0.03610706
8640.00   0.81999016   0.03449079
8642.00   0.85227937   0.03383316
8644.00   0.86343390   0.03416456
8646.00   0.83687490   0.03575197
8648.00   0.80722106   0.03790247
8650.00   0.81576830   0.03985979
8652.00   0.85499489   0.04214025
8654.00   0.86175561   0.04335897
8656.00   0.85369545   0.04399820
8658.00   0.83874887   0.04419558
8660.00   0.80399913   0.04382339
8662.00   0.77669352   0.04314553
8664.00   0.78122890   0.04236833
8666.00   0.80659592   0.04136817
8668.00   0.83816898   0.04030971
8670.00   0.91774422   0.03913770
8672.00   0.92632842   0.03779981
8674.00   0.85308272   0.03605409
8676.00   0.79115415   0.03446508
8678.00   0.78362632   0.03343552
8680.00   0.80304301   0.03274608
8682.00   0.82641524   0.03182439
8684.00   0.86778533   0.03085045
8686.00   0.90770805   0.02989913
8688.00   0.95746338   0.02882490
8690.00   1.00162756   0.02796762
8692.00   1.04078937   0.02746660
8694.00   1.07192552   0.02719496
8696.00   1.07941318   0.02695784
8698.00   1.05620575   0.02683366
8700.00   1.06113482   0.02683309
8702.00   1.08220422   0.02713944
8704.00   1.10132921   0.02720377
8706.00   1.11265206   0.02690943
8708.00   1.12973130   0.02654080
8710.00   1.17180204   0.02641156
8712.00   1.23903298   0.02641991
8714.00   1.26789355   0.02633556
8716.00   1.26185930   0.02611892
8718.00   1.27417099   0.02612439
8720.00   1.30285394   0.02641636
8722.00   1.33393586   0.02671559
8724.00   1.36240423   0.02682937
8726.00   1.39130151   0.02685394
8728.00   1.39965427   0.02692343
8730.00   1.36841214   0.02687949
8732.00   1.38329959   0.02708882
8734.00   1.44429672   0.02765098
8736.00   1.49898982   0.02806486
8738.00   1.52461278   0.02812791
8740.00   1.53805554   0.02799697
8742.00   1.56123292   0.02782114
8744.00   1.59167361   0.02611888
8746.00   1.60958958   0.02792716
8748.00   1.62091231   0.03207133
8750.00   1.62552547   0.03619315
8752.00   1.61104953   0.04056918
8754.00   1.59901357   0.04458456
8756.00   1.63835871   0.04676522
8758.00   1.73439980   0.04741066
8760.00   1.76531780   0.04939668
8762.00   1.76100826   0.05306499
8764.00   1.74564314   0.05448791
8766.00   1.69957507   0.05295237
8768.00   1.66094863   0.05082537
8770.00   1.68017483   0.05073270
8772.00   1.74177742   0.05180058
8774.00   1.78198218   0.05165819
8776.00   1.82748079   0.05138365
8778.00   1.86019576   0.05001486
8780.00   1.88195062   0.04692196
8782.00   1.89579165   0.04361987
8784.00   1.90075481   0.04102605
8786.00   1.89740956   0.03875721
8788.00   1.90243256   0.03868199
8790.00   1.92477942   0.04187023
8792.00   1.91570020   0.04273935
8794.00   1.85754275   0.04318145
8796.00   1.82980394   0.04213985
8798.00   1.87988889   0.03806167
8800.00   1.95984578   0.03182703
8802.00   1.95639455   0.02938233
8804.00   1.87771237   0.03047919
8806.00   1.85286069   0.03033320
8808.00   1.84012520   0.03040995
8810.00   1.84771240   0.03066712
8812.00   1.88984680   0.03038304
8814.00   1.94065762   0.03088428
8816.00   1.95681715   0.03414466
8818.00   1.95684600   0.03834385
8820.00   1.93621564   0.04533468
8822.00   1.88362408   0.05636954
8824.00   1.83753419   0.06230633
8826.00   1.79026580   0.06501210
8828.00   1.75065255   0.06545297
8830.00   1.72900093   0.06315605
8832.00   1.71910107   0.05761802
8834.00   1.73807216   0.05362252
8836.00   1.81911325   0.04932886
8838.00   1.83841133   0.04546515
8840.00   1.78369677   0.04175112
8842.00   1.74399006   0.03885221
8844.00   1.77641547   0.03766052
8846.00   1.84648550   0.03788278
8848.00   1.87039006   0.03733035
8850.00   1.88447118   0.03661167
8852.00   1.86634719   0.03627589
8854.00   1.77893567   0.03423623
8856.00   1.73859727   0.03575726
8858.00   1.80145228   0.04325778
8860.00   1.90520084   0.05164592
8862.00   1.93415308   0.05523170
8864.00   1.95298445   0.05807837
8866.00   1.87808025   0.05620166
8868.00   1.66352904   0.04671872
8870.00   1.51539290   0.03888443
8872.00   1.45866501   0.03488908
8874.00   1.44186747   0.03384923
8876.00   1.42701685   0.03592324
8878.00   1.43006885   0.04121652
8880.00   1.45066929   0.04578642
8882.00   1.53176141   0.05296521
8884.00   1.54227698   0.05575075
8886.00   1.45261109   0.05463256
8888.00   1.36549091   0.05172491
8890.00   1.36342597   0.04740696
8892.00   1.40915656   0.04021735
8894.00   1.46593463   0.04061110
8896.00   1.60281217   0.04994771
8898.00   1.63734257   0.05222016
8900.00   1.56921005   0.04993745
8902.00   1.49692118   0.04674650
8904.00   1.45796394   0.04382861
8906.00   1.43202496   0.04054759
8908.00   1.44702876   0.03961754
8910.00   1.52397072   0.03940194
8912.00   1.55816174   0.04267298
8914.00   1.59724271   0.05020197
8916.00   1.59324825   0.05542082
8918.00   1.51544678   0.05852013
8920.00   1.40606689   0.05980563
8922.00   1.34867740   0.05679507
8924.00   1.30576241   0.04715960
8926.00   1.29949689   0.04161258
8928.00   1.33877146   0.03710150
8930.00   1.37755108   0.03468752
8932.00   1.43281627   0.03567403
8934.00   1.47357213   0.03818794
8936.00   1.44173372   0.04009649
8938.00   1.34180331   0.04246683
8940.00   1.32036018   0.04386192
8942.00   1.35868633   0.04516289
8944.00   1.36794460   0.04531828
8946.00   1.34477580   0.04277202
8948.00   1.32666981   0.04145080
8950.00   1.34616280   0.04491958
8952.00   1.38957369   0.05090920
8954.00   1.37867558   0.05545937
8956.00   1.31983960   0.06279160
8958.00   1.27943456   0.06370384
8960.00   1.24489951   0.05856081
8962.00   1.20908201   0.05209629
8964.00   1.16604471   0.04589451
8966.00   1.12153590   0.03884571
8968.00   1.09685838   0.03455083
8970.00   1.09011614   0.03404438
8972.00   1.08070648   0.03260342
8974.00   1.08355057   0.03165766
8976.00   1.07408440   0.03146989
8978.00   1.03353441   0.03153154
8980.00   0.99156171   0.03274260
8982.00   1.00723326   0.03721196
8984.00   1.08116829   0.04523830
8986.00   1.09828126   0.04695817
8988.00   1.08253002   0.04391535
8990.00   1.06909192   0.04245274
8992.00   1.04781461   0.04240390
8994.00   1.03539646   0.04356086
8996.00   1.07036281   0.04642903
8998.00   1.15797353   0.05058124
9000.00   1.10619593   0.05492082
9002.00   0.89288294   0.06320155
9004.00   0.78466958   0.06423113
9006.00   0.74392134   0.05730030
9008.00   0.75527704   0.04808874
9010.00   0.83846688   0.04092246
9012.00   0.98378998   0.03359719
9014.00   1.03921807   0.03027787
9016.00   1.04027033   0.03384774
9018.00   1.04367375   0.03444718
9020.00   1.02543676   0.03429433
9022.00   1.01149428   0.03417057
9024.00   1.02016461   0.03435519
9026.00   1.03301835   0.03460392
9028.00   1.00195873   0.03449701
9030.00   0.92536360   0.03397955
9032.00   0.87576401   0.03382780
9034.00   0.81314421   0.03348469
9036.00   0.78923851   0.03387700
9038.00   0.83182138   0.03535367
9040.00   0.89317107   0.03719499
9042.00   0.89824897   0.03856117
9044.00   0.87105185   0.03997787
9046.00   0.84577131   0.04060540
9048.00   0.79287624   0.04097699
9050.00   0.76889044   0.04040134
9052.00   0.79002053   0.03821758
9054.00   0.81000394   0.03576302
9056.00   0.78141111   0.03462392
9058.00   0.71979672   0.03420373
9060.00   0.69198418   0.03441431
9062.00   0.67245817   0.03657050
9064.00   0.67186844   0.03653911
9066.00   0.70825195   0.03400040
9068.00   0.73240048   0.03142484
9070.00   0.70794392   0.03066247
9072.00   0.65642697   0.03083813
9074.00   0.64195549   0.03036091
9076.00   0.64895713   0.02933645
9078.00   0.65410578   0.02925363
9080.00   0.67182600   0.02994351
9082.00   0.68011850   0.03079590
9084.00   0.66962957   0.03188268
9086.00   0.64976257   0.03296938
9088.00   0.63517648   0.03303194
9090.00   0.61201710   0.03177368
9092.00   0.61330479   0.03198033
9094.00   0.63929361   0.03267443
9096.00   0.66043371   0.03417720
9098.00   0.68029398   0.03700440
9100.00   0.69207525   0.03981101
9102.00   0.67638659   0.04115917
9104.00   0.63393563   0.04219244
9106.00   0.60860544   0.04056347
9108.00   0.59332192   0.03439820
9110.00   0.56704307   0.03017507
9112.00   0.51805174   0.02861730
9114.00   0.47809899   0.02819988
9116.00   0.47821173   0.02796624
9118.00   0.50668091   0.02847218
9120.00   0.51832098   0.02864762
9122.00   0.52970570   0.02865731
9124.00   0.53637731   0.02912361
9126.00   0.54342109   0.03019136
9128.00   0.54036707   0.03110386
9130.00   0.50982350   0.03154207
9132.00   0.46613818   0.03172363
9134.00   0.48575521   0.03173612
9136.00   0.58109581   0.03159532
9138.00   0.61832869   0.03114443
9140.00   0.63153338   0.02983828
9142.00   0.63139778   0.02922659
9144.00   0.61440021   0.02963600
9146.00   0.58760434   0.03083706
9148.00   0.57452965   0.03311586
9150.00   0.56732690   0.03724656
9152.00   0.56068999   0.03839405
9154.00   0.55869734   0.03771545
9156.00   0.55419278   0.03679247
9158.00   0.54377341   0.03544137
9160.00   0.53466064   0.03385387
9162.00   0.53777850   0.03257288
9164.00   0.55330122   0.03120425
9166.00   0.54797381   0.03100056
9168.00   0.51409978   0.03245897
9170.00   0.50855696   0.03286881
9172.00   0.53895301   0.03240920
9174.00   0.56957585   0.03157614
9176.00   0.57377797   0.03048775
9178.00   0.56388921   0.02899422
9180.00   0.56001532   0.02822679
9182.00   0.55234033   0.02783527
9184.00   0.55049324   0.02785884
9186.00   0.54778647   0.02872892
9188.00   0.55580610   0.02929848
9190.00   0.58449215   0.02892482
9192.00   0.62519819   0.02810953
9194.00   0.64925975   0.02810667
9196.00   0.68147039   0.02894932
9198.00   0.67227936   0.02895925
9200.00   0.60701114   0.02817903
9202.00   0.56718564   0.02786643
9204.00   0.57305855   0.02817657
9206.00   0.59970945   0.02900255
9208.00   0.61924970   0.03034306
9210.00   0.62568772   0.03084955
9212.00   0.69843239   0.03615986
9214.00   0.90283203   0.04705948
9216.00   0.97249353   0.05157302
9218.00   0.84659493   0.05006591
9220.00   0.68301737   0.04645351
9222.00   0.64368379   0.04440187
9224.00   0.66850287   0.04239190
9226.00   0.66718012   0.03973121
9228.00   0.67754036   0.03563027
9230.00   0.67344075   0.03274813
9232.00   0.63897109   0.03104829
9234.00   0.62197006   0.03037767
9236.00   0.66970700   0.03105931
9238.00   0.75930798   0.03291521
9240.00   0.76174605   0.03324934
9242.00   0.68668681   0.03219366
9244.00   0.64883596   0.03248411
9246.00   0.62444013   0.03434351
9248.00   0.60217237   0.03532973
9250.00   0.57587475   0.03438898
9252.00   0.55154526   0.03241087
9254.00   0.54516625   0.03128702
9256.00   0.54952294   0.02987213
9258.00   0.56936902   0.02991615
9260.00   0.62816435   0.03201924
9262.00   0.65566856   0.03296375
9264.00   0.62295866   0.03171163
9266.00   0.57721388   0.03001601
9268.00   0.59104323   0.03081534
9270.00   0.64850014   0.03337424
9272.00   0.68080914   0.03492665
9274.00   0.73399657   0.03667190
9276.00   0.73469257   0.03769450
9278.00   0.66168356   0.03778430
9280.00   0.57385075   0.03769900
9282.00   0.52113456   0.03810379
9284.00   0.47602579   0.03866770
9286.00   0.48825884   0.03960351
9288.00   0.59431958   0.04075260
9290.00   0.62674201   0.04228997
9292.00   0.59885126   0.04352689
9294.00   0.55217588   0.04594458
9296.00   0.49342373   0.04893605
9298.00   0.42056009   0.05276626
9300.00   0.42146215   0.06418531
9302.00   0.49245942   0.07777403
9304.00   0.54338604   0.09360844
9306.00   0.61557621   0.11164545
9308.00   0.66185272   0.12836276
9310.00   0.68084061   0.14565529
9312.00   0.66530097   0.16114046
9314.00   0.54954773   0.16710164
9316.00   0.22691265   0.16798824
9318.00   0.21089242   0.16296777
9320.00   0.44883668   0.14646843
9322.00   0.64645416   0.13198632
9324.00   0.82571286   0.12238126
9326.00   0.94124395   0.11492469
9328.00   0.82825702   0.10756190
9330.00   0.47489229   0.10063607
9332.00   0.34296378   0.09900475
9334.00   0.28468841   0.10582463
9336.00   0.30367509   0.10764267
9338.00   0.46609122   0.10514544
9340.00   0.62330800   0.10029748
9342.00   0.62748909   0.09289074
9344.00   0.53853589   0.08134179
9346.00   0.48640648   0.07646941
9348.00   0.37293056   0.07723098
9350.00   0.37304646   0.07845563
9352.00   0.52062136   0.08338415
9354.00   0.64278030   0.08621778
9356.00   0.64127713   0.08281654
9358.00   0.57708639   0.07569893
9360.00   0.55209297   0.07568417
9362.00   0.50676167   0.06367451
9364.00   0.51903754   0.08993541
9366.00   0.61240458   0.12858866
9368.00   0.66371518   0.16523987
9370.00   0.61211586   0.20561774
9372.00   0.53134751   0.24131340
9374.00   0.56471020   0.25574231
9376.00   0.70312977   0.26242748
9378.00   0.75320274   0.25112835
9380.00   0.70506072   0.20837958
9382.00   0.75945729   0.16789250
9384.00   0.99747044   0.13470203
9386.00   1.25005269   0.10469928
9388.00   1.30964708   0.08233497
9390.00   1.25984061   0.07883779
9392.00   1.12982225   0.06917240
9394.00   0.77268237   0.06301406
9396.00   0.61189073   0.06036086
9398.00   0.63022953   0.06357147
9400.00   0.73950493   0.06822515
9402.00   0.92637604   0.07160805
9404.00   1.21088123   0.07521427
9406.00   1.29883373   0.07572113
9408.00   1.22464323   0.07072224
9410.00   1.20030999   0.07191951
9412.00   1.17970693   0.07649451
9414.00   1.16082716   0.08413857
9416.00   1.14539886   0.09685005
9418.00   1.13250208   0.11052425
9420.00   1.12385809   0.11313610
9422.00   1.14617205   0.10778185
9424.00   1.10651219   0.10223373
9426.00   1.01477909   0.08973191
9428.00   0.91948396   0.08015087
9430.00   0.81626570   0.07480524
9432.00   0.71835977   0.07596549
9434.00   0.67436635   0.09195270
9436.00   0.65646845   0.12095934
9438.00   0.70462555   0.13082704
9440.00   0.83198434   0.13543749
9442.00   0.96329999   0.13298616
9444.00   1.14016974   0.11677956
9446.00   1.28443885   0.09678139
9448.00   1.28219295   0.09449436
9450.00   1.17093599   0.10459401
9452.00   1.04546249   0.11140382
9454.00   0.77575743   0.12322486
9456.00   0.67098761   0.12863439
9458.00   0.77436072   0.12904695
9460.00   0.87103075   0.12698424
9462.00   0.79512978   0.12273270
9464.00   0.62640995   0.11569504
9466.00   0.61226165   0.11318821
9468.00   0.70361865   0.11241519
9470.00   0.78218418   0.11502163
9472.00   0.92227912   0.12221829
9474.00   1.00413978   0.12893012
9476.00   0.92516369   0.13586016
9478.00   0.78618282   0.14143382
9480.00   0.90008730   0.13489448
9482.00   1.35693288   0.10859315
9484.00   1.41702521   0.09664307
9486.00   1.19001067   0.09561412
9488.00   0.98818010   0.09379534
9490.00   0.82087058   0.08639613
9492.00   0.69605505   0.08025011
9494.00   0.73691612   0.08784252
9496.00   0.94938123   0.10612430
9498.00   1.05570292   0.11499070
9500.00   1.18638492   0.12602234
9502.00   1.21096599   0.12655099
9504.00   1.07809472   0.11182025
9506.00   0.91889077   0.09092765
9508.00   0.86358249   0.07804731
9510.00   0.85640556   0.06841907
9512.00   0.87076730   0.06661703
9514.00   0.92323989   0.07782625
9516.00   0.98917872   0.08323320
9518.00   1.09948170   0.08659132
9520.00   1.18965471   0.08828606
9522.00   1.21652091   0.08780901
9524.00   1.20337558   0.08547458
9526.00   1.17783105   0.08294348
9528.00   1.07370281   0.07867493
9530.00   1.07814670   0.07544003
9532.00   1.23087144   0.07179929
9534.00   1.29787922   0.06984153
9536.00   1.15245855   0.07114895
9538.00   0.92369074   0.07408502
9540.00   0.89157951   0.07475476
9542.00   1.02276719   0.07063415
9544.00   1.04198825   0.07706591
9546.00   1.00462425   0.09340859
9548.00   0.98961914   0.10291609
9550.00   1.03228748   0.10605817
9552.00   1.06893337   0.10565072
9554.00   0.99965292   0.10107026
9556.00   0.82957768   0.08690144
9558.00   0.75970870   0.09075359
9560.00   0.70485079   0.11120779
9562.00   0.73040742   0.12160720
9564.00   0.88567501   0.12680312
9566.00   1.04682446   0.12692381
9568.00   1.10132968   0.11814995
9570.00   1.10062492   0.09867723
9572.00   1.05563796   0.08643714
9574.00   0.90244955   0.07652465
9576.00   0.83344108   0.06905007
9578.00   0.82915699   0.06523336
9580.00   0.84399885   0.06525695
9582.00   0.88074666   0.07048754
9584.00   0.93202806   0.07885804
9586.00   0.85369855   0.08085848
9588.00   0.56582367   0.07968284
9590.00   0.50710225   0.07736743
9592.00   0.58736533   0.07040833
9594.00   0.72370368   0.06589369
9596.00   0.94325566   0.06763646
9598.00   1.19168568   0.07200029
9600.00   1.26725507   0.07358862
9602.00   1.22602010   0.07426839
9604.00   1.15492952   0.07520375
9606.00   0.98723567   0.07733135
9608.00   0.83953887   0.07692640
9610.00   0.69568020   0.07145888
9612.00   0.58396846   0.06534719
9614.00   0.57890189   0.06672086
9616.00   0.67799735   0.07361934
9618.00   0.69715333   0.07647414
9620.00   0.69191164   0.08056796
9622.00   0.67277575   0.07961128
9624.00   0.61527944   0.07036076
9626.00   0.57231170   0.06015498
9628.00   0.59469306   0.05879558
9630.00   0.66120964   0.06312892
9632.00   0.70962739   0.06417590
9634.00   0.79199719   0.06563546
9636.00   0.80824518   0.06543745
9638.00   0.74322343   0.06314863
9640.00   0.69045746   0.06090132
9642.00   0.69386244   0.05976454
9644.00   0.72542804   0.05915033
9646.00   0.76062280   0.05883011
9648.00   0.83919895   0.05828222
9650.00   0.85662794   0.05958180
9652.00   0.85579401   0.06341518
9654.00   0.80261457   0.06585718
9656.00   0.64270997   0.06532020
9658.00   0.45995569   0.06419642
9660.00   0.44886258   0.06688832
9662.00   0.58070606   0.07261866
9664.00   0.64473623   0.07583772
9666.00   0.74363774   0.07959173
9668.00   0.76659161   0.08040247
9670.00   0.67396694   0.07665480
9672.00   0.55626863   0.07181630
9674.00   0.51237363   0.07087993
9676.00   0.49704057   0.07240272
9678.00   0.52848595   0.07241446
9680.00   0.60873181   0.07080217
9682.00   0.71314085   0.07191730
9684.00   0.92077315   0.07444526
9686.00   1.05441856   0.07954378
9688.00   0.95683992   0.08949547
9690.00   0.70084631   0.10203739
9692.00   0.52936631   0.10479713
9694.00   0.26354301   0.10056422
9696.00   0.21520971   0.09687316
9698.00   0.40451840   0.09052438
9700.00   0.58873606   0.08449526
9702.00   0.68024385   0.08057407
9704.00   0.73537582   0.07783082
9706.00   0.75336373   0.07509264
9708.00   0.70988649   0.07087101
9710.00   0.69222629   0.07226296
9712.00   0.66867679   0.07840913
9714.00   0.65529162   0.08488220
9716.00   0.65812957   0.09274850
9718.00   0.66811645   0.09960988
9720.00   0.67671633   0.10042176
9722.00   0.71265340   0.09690302
9724.00   0.65201122   0.09205990
9726.00   0.46800116   0.08055305
9728.00   0.35565507   0.07331061
9730.00   0.30792016   0.07240048
9732.00   0.31117001   0.07465281
9734.00   0.38737452   0.07827409
9736.00   0.54777598   0.08471023
9738.00   0.60208654   0.08501320
9740.00   0.57152015   0.07974699
9742.00   0.58586657   0.07660011
9744.00   0.67933804   0.07502848
9746.00   0.71611667   0.07353370
9748.00   0.57113862   0.07132575
9750.00   0.31122941   0.06877471
9752.00   0.27228621   0.06641734
9754.00   0.40772855   0.06314088
9756.00   0.48526317   0.06201499
9758.00   0.60197413   0.06399301
9760.00   0.65682679   0.06474002
9762.00   0.58699822   0.06258679
9764.00   0.45561236   0.05879380
9766.00   0.40837052   0.05517049
9768.00   0.38456717   0.04894558
9770.00   0.40797886   0.04743359
9772.00   0.50167257   0.05016539
9774.00   0.57969439   0.05310936
9776.00   0.63714898   0.05568306
9778.00   0.67955554   0.05877416
9780.00   0.68411094   0.06265982
9782.00   0.61933458   0.06610986
9784.00   0.70699376   0.07403322
9786.00   1.03878951   0.08861396
9788.00   1.12641835   0.09501038
9790.00   0.91082156   0.09276824
9792.00   0.62327307   0.08930891
9794.00   0.43195575   0.09108718
9796.00   0.24495645   0.09513349
9798.00   0.23063253   0.10023673
9800.00   0.44390365   0.11120033
9802.00   0.53176659   0.11302955
9804.00   0.54890668   0.10567731
9806.00   0.52702802   0.09664404
9808.00   0.45844719   0.09015039
9810.00   0.35095605   0.08412923
9812.00   0.31287286   0.08087350
9814.00   0.29575419   0.08210046
9816.00   0.33348313   0.08071873
9818.00   0.45070729   0.07733292
9820.00   0.55624717   0.07532962
9822.00   0.64158797   0.07643442
9824.00   0.70315599   0.07884931
9826.00   0.67228907   0.07957385
9828.00   0.53028136   0.08103566
9830.00   0.45849535   0.07812271
9832.00   0.38430047   0.06764439
9834.00   0.35816595   0.06130363
9836.00   0.40744472   0.06259142
9838.00   0.47855452   0.06717752
9840.00   0.49985942   0.07130307
9842.00   0.50239366   0.07665712
9844.00   0.47959241   0.08103241
9846.00   0.40993816   0.08676572
9848.00   0.36567333   0.08906632
9850.00   0.33162591   0.08828077
9852.00   0.32268682   0.08545950
9854.00   0.37577400   0.07977390
9856.00   0.48442641   0.07001993
9858.00   0.46170825   0.07012665
9860.00   0.33116937   0.06972653
9862.00   0.21988595   0.08687259
9864.00   0.00261718   0.11902541
9866.00   -0.07197123   0.14213371
9868.00   0.20607774   0.15501377
9870.00   0.67755079   0.16262756
9872.00   0.77538556   0.15805437
9874.00   0.57853031   0.13386470
9876.00   0.50770247   0.11845330
9878.00   0.41782328   0.10239945
9880.00   0.37478942   0.09014093
9882.00   0.41835734   0.08548699
9884.00   0.49473935   0.08710936
9886.00   0.49496076   0.09115372
9888.00   0.42959243   0.10143933
9890.00   0.43736497   0.10518511
9892.00   0.49035835   0.10655482
9894.00   0.54540241   0.10613236
9896.00   0.60470176   0.10304000
9898.00   0.66688472   0.09881216
9900.00   0.73129946   0.09516309
9902.00   0.81440014   0.08985434
9904.00   0.80079085   0.09345516
9906.00   0.66955364   0.10378491
9908.00   0.60102487   0.11440157
9910.00   0.61712217   0.12692004
9912.00   0.60676104   0.13858624
9914.00   0.45777810   0.15003313
9916.00   0.21513881   0.16166849
9918.00   0.20939612   0.15661974
9920.00   0.47433454   0.12761259
9922.00   0.53204083   0.11026610
9924.00   0.44845301   0.10020044
9926.00   0.33782649   0.09473789
9928.00   0.20589061   0.09350055
9930.00   0.06630465   0.09728313
9932.00   0.10534213   0.10465339
9934.00   0.36249557   0.11398214
9936.00   0.46194500   0.12874599
9938.00   0.52469748   0.14998919
9940.00   0.52432978   0.16649590
9942.00   0.44496647   0.17919423
9944.00   0.31105298   0.18865280
9946.00   0.15203755   0.19182426
9948.00   -0.12076937   0.18839516
9950.00   -0.13959725   0.18813194
9952.00   0.12886761   0.18693464
9954.00   0.24598493   0.18796694
9956.00   0.16775492   0.19447787
9958.00   0.04416613   0.19898804
9960.00   -0.01067581   0.19263723
9962.00   -0.05812085   0.17691244
9964.00   -0.00506143   0.16604221
9966.00   0.16994438   0.15409264
9968.00   0.30411425   0.14529358
9970.00   0.43523064   0.14109610
9972.00   0.53699839   0.13802849
9974.00   0.59030974   0.13365093
9976.00   0.60521972   0.12919819
9978.00   0.55269468   0.12546295
9980.00   0.32666370   0.12283798
9982.00   0.30946818   0.11934790
9984.00   0.56654060   0.11189111
9986.00   0.67492384   0.10974820
9988.00   0.38367614   0.11984706
9990.00   -0.06460177   0.13377100
9992.00   -0.08956359   0.13546236
9994.00   0.25352275   0.12741415
9996.00   0.36890092   0.12486722
9998.00   0.49985391   0.11631025
10000.00   0.46342251   0.12168153
10002.00   0.11193421   0.14586128
10004.00   -0.29655170   0.17273615
10006.00   -0.32561001   0.19023754
10008.00   -0.10358871   0.20610911
10010.00   0.11231308   0.21582906
10012.00   0.53015804   0.22365656
10014.00   0.76719719   0.22408816
10016.00   0.82773715   0.21420099
10018.00   0.77595907   0.20076460
10020.00   0.61670727   0.19121169
10022.00   0.32220814   0.18230863
10024.00   0.16975263   0.17441656
10026.00   0.02638052   0.16886425
10028.00   0.02228393   0.16172859
10030.00   0.24047796   0.15195753
10032.00   0.41756886   0.14340134
10034.00   0.37816617   0.13925207
10036.00   0.22365843   0.13819909
10038.00   0.17525904   0.13634013
10040.00   0.06769764   0.13536531
10042.00   0.19178277   0.13434595
10044.00   0.66522646   0.13397251
10046.00   0.96421766   0.13307963
10048.00   0.86315501   0.13018925
10050.00   0.59107190   0.12712520
10052.00   0.53339696   0.12926500
10054.00   0.51717204   0.13491051
10056.00   0.64970297   0.14194673
10058.00   1.06611562   0.15152186
10060.00   1.28412092   0.16090035
10062.00   1.22718215   0.17250541
10064.00   1.04130638   0.18166371
10066.00   0.84477472   0.18082543
10068.00   0.55260116   0.17089339
10070.00   0.37792936   0.16618106
10072.00   0.25564402   0.15263167
10074.00   0.17741229   0.15949346
10076.00   0.15534739   0.19376297
10078.00   0.16431785   0.22225825
10080.00   0.17159899   0.22856320
10082.00   0.18611254   0.22350103
10084.00   0.30647701   0.21560027
10086.00   0.65834963   0.19492711
10088.00   0.73202890   0.18041113
10090.00   0.49899432   0.16825117
10092.00   0.29522926   0.16030917
10094.00   0.26855594   0.15755036
10096.00   0.33459973   0.16032328
10098.00   0.51539403   0.17287457
10100.00   0.98135281   0.20462184
10102.00   1.13268912   0.21132238
10104.00   1.06491470   0.20316808
10106.00   0.98158276   0.19135486
10108.00   0.90033990   0.17225160
10110.00   0.82439804   0.15083742
10112.00   0.85624295   0.15622622
10114.00   0.92522413   0.18004963
10116.00   1.16442037   0.20529702
10118.00   1.80613422   0.24755205
10120.00   2.05326581   0.26745987
10122.00   1.77237833   0.26540488
10124.00   1.27521312   0.25289884
10126.00   0.82219273   0.23806252
10128.00   0.21635459   0.21266247
10130.00   0.04577875   0.19810155
10132.00   0.31459323   0.19159588
10134.00   0.42494631   0.18514594
10136.00   0.40432566   0.17953274
10138.00   0.37821972   0.17601606
10140.00   0.42739055   0.17507817
10142.00   0.51775980   0.17657159
10144.00   0.50719291   0.18081653
10146.00   0.39662790   0.18645865
10148.00   0.34020111   0.19662207
10150.00   0.23370193   0.21497391
10152.00   0.25537768   0.22797222
10154.00   0.53480119   0.23031633
10156.00   0.96519774   0.22705053
10158.00   1.23753273   0.22651452
10160.00   1.62016368   0.22199960
10162.00   1.57574666   0.22614171
10164.00   1.05314839   0.23831412
10166.00   0.63602269   0.24864234
10168.00   0.44229957   0.25353223
10170.00   0.34004167   0.25872171
10172.00   0.24447711   0.27376670
10174.00   0.13625173   0.30003351
10176.00   0.26151845   0.30776232
10178.00   0.72986180   0.30380848
10180.00   0.99102443   0.29853272
10182.00   1.01060104   0.29025692
10184.00   0.92387372   0.28087848
10186.00   0.79562336   0.27512825
10188.00   0.55281413   0.27224231
10190.00   0.55855834   0.26290143
10192.00   0.91289288   0.24378008
10194.00   0.93281102   0.23272045
10196.00   0.57270861   0.22833444
10198.00   0.19988804   0.22956334
10200.00   0.01485474   0.23633009
10202.00   -0.08699033   0.24819307
10204.00   0.03491000   0.26316848
10206.00   0.50571132   0.28909355
10208.00   0.75511009   0.29956207
10210.00   0.90487379   0.30148736
10212.00   1.00109518   0.29711708
10214.00   1.04751384   0.28311601
10216.00   1.04622424   0.26247871
10218.00   1.03657734   0.25492576
10220.00   0.99386787   0.25623864
10222.00   0.95516944   0.25857514
10224.00   0.93921924   0.26934502
10226.00   0.86184537   0.27382860
10228.00   0.66768187   0.26884988
10230.00   0.45013034   0.25942212
10232.00   0.36200643   0.25134358
10234.00   0.33640581   0.24133185
10236.00   0.40053049   0.23354994
10238.00   0.71832222   0.22845386
10240.00   0.77235293   0.22123057
10242.00   0.44851071   0.20975937
10244.00   0.08448561   0.19870883
10246.00   -0.00890685   0.19373262
10248.00   0.03713220   0.19318157
10250.00   0.12551557   0.19335690
10252.00   0.39033243   0.19690458
10254.00   0.50887793   0.19930062
10256.00   0.45552829   0.19756693
10258.00   0.43515486   0.20103441
10260.00   0.57474995   0.21696590
10262.00   0.80364639   0.23904893
10264.00   0.99605930   0.25050443
10266.00   1.35671079   0.26104617
10268.00   1.35256767   0.26151949
10270.00   0.89783776   0.24316600
10272.00   0.59479344   0.23550719
10274.00   0.68466264   0.24413872
10276.00   0.94135916   0.26702023
10278.00   1.03441930   0.31774762
10280.00   1.18776762   0.39752623
10282.00   1.01362681   0.43633562
10284.00   0.26888895   0.46497500
10286.00   -0.01378520   0.47811618
10288.00   0.44301108   0.47187364
10290.00   1.13088381   0.45558983
10292.00   1.46346605   0.44462758
10294.00   1.74450517   0.43588746
10296.00   1.61910152   0.40968129
10298.00   0.85348248   0.34660017
10300.00   0.50053060   0.31082988
10302.00   0.60167605   0.32003689
10304.00   0.81361777   0.33800757
10306.00   0.94961870   0.33923995
10308.00   1.13244700   0.33658051
10310.00   0.88025033   0.32179281
10312.00   -0.10571516   0.27941060
10314.00   -0.35297522   0.25983638
10316.00   0.05882305   0.26508334
10318.00   0.58832705   0.27376753
10320.00   1.08207035   0.27716365
10322.00   1.60150111   0.28015509
10324.00   1.59685647   0.27922177
10326.00   0.97887272   0.26458111
10328.00   0.70403725   0.27310938
10330.00   0.44905850   0.29668736
10332.00   0.36665332   0.32432437
10334.00   0.57797301   0.36318627
10336.00   0.92290187   0.39802074
10338.00   1.05139124   0.39213994
10340.00   1.16915846   0.33922344
10342.00   0.97721040   0.32307324
10344.00   0.28508678   0.32960612
10346.00   -0.08752584   0.33259904
10348.00   -0.01788895   0.33196369
10350.00   0.21719207   0.32914141
10352.00   0.37412342   0.32045490
10354.00   0.57619470   0.30428642
10356.00   0.69113100   0.29839429
10358.00   0.94240403   0.29395002
10360.00   0.77289593   0.30190003
10362.00   -0.05604133   0.31902459
10364.00   -0.82808071   0.34605846
10366.00   -0.98145431   0.38872337
10368.00   -0.77972656   0.44135344
10370.00   -0.43402067   0.45833611
10372.00   0.48750046   0.45787233
10374.00   0.81887645   0.44403061
10376.00   0.55609858   0.39976877
10378.00   0.36717230   0.35812524
10380.00   0.59406680   0.34354877
10382.00   0.99558473   0.34433681
10384.00   1.14392197   0.33998495
10386.00   1.16538179   0.33160651
10388.00   1.15708995   0.34103048
10390.00   0.90344983   0.36537403
10392.00   0.92139077   0.39075288
10394.00   1.50463319   0.42366880
10396.00   2.23197269   0.45112306
10398.00   2.29551387   0.44170970
10400.00   1.77514052   0.39140329
10402.00   1.75089777   0.36836514
10404.00   2.08107162   0.35669565
10406.00   2.19874692   0.34686974
10408.00   2.12344599   0.33679798
10410.00   1.87184763   0.33235627
10412.00   1.32597649   0.34173360
10414.00   0.42813820   0.36446080
10416.00   0.02518125   0.37018293
10418.00   -0.06868917   0.36975563
10420.00   -0.13263804   0.36182222
10422.00   -0.15699700   0.34161115
10424.00   -0.06332555   0.31833526
10426.00   0.25445047   0.29762059
10428.00   0.75223166   0.27627513
10430.00   0.91456610   0.27330858
10432.00   0.91169524   0.29042250
10434.00   0.76722449   0.30285573
10436.00   0.34100670   0.32384518
10438.00   -0.01634730   0.33360180
10440.00   -0.16721584   0.32119685
10442.00   -0.20841722   0.29568142
10444.00   -0.19939686   0.28433514
10446.00   -0.05469271   0.28205976
10448.00   -0.00298559   0.27430323
10450.00   0.05370082   0.26320833
10452.00   0.03173494   0.25449497
10454.00   -0.10971957   0.24384038
10456.00   -0.30533677   0.23992337
10458.00   -0.46230802   0.26371038
10460.00   -0.67115343   0.31095749
10462.00   -0.66480583   0.33394688
10464.00   -0.46186435   0.35750756
10466.00   -0.25643116   0.36061916
10468.00   0.02748367   0.33245522
10470.00   0.25850406   0.29701856
10472.00   0.22939721   0.29005086
10474.00   -0.02253271   0.30238396
10476.00   0.03470645   0.29188421
10478.00   0.41248995   0.25553522
10480.00   0.52236313   0.24084070
10482.00   0.27185401   0.24975766
10484.00   0.13549772   0.26367876
10486.00   0.51763886   0.27609792
10488.00   1.19316387   0.29001409
10490.00   1.16031778   0.28931108
10492.00   0.44788596   0.27172616
10494.00   0.11896752   0.26331052
10496.00   -0.19027717   0.25681576
10498.00   -0.24098662   0.25458640
10500.00   0.19332436   0.25748432
10502.00   0.85223073   0.26484087
10504.00   1.01535165   0.27698201
10506.00   0.84417975   0.30181229
10508.00   0.75534225   0.30548865
10510.00   0.56380939   0.29260051
10512.00   0.43911916   0.28080115
10514.00   0.39972189   0.26858196
10516.00   0.41603845   0.25969064
10518.00   0.49170235   0.26804850
10520.00   0.67329383   0.29403344
10522.00   0.69226223   0.29820263
10524.00   0.57280833   0.29085532
10526.00   0.49902698   0.28053737
10528.00   0.39069229   0.26138601
10530.00   0.38444212   0.24238649
10532.00   0.70580941   0.23602970
10534.00   1.31841433   0.23830882
10536.00   1.36514139   0.24261127
10538.00   0.89864004   0.25408295
10540.00   0.66353971   0.26228857
10542.00   0.49136037   0.27253017
10544.00   0.43801636   0.27705306
10546.00   0.62486565   0.26977047
10548.00   0.96405393   0.25413138
10550.00   0.95880800   0.24466102
10552.00   0.61521786   0.23385243
10554.00   0.50259262   0.23034203
10556.00   0.46046469   0.23445334
10558.00   0.49945107   0.23969857
10560.00   0.70849568   0.24584088
10562.00   0.95654285   0.25206497
10564.00   0.85928947   0.25286454
10566.00   0.39287275   0.24862035
10568.00   0.26016015   0.24678773
10570.00   0.28960761   0.24277809
10572.00   0.35737306   0.24331331
10574.00   0.53317845   0.25057966
10576.00   0.68412101   0.25972742
10578.00   0.56604522   0.26592144
10580.00   0.21794397   0.27239716
10582.00   0.04494599   0.27229449
10584.00   -0.18387149   0.26336846
10586.00   -0.15798038   0.25921729
10588.00   0.28490156   0.26004398
10590.00   0.68591744   0.26190346
10592.00   0.62718207   0.26222494
10594.00   0.28081009   0.26215741
10596.00   0.19321272   0.26344857
10598.00   0.19454037   0.26703015
10600.00   0.23650882   0.26793084
10602.00   0.43210918   0.26436254
10604.00   0.52078956   0.26363117
10606.00   0.30297121   0.27051401
10608.00   -0.06747378   0.28113136
10610.00   -0.09619951   0.28626791
10612.00   0.21844058   0.29134253
10614.00   0.26816261   0.28994447
10616.00   0.13584925   0.27889815
10618.00   0.08160008   0.27166954
10620.00   0.18830507   0.27309978
10622.00   0.35638228   0.27782091
10624.00   0.46050283   0.27896771
10626.00   0.58836818   0.27944610
10628.00   0.56690425   0.27834016
10630.00   0.37624806   0.27533114
10632.00   0.23158695   0.27210629
10634.00   0.13922115   0.26807776
10636.00   0.06796268   0.26425931
10638.00   -0.01436063   0.26223281
10640.00   -0.13850410   0.26125461
10642.00   0.02697328   0.26211897
10644.00   0.63773036   0.26641265
10646.00   0.87642246   0.26833010
10648.00   0.74603730   0.26880321
10650.00   0.52313697   0.26774931
10652.00   0.32471395   0.26416263
10654.00   0.08252313   0.25830001
10656.00   0.16145913   0.25570685
10658.00   0.68332773   0.25542524
10660.00   0.84196055   0.25460362
10662.00   0.69737470   0.25437397
10664.00   0.58518833   0.25354749
10666.00   0.64414799   0.25136870
10668.00   0.77394795   0.24843854
10670.00   0.86398262   0.24621823
10672.00   0.99837500   0.24408916
10674.00   1.02276886   0.24237497
10676.00   0.98715591   0.24197802
10678.00   0.88014579   0.24013528
10680.00   0.68744040   0.23555313
10682.00   0.43280917   0.23005350
10684.00   0.13320236   0.22662531
10686.00   -0.36642927   0.22340752
10688.00   -0.34187889   0.22402655
10690.00   0.19248478   0.22835773
10692.00   0.60663527   0.23328659
10694.00   0.98767012   0.24109232
10696.00   1.24246383   0.24718001
10698.00   1.13673496   0.24616130
10700.00   0.69374400   0.24001434
10702.00   0.64387387   0.23289041
10704.00   0.80681223   0.21380638
10706.00   0.99566180   0.21183741
10708.00   1.41440332   0.23469639
10710.00   1.64776635   0.25096184
10712.00   1.30485427   0.24262792
10714.00   0.59338844   0.21880433
10716.00   0.45276913   0.20882714
10718.00   0.79802620   0.20316660
10720.00   0.83049339   0.20264626
10722.00   0.67692596   0.20874014
10724.00   0.53687143   0.21700953
10726.00   0.41331676   0.23031986
10728.00   0.33902597   0.24331790
10730.00   0.60113078   0.23617198
10732.00   1.48803294   0.20220323
10734.00   1.50853372   0.18813016
10736.00   0.73371828   0.18456951
10738.00   0.23656985   0.18423288
10740.00   0.19296399   0.18978697
10742.00   0.32449454   0.19580545
10744.00   0.41683415   0.19061105
10746.00   0.57866025   0.17482837
10748.00   0.69463938   0.16754538
10750.00   0.92517650   0.16031195
10752.00   0.89579219   0.16207343
10754.00   0.41766030   0.17965607
10756.00   -0.01735390   0.19404346
10758.00   0.11073038   0.19000328
10760.00   0.62896895   0.17309582
10762.00   0.76744902   0.16031215
10764.00   0.75783241   0.14109212
10766.00   0.67765176   0.12878583
10768.00   0.41584259   0.12403704
10770.00   0.21018863   0.12363747
10772.00   0.18414137   0.12483438
10774.00   0.27072525   0.12931579
10776.00   0.51263356   0.14288363
10778.00   1.14911246   0.17467354
10780.00   1.33157885   0.17930584
10782.00   1.16710627   0.16350086
10784.00   0.98594469   0.14602813
10786.00   0.87555534   0.13225250
10788.00   0.76453674   0.11900047
10790.00   0.62594277   0.11067232
10792.00   0.41505298   0.10642977
10794.00   0.35388732   0.10822506
10796.00   0.38102445   0.12057713
10798.00   0.47892207   0.12749629
10800.00   0.71362364   0.12878780
10802.00   0.95779687   0.12692247
10804.00   1.00183988   0.12191211
10806.00   0.90319729   0.11147647
10808.00   0.84706110   0.10618470
10810.00   0.81420904   0.10522356
10812.00   0.68262655   0.10211963
10814.00   0.38033301   0.09474780
10816.00   0.10319066   0.08901421
10818.00   0.00842572   0.09131781
10820.00   0.01985224   0.09894279
10822.00   0.15678664   0.10483773
10824.00   0.62252301   0.11008154
10826.00   0.74180746   0.11832382
10828.00   0.47922945   0.13409716
10830.00   0.28408509   0.14221990
10832.00   0.44439113   0.13515820
10834.00   0.75605917   0.11757413
10836.00   0.65918839   0.10589220
10838.00   0.12862726   0.09063984
10840.00   -0.07285102   0.08420362
10842.00   -0.20955783   0.09058364
10844.00   -0.15781528   0.09365535
10846.00   0.26169854   0.08923818
10848.00   0.78136605   0.08180773
10850.00   0.74343181   0.07734200
10852.00   0.09320023   0.07325880
10854.00   0.18323021   0.07170683
