# File created by shivutils (I.Shivvers)
# wl(A)   flm    er(optional)
3428.00   4.09615157   0.13528769
3430.00   4.12500087   0.13566571
3432.00   4.12842220   0.13488987
3434.00   4.30184884   0.13923477
3436.00   4.00572052   0.14062359
3438.00   3.92415576   0.14018622
3440.00   4.08771316   0.13847484
3442.00   4.31275762   0.13894104
3444.00   4.27772242   0.13680302
3446.00   4.02679379   0.13822848
3448.00   3.91512059   0.13840814
3450.00   3.81573470   0.14546198
3452.00   4.24460240   0.15208598
3454.00   3.99801242   0.15060554
3456.00   4.19927509   0.14963172
3458.00   4.06004039   0.14899762
3460.00   4.00146449   0.14627557
3462.00   4.44292465   0.14578711
3464.00   4.26118294   0.14308509
3466.00   4.10750926   0.14217914
3468.00   4.06194306   0.14092787
3470.00   4.13982719   0.14084115
3472.00   3.90458688   0.13854454
3474.00   4.16445899   0.13966508
3476.00   4.34528526   0.14287978
3478.00   4.31510910   0.15013894
3480.00   4.35289907   0.15875535
3482.00   4.25842775   0.16137502
3484.00   4.27697846   0.15754391
3486.00   4.37760620   0.15532873
3488.00   3.73517831   0.14885718
3490.00   3.80491782   0.14506183
3492.00   3.98424761   0.14250488
3494.00   4.02948116   0.14075619
3496.00   3.86932967   0.13822330
3498.00   3.97762978   0.13544811
3500.00   4.20925998   0.13618179
3502.00   4.37659876   0.13570568
3504.00   4.25665593   0.13422147
3506.00   3.91907336   0.13142453
3508.00   3.95291192   0.13340622
3510.00   3.90214215   0.13530775
3512.00   4.36239191   0.13715034
3514.00   4.03555798   0.13294961
3516.00   3.96102466   0.13325804
3518.00   3.92412253   0.13290042
3520.00   4.10928411   0.13128234
3522.00   4.08697607   0.13108845
3524.00   4.24386657   0.13046046
3526.00   4.04355716   0.12683336
3528.00   3.90977055   0.12522228
3530.00   3.86016095   0.12459506
3532.00   4.16221148   0.12557530
3534.00   3.97519765   0.12437370
3536.00   3.97561563   0.12342326
3538.00   4.10631878   0.12649997
3540.00   3.82105209   0.13173223
3542.00   3.78724181   0.14027265
3544.00   3.72871571   0.14217931
3546.00   3.99561489   0.14142188
3548.00   3.93879362   0.13776418
3550.00   3.76578849   0.13367334
3552.00   3.64562968   0.13388254
3554.00   3.97455881   0.13672975
3556.00   4.05255305   0.13492040
3558.00   3.91314895   0.13231624
3560.00   3.99206802   0.12951417
3562.00   4.27872101   0.12818942
3564.00   4.23819304   0.12474826
3566.00   4.00999156   0.12253019
3568.00   4.07970981   0.12092582
3570.00   4.15749955   0.11945721
3572.00   3.96341011   0.11752710
3574.00   3.91496995   0.11625155
3576.00   3.90304509   0.11439621
3578.00   3.94868661   0.11337000
3580.00   3.89816511   0.11131352
3582.00   4.02328276   0.11063743
3584.00   3.99764383   0.10892183
3586.00   4.05908265   0.10764059
3588.00   4.01483789   0.10763019
3590.00   4.07761586   0.10908842
3592.00   4.04022908   0.10821869
3594.00   3.83559717   0.10622877
3596.00   3.86749232   0.10483961
3598.00   3.96264104   0.10406583
3600.00   4.23013468   0.10456489
3602.00   4.05230802   0.10338360
3604.00   4.00807816   0.10166234
3606.00   3.97433899   0.10040798
3608.00   3.94392634   0.09977620
3610.00   4.16090400   0.10010689
3612.00   4.13721993   0.10106391
3614.00   3.86680170   0.10248277
3616.00   3.83524378   0.10424270
3618.00   3.97160171   0.10431698
3620.00   4.17168119   0.10459162
3622.00   4.11388613   0.10391625
3624.00   3.91064922   0.10227548
3626.00   3.96605195   0.10220292
3628.00   4.22916100   0.10391747
3630.00   3.87426226   0.10519259
3632.00   4.03727740   0.10751972
3634.00   3.88224363   0.10547984
3636.00   3.98427022   0.10520001
3638.00   3.84539849   0.10261930
3640.00   3.93171186   0.10267767
3642.00   3.91861068   0.10384628
3644.00   3.92483419   0.10356623
3646.00   3.75752416   0.10232328
3648.00   3.73404961   0.11445305
3650.00   3.85603316   0.12881550
3652.00   3.74527322   0.12424758
3654.00   3.67437646   0.11392987
3656.00   3.70199641   0.10890987
3658.00   3.85524919   0.09976149
3660.00   3.70375917   0.09809163
3662.00   3.62150962   0.10336219
3664.00   3.35846167   0.10318874
3666.00   3.44037383   0.09426271
3668.00   3.58119178   0.08757146
3670.00   3.36481025   0.08489347
3672.00   3.47164296   0.08475842
3674.00   3.54275985   0.08359271
3676.00   3.44512093   0.08201668
3678.00   3.45743371   0.08093437
3680.00   3.52457679   0.08077118
3682.00   3.26396206   0.07882246
3684.00   3.36799644   0.07878842
3686.00   3.41409939   0.07821866
3688.00   3.45008337   0.07768336
3690.00   3.37406498   0.07790004
3692.00   3.30672619   0.07833771
3694.00   3.23060597   0.07728576
3696.00   3.21924458   0.07723298
3698.00   3.40855723   0.08101301
3700.00   3.24727178   0.08186915
3702.00   3.28698192   0.08138496
3704.00   3.20368201   0.08131925
3706.00   3.19159135   0.07967990
3708.00   3.16030206   0.07890293
3710.00   3.22209723   0.07803359
3712.00   3.25911605   0.07763227
3714.00   3.30073178   0.07702650
3716.00   3.40585444   0.07624179
3718.00   3.18535955   0.07411890
3720.00   3.19776823   0.07454922
3722.00   3.11157754   0.07308703
3724.00   3.26781288   0.07344182
3726.00   3.23427504   0.07389440
3728.00   3.10951192   0.07341741
3730.00   3.21918942   0.07508082
3732.00   3.27928096   0.07696349
3734.00   3.43310611   0.07859616
3736.00   3.25968389   0.07804967
3738.00   3.21093316   0.07913253
3740.00   3.23001906   0.07997996
3742.00   3.30259695   0.07919229
3744.00   3.22933464   0.07678229
3746.00   3.07933280   0.07438629
3748.00   3.12453890   0.07398006
3750.00   3.09374042   0.07285156
3752.00   3.14982544   0.07278677
3754.00   3.20865929   0.07284732
3756.00   3.22089211   0.07234974
3758.00   3.17829212   0.07061772
3760.00   3.10742693   0.06954910
3762.00   3.15399198   0.06893396
3764.00   3.13857781   0.06972133
3766.00   4.10544970   0.07341927
3768.00   5.65782432   0.07999068
3770.00   7.30412915   0.08829752
3772.00   6.27674421   0.08481397
3774.00   3.99412426   0.07357621
3776.00   3.23359021   0.06905901
3778.00   3.20455000   0.06795073
3780.00   3.23147901   0.06713482
3782.00   3.20797003   0.06656241
3784.00   3.29524473   0.06735223
3786.00   3.34510750   0.06687108
3788.00   3.22234065   0.06559782
3790.00   3.28227196   0.06693722
3792.00   3.20278156   0.06764468
3794.00   3.21523973   0.06705489
3796.00   3.27625109   0.06582141
3798.00   3.18888892   0.06450326
3800.00   3.16470254   0.06488907
3802.00   3.16601008   0.06553597
3804.00   3.28215523   0.06668891
3806.00   3.32297761   0.06451612
3808.00   3.24765266   0.06271313
3810.00   3.23991097   0.06261713
3812.00   3.38990244   0.06436293
3814.00   3.37808979   0.06571957
3816.00   3.43558855   0.06574630
3818.00   3.35807761   0.06492352
3820.00   3.42214098   0.06454202
3822.00   3.56260658   0.06532436
3824.00   3.43886851   0.06413863
3826.00   3.46495365   0.06436364
3828.00   3.50469942   0.06750565
3830.00   3.57191689   0.07027493
3832.00   3.60912459   0.07016100
3834.00   3.55955010   0.06831091
3836.00   3.55053858   0.06714852
3838.00   3.57864548   0.06597467
3840.00   3.50608244   0.06552995
3842.00   3.55326366   0.06568735
3844.00   3.51767886   0.06472139
3846.00   3.56921588   0.06419534
3848.00   3.65669139   0.06373803
3850.00   3.62022943   0.06284906
3852.00   3.74450925   0.06277195
3854.00   3.64556999   0.06184193
3856.00   3.63661837   0.06101701
3858.00   3.71084582   0.06017431
3860.00   3.66165659   0.06007855
3862.00   3.56501589   0.06055973
3864.00   3.69314408   0.06084968
3866.00   3.72809499   0.06031084
3868.00   3.62937951   0.05939891
3870.00   3.79576493   0.05910569
3872.00   3.75452883   0.05951680
3874.00   3.78858107   0.06128482
3876.00   3.79792357   0.06194343
3878.00   3.78587464   0.06022559
3880.00   3.93201982   0.06017305
3882.00   3.70753253   0.05872754
3884.00   3.91342910   0.05967001
3886.00   3.91324522   0.05969516
3888.00   3.92126617   0.05913125
3890.00   3.95119979   0.05914962
3892.00   3.78581150   0.05899377
3894.00   3.78747883   0.05920775
3896.00   4.01333090   0.06010792
3898.00   3.91254251   0.05925576
3900.00   3.75982835   0.05906218
3902.00   3.92115970   0.05993151
3904.00   3.85761641   0.06148325
3906.00   3.92351827   0.06550086
3908.00   3.91891927   0.06794958
3910.00   4.03659824   0.06851508
3912.00   4.30628970   0.06910141
3914.00   4.11855222   0.06642476
3916.00   3.99716689   0.06279499
3918.00   3.83533255   0.06005645
3920.00   3.89491214   0.05911542
3922.00   3.90276109   0.05777149
3924.00   3.88147508   0.05743037
3926.00   3.85152427   0.05735339
3928.00   3.77884330   0.05593735
3930.00   3.76023591   0.05599070
3932.00   3.85708050   0.05751776
3934.00   3.83622330   0.05747110
3936.00   3.89876280   0.05612822
3938.00   3.78100153   0.05570505
3940.00   3.96122406   0.05729886
3942.00   3.83808878   0.05836435
3944.00   3.91422807   0.05970329
3946.00   3.92071016   0.05884444
3948.00   4.02751692   0.05771062
3950.00   3.97580691   0.05694292
3952.00   3.86873552   0.05604412
3954.00   3.95454017   0.05581528
3956.00   4.08270504   0.05586739
3958.00   3.90369518   0.05532137
3960.00   4.00647595   0.05736771
3962.00   4.11464457   0.05778138
3964.00   4.12024580   0.05583418
3966.00   4.05507915   0.05417823
3968.00   4.01273883   0.05354472
3970.00   3.92605166   0.05324030
3972.00   4.05391013   0.05412692
3974.00   4.03040598   0.05465761
3976.00   3.93786525   0.05464317
3978.00   4.02119881   0.05476801
3980.00   3.97209335   0.05455510
3982.00   4.03296792   0.05476544
3984.00   4.03088991   0.05413045
3986.00   4.11781701   0.05396464
3988.00   4.11578057   0.05408333
3990.00   4.03763224   0.05388511
3992.00   4.06677491   0.05321265
3994.00   3.99196134   0.05364084
3996.00   4.04338266   0.05451685
3998.00   3.90152206   0.05412409
4000.00   3.89794102   0.05281973
4002.00   3.93155777   0.05197945
4004.00   3.97615300   0.05177610
4006.00   3.95266969   0.05225749
4008.00   4.00252693   0.05346455
4010.00   3.96168267   0.05384147
4012.00   4.02416768   0.05392100
4014.00   4.17799721   0.05402713
4016.00   4.10941069   0.05321649
4018.00   3.99082846   0.05491344
4020.00   4.04898910   0.05822304
4022.00   3.96668996   0.05956352
4024.00   4.07669917   0.05904917
4026.00   4.02459399   0.05675598
4028.00   4.04352268   0.05441112
4030.00   4.03333537   0.05381751
4032.00   3.91289860   0.05278414
4034.00   3.97537695   0.05228282
4036.00   3.94414981   0.05209229
4038.00   3.88118681   0.05160399
4040.00   3.91527312   0.05213718
4042.00   3.99561062   0.05347735
4044.00   3.88516281   0.06652502
4046.00   3.96058188   0.08458466
4048.00   4.10293631   0.08237612
4050.00   4.01003646   0.06147369
4052.00   3.80385818   0.05351345
4054.00   3.81130145   0.05327475
4056.00   3.93289088   0.05320226
4058.00   3.89135839   0.05129389
4060.00   3.92446195   0.05103976
4062.00   3.93873329   0.05114585
4064.00   3.81580096   0.05142868
4066.00   3.95579140   0.05177181
4068.00   3.85890389   0.05089596
4070.00   3.98089504   0.05069468
4072.00   3.96594131   0.04996049
4074.00   3.85679983   0.05002901
4076.00   3.94057242   0.05405798
4078.00   3.97611591   0.05593729
4080.00   3.94301194   0.05424391
4082.00   3.88856372   0.05247298
4084.00   3.96035018   0.05192803
4086.00   4.00364033   0.05146856
4088.00   3.92624502   0.05026558
4090.00   3.84510574   0.04825141
4092.00   3.89938008   0.04779122
4094.00   3.94466009   0.04770963
4096.00   3.88881136   0.04735532
4098.00   3.91284433   0.04739210
4100.00   3.85698184   0.04688477
4102.00   3.93052460   0.04634163
4104.00   3.90638276   0.04571680
4106.00   3.86344444   0.04599659
4108.00   3.92105750   0.04618087
4110.00   3.83319911   0.04576840
4112.00   3.75659497   0.04528269
4114.00   3.83209437   0.04549648
4116.00   3.86319993   0.04541884
4118.00   3.94500816   0.04531306
4120.00   3.88937550   0.04488347
4122.00   3.89959594   0.04518341
4124.00   3.89270609   0.04553812
4126.00   3.86068623   0.04561673
4128.00   3.85085116   0.04538236
4130.00   3.79756956   0.04549281
4132.00   3.72147653   0.04602011
4134.00   3.82340915   0.04647410
4136.00   3.82570323   0.04581052
4138.00   3.82190268   0.04560120
4140.00   3.68883054   0.04550058
4142.00   3.62954131   0.04460363
4144.00   3.62055542   0.04337410
4146.00   3.90481035   0.04422110
4148.00   4.05813834   0.04497445
4150.00   3.97457954   0.04506951
4152.00   3.78472124   0.04528197
4154.00   3.77686906   0.04566161
4156.00   3.70929101   0.04486240
4158.00   3.73153049   0.04443987
4160.00   3.68406152   0.04431510
4162.00   3.69194995   0.04509735
4164.00   3.63047800   0.04686602
4166.00   3.68167513   0.04730487
4168.00   3.77079505   0.04602961
4170.00   3.63874389   0.04576746
4172.00   3.65669473   0.04465068
4174.00   3.63037966   0.04330901
4176.00   3.65308097   0.04322203
4178.00   3.65733034   0.04346641
4180.00   3.66394422   0.04306946
4182.00   3.58390728   0.04232857
4184.00   3.65621622   0.04222087
4186.00   3.69865447   0.04213753
4188.00   3.69906922   0.04190437
4190.00   3.59602831   0.04168148
4192.00   3.66078761   0.04195293
4194.00   3.69840641   0.04195577
4196.00   3.73044127   0.04155330
4198.00   3.63728628   0.04099693
4200.00   3.69120307   0.04101391
4202.00   3.72593603   0.04112844
4204.00   3.67050976   0.04118752
4206.00   3.75187074   0.04180167
4208.00   3.66522013   0.04175565
4210.00   3.70555485   0.04190042
4212.00   3.62196708   0.04137964
4214.00   3.62283596   0.04110095
4216.00   3.61214951   0.04100137
4218.00   3.64827371   0.04068816
4220.00   3.61459028   0.04034114
4222.00   3.55831789   0.03983470
4224.00   3.59044011   0.04009875
4226.00   3.60858680   0.03984991
4228.00   3.49417050   0.03930480
4230.00   3.50513094   0.03963712
4232.00   3.52102924   0.04012140
4234.00   3.54299603   0.04019091
4236.00   3.50060748   0.04031799
4238.00   3.51246347   0.04042117
4240.00   3.50250963   0.03988791
4242.00   3.48746484   0.03903330
4244.00   3.45432956   0.04064452
4246.00   3.47551560   0.04375909
4248.00   3.44123896   0.04352657
4250.00   3.49998228   0.04088099
4252.00   3.43149150   0.03952758
4254.00   3.33825812   0.03919288
4256.00   3.41829000   0.03939260
4258.00   3.45908686   0.03944994
4260.00   3.47283219   0.03901471
4262.00   3.47083940   0.03858896
4264.00   3.37304942   0.03831504
4266.00   3.38508653   0.03837019
4268.00   3.22853348   0.03796661
4270.00   3.29618409   0.03806226
4272.00   3.33722729   0.03817893
4274.00   3.25749461   0.03785931
4276.00   3.28165953   0.03792137
4278.00   3.21290475   0.03781445
4280.00   3.30560780   0.03809123
4282.00   3.24186833   0.03807056
4284.00   3.25481969   0.03798681
4286.00   3.28904472   0.03768246
4288.00   3.30142053   0.03739893
4290.00   3.18380089   0.03708937
4292.00   3.26112624   0.03757833
4294.00   3.23156288   0.03767466
4296.00   3.18037133   0.03756616
4298.00   3.24024539   0.03743149
4300.00   3.16712712   0.03693098
4302.00   3.15777982   0.03677818
4304.00   3.13952727   0.03685887
4306.00   3.17509067   0.03734577
4308.00   3.10414073   0.03723782
4310.00   3.10932742   0.03749266
4312.00   3.08228016   0.03912141
4314.00   3.16532566   0.04056267
4316.00   3.08659516   0.03965441
4318.00   3.06620699   0.03864342
4320.00   3.03973606   0.03935658
4322.00   3.08607347   0.03916753
4324.00   2.95245615   0.03821383
4326.00   3.06081339   0.03818923
4328.00   3.05999004   0.03712315
4330.00   3.02109054   0.03673602
4332.00   3.09170350   0.03667199
4334.00   3.01702964   0.03667421
4336.00   3.00450855   0.03684383
4338.00   2.97676379   0.03698590
4340.00   3.00630860   0.03702974
4342.00   2.99834390   0.03711937
4344.00   3.00042660   0.03788369
4346.00   2.96634957   0.03876036
4348.00   2.99475364   0.03937383
4350.00   3.02339124   0.03861364
4352.00   3.08936603   0.03873879
4354.00   2.99551646   0.03969142
4356.00   2.97283541   0.06240068
4358.00   3.09564606   0.07877217
4360.00   3.02973133   0.07201130
4362.00   3.08760114   0.05020862
4364.00   2.96768508   0.04052866
4366.00   3.04889072   0.03897131
4368.00   2.96614928   0.03801676
4370.00   2.99770037   0.03774711
4372.00   3.02375473   0.03869068
4374.00   3.06707363   0.03920030
4376.00   2.98455378   0.03880699
4378.00   3.04065864   0.03777278
4380.00   3.02217091   0.03703322
4382.00   3.02690696   0.03661769
4384.00   3.04066937   0.03633489
4386.00   3.13201108   0.03668983
4388.00   3.57250448   0.03781548
4390.00   3.79291587   0.03917255
4392.00   3.43669246   0.03760512
4394.00   3.09981078   0.03661651
4396.00   3.04084482   0.03619654
4398.00   3.13540032   0.03716629
4400.00   3.12204458   0.03771359
4402.00   3.17656968   0.03788329
4404.00   3.24083834   0.03767149
4406.00   3.22021259   0.03763259
4408.00   3.22617642   0.03774093
4410.00   3.31504500   0.03788739
4412.00   3.27515827   0.03794277
4414.00   3.29224680   0.03862771
4416.00   3.23660596   0.03845705
4418.00   3.23485523   0.03792948
4420.00   3.21254184   0.03758950
4422.00   3.20798216   0.03735404
4424.00   3.22612355   0.03725199
4426.00   3.26541269   0.03728506
4428.00   3.24902042   0.03696726
4430.00   3.24502119   0.03692219
4432.00   3.24855759   0.03685064
4434.00   3.19021682   0.03636314
4436.00   3.20978815   0.03629898
4438.00   3.25779955   0.03672002
4440.00   3.20271338   0.03651859
4442.00   3.27341578   0.03633463
4444.00   3.18337135   0.03612692
4446.00   3.14599634   0.03599697
4448.00   3.21495182   0.03604862
4450.00   3.22924666   0.03591829
4452.00   3.23178255   0.03567634
4454.00   3.23821978   0.03562976
4456.00   3.13422379   0.03534209
4458.00   3.20443290   0.03542220
4460.00   3.26153218   0.03547731
4462.00   3.14230934   0.03518520
4464.00   3.20009742   0.03530062
4466.00   3.20323335   0.03516481
4468.00   3.22184147   0.03514066
4470.00   3.22245812   0.03499359
4472.00   3.12216887   0.03485454
4474.00   3.16161111   0.03502469
4476.00   3.24610338   0.03518571
4478.00   3.17556615   0.03494437
4480.00   3.13039751   0.03477254
4482.00   3.20388610   0.03499571
4484.00   3.20400726   0.03507611
4486.00   3.23298845   0.03524749
4488.00   3.18687629   0.03488791
4490.00   3.24013668   0.03508146
4492.00   3.13297023   0.03508675
4494.00   3.27384616   0.03552675
4496.00   3.19623639   0.03530364
4498.00   3.23613578   0.03544810
4500.00   3.16178030   0.03509593
4502.00   3.18792784   0.03491537
4504.00   3.25464430   0.03499647
4506.00   3.30569630   0.03508330
4508.00   3.26020131   0.03486487
4510.00   3.20518983   0.03451858
4512.00   3.25134106   0.03462175
4514.00   3.14523873   0.03427667
4516.00   3.24515954   0.03443489
4518.00   3.23115464   0.03423031
4520.00   3.17313361   0.03419565
4522.00   3.29292611   0.03448172
4524.00   3.28552603   0.03428793
4526.00   3.22594753   0.03407652
4528.00   3.24422138   0.03418941
4530.00   3.18254300   0.03418553
4532.00   3.19822517   0.03432949
4534.00   3.22321667   0.03427677
4536.00   3.14566915   0.03392537
4538.00   3.19198281   0.03394920
4540.00   3.22139630   0.03399886
4542.00   3.19487224   0.03417525
4544.00   3.11790408   0.03422412
4546.00   3.16169273   0.03410430
4548.00   3.22112563   0.03379797
4550.00   3.20976174   0.03351170
4552.00   3.18006201   0.03336780
4554.00   3.13886603   0.03318503
4556.00   3.15910449   0.03332928
4558.00   3.16961003   0.03320976
4560.00   3.10544800   0.03295987
4562.00   3.10970763   0.03273891
4564.00   3.12439086   0.03260294
4566.00   3.17289686   0.03268266
4568.00   3.15765063   0.03265773
4570.00   3.11892454   0.03256182
4572.00   3.16151604   0.03263895
4574.00   3.19167412   0.03280323
4576.00   3.12997979   0.03277882
4578.00   3.10232281   0.03256663
4580.00   3.15584808   0.03274939
4582.00   3.17311548   0.03251487
4584.00   3.15160866   0.03233361
4586.00   3.11716637   0.03214898
4588.00   3.15092580   0.03229367
4590.00   3.14093336   0.03224068
4592.00   3.14487003   0.03215751
4594.00   3.16660485   0.03223074
4596.00   3.09147404   0.03202546
4598.00   3.14799491   0.03200441
4600.00   3.15685015   0.03180072
4602.00   3.17045005   0.03162427
4604.00   3.16428363   0.03174794
4606.00   3.19990646   0.03182112
4608.00   3.16367776   0.03191346
4610.00   3.15192907   0.03195395
4612.00   3.15423311   0.03167967
4614.00   3.13803169   0.03149536
4616.00   3.09185868   0.03107817
4618.00   3.16209342   0.03120788
4620.00   3.18553093   0.03124921
4622.00   3.14850795   0.03112437
4624.00   3.16219880   0.03107351
4626.00   3.09566585   0.03103726
4628.00   3.07709617   0.03080674
4630.00   3.08615280   0.03070532
4632.00   3.09087146   0.03066581
4634.00   3.09174731   0.03055793
4636.00   3.07951918   0.03047673
4638.00   3.09235600   0.03042765
4640.00   3.11437247   0.03055150
4642.00   3.09667860   0.03039545
4644.00   3.13447420   0.03049569
4646.00   3.06741607   0.03026333
4648.00   3.12475195   0.03045827
4650.00   3.10771979   0.03063080
4652.00   3.13439778   0.03086195
4654.00   3.08802521   0.03082392
4656.00   3.12058062   0.03116477
4658.00   3.05922608   0.03130900
4660.00   3.09540941   0.03177489
4662.00   3.10582295   0.03187530
4664.00   3.10115790   0.03208789
4666.00   3.09198922   0.03233498
4668.00   3.06543979   0.03264817
4670.00   3.02235822   0.03275152
4672.00   3.15358499   0.03289528
4674.00   3.05456035   0.03234075
4676.00   3.06833954   0.03199621
4678.00   3.12394626   0.03166275
4680.00   3.02239719   0.03126252
4682.00   3.05810795   0.03126810
4684.00   3.00499424   0.03090866
4686.00   2.99931821   0.03062693
4688.00   3.07200340   0.03069768
4690.00   2.97656512   0.03039298
4692.00   3.00710163   0.03026797
4694.00   2.95366934   0.03007127
4696.00   2.97100483   0.03001845
4698.00   2.94466007   0.02962401
4700.00   2.93823080   0.02953860
4702.00   2.88301398   0.02947817
4704.00   2.88906308   0.02964120
4706.00   2.88564858   0.02972571
4708.00   2.86765607   0.02990313
4710.00   2.84303353   0.02984386
4712.00   2.83564533   0.02965923
4714.00   2.84403180   0.02951494
4716.00   2.86196092   0.02931052
4718.00   2.78199076   0.02904842
4720.00   2.78755902   0.02914656
4722.00   2.81872704   0.02912885
4724.00   2.76442759   0.02890613
4726.00   2.73106837   0.02913490
4728.00   2.77286142   0.03020494
4730.00   2.73219462   0.03047734
4732.00   2.75750059   0.03030304
4734.00   2.71442600   0.03034845
4736.00   2.70796715   0.03081160
4738.00   2.76120472   0.03132283
4740.00   2.73428071   0.03167567
4742.00   2.76524958   0.03251269
4744.00   2.74429164   0.03182753
4746.00   2.65629240   0.03004511
4748.00   2.66092594   0.02886406
4750.00   2.64323212   0.02873448
4752.00   2.66200964   0.02909031
4754.00   2.67910082   0.02900765
4756.00   2.64856545   0.02827215
4758.00   2.69273921   0.02786275
4760.00   2.60706958   0.02737381
4762.00   2.57436128   0.02725676
4764.00   2.59060146   0.02718656
4766.00   2.58345141   0.02702933
4768.00   2.54007558   0.02687928
4770.00   2.58294821   0.02696001
4772.00   2.54252817   0.02676035
4774.00   2.49157546   0.02662806
4776.00   2.51061500   0.02697621
4778.00   2.48253863   0.02744631
4780.00   2.52988363   0.02759427
4782.00   2.52938491   0.02709045
4784.00   2.49544482   0.02665168
4786.00   2.46753525   0.02630499
4788.00   2.52944731   0.02658920
4790.00   2.46535941   0.02658263
4792.00   2.50588545   0.02664456
4794.00   2.46730449   0.02634303
4796.00   2.43479226   0.02613856
4798.00   2.42326059   0.02612316
4800.00   2.44590956   0.02604356
4802.00   2.44829902   0.02597635
4804.00   2.43748318   0.02614335
4806.00   2.44774540   0.02620229
4808.00   2.40484224   0.02615184
4810.00   2.39858154   0.02609241
4812.00   2.40217847   0.02610592
4814.00   2.46241143   0.02634849
4816.00   2.39307147   0.02639237
4818.00   2.40312839   0.02649834
4820.00   2.41736557   0.02672191
4822.00   2.40078753   0.02689516
4824.00   2.37380679   0.02688101
4826.00   2.45688579   0.02713194
4828.00   2.42030902   0.02709540
4830.00   2.39169491   0.02705302
4832.00   2.41775120   0.02726847
4834.00   2.39171955   0.02726358
4836.00   2.41524937   0.02732322
4838.00   2.39990522   0.02779330
4840.00   2.40851256   0.02776805
4842.00   2.45955550   0.02752361
4844.00   2.43039334   0.02714945
4846.00   2.42339170   0.02712179
4848.00   2.42149033   0.02716959
4850.00   2.47753493   0.02716219
4852.00   2.47057137   0.02713572
4854.00   2.44460051   0.02693032
4856.00   2.37826900   0.02639934
4858.00   2.38091282   0.02638132
4860.00   2.39040707   0.02641973
4862.00   2.40210877   0.02660822
4864.00   2.45686636   0.02674186
4866.00   2.46088855   0.02679134
4868.00   2.47031258   0.02685379
4870.00   2.47032175   0.02670675
4872.00   2.39314861   0.02636571
4874.00   2.38748143   0.02637762
4876.00   2.47025106   0.02671199
4878.00   2.44710660   0.02679789
4880.00   2.38408433   0.02680233
4882.00   2.42005783   0.02669464
4884.00   2.40145398   0.02653842
4886.00   2.43115361   0.02635551
4888.00   2.43553284   0.02624161
4890.00   2.42312026   0.02616265
4892.00   2.42311161   0.02612008
4894.00   2.36943397   0.02599631
4896.00   2.39788263   0.02597008
4898.00   2.40120473   0.02578678
4900.00   2.39478859   0.02561639
4902.00   2.34685298   0.02545472
4904.00   2.34585060   0.02540239
4906.00   2.38758973   0.02574640
4908.00   2.34703483   0.02568054
4910.00   2.26178011   0.02546905
4912.00   2.33672807   0.02554051
4914.00   2.80768647   0.02713401
4916.00   3.56315177   0.02937067
4918.00   3.44302578   0.02869723
4920.00   2.63897442   0.02616921
4922.00   2.36631560   0.02523876
4924.00   2.28360374   0.02492146
4926.00   2.34123164   0.02489601
4928.00   2.26708760   0.02452585
4930.00   2.26229429   0.02445412
4932.00   2.26652340   0.02444257
4934.00   2.25483863   0.02453509
4936.00   2.24377067   0.02457728
4938.00   2.26049263   0.02461496
4940.00   2.25957051   0.02464127
4942.00   2.23321611   0.02458147
4944.00   2.24831638   0.02443655
4946.00   2.27212635   0.02438800
4948.00   2.26380321   0.02436397
4950.00   2.22471545   0.02438787
4952.00   2.28247098   0.02493900
4954.00   2.22549718   0.02492666
4956.00   2.20849872   0.02461255
4958.00   2.21136492   0.02455172
4960.00   2.23962361   0.02451623
4962.00   2.22995455   0.02464422
4964.00   2.27568989   0.02491987
4966.00   2.24850589   0.02502918
4968.00   2.23219383   0.02515352
4970.00   2.24595317   0.02542423
4972.00   2.24024182   0.02595831
4974.00   2.21395722   0.02638054
4976.00   2.26066546   0.02703584
4978.00   2.27998416   0.02795845
4980.00   2.23865321   0.02875777
4982.00   2.28629653   0.02948562
4984.00   2.25907378   0.02940574
4986.00   2.19742836   0.02869919
4988.00   2.14389554   0.02769613
4990.00   2.23816574   0.02729389
4992.00   2.21764745   0.02667561
4994.00   2.25373039   0.02612548
4996.00   2.23905071   0.02547184
4998.00   2.20656990   0.02492310
5000.00   2.16457588   0.02456651
5002.00   2.26904455   0.02470011
5004.00   2.16157128   0.02423817
5006.00   2.25959005   0.02436441
5008.00   2.18801960   0.02406843
5010.00   2.21185150   0.02407808
5012.00   2.42358657   0.02464971
5014.00   3.08436067   0.02661086
5016.00   3.44605122   0.02784284
5018.00   2.79383196   0.02610881
5020.00   2.40974858   0.02508752
5022.00   2.25351578   0.02439620
5024.00   2.20612603   0.02402691
5026.00   2.25447529   0.02399727
5028.00   2.25728169   0.02421766
5030.00   2.23553504   0.02436715
5032.00   2.21121333   0.02440663
5034.00   2.18228955   0.02405360
5036.00   2.24167354   0.02400166
5038.00   2.22109857   0.02385473
5040.00   2.20665976   0.02373379
5042.00   2.22936363   0.02404314
5044.00   2.25081929   0.02398715
5046.00   2.23937664   0.02395250
5048.00   2.20669747   0.02402140
5050.00   2.25564062   0.02400962
5052.00   2.23681398   0.02402188
5054.00   2.24974747   0.02387556
5056.00   2.25739311   0.02394780
5058.00   2.27123070   0.02394870
5060.00   2.63924180   0.02520606
5062.00   4.35806868   0.03070329
5064.00   5.80852704   0.03456731
5066.00   4.45446288   0.03132876
5068.00   2.93191337   0.02758423
5070.00   2.41783152   0.02626868
5072.00   2.33554082   0.02549581
5074.00   2.22752685   0.02489841
5076.00   2.16565755   0.02449622
5078.00   2.24069501   0.02496176
5080.00   2.19239409   0.02620295
5082.00   2.29150927   0.02819781
5084.00   2.23388699   0.02933024
5086.00   2.19698023   0.02929724
5088.00   2.22370530   0.02836786
5090.00   2.26372409   0.02684625
5092.00   2.29899431   0.02565514
5094.00   2.20575046   0.02491875
5096.00   2.21851106   0.02512860
5098.00   2.20850779   0.02578131
5100.00   2.21295661   0.02599737
5102.00   2.23123447   0.02552105
5104.00   2.26616814   0.02491362
5106.00   2.23012051   0.02441690
5108.00   2.23996933   0.02431978
5110.00   2.22670178   0.02431831
5112.00   2.23950109   0.02444879
5114.00   2.24717153   0.02462168
5116.00   2.22839531   0.02475621
5118.00   2.29860457   0.02480708
5120.00   2.25227716   0.02440917
5122.00   2.22305474   0.02414483
5124.00   2.27044725   0.02432028
5126.00   2.31529215   0.02429312
5128.00   2.27838179   0.02417882
5130.00   2.26596066   0.02423701
5132.00   2.25576350   0.02441307
5134.00   2.21956918   0.02441795
5136.00   2.29979271   0.02470565
5138.00   2.28049303   0.02462873
5140.00   2.28357447   0.02464511
5142.00   2.25265305   0.02461701
5144.00   2.25094556   0.02471287
5146.00   2.24919755   0.02488747
5148.00   2.26442611   0.02529169
5150.00   2.24259591   0.02567912
5152.00   2.24754049   0.02620868
5154.00   2.23390397   0.02641630
5156.00   2.24790330   0.02615694
5158.00   2.30804625   0.02580419
5160.00   2.35235305   0.02553582
5162.00   2.30403728   0.02506718
5164.00   2.25902976   0.02479928
5166.00   2.23999606   0.02457376
5168.00   2.28586652   0.02452240
5170.00   2.22945036   0.02432920
5172.00   2.26242379   0.02444399
5174.00   2.31078931   0.02467882
5176.00   2.30297906   0.02476932
5178.00   2.22620197   0.02466982
5180.00   2.26960442   0.02467692
5182.00   2.23849323   0.02448348
5184.00   2.20225104   0.02435700
5186.00   2.23191691   0.02461485
5188.00   2.25570870   0.02484367
5190.00   2.27594529   0.02493267
5192.00   2.21915480   0.02476128
5194.00   2.30951990   0.02513238
5196.00   2.22611925   0.02503559
5198.00   2.23235531   0.02532012
5200.00   2.17795017   0.02524816
5202.00   2.27420405   0.02542722
5204.00   2.28157204   0.02532693
5206.00   2.24648726   0.02517783
5208.00   2.25052618   0.02540655
5210.00   2.24937169   0.02575991
5212.00   2.29786800   0.02585739
5214.00   2.29378580   0.02563724
5216.00   2.23381188   0.02550957
5218.00   2.21095970   0.02577289
5220.00   2.26248187   0.02608426
5222.00   2.24087827   0.02592559
5224.00   2.28075432   0.02584044
5226.00   2.25456234   0.02559942
5228.00   2.27099863   0.02579709
5230.00   2.28923925   0.02574954
5232.00   2.23887022   0.02566222
5234.00   2.30874776   0.02582028
5236.00   2.24871024   0.02582352
5238.00   2.27375648   0.02610908
5240.00   2.26818942   0.02617156
5242.00   2.27123122   0.02596058
5244.00   2.24682559   0.02575626
5246.00   2.20057267   0.02566923
5248.00   2.24785871   0.02588254
5250.00   2.17705494   0.02567583
5252.00   2.23278829   0.02583458
5254.00   2.21130371   0.02617508
5256.00   2.26185241   0.02656024
5258.00   2.22135142   0.02659908
5260.00   2.26843977   0.02655809
5262.00   2.23071997   0.02616709
5264.00   2.25730716   0.02603050
5266.00   2.22137731   0.02584566
5268.00   2.21194318   0.02572397
5270.00   2.22374776   0.02586583
5272.00   2.24565026   0.02612409
5274.00   2.25883035   0.02631725
5276.00   2.22667928   0.02641946
5278.00   2.23061803   0.02651396
5280.00   2.23124822   0.02645898
5282.00   2.18310566   0.02631067
5284.00   2.16941648   0.02652706
5286.00   2.15049842   0.02670269
5288.00   2.16506752   0.02658220
5290.00   2.20694850   0.02656951
5292.00   2.28501093   0.02680734
5294.00   2.21732146   0.02673338
5296.00   2.16148971   0.02668221
5298.00   2.21695896   0.02694188
5300.00   2.20890164   0.02708879
5302.00   2.17584414   0.02714695
5304.00   2.16426490   0.02712818
5306.00   2.23192541   0.02728027
5308.00   2.20089251   0.02720714
5310.00   2.21019256   0.02736542
5312.00   2.17057024   0.02743883
5314.00   2.22221082   0.02755172
5316.00   2.17331960   0.02744715
5318.00   2.20692521   0.02753081
5320.00   2.15112997   0.02741143
5322.00   2.15790116   0.02754295
5324.00   2.22263801   0.02780876
5326.00   2.23677345   0.02792687
5328.00   2.20151760   0.02790782
5330.00   2.16234051   0.02793093
5332.00   2.21791353   0.02812973
5334.00   2.15286205   0.02799364
5336.00   2.17271566   0.02814723
5338.00   2.12628709   0.02821496
5340.00   2.15601589   0.02865628
5342.00   2.13228026   0.02877779
5344.00   2.15360721   0.02869735
5346.00   2.16871159   0.02910300
5348.00   2.18101754   0.02963670
5350.00   2.13898316   0.02982105
5352.00   2.17168728   0.02971814
5354.00   2.13091506   0.03005212
5356.00   2.10972953   0.03026050
5358.00   2.09461749   0.02983064
5360.00   2.15880734   0.02951789
5362.00   2.10784707   0.02897419
5364.00   2.18616298   0.02908651
5366.00   2.12275778   0.02893938
5368.00   2.13552552   0.02916181
5370.00   2.17069552   0.02928925
5372.00   2.07792872   0.02940723
5374.00   2.16760268   0.03009727
5376.00   2.13043608   0.03032590
5378.00   2.16504100   0.03041156
5380.00   2.20920804   0.03031066
5382.00   2.19571384   0.03028992
5384.00   2.18147928   0.03030682
5386.00   2.14814980   0.03023992
5388.00   2.11268918   0.03034705
5390.00   2.14699317   0.03103760
5392.00   2.15123572   0.03159750
5394.00   2.15677939   0.03162924
5396.00   2.16100120   0.03127571
5398.00   2.18636191   0.03147471
5400.00   2.10859202   0.03125964
5402.00   2.10069994   0.03136991
5404.00   2.13335802   0.03161107
5406.00   2.14424595   0.03186461
5408.00   2.12714524   0.03235181
5410.00   2.16700181   0.03291369
5412.00   2.14077967   0.03312017
5414.00   2.10475220   0.03377565
5416.00   2.11303741   0.03435828
5418.00   2.17373555   0.03491508
5420.00   2.10751775   0.03477437
5422.00   2.15275609   0.03499435
5424.00   2.06454130   0.03477581
5426.00   2.16265868   0.03490694
5428.00   2.07438987   0.03443336
5430.00   2.14907723   0.03491005
5432.00   2.13442531   0.03496585
5434.00   2.03329980   0.01410033
5436.00   2.03646048   0.01389765
5438.00   2.08252390   0.01404857
5440.00   2.13799834   0.01452693
5442.00   2.10746694   0.01494917
5444.00   2.02735869   0.01530490
5446.00   2.01601525   0.01537350
5448.00   2.04515799   0.01519731
5450.00   2.04958423   0.01524929
5452.00   2.02393778   0.01536424
5454.00   2.07036014   0.01664574
5456.00   2.13922544   0.01891943
5458.00   2.16028984   0.02111255
5460.00   2.15537353   0.02255783
5462.00   2.15102955   0.02306865
5464.00   2.16784565   0.02196996
5466.00   2.11911043   0.01910852
5468.00   2.06572100   0.01713170
5470.00   2.08775095   0.01654222
5472.00   2.10726957   0.01610186
5474.00   2.09225237   0.01507518
5476.00   2.05722392   0.01403024
5478.00   2.04177833   0.01374651
5480.00   2.05875007   0.01388037
5482.00   2.07325991   0.01402651
5484.00   2.07829920   0.01418570
5486.00   2.07417802   0.01420350
5488.00   2.05251936   0.01394085
5490.00   2.03849594   0.01373666
5492.00   2.04685537   0.01379213
5494.00   2.04310218   0.01360126
5496.00   2.02343337   0.01309649
5498.00   2.00679819   0.01290439
5500.00   1.97214830   0.01295064
5502.00   1.94666477   0.01286897
5504.00   1.94061025   0.01278640
5506.00   1.95399654   0.01261322
5508.00   1.97457838   0.01251585
5510.00   1.98939880   0.01268685
5512.00   1.97447610   0.01307273
5514.00   1.94614232   0.01331824
5516.00   1.93317139   0.01320134
5518.00   1.93269686   0.01306561
5520.00   1.91275458   0.01297413
5522.00   1.87564758   0.01270994
5524.00   1.85451508   0.01268669
5526.00   1.85755658   0.01289875
5528.00   1.85954146   0.01280856
5530.00   1.85819264   0.01237467
5532.00   1.86063472   0.01191592
5534.00   1.84688083   0.01167022
5536.00   1.83587448   0.01149549
5538.00   1.83053644   0.01136956
5540.00   1.82937459   0.01136037
5542.00   1.84135695   0.01165279
5544.00   1.82754874   0.01190938
5546.00   1.80571409   0.01195560
5548.00   1.79116861   0.01191393
5550.00   1.77779675   0.01196979
5552.00   1.75818225   0.01195746
5554.00   1.73799972   0.01175824
5556.00   1.73950032   0.01142645
5558.00   1.75303137   0.01121779
5560.00   1.75172512   0.01125732
5562.00   1.74232340   0.01155013
5564.00   1.74468398   0.01229551
5566.00   1.74287367   0.01367482
5568.00   1.73013588   0.01545249
5570.00   1.71317693   0.01937690
5572.00   1.66987538   0.02543706
5574.00   1.69193955   0.03012287
5576.00   1.75489124   0.03275522
5578.00   1.76950487   0.03281295
5580.00   1.75058639   0.03077461
5582.00   1.72455589   0.02681169
5584.00   1.70109208   0.02273253
5586.00   1.64906891   0.01856475
5588.00   1.63363564   0.01486076
5590.00   1.63779942   0.01269672
5592.00   1.63247677   0.01189770
5594.00   1.63790846   0.01154500
5596.00   1.66078230   0.01145520
5598.00   1.67552789   0.01112930
5600.00   1.66595709   0.01082702
5602.00   1.64635944   0.01054790
5604.00   1.63161349   0.01038737
5606.00   1.61936855   0.01034329
5608.00   1.61570625   0.01024581
5610.00   1.61758121   0.01010533
5612.00   1.61567255   0.01005138
5614.00   1.61154338   0.01009326
5616.00   1.60220631   0.01018579
5618.00   1.59880594   0.01035706
5620.00   1.59655305   0.01047773
5622.00   1.59087869   0.01047270
5624.00   1.58415059   0.01059266
5626.00   1.57891468   0.01064627
5628.00   1.57389263   0.01045577
5630.00   1.56565495   0.01027938
5632.00   1.55873946   0.01027237
5634.00   1.55489806   0.01032182
5636.00   1.56076185   0.01037573
5638.00   1.56300155   0.01034328
5640.00   1.55477269   0.01019879
5642.00   1.53801445   0.01001331
5644.00   1.51756557   0.00994039
5646.00   1.49937165   0.01003978
5648.00   1.49207322   0.01023315
5650.00   1.48335183   0.01026043
5652.00   1.46986139   0.01017458
5654.00   1.46916298   0.01029176
5656.00   1.48220241   0.01050330
5658.00   1.48695787   0.01063527
5660.00   1.48220197   0.01073549
5662.00   1.48628032   0.01085496
5664.00   1.49636662   0.01080256
5666.00   1.50287553   0.01080195
5668.00   1.49094236   0.01121342
5670.00   1.46171431   0.01168178
5672.00   1.45133738   0.01177306
5674.00   1.44440035   0.01156580
5676.00   1.43948094   0.01152464
5678.00   1.43838358   0.01183013
5680.00   1.41835042   0.01239783
5682.00   1.41411845   0.01318305
5684.00   1.44099756   0.01414837
5686.00   1.46254710   0.01481532
5688.00   1.44815834   0.01509051
5690.00   1.42504855   0.01485111
5692.00   1.42912281   0.01434084
5694.00   1.45487293   0.01383069
5696.00   1.46722003   0.01314865
5698.00   1.46944654   0.01230976
5700.00   1.47910198   0.01184289
5702.00   1.48180103   0.01152868
5704.00   1.47574015   0.01115003
5706.00   1.48473887   0.01087983
5708.00   1.49308097   0.01105647
5710.00   1.47865069   0.01133702
5712.00   1.47243043   0.01157021
5714.00   1.50010506   0.01152586
5716.00   1.53175068   0.01124161
5718.00   1.54096238   0.01105958
5720.00   1.54579238   0.01100290
5722.00   1.56596887   0.01086120
5724.00   1.56024170   0.01035598
5726.00   1.53984515   0.00996188
5728.00   1.53446937   0.00986527
5730.00   1.54198011   0.01000970
5732.00   1.55666776   0.01026540
5734.00   1.59156442   0.01046616
5736.00   1.61519440   0.01031043
5738.00   1.59819301   0.01016170
5740.00   1.60692763   0.01018031
5742.00   1.62337863   0.00996073
5744.00   1.62170188   0.00957802
5746.00   1.62481093   0.00961137
5748.00   1.64360468   0.00988889
5750.00   1.66000386   0.01008234
5752.00   1.66021963   0.01034340
5754.00   1.66691657   0.01036680
5756.00   1.67529813   0.01014298
5758.00   1.66405729   0.01005076
5760.00   1.66117680   0.01028552
5762.00   1.67326681   0.01078543
5764.00   1.68332704   0.01129527
5766.00   1.68281305   0.01180025
5768.00   1.69029347   0.01221559
5770.00   1.71211143   0.01233146
5772.00   1.72739116   0.01205161
5774.00   1.74099755   0.01147747
5776.00   1.74883195   0.01087329
5778.00   1.74948712   0.01075763
5780.00   1.74553700   0.01076056
5782.00   1.74482059   0.01077331
5784.00   1.75616916   0.01102464
5786.00   1.77996393   0.01135570
5788.00   1.79487884   0.01153615
5790.00   1.79398477   0.01153359
5792.00   1.79665180   0.01150382
5794.00   1.80861803   0.01134466
5796.00   1.80715414   0.01114159
5798.00   1.79050593   0.01092485
5800.00   1.78962088   0.01078635
5802.00   1.78911873   0.01064747
5804.00   1.78427470   0.01034559
5806.00   1.79051638   0.01011960
5808.00   1.79543173   0.01004417
5810.00   1.78455071   0.01019391
5812.00   1.77122506   0.01036822
5814.00   1.76608177   0.01043059
5816.00   1.77654481   0.01060493
5818.00   1.79730634   0.01075790
5820.00   1.81336363   0.01058937
5822.00   1.81410261   0.01032392
5824.00   1.80332351   0.01034675
5826.00   1.80251284   0.01038789
5828.00   1.81071516   0.01033018
5830.00   1.81030345   0.01030098
5832.00   1.81133723   0.01041567
5834.00   1.80668219   0.01072813
5836.00   1.81053058   0.01097490
5838.00   1.81938092   0.01097505
5840.00   1.83609319   0.01082150
5842.00   1.85150381   0.01081009
5844.00   1.85358779   0.01089002
5846.00   1.85161646   0.01082439
5848.00   1.84374817   0.01077261
5850.00   1.83902884   0.01084152
5852.00   1.83108878   0.01096728
5854.00   1.82527403   0.01113012
5856.00   1.82218333   0.01150092
5858.00   1.81638912   0.01184631
5860.00   1.80989861   0.01184191
5862.00   1.81975234   0.01160618
5864.00   1.84337962   0.01140041
5866.00   1.85174950   0.01135557
5868.00   1.84858223   0.01135177
5870.00   1.83679895   0.01144357
5872.00   1.83505464   0.01169842
5874.00   1.85109444   0.01168238
5876.00   1.86344882   0.01128099
5878.00   1.85588404   0.01110349
5880.00   1.82227914   0.01164591
5882.00   1.78385520   0.01281683
5884.00   1.77332532   0.01533324
5886.00   1.78204926   0.01878864
5888.00   1.78691602   0.02212337
5890.00   1.82607019   0.02542220
5892.00   1.86492833   0.02836069
5894.00   1.87245230   0.02946578
5896.00   1.87934379   0.02823690
5898.00   1.93098625   0.02578155
5900.00   2.00512282   0.02235752
5902.00   1.97739859   0.01917413
5904.00   1.85778046   0.01595698
5906.00   1.79263540   0.01333615
5908.00   1.78847647   0.01211851
5910.00   1.80993279   0.01201032
5912.00   1.83324536   0.01179803
5914.00   1.86531679   0.01185992
5916.00   1.87847090   0.01187829
5918.00   1.86204390   0.01183188
5920.00   1.83027204   0.01154248
5922.00   1.81578489   0.01147462
5924.00   1.82789822   0.01146473
5926.00   1.82962644   0.01128866
5928.00   1.81565380   0.01118717
5930.00   1.81062380   0.01124207
5932.00   1.82033225   0.01144015
5934.00   1.83239357   0.01148838
5936.00   1.85584776   0.01132974
5938.00   1.89402525   0.01112898
5940.00   1.90240252   0.01106244
5942.00   1.88754392   0.01112241
5944.00   1.85948912   0.01107220
5946.00   1.81665893   0.01084136
5948.00   1.77312716   0.01058723
5950.00   1.76260336   0.01037465
5952.00   1.77179607   0.01031688
5954.00   1.78248036   0.01033074
5956.00   1.79557089   0.01040521
5958.00   1.79981562   0.01033322
5960.00   1.78709853   0.01015562
5962.00   1.76931306   0.00997487
5964.00   1.76092585   0.00989232
5966.00   1.76165009   0.00992692
5968.00   1.77247806   0.00996358
5970.00   1.78368588   0.00992324
5972.00   1.79213075   0.00992178
5974.00   1.79843593   0.01001806
5976.00   1.79423356   0.01013749
5978.00   1.77990901   0.01032576
5980.00   1.76844867   0.01051121
5982.00   1.76974563   0.01055995
5984.00   1.76733283   0.01032193
5986.00   1.77499946   0.01010977
5988.00   1.79147379   0.00984100
5990.00   1.78801366   0.00964301
5992.00   1.75024132   0.00955164
5994.00   1.72693876   0.00958288
5996.00   1.72991486   0.00970363
5998.00   1.73607127   0.00984286
6000.00   1.75429753   0.00987444
6002.00   1.77772661   0.00980485
6004.00   1.77948105   0.00966804
6006.00   1.75710952   0.00945588
6008.00   1.73396607   0.00951226
6010.00   1.71717616   0.00988413
6012.00   1.70116703   0.00994586
6014.00   1.70279264   0.00972466
6016.00   1.71673512   0.00943851
6018.00   1.72775042   0.00927151
6020.00   1.73774302   0.00914284
6022.00   1.75130681   0.00909663
6024.00   1.76286129   0.00914696
6026.00   1.76553690   0.00924301
6028.00   1.73595667   0.00946454
6030.00   1.69171453   0.00966273
6032.00   1.67757968   0.00966174
6034.00   1.69330931   0.00931009
6036.00   1.70768805   0.00885655
6038.00   1.69701008   0.00877744
6040.00   1.68763359   0.00897962
6042.00   1.67738795   0.00908770
6044.00   1.66301330   0.00897842
6046.00   1.65626665   0.00887184
6048.00   1.66342668   0.00878370
6050.00   1.66787509   0.00877499
6052.00   1.66197062   0.00884589
6054.00   1.65975670   0.00888529
6056.00   1.66983422   0.00886859
6058.00   1.68672319   0.00891657
6060.00   1.68225932   0.00894765
6062.00   1.66751389   0.00873791
6064.00   1.65470592   0.00846364
6066.00   1.64198311   0.00843943
6068.00   1.62215261   0.00860990
6070.00   1.60142179   0.00884427
6072.00   1.59349497   0.00894656
6074.00   1.60264671   0.00886583
6076.00   1.61986534   0.00865621
6078.00   1.62569225   0.00858517
6080.00   1.61814368   0.00863900
6082.00   1.60918192   0.00865550
6084.00   1.59354595   0.00857726
6086.00   1.58737771   0.00859091
6088.00   1.58970098   0.00861124
6090.00   1.59141803   0.00857905
6092.00   1.58948088   0.00871088
6094.00   1.59011392   0.00893285
6096.00   1.58343931   0.00896189
6098.00   1.55780478   0.00867597
6100.00   1.54380111   0.00867419
6102.00   1.53773689   0.00875148
6104.00   1.52625660   0.00877422
6106.00   1.52606515   0.00903156
6108.00   1.54178309   0.00939865
6110.00   1.56137514   0.00966397
6112.00   1.57294782   0.00991268
6114.00   1.57728871   0.00997932
6116.00   1.56166220   0.00980904
6118.00   1.53145540   0.00964952
6120.00   1.51520169   0.00958948
6122.00   1.50936445   0.00947307
6124.00   1.50224447   0.00918038
6126.00   1.49193335   0.00875199
6128.00   1.48795569   0.00856386
6130.00   1.48100102   0.00863585
6132.00   1.47394395   0.00871333
6134.00   1.47544861   0.00888447
6136.00   1.47777176   0.00912627
6138.00   1.49142933   0.00910660
6140.00   1.50952160   0.00881938
6142.00   1.51432252   0.00865592
6144.00   1.49905713   0.00858262
6146.00   1.49026330   0.00845396
6148.00   1.49464921   0.00845465
6150.00   1.50148443   0.00855277
6152.00   1.50254424   0.00862083
6154.00   1.49631262   0.00873124
6156.00   1.48728319   0.00891728
6158.00   1.46940450   0.00916288
6160.00   1.44885874   0.00926716
6162.00   1.43509471   0.00928631
6164.00   1.43389543   0.00918236
6166.00   1.43001938   0.00888699
6168.00   1.42193731   0.00854190
6170.00   1.41131433   0.00826321
6172.00   1.38866011   0.00797694
6174.00   1.36844202   0.00793444
6176.00   1.37708326   0.00793096
6178.00   1.39658908   0.00780250
6180.00   1.39821510   0.00768818
6182.00   1.38685032   0.00765666
6184.00   1.37755664   0.00759185
6186.00   1.37053255   0.00746631
6188.00   1.36433597   0.00755832
6190.00   1.36330207   0.00781995
6192.00   1.36327589   0.00785796
6194.00   1.36910597   0.00779441
6196.00   1.37952093   0.00773440
6198.00   1.38354166   0.00760228
6200.00   1.37705203   0.00736936
6202.00   1.37077026   0.00726991
6204.00   1.37011071   0.00750879
6206.00   1.36540043   0.00778817
6208.00   1.36261233   0.00792470
6210.00   1.36132129   0.00791068
6212.00   1.35897231   0.00779827
6214.00   1.36221294   0.00754387
6216.00   1.36541212   0.00737886
6218.00   1.34462317   0.00755468
6220.00   1.32002906   0.00778305
6222.00   1.32338977   0.00785929
6224.00   1.34470367   0.00777850
6226.00   1.35134375   0.00765807
6228.00   1.34384549   0.00760876
6230.00   1.33580597   0.00785324
6232.00   1.33466327   0.00812813
6234.00   1.32910188   0.00832328
6236.00   1.31882564   0.00846443
6238.00   1.30572168   0.00840884
6240.00   1.29697935   0.00824100
6242.00   1.29397571   0.00800479
6244.00   1.30349012   0.00779814
6246.00   1.31890885   0.00770724
6248.00   1.32607273   0.00764121
6250.00   1.32504121   0.00762140
6252.00   1.31338465   0.00764088
6254.00   1.30515885   0.00764674
6256.00   1.30424567   0.00776219
6258.00   1.30404878   0.00787382
6260.00   1.31003821   0.00796396
6262.00   1.31595321   0.00793363
6264.00   1.32397433   0.00776253
6266.00   1.32421811   0.00764212
6268.00   1.30445492   0.00773552
6270.00   1.28357649   0.00771711
6272.00   1.28690004   0.00754192
6274.00   1.30993839   0.00735190
6276.00   1.32071451   0.00742689
6278.00   1.31452020   0.00750723
6280.00   1.30932176   0.00752313
6282.00   1.30706914   0.00751414
6284.00   1.29826621   0.00747875
6286.00   1.29152989   0.00746903
6288.00   1.29138033   0.00744307
6290.00   1.29493666   0.00755563
6292.00   1.29872199   0.00763974
6294.00   1.30081781   0.00783424
6296.00   1.30882581   0.00828087
6298.00   1.31855798   0.00885540
6300.00   1.32188622   0.00935767
6302.00   1.32597399   0.00957083
6304.00   1.32453120   0.00940407
6306.00   1.32578500   0.00896132
6308.00   1.32669898   0.00851570
6310.00   1.32521264   0.00816625
6312.00   1.32578154   0.00778271
6314.00   1.32449317   0.00743002
6316.00   1.32232074   0.00709934
6318.00   1.31995396   0.00703711
6320.00   1.31733791   0.00709489
6322.00   1.31512451   0.00707204
6324.00   1.33283754   0.00715235
6326.00   1.35182452   0.00721297
6328.00   1.34685524   0.00726628
6330.00   1.32562498   0.00726113
6332.00   1.31366765   0.00717886
6334.00   1.31331563   0.00708503
6336.00   1.31530623   0.00701455
6338.00   1.31318446   0.00687877
6340.00   1.30785640   0.00671791
6342.00   1.31037148   0.00682709
6344.00   1.31956367   0.00704187
6346.00   1.31808444   0.00709796
6348.00   1.31221620   0.00702874
6350.00   1.31039913   0.00693449
6352.00   1.30429928   0.00691579
6354.00   1.28775934   0.00703475
6356.00   1.27474193   0.00736003
6358.00   1.27928090   0.00759841
6360.00   1.28402118   0.00757598
6362.00   1.28288368   0.00746016
6364.00   1.28692007   0.00732232
6366.00   1.30070341   0.00720678
6368.00   1.30860261   0.00712611
6370.00   1.29544846   0.00698981
6372.00   1.28792167   0.00698897
6374.00   1.28527208   0.00710487
6376.00   1.27821660   0.00716296
6378.00   1.26500666   0.00710508
6380.00   1.24311570   0.00705623
6382.00   1.23045504   0.00703057
6384.00   1.23254486   0.00705847
6386.00   1.23608665   0.00708642
6388.00   1.23079757   0.00710644
6390.00   1.22208651   0.00697262
6392.00   1.23045103   0.00678092
6394.00   1.25150585   0.00666346
6396.00   1.27245466   0.00669169
6398.00   1.28512665   0.00685448
6400.00   1.28317042   0.00685745
6402.00   1.24315043   0.00663568
6404.00   1.17621799   0.00640024
6406.00   1.15827707   0.00630362
6408.00   1.19149582   0.00635737
6410.00   1.22632595   0.00642771
6412.00   1.23602204   0.00657026
6414.00   1.23690430   0.00675550
6416.00   1.24085240   0.00685931
6418.00   1.23551285   0.00680996
6420.00   1.22574087   0.00666904
6422.00   1.21288276   0.00653532
6424.00   1.20306365   0.00646929
6426.00   1.20139309   0.00662315
6428.00   1.20903269   0.00679695
6430.00   1.22334456   0.00669518
6432.00   1.24055815   0.00651054
6434.00   1.24784386   0.00644493
6436.00   1.25124935   0.00632676
6438.00   1.24696151   0.00623002
6440.00   1.23146351   0.00624310
6442.00   1.21458987   0.00635895
6444.00   1.20718408   0.00641153
6446.00   1.20801850   0.00638759
6448.00   1.21076326   0.00638314
6450.00   1.21679461   0.00635307
6452.00   1.22297132   0.00638424
6454.00   1.23179591   0.00644182
6456.00   1.23755340   0.00650589
6458.00   1.23973195   0.00657114
6460.00   1.24386398   0.00661972
6462.00   1.24501630   0.00670693
6464.00   1.24286679   0.00674060
6466.00   1.24108541   0.00671869
6468.00   1.24124916   0.00670198
6470.00   1.24144435   0.00668913
6472.00   1.23693450   0.00664251
6474.00   1.23659058   0.00657718
6476.00   1.24039169   0.00658086
6478.00   1.23969269   0.00658347
6480.00   1.23687760   0.00652614
6482.00   1.24020278   0.00647176
6484.00   1.24490372   0.00644861
6486.00   1.24824504   0.00641426
6488.00   1.25143433   0.00632317
6490.00   1.25907493   0.00630592
6492.00   1.27131470   0.00644254
6494.00   1.28282893   0.00659379
6496.00   1.29132235   0.00679044
6498.00   1.29930051   0.00697930
6500.00   1.30241164   0.00715611
6502.00   1.29382658   0.00722478
6504.00   1.28998431   0.00715243
6506.00   1.28604964   0.00696575
6508.00   1.27628843   0.00680350
6510.00   1.25975951   0.00675081
6512.00   1.26396370   0.00666959
6514.00   1.28198504   0.00663240
6516.00   1.29226565   0.00663949
6518.00   1.30307670   0.00663798
6520.00   1.31465566   0.00663102
6522.00   1.32451447   0.00666142
6524.00   1.33499515   0.00677836
6526.00   1.33729068   0.00684308
6528.00   1.33126215   0.00683847
6530.00   1.32771019   0.00675328
6532.00   1.33218225   0.00670338
6534.00   1.33550700   0.00685285
6536.00   1.32736047   0.00715021
6538.00   1.31078490   0.00737122
6540.00   1.29942509   0.00744648
6542.00   1.30314449   0.00735782
6544.00   1.32538195   0.00712842
6546.00   1.35045612   0.00681948
6548.00   1.36481973   0.00661144
6550.00   1.35572894   0.00662763
6552.00   1.33514996   0.00671199
6554.00   1.32575381   0.00677254
6556.00   1.33008488   0.00676884
6558.00   1.33268778   0.00666708
6560.00   1.32854565   0.00658900
6562.00   1.33062073   0.00657671
6564.00   1.34027676   0.00658872
6566.00   1.34495223   0.00657322
6568.00   1.35578807   0.00659487
6570.00   1.38323470   0.00677435
6572.00   1.39811607   0.00684476
6574.00   1.39380356   0.00687542
6576.00   1.37793668   0.00700053
6578.00   1.35184042   0.00725853
6580.00   1.33544370   0.00726160
6582.00   1.33196946   0.00698339
6584.00   1.33948410   0.00671125
6586.00   1.35688599   0.00656551
6588.00   1.38152603   0.00643201
6590.00   1.40074452   0.00626198
6592.00   1.40695119   0.00622912
6594.00   1.39869018   0.00620910
6596.00   1.38827387   0.00630545
6598.00   1.39185814   0.00663214
6600.00   1.39815315   0.00684347
6602.00   1.39589194   0.00675512
6604.00   1.38621565   0.00648494
6606.00   1.37995497   0.00631946
6608.00   1.36972443   0.00612918
6610.00   1.36874255   0.00599935
6612.00   1.37953361   0.00602310
6614.00   1.39624560   0.00607370
6616.00   1.42052841   0.00607593
6618.00   1.43164484   0.00615815
6620.00   1.42188378   0.00634230
6622.00   1.40956195   0.00643284
6624.00   1.41274428   0.00630129
6626.00   1.47629925   0.00622734
6628.00   1.67704495   0.00705183
6630.00   2.03113314   0.00850350
6632.00   2.35624679   0.00977138
6634.00   2.62945302   0.01103407
6636.00   2.80282283   0.01179294
6638.00   2.83600847   0.01157324
6640.00   2.70905821   0.01071227
6642.00   2.42876041   0.00997141
6644.00   2.05765502   0.00915161
6646.00   1.77677119   0.00824849
6648.00   1.57641232   0.00726860
6650.00   1.47306172   0.00654810
6652.00   1.45901958   0.00633161
6654.00   1.47962944   0.00641874
6656.00   1.48227863   0.00637154
6658.00   1.48774167   0.00639958
6660.00   1.48010584   0.00644390
6662.00   1.45138645   0.00645492
6664.00   1.42377559   0.00650010
6666.00   1.40987909   0.00669625
6668.00   1.39270103   0.00671777
6670.00   1.37327890   0.00643452
6672.00   1.36731565   0.00618415
6674.00   1.36494712   0.00601775
6676.00   1.36208280   0.00591147
6678.00   1.35243042   0.00584467
6680.00   1.33754508   0.00584324
6682.00   1.32706956   0.00593398
6684.00   1.33367225   0.00618173
6686.00   1.33728103   0.00626027
6688.00   1.33542152   0.00614510
6690.00   1.32608203   0.00599470
6692.00   1.31258106   0.00591344
6694.00   1.30601513   0.00585857
6696.00   1.30850724   0.00586756
6698.00   1.30643912   0.00587422
6700.00   1.30155035   0.00594626
6702.00   1.30742033   0.00614664
6704.00   1.30838513   0.00622709
6706.00   1.29842691   0.00614952
6708.00   1.29196775   0.00601968
6710.00   1.29834719   0.00598727
6712.00   1.30472636   0.00604154
6714.00   1.29804881   0.00616130
6716.00   1.28973889   0.00616933
6718.00   1.28362314   0.00602428
6720.00   1.27405878   0.00598222
6722.00   1.26750807   0.00601188
6724.00   1.26981958   0.00604778
6726.00   1.27332596   0.00606791
6728.00   1.26684781   0.00614046
6730.00   1.26407472   0.00606195
6732.00   1.26352934   0.00595614
6734.00   1.26057371   0.00591604
6736.00   1.26558717   0.00592811
6738.00   1.26739323   0.00592369
6740.00   1.26057788   0.00586368
6742.00   1.25062819   0.00582459
6744.00   1.24367607   0.00580929
6746.00   1.24146545   0.00580125
6748.00   1.24553974   0.00575165
6750.00   1.25280941   0.00571013
6752.00   1.25716849   0.00573571
6754.00   1.25930528   0.00577117
6756.00   1.26362467   0.00577049
6758.00   1.26457949   0.00581011
6760.00   1.25299259   0.00574189
6762.00   1.23716839   0.00568140
6764.00   1.22694985   0.00571228
6766.00   1.22493188   0.00579882
6768.00   1.22267866   0.00597668
6770.00   1.20451987   0.00612469
6772.00   1.18040438   0.00616506
6774.00   1.17215395   0.00608361
6776.00   1.18022482   0.00607856
6778.00   1.19378304   0.00595231
6780.00   1.20493996   0.00579667
6782.00   1.21822453   0.00568709
6784.00   1.24801056   0.00580883
6786.00   1.29616694   0.00605822
6788.00   1.34552773   0.00619760
6790.00   1.36742453   0.00639019
6792.00   1.38012838   0.00650759
6794.00   1.37450894   0.00641985
6796.00   1.33692797   0.00624378
6798.00   1.30908712   0.00622164
6800.00   1.30124271   0.00623112
6802.00   1.31215946   0.00614902
6804.00   1.32948641   0.00608882
6806.00   1.34909272   0.00607885
6808.00   1.35269554   0.00610659
6810.00   1.34032949   0.00618748
6812.00   1.30282982   0.00618885
6814.00   1.24312393   0.00607360
6816.00   1.19357797   0.00596935
6818.00   1.17027211   0.00589768
6820.00   1.16718954   0.00599455
6822.00   1.17027022   0.00621907
6824.00   1.16797193   0.00640434
6826.00   1.15906926   0.00663694
6828.00   1.15415317   0.00692492
6830.00   1.15320152   0.00709815
6832.00   1.15104314   0.00713176
6834.00   1.14525795   0.00704452
6836.00   1.15088765   0.00691196
6838.00   1.16049208   0.00669956
6840.00   1.15804191   0.00646545
6842.00   1.15445511   0.00618536
6844.00   1.15876402   0.00593811
6846.00   1.15945224   0.00576952
6848.00   1.14524992   0.00565792
6850.00   1.12875420   0.00554825
6852.00   1.12473696   0.00553922
6854.00   1.13048700   0.00579819
6856.00   1.15126604   0.00633122
6858.00   1.16131834   0.00676865
6860.00   1.16221402   0.00720958
6862.00   1.16379782   0.00770797
6864.00   1.17268364   0.00799872
6866.00   1.17254921   0.00790422
6868.00   1.15981305   0.00757636
6870.00   1.13695937   0.00711150
6872.00   1.11723578   0.00678337
6874.00   1.10884720   0.00666046
6876.00   1.10738971   0.00656109
6878.00   1.11227896   0.00640682
6880.00   1.11939170   0.00625798
6882.00   1.13046805   0.00618489
6884.00   1.13864394   0.00626519
6886.00   1.14454095   0.00653533
6888.00   1.15596279   0.00689140
6890.00   1.16283182   0.00693494
6892.00   1.14912021   0.00664630
6894.00   1.12394055   0.00643742
6896.00   1.11462601   0.00645205
6898.00   1.12092143   0.00656561
6900.00   1.12329513   0.00658330
6902.00   1.11130697   0.00649909
6904.00   1.09749107   0.00637486
6906.00   1.10298673   0.00632478
6908.00   1.12055173   0.00628449
6910.00   1.12613179   0.00621763
6912.00   1.12196664   0.00615178
6914.00   1.11974108   0.00620079
6916.00   1.12125121   0.00627577
6918.00   1.12234859   0.00638675
6920.00   1.12345821   0.00655168
6922.00   1.12584943   0.00665823
6924.00   1.11787089   0.00664051
6926.00   1.10805655   0.00655427
6928.00   1.10547356   0.00642885
6930.00   1.10893879   0.00615702
6932.00   1.12135518   0.00607709
6934.00   1.14159564   0.00625311
6936.00   1.15491716   0.00643202
6938.00   1.16689746   0.00643866
6940.00   1.18209724   0.00649596
6942.00   1.18138750   0.00666220
6944.00   1.16938243   0.00685370
6946.00   1.16360680   0.00691060
6948.00   1.17311517   0.00680542
6950.00   1.18001060   0.00662155
6952.00   1.17169154   0.00631372
6954.00   1.15207068   0.00607462
6956.00   1.13604019   0.00594159
6958.00   1.12597201   0.00581106
6960.00   1.12010014   0.00570429
6962.00   1.12222922   0.00568708
6964.00   1.13100491   0.00579189
6966.00   1.14930185   0.00599637
6968.00   1.15913796   0.00617646
6970.00   1.15197062   0.00630159
6972.00   1.14415958   0.00635647
6974.00   1.14943604   0.00633962
6976.00   1.15481317   0.00628371
6978.00   1.15556161   0.00632386
6980.00   1.15478094   0.00642826
6982.00   1.15386808   0.00639284
6984.00   1.14597426   0.00619039
6986.00   1.13375227   0.00604151
6988.00   1.12573806   0.00596013
6990.00   1.11142919   0.00591561
6992.00   1.10397240   0.00590236
6994.00   1.10335259   0.00594934
6996.00   1.11119785   0.00591874
6998.00   1.12856869   0.00580396
7000.00   1.13796864   0.00577547
7002.00   1.13772565   0.00587453
7004.00   1.13812455   0.00596989
7006.00   1.13432926   0.00596778
7008.00   1.12461315   0.00595575
7010.00   1.11363725   0.00598243
7012.00   1.10180205   0.00602134
7014.00   1.08652474   0.00600649
7016.00   1.07847353   0.00591136
7018.00   1.08255380   0.00580371
7020.00   1.09151832   0.00573257
7022.00   1.10140983   0.00574457
7024.00   1.10595338   0.00580645
7026.00   1.10945865   0.00587830
7028.00   1.11147829   0.00582896
7030.00   1.11085093   0.00571742
7032.00   1.10478681   0.00563608
7034.00   1.09467395   0.00563199
7036.00   1.08586244   0.00571490
7038.00   1.08549323   0.00583058
7040.00   1.09687740   0.00596654
7042.00   1.11294711   0.00611071
7044.00   1.11900163   0.00621346
7046.00   1.11740432   0.00624237
7048.00   1.10938128   0.00619912
7050.00   1.09788418   0.00604609
7052.00   1.09250967   0.00591186
7054.00   1.09118183   0.00583874
7056.00   1.08532484   0.00585491
7058.00   1.07152565   0.00591571
7060.00   1.06377182   0.00596221
7062.00   1.05742820   0.00591869
7064.00   1.04807148   0.00577773
7066.00   1.05433019   0.00583176
7068.00   1.07669020   0.00606561
7070.00   1.09893868   0.00620111
7072.00   1.11096007   0.00621707
7074.00   1.10915643   0.00633224
7076.00   1.09570738   0.00638569
7078.00   1.09124877   0.00631917
7080.00   1.10237887   0.00622435
7082.00   1.12131770   0.00623918
7084.00   1.12920000   0.00628250
7086.00   1.12223605   0.00620724
7088.00   1.10936461   0.00611441
7090.00   1.10617354   0.00621572
7092.00   1.11499635   0.00623358
7094.00   1.11845160   0.00608513
7096.00   1.10700347   0.00581447
7098.00   1.09370687   0.00574374
7100.00   1.09231494   0.00572128
7102.00   1.10331917   0.00565412
7104.00   1.10557131   0.00556780
7106.00   1.10677868   0.00556473
7108.00   1.10649480   0.00556673
7110.00   1.09745737   0.00557127
7112.00   1.08662210   0.00557985
7114.00   1.08056452   0.00554936
7116.00   1.07729367   0.00548089
7118.00   1.07248036   0.00543246
7120.00   1.07071676   0.00548161
7122.00   1.07440976   0.00563376
7124.00   1.08028432   0.00581444
7126.00   1.08309873   0.00597975
7128.00   1.08338179   0.00609270
7130.00   1.08656488   0.00613492
7132.00   1.10254476   0.00606660
7134.00   1.11198731   0.00593503
7136.00   1.10988106   0.00590727
7138.00   1.11601754   0.00591421
7140.00   1.12582384   0.00593722
7142.00   1.12724791   0.00591122
7144.00   1.12049826   0.00592959
7146.00   1.11480266   0.00597291
7148.00   1.11075137   0.00597369
7150.00   1.10411978   0.00592702
7152.00   1.08898453   0.00585841
7154.00   1.07427402   0.00584980
7156.00   1.07131916   0.00588354
7158.00   1.08822976   0.00596063
7160.00   1.11176618   0.00606423
7162.00   1.11979008   0.00616647
7164.00   1.12141498   0.00642370
7166.00   1.12974926   0.00650576
7168.00   1.13732626   0.00641274
7170.00   1.13881916   0.00650730
7172.00   1.12942477   0.00661363
7174.00   1.11529654   0.00666998
7176.00   1.11196285   0.00668819
7178.00   1.11710429   0.00670466
7180.00   1.11090056   0.00668078
7182.00   1.10962792   0.00661653
7184.00   1.10890102   0.00659497
7186.00   1.09850246   0.00653659
7188.00   1.07970558   0.00642822
7190.00   1.07834226   0.00637842
7192.00   1.08237769   0.00639309
7194.00   1.08490415   0.00648964
7196.00   1.09953366   0.00653853
7198.00   1.12158610   0.00667021
7200.00   1.12901803   0.00665334
7202.00   1.12116915   0.00647590
7204.00   1.11707660   0.00639635
7206.00   1.11557140   0.00638226
7208.00   1.10734008   0.00630581
7210.00   1.08120288   0.00618386
7212.00   1.06602347   0.00608500
7214.00   1.06302375   0.00596986
7216.00   1.06329052   0.00594922
7218.00   1.07201940   0.00587028
7220.00   1.09029649   0.00573416
7222.00   1.10426509   0.00572137
7224.00   1.10327033   0.00588255
7226.00   1.09351319   0.00611929
7228.00   1.08339779   0.00631347
7230.00   1.08717785   0.00665577
7232.00   1.09339605   0.00732535
7234.00   1.09177719   0.00833502
7236.00   1.08036031   0.00921094
7238.00   1.07076712   0.00979159
7240.00   1.07026182   0.01010712
7242.00   1.05250829   0.01015276
7244.00   1.02764910   0.01008336
7246.00   1.01402799   0.00984957
7248.00   1.01309661   0.00950601
7250.00   1.01769044   0.00897950
7252.00   1.02463931   0.00821349
7254.00   1.03575037   0.00761341
7256.00   1.05657127   0.00724770
7258.00   1.07249683   0.00687533
7260.00   1.06085676   0.00655966
7262.00   1.04833301   0.00652014
7264.00   1.05593352   0.00663741
7266.00   1.06800121   0.00684369
7268.00   1.06435601   0.00718534
7270.00   1.07647934   0.00780871
7272.00   1.08992575   0.00863320
7274.00   1.07282881   0.00918401
7276.00   1.03020571   0.00951112
7278.00   1.00323856   0.00966044
7280.00   0.99409391   0.00957995
7282.00   1.00362754   0.00929949
7284.00   1.02263127   0.00857744
7286.00   1.03759444   0.00785947
7288.00   1.05271633   0.00739520
7290.00   1.05582450   0.00708101
7292.00   1.05604231   0.00684904
7294.00   1.05571649   0.00683278
7296.00   1.05902336   0.00692597
7298.00   1.06590158   0.00705983
7300.00   1.06901163   0.00723137
7302.00   1.04827885   0.00718685
7304.00   1.01792570   0.00705782
7306.00   1.00944469   0.00696016
7308.00   1.01586966   0.00695460
7310.00   1.02113940   0.00725806
7312.00   1.02292200   0.00783751
7314.00   1.02220196   0.00840199
7316.00   1.03575758   0.00869634
7318.00   1.05740575   0.00870775
7320.00   1.06960072   0.00838718
7322.00   1.07263444   0.00769402
7324.00   1.05883010   0.00726993
7326.00   1.02202708   0.00715853
7328.00   0.98611148   0.00718485
7330.00   0.98074816   0.00718002
7332.00   0.98504730   0.00707847
7334.00   0.98215552   0.00716534
7336.00   0.98931499   0.00753824
7338.00   0.99910078   0.00797312
7340.00   1.00572695   0.00842249
7342.00   1.01061690   0.00850262
7344.00   1.02134534   0.00823834
7346.00   1.00899045   0.00764003
7348.00   0.99486222   0.00706622
7350.00   0.98923361   0.00674786
7352.00   0.99604174   0.00660075
7354.00   1.00446391   0.00660781
7356.00   1.00265137   0.00663173
7358.00   0.99181869   0.00667459
7360.00   0.99520892   0.00682572
7362.00   0.99986235   0.00711086
7364.00   0.99315524   0.00742882
7366.00   0.98678205   0.00765774
7368.00   0.97430009   0.00783134
7370.00   0.95618381   0.00778314
7372.00   0.94637352   0.00752283
7374.00   0.95944365   0.00713774
7376.00   0.96369805   0.00664724
7378.00   0.95697335   0.00620101
7380.00   0.96170006   0.00602419
7382.00   0.97212356   0.00594813
7384.00   0.97069665   0.00588539
7386.00   0.96689938   0.00594608
7388.00   0.97178988   0.00604299
7390.00   0.97752349   0.00616006
7392.00   0.98494806   0.00637980
7394.00   0.99587808   0.00658426
7396.00   1.01015214   0.00679683
7398.00   1.01407429   0.00696036
7400.00   1.00443244   0.00708049
7402.00   0.98885566   0.00720962
7404.00   0.96623498   0.00727423
7406.00   0.93922589   0.00710934
7408.00   0.92208844   0.00672974
7410.00   0.92419014   0.00619282
7412.00   0.92751684   0.00583928
7414.00   0.92416104   0.00562794
7416.00   0.92111433   0.00562094
7418.00   0.93309106   0.00571680
7420.00   0.94934909   0.00570640
7422.00   0.95763995   0.00571190
7424.00   0.96142370   0.00580518
7426.00   0.96474894   0.00598792
7428.00   0.96174717   0.00620899
7430.00   0.95567342   0.00647523
7432.00   0.95030008   0.00670622
7434.00   0.93906846   0.00675843
7436.00   0.92111802   0.00663988
7438.00   0.89959286   0.00655493
7440.00   0.88888403   0.00648906
7442.00   0.89027039   0.00622715
7444.00   0.89590162   0.00584344
7446.00   0.90277131   0.00548908
7448.00   0.91043611   0.00537587
7450.00   0.91886777   0.00557507
7452.00   0.93832628   0.00575743
7454.00   0.95490436   0.00583321
7456.00   0.95739510   0.00593446
7458.00   0.95545596   0.00599822
7460.00   0.95219515   0.00593837
7462.00   0.94962098   0.00595400
7464.00   0.93351980   0.00618522
7466.00   0.91048330   0.00639194
7468.00   0.88843638   0.00640178
7470.00   0.88100177   0.00635230
7472.00   0.88428930   0.00648617
7474.00   0.87966224   0.00679687
7476.00   0.87798339   0.00698162
7478.00   0.88409658   0.00694530
7480.00   0.89740016   0.00674770
7482.00   0.92185122   0.00649483
7484.00   0.95282127   0.00638861
7486.00   0.96514066   0.00645886
7488.00   0.96366729   0.00655820
7490.00   0.96031976   0.00646693
7492.00   0.95249530   0.00623493
7494.00   0.93497290   0.00600094
7496.00   0.92023567   0.00587875
7498.00   0.89958650   0.00589954
7500.00   0.87339272   0.00604295
7502.00   0.85339268   0.00611970
7504.00   0.84957866   0.00594132
7506.00   0.85523860   0.00563106
7508.00   0.85961976   0.00555883
7510.00   0.86872254   0.00555935
7512.00   0.87163899   0.00553425
7514.00   0.86368644   0.00567904
7516.00   0.85933503   0.00593113
7518.00   0.86098446   0.00615982
7520.00   0.85989195   0.00641127
7522.00   0.86063715   0.00663864
7524.00   0.88023559   0.00675266
7526.00   0.89937578   0.00675867
7528.00   0.89695364   0.00671402
7530.00   0.88741024   0.00651190
7532.00   0.88256967   0.00627214
7534.00   0.88000691   0.00605674
7536.00   0.88747319   0.00586712
7538.00   0.90468234   0.00566531
7540.00   0.91282340   0.00557194
7542.00   0.91006889   0.00554971
7544.00   0.90650191   0.00550676
7546.00   0.90194299   0.00547109
7548.00   0.89039312   0.00548369
7550.00   0.87742958   0.00553979
7552.00   0.86216547   0.00560764
7554.00   0.84038124   0.00563751
7556.00   0.82381870   0.00566894
7558.00   0.81493092   0.00571831
7560.00   0.80928500   0.00571676
7562.00   0.81036144   0.00569272
7564.00   0.81211513   0.00572060
7566.00   0.81432132   0.00582317
7568.00   0.81657036   0.00594520
7570.00   0.82229159   0.00615322
7572.00   0.83097033   0.00634185
7574.00   0.84621934   0.00638275
7576.00   0.86282480   0.00624683
7578.00   0.86972672   0.00607522
7580.00   0.86939337   0.00590163
7582.00   0.86621189   0.00582876
7584.00   0.86590618   0.00591480
7586.00   0.87138532   0.00600533
7588.00   0.87909198   0.00605891
7590.00   0.88138707   0.00608578
7592.00   0.87606666   0.00638664
7594.00   0.85684190   0.00691706
7596.00   0.84865985   0.00813057
7598.00   0.86897679   0.00997063
7600.00   0.89209865   0.01236860
7602.00   0.89621200   0.01444855
7604.00   0.89167889   0.01564345
7606.00   0.87644653   0.01538099
7608.00   0.84863526   0.01389679
7610.00   0.83864693   0.01221412
7612.00   0.85215390   0.01046418
7614.00   0.85108421   0.00918650
7616.00   0.83704640   0.00847770
7618.00   0.81972408   0.00812563
7620.00   0.80546383   0.00799057
7622.00   0.78594913   0.00819452
7624.00   0.78271971   0.00874162
7626.00   0.79435303   0.00953171
7628.00   0.80392206   0.01012207
7630.00   0.83737749   0.01022617
7632.00   0.87796926   0.00997852
7634.00   0.88716821   0.00943507
7636.00   0.87562865   0.00867667
7638.00   0.87705608   0.00825729
7640.00   0.88461904   0.00803812
7642.00   0.88490470   0.00794044
7644.00   0.88549010   0.00786192
7646.00   0.87367996   0.00765078
7648.00   0.84081270   0.00740459
7650.00   0.80972058   0.00728538
7652.00   0.79269912   0.00718966
7654.00   0.78179586   0.00702693
7656.00   0.78138111   0.00684906
7658.00   0.79743143   0.00670379
7660.00   0.81423855   0.00668713
7662.00   0.82662088   0.00669967
7664.00   0.83861367   0.00673842
7666.00   0.84610679   0.00675188
7668.00   0.85186972   0.00663765
7670.00   0.85973356   0.00640524
7672.00   0.87668912   0.00611230
7674.00   0.89342288   0.00586606
7676.00   0.89421701   0.00576147
7678.00   0.88644874   0.00578678
7680.00   0.87837565   0.00582584
7682.00   0.86836108   0.00581147
7684.00   0.85995046   0.00586525
7686.00   0.84864616   0.00595104
7688.00   0.83411908   0.00600751
7690.00   0.82065552   0.00612061
7692.00   0.81279627   0.00621021
7694.00   0.80843051   0.00624562
7696.00   0.80611646   0.00623797
7698.00   0.79760394   0.00617627
7700.00   0.78368698   0.00603927
7702.00   0.77568237   0.00611400
7704.00   0.77766573   0.00634658
7706.00   0.80208703   0.00684446
7708.00   0.82692647   0.00769658
7710.00   0.84076546   0.00883900
7712.00   0.84228390   0.00977185
7714.00   0.83619734   0.01049049
7716.00   0.83915448   0.01068863
7718.00   0.85831398   0.01045944
7720.00   0.88204211   0.00988848
7722.00   0.89525249   0.00897416
7724.00   0.89590003   0.00799919
7726.00   0.88797923   0.00753272
7728.00   0.87394170   0.00732788
7730.00   0.87525312   0.00696198
7732.00   0.88493466   0.00653758
7734.00   0.88161701   0.00640873
7736.00   0.86399661   0.00626710
7738.00   0.84859641   0.00606154
7740.00   0.83694897   0.00618754
7742.00   0.82704419   0.00661405
7744.00   0.82201233   0.00737506
7746.00   0.82122050   0.00841823
7748.00   0.81291254   0.00921186
7750.00   0.79452837   0.00939191
7752.00   0.77588997   0.00919269
7754.00   0.76490804   0.00892736
7756.00   0.75514543   0.00855564
7758.00   0.75265833   0.00824648
7760.00   0.75597360   0.00787213
7762.00   0.76875083   0.00737119
7764.00   0.77813462   0.00694821
7766.00   0.78404019   0.00669561
7768.00   0.79757456   0.00640599
7770.00   0.81772159   0.00620947
7772.00   0.83364451   0.00637011
7774.00   0.84335490   0.00680574
7776.00   0.86002318   0.00720966
7778.00   0.88147082   0.00755139
7780.00   0.88621811   0.00761402
7782.00   0.88343962   0.00740197
7784.00   0.88172688   0.00705825
7786.00   0.88050991   0.00691025
7788.00   0.88682087   0.00716921
7790.00   0.89298900   0.00775136
7792.00   0.89910018   0.00844719
7794.00   0.89676408   0.00887304
7796.00   0.85249859   0.00891017
7798.00   0.80144616   0.00849356
7800.00   0.79032626   0.00789801
7802.00   0.80602252   0.00732614
7804.00   0.81450633   0.00719225
7806.00   0.80604446   0.00711570
7808.00   0.79108938   0.00692788
7810.00   0.77355723   0.00687335
7812.00   0.76550156   0.00717452
7814.00   0.78813680   0.00765130
7816.00   0.82934668   0.00812350
7818.00   0.86812909   0.00849004
7820.00   0.89979698   0.00886325
7822.00   0.91397117   0.00894476
7824.00   0.91970392   0.00855566
7826.00   0.92173533   0.00796776
7828.00   0.90788943   0.00736018
7830.00   0.88278462   0.00675693
7832.00   0.87693864   0.00638906
7834.00   0.88577865   0.00627546
7836.00   0.87466596   0.00633347
7838.00   0.85025281   0.00645828
7840.00   0.83868184   0.00670635
7842.00   0.84063991   0.00708341
7844.00   0.84716006   0.00754453
7846.00   0.83671210   0.00794122
7848.00   0.81445583   0.00843997
7850.00   0.80597913   0.00906365
7852.00   0.80433784   0.00974200
7854.00   0.81375909   0.01032314
7856.00   0.84827590   0.01066297
7858.00   0.86797376   0.01043066
7860.00   0.86553834   0.00961720
7862.00   0.85607300   0.00846040
7864.00   0.86011622   0.00782313
7866.00   0.86260867   0.00770110
7868.00   0.84488149   0.00798800
7870.00   0.82257028   0.00847278
7872.00   0.82518643   0.00860297
7874.00   0.82732201   0.00840180
7876.00   0.80995715   0.00810226
7878.00   0.79471793   0.00787138
7880.00   0.79238486   0.00777601
7882.00   0.78954697   0.00796515
7884.00   0.78466795   0.00820928
7886.00   0.78592529   0.00823887
7888.00   0.78828526   0.00826352
7890.00   0.79281682   0.00839072
7892.00   0.79776559   0.00826345
7894.00   0.79931144   0.00789270
7896.00   0.79559257   0.00739061
7898.00   0.78245121   0.00679337
7900.00   0.77512536   0.00617873
7902.00   0.78871093   0.00598785
7904.00   0.80475871   0.00635489
7906.00   0.81568493   0.00695647
7908.00   0.82503049   0.00764590
7910.00   0.81794147   0.00838371
7912.00   0.78418454   0.00938390
7914.00   0.74910059   0.01029770
7916.00   0.74321055   0.01042325
7918.00   0.76270584   0.00982600
7920.00   0.79655115   0.00918489
7922.00   0.83988092   0.00865019
7924.00   0.86230711   0.00820801
7926.00   0.86837502   0.00789461
7928.00   0.88028294   0.00783882
7930.00   0.90188889   0.00783462
7932.00   0.91529761   0.00758728
7934.00   0.91093163   0.00717097
7936.00   0.89762274   0.00681070
7938.00   0.89171382   0.00678568
7940.00   0.88393859   0.00697878
7942.00   0.88081199   0.00697921
7944.00   0.88358561   0.00674960
7946.00   0.87961332   0.00659718
7948.00   0.87675462   0.00661442
7950.00   0.88203681   0.00678302
7952.00   0.87410782   0.00678008
7954.00   0.85527188   0.00657316
7956.00   0.85063273   0.00664899
7958.00   0.85585598   0.00712612
7960.00   0.85708674   0.00772911
7962.00   0.86354880   0.00833679
7964.00   0.86258447   0.00879435
7966.00   0.84981765   0.00890551
7968.00   0.82649277   0.00881235
7970.00   0.80671116   0.00863709
7972.00   0.78589471   0.00833987
7974.00   0.77542915   0.00813380
7976.00   0.76601001   0.00802339
7978.00   0.75847042   0.00791642
7980.00   0.75596813   0.00771756
7982.00   0.75142612   0.00751854
7984.00   0.76147674   0.00739159
7986.00   0.78583546   0.00749123
7988.00   0.81777513   0.00798975
7990.00   0.82862087   0.00855547
7992.00   0.82459132   0.00891794
7994.00   0.81717571   0.00904313
7996.00   0.80712058   0.00895750
7998.00   0.80456911   0.00852465
8000.00   0.80954214   0.00770218
8002.00   0.82467806   0.00709590
8004.00   0.84719040   0.00687714
8006.00   0.85862265   0.00677916
8008.00   0.85373064   0.00686189
8010.00   0.84150048   0.00715799
8012.00   0.83247707   0.00722468
8014.00   0.81220277   0.00700757
8016.00   0.80194614   0.00703119
8018.00   0.81661562   0.00746748
8020.00   0.83112876   0.00787541
8022.00   0.80704051   0.00813191
8024.00   0.77018468   0.00844959
8026.00   0.73411340   0.00861131
8028.00   0.69802304   0.00843373
8030.00   0.67546211   0.00805224
8032.00   0.68186931   0.00747313
8034.00   0.69806774   0.00685326
8036.00   0.71012700   0.00639877
8038.00   0.72399066   0.00624039
8040.00   0.73755409   0.00621115
8042.00   0.75410231   0.00622247
8044.00   0.77056024   0.00616368
8046.00   0.79683425   0.00604368
8048.00   0.80880046   0.00599395
8050.00   0.81036653   0.00628713
8052.00   0.81092326   0.00669818
8054.00   0.80475120   0.00695613
8056.00   0.79406679   0.00720172
8058.00   0.79845192   0.00739503
8060.00   0.82779012   0.00740948
8062.00   0.84770435   0.00738493
8064.00   0.84346914   0.00730617
8066.00   0.83114056   0.00696042
8068.00   0.81685321   0.00661855
8070.00   0.80536793   0.00641050
8072.00   0.80721678   0.00627673
8074.00   0.82867531   0.00617077
8076.00   0.83861299   0.00617155
8078.00   0.82173089   0.00619022
8080.00   0.79066779   0.00600660
8082.00   0.76991351   0.00599414
8084.00   0.75739737   0.00604013
8086.00   0.75187163   0.00604483
8088.00   0.75266735   0.00596294
8090.00   0.74483655   0.00593146
8092.00   0.73094708   0.00599222
8094.00   0.72015816   0.00612320
8096.00   0.71493667   0.00627252
8098.00   0.71506876   0.00645416
8100.00   0.71915821   0.00661488
8102.00   0.72445031   0.00677360
8104.00   0.72844964   0.00677792
8106.00   0.73117703   0.00670462
8108.00   0.73880295   0.00657117
8110.00   0.74962417   0.00639188
8112.00   0.76529664   0.00622356
8114.00   0.77105810   0.00606647
8116.00   0.77340404   0.00602427
8118.00   0.77711060   0.00596999
8120.00   0.77762268   0.00590992
8122.00   0.77260323   0.00584727
8124.00   0.77412621   0.00584864
8126.00   0.78076468   0.00599270
8128.00   0.77568136   0.00621286
8130.00   0.76593033   0.00638714
8132.00   0.75311792   0.00642941
8134.00   0.73733449   0.00644010
8136.00   0.72627250   0.00652737
8138.00   0.72241861   0.00656280
8140.00   0.71936905   0.00664019
8142.00   0.71662631   0.00682246
8144.00   0.71119855   0.00689816
8146.00   0.70397731   0.00688579
8148.00   0.70178094   0.00689263
8150.00   0.70222721   0.00692649
8152.00   0.70037705   0.00694663
8154.00   0.70321594   0.00693428
8156.00   0.70963041   0.00682993
8158.00   0.71499624   0.00665143
8160.00   0.71489664   0.00669691
8162.00   0.71605374   0.00679984
8164.00   0.71507851   0.00686305
8166.00   0.71227994   0.00696301
8168.00   0.72187388   0.00703309
8170.00   0.74899771   0.00695597
8172.00   0.76808194   0.00694533
8174.00   0.77086669   0.00724038
8176.00   0.78024187   0.00769621
8178.00   0.79350338   0.00818031
8180.00   0.79759552   0.00864766
8182.00   0.79520106   0.00909055
8184.00   0.79515072   0.00955257
8186.00   0.80223495   0.01000397
8188.00   0.80298847   0.01034307
8190.00   0.78930632   0.01053560
8192.00   0.77966849   0.01066171
8194.00   0.78835181   0.01063855
8196.00   0.80189242   0.01046391
8198.00   0.80542360   0.01003603
8200.00   0.79835159   0.00949505
8202.00   0.79180433   0.00899825
8204.00   0.78585196   0.00851801
8206.00   0.79039125   0.00810665
8208.00   0.80602707   0.00795548
8210.00   0.80598638   0.00772083
8212.00   0.77359225   0.00739152
8214.00   0.73556324   0.00725369
8216.00   0.72019603   0.00728790
8218.00   0.71844967   0.00723782
8220.00   0.71898858   0.00711962
8222.00   0.72121682   0.00701277
8224.00   0.71774149   0.00710991
8226.00   0.70595284   0.00716944
8228.00   0.69584070   0.00708506
8230.00   0.69854526   0.00694350
8232.00   0.69513810   0.00687602
8234.00   0.68996121   0.00671803
8236.00   0.69696420   0.00652351
8238.00   0.70307297   0.00649933
8240.00   0.69788426   0.00655162
8242.00   0.69163785   0.00652772
8244.00   0.69252948   0.00637952
8246.00   0.69564098   0.00629838
8248.00   0.70525054   0.00631403
8250.00   0.71759131   0.00629257
8252.00   0.72557781   0.00623411
8254.00   0.72261324   0.00623771
8256.00   0.72121727   0.00622312
8258.00   0.73415796   0.00616378
8260.00   0.75835963   0.00628464
8262.00   0.76906846   0.00639629
8264.00   0.76429252   0.00640987
8266.00   0.75305390   0.00637071
8268.00   0.73978730   0.00627436
8270.00   0.73580645   0.00636649
8272.00   0.73049513   0.00673264
8274.00   0.73056199   0.00759832
8276.00   0.76012158   0.00877628
8278.00   0.79337533   0.00983233
8280.00   0.80084558   0.01043791
8282.00   0.78002522   0.01086590
8284.00   0.73788029   0.01116629
8286.00   0.67693921   0.01121825
8288.00   0.64257669   0.01115305
8290.00   0.65151459   0.01101561
8292.00   0.66008768   0.01103571
8294.00   0.64391802   0.01118724
8296.00   0.61732341   0.01143536
8298.00   0.60538909   0.01150984
8300.00   0.60320635   0.01106034
8302.00   0.60550768   0.01022370
8304.00   0.59609551   0.00931071
8306.00   0.58216720   0.00846056
8308.00   0.59099625   0.00783586
8310.00   0.61413749   0.00757721
8312.00   0.62637523   0.00741286
8314.00   0.63316127   0.00723995
8316.00   0.64073192   0.00711443
8318.00   0.63928282   0.00701693
8320.00   0.64886954   0.00688069
8322.00   0.67112352   0.00682377
8324.00   0.69097340   0.00674284
8326.00   0.70133968   0.00658447
8328.00   0.69853725   0.00636650
8330.00   0.69849799   0.00622690
8332.00   0.70083894   0.00617832
8334.00   0.69974744   0.00669906
8336.00   0.67676026   0.00795782
8338.00   0.65506256   0.00935175
8340.00   0.65026635   0.01047915
8342.00   0.64928643   0.01171067
8344.00   0.63058970   0.01255765
8346.00   0.61623828   0.01287868
8348.00   0.60594258   0.01259008
8350.00   0.56419443   0.01191522
8352.00   0.52878880   0.01102305
8354.00   0.53049097   0.00989607
8356.00   0.55509088   0.00895129
8358.00   0.58411188   0.00832576
8360.00   0.61894713   0.00797116
8362.00   0.65535096   0.00774374
8364.00   0.68671115   0.00765059
8366.00   0.71418214   0.00741704
8368.00   0.72730269   0.00698837
8370.00   0.73022983   0.00676244
8372.00   0.73143659   0.00683608
8374.00   0.73020889   0.00707367
8376.00   0.73125410   0.00738093
8378.00   0.73494754   0.00788364
8380.00   0.74019575   0.00830000
8382.00   0.72976899   0.00827462
8384.00   0.72343445   0.00808843
8386.00   0.71947372   0.00777007
8388.00   0.71390579   0.00727599
8390.00   0.70519847   0.00733261
8392.00   0.69816343   0.00791274
8394.00   0.68505371   0.00875344
8396.00   0.64820162   0.00987205
8398.00   0.61793911   0.01091002
8400.00   0.58945982   0.01107847
8402.00   0.57434073   0.01048708
8404.00   0.57001713   0.00975555
8406.00   0.58052668   0.00874841
8408.00   0.60891724   0.00790593
8410.00   0.64265341   0.00764922
8412.00   0.66824905   0.00785113
8414.00   0.69273841   0.00802067
8416.00   0.71829710   0.00806864
8418.00   0.72028687   0.00808048
8420.00   0.70159125   0.00813314
8422.00   0.68819010   0.00846741
8424.00   0.69184619   0.00914403
8426.00   0.70125006   0.01003778
8428.00   0.71462800   0.01085322
8430.00   0.73439678   0.01137552
8432.00   0.74066422   0.01142138
8434.00   0.72310704   0.01094585
8436.00   0.69997821   0.00995228
8438.00   0.68725608   0.00860123
8440.00   0.68605973   0.00745147
8442.00   0.69308178   0.00672743
8444.00   0.69272570   0.00648792
8446.00   0.69400452   0.00683592
8448.00   0.69036527   0.00757345
8450.00   0.67013947   0.00792833
8452.00   0.64036322   0.00803641
8454.00   0.63396961   0.00809586
8456.00   0.65381255   0.00816321
8458.00   0.67678120   0.00840939
8460.00   0.70217733   0.00888894
8462.00   0.72519835   0.00962348
8464.00   0.72821560   0.01019868
8466.00   0.72173794   0.01050973
8468.00   0.72047069   0.01042374
8470.00   0.71835858   0.00983970
8472.00   0.69807297   0.00866893
8474.00   0.68612512   0.00751119
8476.00   0.69406074   0.00677346
8478.00   0.70871409   0.00648875
8480.00   0.71583209   0.00636002
8482.00   0.71640905   0.00623335
8484.00   0.72466071   0.00614913
8486.00   0.72654698   0.00629998
8488.00   0.70998792   0.00681289
8490.00   0.68874868   0.00746615
8492.00   0.68702658   0.00796289
8494.00   0.70514526   0.00830040
8496.00   0.72036107   0.00846206
8498.00   0.72439122   0.00851460
8500.00   0.72051680   0.00869913
8502.00   0.73225206   0.00926272
8504.00   0.74201725   0.00981583
8506.00   0.73450553   0.00989419
8508.00   0.72944289   0.00975624
8510.00   0.71238806   0.00915550
8512.00   0.67775649   0.00796691
8514.00   0.64354432   0.00681345
8516.00   0.63814036   0.00625533
8518.00   0.64809648   0.00612987
8520.00   0.65584445   0.00597495
8522.00   0.66665580   0.00589262
8524.00   0.67710100   0.00589883
8526.00   0.68624987   0.00602177
8528.00   0.69052333   0.00614447
8530.00   0.70529173   0.00626051
8532.00   0.71376552   0.00636155
8534.00   0.70918743   0.00642251
8536.00   0.70884184   0.00661968
8538.00   0.71107336   0.00689547
8540.00   0.70469824   0.00719869
8542.00   0.68700159   0.00764128
8544.00   0.67454684   0.00820767
8546.00   0.67922620   0.00833566
8548.00   0.67314929   0.00788314
8550.00   0.65369280   0.00749784
8552.00   0.63124923   0.00720144
8554.00   0.61313434   0.00686817
8556.00   0.61559794   0.00649842
8558.00   0.63553756   0.00616000
8560.00   0.65959883   0.00590792
8562.00   0.67502924   0.00583336
8564.00   0.69201960   0.00588589
8566.00   0.70751178   0.00605671
8568.00   0.71537922   0.00631269
8570.00   0.71913411   0.00639949
8572.00   0.71672744   0.00635192
8574.00   0.71254202   0.00636610
8576.00   0.70629110   0.00634507
8578.00   0.70190873   0.00631229
8580.00   0.70192182   0.00631313
8582.00   0.70607489   0.00629124
8584.00   0.70931319   0.00638138
8586.00   0.70789454   0.00660555
8588.00   0.70464363   0.00681371
8590.00   0.70388240   0.00693819
8592.00   0.69910014   0.00698936
8594.00   0.68866354   0.00696544
8596.00   0.67839827   0.00698755
8598.00   0.66755478   0.00697883
8600.00   0.64561419   0.00691031
8602.00   0.62914985   0.00680381
8604.00   0.62433249   0.00674953
8606.00   0.62992366   0.00687937
8608.00   0.65210464   0.00737620
8610.00   0.69240552   0.00820000
8612.00   0.71649643   0.00881837
8614.00   0.72035430   0.00936773
8616.00   0.73397122   0.01019113
8618.00   0.76145252   0.01126881
8620.00   0.79182827   0.01240479
8622.00   0.82566182   0.01363329
8624.00   0.83645594   0.01427733
8626.00   0.82880376   0.01432552
8628.00   0.81788433   0.01417974
8630.00   0.78508492   0.01403837
8632.00   0.74148117   0.01387013
8634.00   0.73006845   0.01357282
8636.00   0.74499406   0.01294619
8638.00   0.74546341   0.01195768
8640.00   0.73239777   0.01100524
8642.00   0.71779281   0.01022311
8644.00   0.70286095   0.01008900
8646.00   0.68125721   0.01039754
8648.00   0.65596239   0.01111085
8650.00   0.64360615   0.01233947
8652.00   0.64819801   0.01367220
8654.00   0.64429369   0.01426493
8656.00   0.63504086   0.01452395
8658.00   0.62334407   0.01488916
8660.00   0.63174516   0.01490303
8662.00   0.66028714   0.01491201
8664.00   0.70229439   0.01520733
8666.00   0.74487909   0.01505890
8668.00   0.76900345   0.01429905
8670.00   0.76624574   0.01364029
8672.00   0.75022099   0.01302037
8674.00   0.71652516   0.01223963
8676.00   0.69047093   0.01176260
8678.00   0.67990643   0.01146623
8680.00   0.68712590   0.01086693
8682.00   0.67913169   0.01039266
8684.00   0.67355136   0.01009350
8686.00   0.67721218   0.00971185
8688.00   0.66263725   0.00911143
8690.00   0.65151417   0.00881276
8692.00   0.64961948   0.00880761
8694.00   0.64326121   0.00880909
8696.00   0.62080330   0.00857044
8698.00   0.61760902   0.00827157
8700.00   0.62938370   0.00797456
8702.00   0.63784118   0.00752950
8704.00   0.66803120   0.00727172
8706.00   0.71749689   0.00724840
8708.00   0.75149649   0.00721550
8710.00   0.77174807   0.00711502
8712.00   0.78280455   0.00694022
8714.00   0.77387367   0.00669640
8716.00   0.75581050   0.00649523
8718.00   0.74263241   0.00646198
8720.00   0.73745948   0.00656873
8722.00   0.73717769   0.00673125
8724.00   0.72945287   0.00689741
8726.00   0.71552424   0.00706734
8728.00   0.70339731   0.00709878
8730.00   0.68106182   0.00699538
8732.00   0.66213729   0.00699784
8734.00   0.64372440   0.00702447
8736.00   0.63086595   0.00691449
8738.00   0.61572687   0.00670100
8740.00   0.61683824   0.00660784
8742.00   0.62545896   0.00654275
8744.00   0.63889994   0.00643487
8746.00   0.65675642   0.00641101
8748.00   0.66787908   0.00637201
8750.00   0.67523599   0.00672434
8752.00   0.67893600   0.00742961
8754.00   0.68821484   0.00859050
8756.00   0.70822928   0.01026895
8758.00   0.73756599   0.01199107
8760.00   0.75695435   0.01331967
8762.00   0.78049290   0.01421472
8764.00   0.78873652   0.01472200
8766.00   0.77310967   0.01487663
8768.00   0.75215977   0.01462903
8770.00   0.74432806   0.01418777
8772.00   0.74215295   0.01396203
8774.00   0.71598699   0.01395967
8776.00   0.70012073   0.01398150
8778.00   0.68510584   0.01383762
8780.00   0.66433173   0.01341406
8782.00   0.65908261   0.01247669
8784.00   0.68889085   0.01119033
8786.00   0.70834341   0.01011019
8788.00   0.67326482   0.00964312
8790.00   0.63969278   0.00948412
8792.00   0.61127564   0.00934832
8794.00   0.58645170   0.00905752
8796.00   0.57419944   0.00859573
8798.00   0.57099540   0.00803281
8800.00   0.57381012   0.00743833
8802.00   0.60210806   0.00706345
8804.00   0.63954206   0.00689986
8806.00   0.65964252   0.00692759
8808.00   0.66935345   0.00705069
8810.00   0.68138703   0.00712814
8812.00   0.69856717   0.00707778
8814.00   0.71220460   0.00715138
8816.00   0.71268332   0.00756071
8818.00   0.72167933   0.00865892
8820.00   0.73309074   0.01074940
8822.00   0.73251071   0.01364896
8824.00   0.69799489   0.01593835
8826.00   0.64031980   0.01795602
8828.00   0.60842649   0.01927771
8830.00   0.64290943   0.01936845
8832.00   0.69331777   0.01793698
8834.00   0.70129253   0.01596628
8836.00   0.68689771   0.01417437
8838.00   0.65749609   0.01282030
8840.00   0.62084250   0.01176192
8842.00   0.62322988   0.01085209
8844.00   0.66324900   0.00990097
8846.00   0.68712499   0.00934070
8848.00   0.67756339   0.00929170
8850.00   0.66074437   0.00961003
8852.00   0.65017762   0.00990787
8854.00   0.63592112   0.00996013
8856.00   0.63301623   0.00944324
8858.00   0.64817703   0.00859543
8860.00   0.66454875   0.00852431
8862.00   0.65850594   0.00938005
8864.00   0.62993675   0.01009865
8866.00   0.58495370   0.01044274
8868.00   0.52130164   0.01086754
8870.00   0.48424405   0.01073614
8872.00   0.47844438   0.00982474
8874.00   0.50827093   0.00874614
8876.00   0.55315471   0.00810924
8878.00   0.60821408   0.00859779
8880.00   0.67676753   0.01027395
8882.00   0.74306905   0.01244788
8884.00   0.81518032   0.01405231
8886.00   0.92237830   0.01526938
8888.00   0.98273881   0.01539402
8890.00   0.90448475   0.01403296
8892.00   0.77300165   0.01190226
8894.00   0.70096427   0.01026246
8896.00   0.65822548   0.00963018
8898.00   0.64603299   0.01014852
8900.00   0.67772228   0.01153539
8902.00   0.72012025   0.01255046
8904.00   0.77188818   0.01301498
8906.00   0.80539276   0.01251552
8908.00   0.77309251   0.01113252
8910.00   0.72133889   0.01002123
8912.00   0.70451252   0.01075639
8914.00   0.70227168   0.01257875
8916.00   0.70474495   0.01427280
8918.00   0.69383270   0.01599254
8920.00   0.67082910   0.01700713
8922.00   0.65817779   0.01645472
8924.00   0.64249768   0.01482813
8926.00   0.60873757   0.01321762
8928.00   0.56710102   0.01112261
8930.00   0.55675699   0.00948645
8932.00   0.57638372   0.00854142
8934.00   0.59305565   0.00853998
8936.00   0.61044844   0.00904929
8938.00   0.63426811   0.00983306
8940.00   0.62938688   0.01059946
8942.00   0.60036073   0.01128016
8944.00   0.56762852   0.01155815
8946.00   0.53337391   0.01123312
8948.00   0.52519712   0.01087917
8950.00   0.55634940   0.01106325
8952.00   0.60778115   0.01208571
8954.00   0.63808630   0.01333179
8956.00   0.67071207   0.01537978
8958.00   0.70611813   0.01740230
8960.00   0.71823043   0.01839278
8962.00   0.70210729   0.01758444
8964.00   0.68272660   0.01521579
8966.00   0.67689119   0.01291071
8968.00   0.65536696   0.01090933
8970.00   0.65135098   0.00949193
8972.00   0.64848930   0.00888008
8974.00   0.63308452   0.00866596
8976.00   0.62198710   0.00850930
8978.00   0.62509485   0.00866485
8980.00   0.63951121   0.00922647
8982.00   0.67212466   0.01030529
8984.00   0.69253669   0.01149531
8986.00   0.68818508   0.01248610
8988.00   0.67562910   0.01338200
8990.00   0.66379515   0.01383777
8992.00   0.65037175   0.01379784
8994.00   0.64176685   0.01357261
8996.00   0.65911045   0.01354392
8998.00   0.68449277   0.01388718
9000.00   0.69155099   0.01465614
9002.00   0.68228179   0.01550091
9004.00   0.67546310   0.01554249
9006.00   0.66103810   0.01475320
9008.00   0.64735572   0.01344774
9010.00   0.65123922   0.01163841
9012.00   0.67315670   0.01002836
9014.00   0.69613775   0.00921247
9016.00   0.70538586   0.00898101
9018.00   0.71073524   0.00890363
9020.00   0.70270242   0.00903931
9022.00   0.67135108   0.00913032
9024.00   0.62774487   0.00896822
9026.00   0.60489966   0.00872941
9028.00   0.60626797   0.00881625
9030.00   0.61577670   0.00898659
9032.00   0.62520254   0.00916870
9034.00   0.62768330   0.00944315
9036.00   0.60863117   0.00968623
9038.00   0.57874232   0.00970253
9040.00   0.56099749   0.00986882
9042.00   0.55769969   0.01054923
9044.00   0.56598464   0.01115470
9046.00   0.56655231   0.01154689
9048.00   0.54934775   0.01191392
9050.00   0.52256735   0.01190777
9052.00   0.49265817   0.01141923
9054.00   0.47318739   0.01072454
9056.00   0.46611464   0.01006517
9058.00   0.48706387   0.00926027
9060.00   0.52023481   0.00852245
9062.00   0.54468478   0.00827946
9064.00   0.56534493   0.00857321
9066.00   0.58703611   0.00914803
9068.00   0.60922861   0.00953918
9070.00   0.62225034   0.00968324
9072.00   0.63089500   0.00960696
9074.00   0.63762788   0.00924095
9076.00   0.63153009   0.00889279
9078.00   0.62421864   0.00886414
9080.00   0.62334299   0.00916792
9082.00   0.62584523   0.00930521
9084.00   0.62277222   0.00915199
9086.00   0.62683511   0.00898922
9088.00   0.63389421   0.00890288
9090.00   0.63251587   0.00907997
9092.00   0.62691418   0.00958896
9094.00   0.62606855   0.01035438
9096.00   0.62600966   0.01089641
9098.00   0.62953655   0.01127397
9100.00   0.63161973   0.01152108
9102.00   0.62051753   0.01177080
9104.00   0.61477130   0.01186523
9106.00   0.60022048   0.01149830
9108.00   0.57656653   0.01069874
9110.00   0.56756892   0.00975025
9112.00   0.56267631   0.00889751
9114.00   0.55045672   0.00851337
9116.00   0.54943575   0.00868938
9118.00   0.55662384   0.00892466
9120.00   0.56148839   0.00876519
9122.00   0.57009657   0.00840844
9124.00   0.58141198   0.00823640
9126.00   0.58916400   0.00832570
9128.00   0.59788611   0.00868658
9130.00   0.62585558   0.00922993
9132.00   0.66676166   0.00970084
9134.00   0.67033883   0.00976735
9136.00   0.63596676   0.00959920
9138.00   0.60760679   0.00935445
9140.00   0.60083026   0.00894342
9142.00   0.61945746   0.00856634
9144.00   0.64175999   0.00838804
9146.00   0.65282651   0.00869712
9148.00   0.64175967   0.00942011
9150.00   0.63287638   0.01034672
9152.00   0.63279476   0.01099778
9154.00   0.61860363   0.01132210
9156.00   0.58944519   0.01149266
9158.00   0.57606024   0.01146581
9160.00   0.56452692   0.01119099
9162.00   0.55909986   0.01088301
9164.00   0.58564263   0.01051088
9166.00   0.61332610   0.01019656
9168.00   0.62927954   0.00989508
9170.00   0.65016808   0.00977597
9172.00   0.66673168   0.00972813
9174.00   0.65509586   0.00967262
9176.00   0.64224029   0.00961262
9178.00   0.62585489   0.00942822
9180.00   0.59067841   0.00922083
9182.00   0.56238576   0.00888774
9184.00   0.56425510   0.00864404
9186.00   0.57375165   0.00865642
9188.00   0.56581906   0.00858237
9190.00   0.54881372   0.00841159
9192.00   0.54753900   0.00825798
9194.00   0.57140499   0.00815174
9196.00   0.60367692   0.00811966
9198.00   0.61764536   0.00810943
9200.00   0.62344029   0.00811984
9202.00   0.62578865   0.00805121
9204.00   0.61718549   0.00806220
9206.00   0.60899615   0.00823253
9208.00   0.62558842   0.00846612
9210.00   0.64649717   0.00888379
9212.00   0.65045313   0.00931242
9214.00   0.64080854   0.00964329
9216.00   0.64256408   0.00988984
9218.00   0.65322264   0.01018901
9220.00   0.65216074   0.01043859
9222.00   0.63526072   0.01045978
9224.00   0.62609533   0.01023203
9226.00   0.61203420   0.00997134
9228.00   0.59541622   0.00988793
9230.00   0.58930636   0.00992463
9232.00   0.58978119   0.00981981
9234.00   0.58224038   0.00945467
9236.00   0.58954293   0.00942310
9238.00   0.59693982   0.00984349
9240.00   0.57152623   0.01016339
9242.00   0.53978634   0.01004048
9244.00   0.51305846   0.00965279
9246.00   0.48811301   0.00922223
9248.00   0.47064717   0.00884281
9250.00   0.47841750   0.00870232
9252.00   0.49550346   0.00892014
9254.00   0.49203221   0.00914752
9256.00   0.48737486   0.00900561
9258.00   0.50096366   0.00878144
9260.00   0.52773830   0.00865053
9262.00   0.55444074   0.00867893
9264.00   0.58072356   0.00883145
9266.00   0.59434164   0.00895874
9268.00   0.57193350   0.00913964
9270.00   0.56614063   0.00925421
9272.00   0.58059658   0.00928123
9274.00   0.59272790   0.00936318
9276.00   0.60807570   0.00959177
9278.00   0.63166893   0.00991441
9280.00   0.64394846   0.01015774
9282.00   0.64246120   0.01051816
9284.00   0.65180415   0.01093400
9286.00   0.65592845   0.01147478
9288.00   0.64606702   0.01210968
9290.00   0.65690442   0.01261817
9292.00   0.67738815   0.01289835
9294.00   0.66036924   0.01333798
9296.00   0.61132503   0.01400220
9298.00   0.56553365   0.01518582
9300.00   0.51987243   0.01687259
9302.00   0.50170316   0.01985786
9304.00   0.53687822   0.02487068
9306.00   0.59755542   0.03080531
9308.00   0.65905784   0.03570337
9310.00   0.69912752   0.03924145
9312.00   0.72330795   0.04165872
9314.00   0.76279809   0.04294533
9316.00   0.82218633   0.04405779
9318.00   0.85721944   0.04425414
9320.00   0.89457675   0.04409404
9322.00   0.92462430   0.04398492
9324.00   0.87405237   0.04287466
9326.00   0.77112351   0.04024045
9328.00   0.66654672   0.03742464
9330.00   0.61962034   0.03522032
9332.00   0.63398685   0.03321112
9334.00   0.71908955   0.03194232
9336.00   0.76752955   0.03270575
9338.00   0.75472015   0.03457906
9340.00   0.67269474   0.03552550
9342.00   0.53461142   0.03502033
9344.00   0.50173745   0.03333633
9346.00   0.52351381   0.03074804
9348.00   0.54671849   0.02745218
9350.00   0.55532647   0.02524751
9352.00   0.57273223   0.02409392
9354.00   0.59096026   0.02368034
9356.00   0.62315236   0.02387412
9358.00   0.71293819   0.02392106
9360.00   0.74065461   0.02373253
9362.00   0.70378631   0.02289581
9364.00   0.71045665   0.02466362
9366.00   0.76541167   0.02842862
9368.00   0.77719412   0.03608899
9370.00   0.78386015   0.04744360
9372.00   0.80984869   0.05911729
9374.00   0.72908566   0.06694171
9376.00   0.60507051   0.07039734
9378.00   0.56654614   0.06820935
9380.00   0.62496823   0.05967206
9382.00   0.63879691   0.04887724
9384.00   0.62713569   0.03694056
9386.00   0.62778199   0.02673286
9388.00   0.59698211   0.02010080
9390.00   0.55168460   0.01701313
9392.00   0.53224197   0.01511755
9394.00   0.55594655   0.01535079
9396.00   0.59593137   0.01608361
9398.00   0.62323842   0.01777202
9400.00   0.65229529   0.01955023
9402.00   0.70089414   0.02014890
9404.00   0.72952869   0.01997295
9406.00   0.71908923   0.01951623
9408.00   0.67062535   0.01865151
9410.00   0.66828142   0.01816911
9412.00   0.69358603   0.01832767
9414.00   0.71009322   0.01953457
9416.00   0.69853652   0.02165839
9418.00   0.68328700   0.02414462
9420.00   0.66148984   0.02667621
9422.00   0.61804601   0.02930529
9424.00   0.56400952   0.03003752
9426.00   0.54111606   0.02829079
9428.00   0.58506498   0.02597210
9430.00   0.57970841   0.02339743
9432.00   0.53635167   0.02248148
9434.00   0.57367553   0.02592050
9436.00   0.66038664   0.03103331
9438.00   0.68789025   0.03614387
9440.00   0.60708298   0.04188538
9442.00   0.51919340   0.04426825
9444.00   0.51307891   0.04211012
9446.00   0.49749391   0.03733602
9448.00   0.48299763   0.03201244
9450.00   0.56703050   0.02563659
9452.00   0.64148104   0.02397963
9454.00   0.65612506   0.02792305
9456.00   0.62454982   0.03159019
9458.00   0.60519032   0.03427680
9460.00   0.59270538   0.03511948
9462.00   0.59031796   0.03353085
9464.00   0.63404157   0.03023720
9466.00   0.64892519   0.02747125
9468.00   0.62617805   0.02563016
9470.00   0.64356635   0.02689247
9472.00   0.69625642   0.03129200
9474.00   0.65383814   0.03558047
9476.00   0.54260264   0.03733676
9478.00   0.43599773   0.03636955
9480.00   0.30993264   0.03415220
9482.00   0.24334775   0.03011941
9484.00   0.29131788   0.02559632
9486.00   0.39894987   0.02093960
9488.00   0.44835658   0.01806902
9490.00   0.46710464   0.01723778
9492.00   0.48438139   0.01834256
9494.00   0.46773865   0.02060096
9496.00   0.41063679   0.02447925
9498.00   0.44008082   0.02925695
9500.00   0.59314209   0.03372094
9502.00   0.73965255   0.03416643
9504.00   0.87657164   0.03074259
9506.00   0.92351311   0.02626889
9508.00   0.81618973   0.02282032
9510.00   0.68205319   0.01965420
9512.00   0.60629069   0.01789186
9514.00   0.57634630   0.01819613
9516.00   0.58578223   0.01953174
9518.00   0.65254635   0.02124933
9520.00   0.74871335   0.02273998
9522.00   0.77940389   0.02353686
9524.00   0.75238476   0.02325662
9526.00   0.74460061   0.02260112
9528.00   0.76020827   0.02162681
9530.00   0.74185101   0.02140638
9532.00   0.65720251   0.02151919
9534.00   0.60337327   0.02102217
9536.00   0.61502455   0.02010706
9538.00   0.62181803   0.01983885
9540.00   0.61831741   0.02072257
9542.00   0.56642190   0.02136231
9544.00   0.52098997   0.02161975
9546.00   0.51134112   0.02186135
9548.00   0.47218285   0.02242151
9550.00   0.38379437   0.02378892
9552.00   0.28412539   0.02554079
9554.00   0.21085658   0.02690832
9556.00   0.14869510   0.02651594
9558.00   0.16384061   0.02583258
9560.00   0.27862140   0.02578106
9562.00   0.44426051   0.02722881
9564.00   0.66797103   0.02954955
9566.00   0.88142995   0.03189931
9568.00   0.95502492   0.03239870
9570.00   0.94510086   0.03075226
9572.00   0.92008698   0.02789706
9574.00   0.85213586   0.02361858
9576.00   0.80264453   0.02068954
9578.00   0.74934473   0.01868320
9580.00   0.72767653   0.01753577
9582.00   0.71526839   0.01727426
9584.00   0.68574401   0.01803949
9586.00   0.64652022   0.01843939
9588.00   0.60736595   0.01883536
9590.00   0.60253640   0.01930250
9592.00   0.60718238   0.01953186
9594.00   0.60581229   0.01921255
9596.00   0.60100116   0.01823376
9598.00   0.57773821   0.01768779
9600.00   0.54352803   0.01776151
9602.00   0.52914280   0.01818783
9604.00   0.50283374   0.01892600
9606.00   0.45070109   0.01971008
9608.00   0.41315160   0.01984446
9610.00   0.39220199   0.01918642
9612.00   0.38312117   0.01823291
9614.00   0.36894428   0.01812817
9616.00   0.37177574   0.01889282
9618.00   0.41517536   0.02018467
9620.00   0.46997392   0.02185619
9622.00   0.52077159   0.02241275
9624.00   0.55413938   0.02171950
9626.00   0.59220133   0.02034737
9628.00   0.63308366   0.01943473
9630.00   0.66476649   0.01880776
9632.00   0.71392298   0.01840934
9634.00   0.78166135   0.01810351
9636.00   0.85466792   0.01801465
9638.00   0.92476106   0.01804578
9640.00   0.95700028   0.01813633
9642.00   0.94038574   0.01776986
9644.00   0.84655076   0.01711811
9646.00   0.74813026   0.01698220
9648.00   0.66441594   0.01691143
9650.00   0.61831709   0.01660417
9652.00   0.59129258   0.01643449
9654.00   0.57063548   0.01645992
9656.00   0.57440278   0.01614043
9658.00   0.57142170   0.01583890
9660.00   0.55156175   0.01638532
9662.00   0.52352965   0.01754396
9664.00   0.50599720   0.01861808
9666.00   0.49396730   0.01954480
9668.00   0.48469789   0.01967496
9670.00   0.48050967   0.01907502
9672.00   0.45374530   0.01817424
9674.00   0.42735912   0.01765058
9676.00   0.40378016   0.01776113
9678.00   0.40530402   0.01839300
9680.00   0.42870738   0.01919250
9682.00   0.44539450   0.01955979
9684.00   0.44402949   0.01959352
9686.00   0.42347455   0.01905354
9688.00   0.41545115   0.01806818
9690.00   0.40423285   0.01721755
9692.00   0.42570076   0.01702098
9694.00   0.49430200   0.01731721
9696.00   0.53653745   0.01812237
9698.00   0.54951479   0.01910062
9700.00   0.55454995   0.01948827
9702.00   0.55988393   0.01938776
9704.00   0.55802283   0.01889868
9706.00   0.56450934   0.01843118
9708.00   0.59903338   0.01811909
9710.00   0.58656134   0.01846126
9712.00   0.52656381   0.01917201
9714.00   0.45715875   0.01965171
9716.00   0.39992767   0.02000024
9718.00   0.34848476   0.01990639
9720.00   0.34851370   0.01982170
9722.00   0.42038993   0.01958726
9724.00   0.47856168   0.01965746
9726.00   0.50434677   0.01985684
9728.00   0.50887575   0.01976975
9730.00   0.48613530   0.01957124
9732.00   0.40594576   0.01911936
9734.00   0.36743743   0.01894973
9736.00   0.41068580   0.01896896
9738.00   0.45390736   0.01909168
9740.00   0.47621914   0.01936908
9742.00   0.48545786   0.01927839
9744.00   0.47000525   0.01879393
9746.00   0.42304000   0.01803298
9748.00   0.36140405   0.01717187
9750.00   0.34281492   0.01626936
9752.00   0.34519908   0.01555464
9754.00   0.34598520   0.01517356
9756.00   0.34868928   0.01495331
9758.00   0.36311793   0.01477485
9760.00   0.37989082   0.01460414
9762.00   0.39706153   0.01447588
9764.00   0.42257871   0.01460353
9766.00   0.46080390   0.01466563
9768.00   0.50114698   0.01475953
9770.00   0.53019723   0.01476235
9772.00   0.55257720   0.01459116
9774.00   0.56011003   0.01468776
9776.00   0.52463488   0.01540816
9778.00   0.47581851   0.01596173
9780.00   0.41100312   0.01638886
9782.00   0.37296503   0.01694771
9784.00   0.40085067   0.01766662
9786.00   0.45698010   0.01885240
9788.00   0.49937543   0.02048675
9790.00   0.53661376   0.02216253
9792.00   0.55889556   0.02267256
9794.00   0.50078041   0.02204161
9796.00   0.41287217   0.02087503
9798.00   0.39136713   0.02031159
9800.00   0.40169324   0.02024027
9802.00   0.41723289   0.01995897
9804.00   0.43946690   0.01950697
9806.00   0.43639355   0.01910616
9808.00   0.42148135   0.01892634
9810.00   0.38579428   0.01847915
9812.00   0.34606548   0.01798781
9814.00   0.30092730   0.01778098
9816.00   0.28688076   0.01737959
9818.00   0.28896769   0.01696928
9820.00   0.29063686   0.01681527
9822.00   0.30702175   0.01663167
9824.00   0.32221043   0.01624325
9826.00   0.32808055   0.01606763
9828.00   0.34004427   0.01601865
9830.00   0.35444296   0.01598365
9832.00   0.36280135   0.01581553
9834.00   0.35980495   0.01544001
9836.00   0.36696970   0.01521098
9838.00   0.40477965   0.01559165
9840.00   0.43194787   0.01610466
9842.00   0.44811158   0.01660657
9844.00   0.44763537   0.01767019
9846.00   0.44169958   0.01903512
9848.00   0.42601531   0.01935328
9850.00   0.42521625   0.01879685
9852.00   0.44292081   0.01806676
9854.00   0.46282576   0.01759740
9856.00   0.48123272   0.01726510
9858.00   0.46173501   0.01700286
9860.00   0.40735866   0.01651933
9862.00   0.37156246   0.01655943
9864.00   0.36851181   0.01755847
9866.00   0.38381795   0.01985618
9868.00   0.38612175   0.02353864
9870.00   0.38659522   0.02628788
9872.00   0.39909852   0.02742157
9874.00   0.44032046   0.02779484
9876.00   0.46491384   0.02705599
9878.00   0.44769920   0.02499363
9880.00   0.39198229   0.02249562
9882.00   0.33031262   0.02060982
9884.00   0.30684599   0.01959215
9886.00   0.33649497   0.01976998
9888.00   0.39690607   0.02074891
9890.00   0.40808684   0.02146657
9892.00   0.35602303   0.02190726
9894.00   0.30055580   0.02203684
9896.00   0.29953891   0.02213812
9898.00   0.34993410   0.02219767
9900.00   0.39418630   0.02170825
9902.00   0.39720478   0.02060122
9904.00   0.38882961   0.02039957
9906.00   0.37385002   0.02133360
9908.00   0.36588062   0.02330389
9910.00   0.35912577   0.02630955
9912.00   0.34052994   0.02898143
9914.00   0.27920630   0.02955266
9916.00   0.19670728   0.02900240
9918.00   0.18781684   0.02856714
9920.00   0.23080741   0.02777456
9922.00   0.28882116   0.02581121
9924.00   0.33977357   0.02325875
9926.00   0.36248561   0.02199150
9928.00   0.34822283   0.02126819
9930.00   0.32252659   0.02074153
9932.00   0.29796067   0.02125604
9934.00   0.28937741   0.02304193
9936.00   0.31618201   0.02595411
9938.00   0.34831350   0.02991041
9940.00   0.31714958   0.03444328
9942.00   0.22942714   0.03852946
9944.00   0.17243977   0.04166873
9946.00   0.11114336   0.04405626
9948.00   0.08609056   0.04469416
9950.00   0.06720867   0.04398776
9952.00   0.02549085   0.04300471
9954.00   -0.00938311   0.04289779
9956.00   0.03281132   0.04226907
9958.00   0.18315108   0.04074390
9960.00   0.36387032   0.03972698
9962.00   0.50274200   0.03864200
9964.00   0.52016384   0.03677833
9966.00   0.47610950   0.03419111
9968.00   0.42291432   0.03216126
9970.00   0.37829525   0.03067070
9972.00   0.35218071   0.02964963
9974.00   0.36180745   0.02880657
9976.00   0.35579358   0.02786690
9978.00   0.35218965   0.02685079
9980.00   0.36322024   0.02589398
9982.00   0.38185606   0.02519285
9984.00   0.39665137   0.02457421
9986.00   0.40214872   0.02389169
9988.00   0.40439760   0.02326781
9990.00   0.39883422   0.02281715
9992.00   0.37883160   0.02289095
9994.00   0.35253989   0.02360018
9996.00   0.32362586   0.02412900
9998.00   0.30337990   0.02458052
10000.00   0.29170710   0.02606779
10002.00   0.30748746   0.02860392
10004.00   0.34895703   0.03149118
10006.00   0.38912334   0.03607676
10008.00   0.46907270   0.04155406
10010.00   0.49034306   0.04519109
10012.00   0.40167730   0.04700554
10014.00   0.31326054   0.04691760
10016.00   0.28639930   0.04547726
10018.00   0.30727772   0.04296964
10020.00   0.35262340   0.04107354
10022.00   0.39463440   0.03990045
10024.00   0.39470360   0.03912391
10026.00   0.34187484   0.03793799
10028.00   0.27135882   0.03572437
10030.00   0.17092040   0.03320650
10032.00   0.08532746   0.03116315
10034.00   0.07725578   0.02977108
10036.00   0.16322553   0.02868896
10038.00   0.25214097   0.02826366
10040.00   0.30520102   0.02869942
10042.00   0.32918054   0.02941939
10044.00   0.33178040   0.02999537
10046.00   0.32472918   0.03040961
10048.00   0.30219203   0.03002288
10050.00   0.27910054   0.02929699
10052.00   0.28410481   0.02904298
10054.00   0.30371733   0.02911652
10056.00   0.32355805   0.03010044
10058.00   0.35838257   0.03161592
10060.00   0.36728128   0.03306099
10062.00   0.36314319   0.03500633
10064.00   0.40088250   0.03680723
10066.00   0.42208216   0.03667117
10068.00   0.42411262   0.03549653
10070.00   0.39881381   0.03486976
10072.00   0.34234946   0.03426038
10074.00   0.27453835   0.03451608
10076.00   0.24088992   0.03715975
10078.00   0.25336975   0.04078102
10080.00   0.31520396   0.04267075
10082.00   0.37653889   0.04337746
10084.00   0.38924526   0.04327489
10086.00   0.38494162   0.04230135
10088.00   0.37704057   0.04090089
10090.00   0.35510563   0.03957707
10092.00   0.34620972   0.03783226
10094.00   0.35269230   0.03545141
10096.00   0.38607499   0.03419852
10098.00   0.40196256   0.03462461
10100.00   0.41651658   0.03638903
10102.00   0.39957999   0.03764855
10104.00   0.35907886   0.03867203
10106.00   0.30746105   0.03903152
10108.00   0.25913421   0.03787254
10110.00   0.23308241   0.03605947
10112.00   0.23319367   0.03516610
10114.00   0.25710886   0.03510390
10116.00   0.27742481   0.03722501
10118.00   0.33738975   0.04179269
10120.00   0.44253531   0.04632148
10122.00   0.52475762   0.04931072
10124.00   0.54187140   0.05086166
10126.00   0.46723857   0.05107084
10128.00   0.35248275   0.04941518
10130.00   0.25825390   0.04628675
10132.00   0.20505642   0.04241234
10134.00   0.19466803   0.04041308
10136.00   0.23512646   0.04045162
10138.00   0.32847974   0.04064875
10140.00   0.41002026   0.04013997
10142.00   0.46382032   0.03972013
10144.00   0.43473276   0.04023619
10146.00   0.34017993   0.04275659
10148.00   0.25208952   0.04601915
10150.00   0.23176277   0.04905252
10152.00   0.23595618   0.04991634
10154.00   0.24268022   0.04942965
10156.00   0.23726696   0.04835033
10158.00   0.23745130   0.04793379
10160.00   0.34471719   0.04813221
10162.00   0.41575674   0.05023949
10164.00   0.36683336   0.05398234
10166.00   0.33839333   0.05762067
10168.00   0.42874869   0.06184870
10170.00   0.45550511   0.06478687
10172.00   0.39847062   0.06564692
10174.00   0.29999701   0.06360463
10176.00   0.21491197   0.06062102
10178.00   0.18901058   0.05600132
10180.00   0.21075034   0.05256078
10182.00   0.23328325   0.05243554
10184.00   0.25714667   0.05398747
10186.00   0.35463911   0.05501641
10188.00   0.45623425   0.05546688
10190.00   0.46199456   0.05515373
10192.00   0.42993458   0.05360502
10194.00   0.42926291   0.05290942
10196.00   0.42540438   0.05316174
10198.00   0.35171159   0.05323788
10200.00   0.29714478   0.05435501
10202.00   0.30704683   0.05648266
10204.00   0.34125043   0.05798854
10206.00   0.38305671   0.05960267
10208.00   0.36543704   0.06188487
10210.00   0.30058717   0.06545558
10212.00   0.23041724   0.06827199
10214.00   0.26137995   0.06757692
10216.00   0.28912360   0.06638872
10218.00   0.31860008   0.06485569
10220.00   0.29115140   0.06355944
10222.00   0.23538856   0.06258682
10224.00   0.16648335   0.06407002
10226.00   0.19982981   0.06563331
10228.00   0.31629005   0.06661917
10230.00   0.42409192   0.06658822
10232.00   0.50395054   0.06407450
10234.00   0.52373677   0.06078008
10236.00   0.44926428   0.05709964
10238.00   0.38620146   0.05381480
10240.00   0.35069606   0.05145265
10242.00   0.28361202   0.04977860
10244.00   0.20484598   0.04813678
10246.00   0.17454058   0.04825968
10248.00   0.16943588   0.05002586
10250.00   0.13571794   0.05007596
10252.00   0.11862656   0.04994123
10254.00   0.13428278   0.04990223
10256.00   0.25423896   0.04898586
10258.00   0.33410255   0.04792892
10260.00   0.32564426   0.04880322
10262.00   0.33777722   0.05083549
10264.00   0.33738611   0.05169290
10266.00   0.26942263   0.05239847
10268.00   0.19988907   0.05389668
10270.00   0.16215342   0.05615083
10272.00   0.18072067   0.05822673
10274.00   0.20469056   0.06072420
10276.00   0.33598216   0.06501311
10278.00   0.50559109   0.07142304
10280.00   0.55968480   0.07934916
10282.00   0.49669859   0.08709730
10284.00   0.48906143   0.09575560
10286.00   0.53045550   0.10091901
10288.00   0.56855596   0.10051796
10290.00   0.59774929   0.09773092
10292.00   0.63069636   0.09498072
10294.00   0.60660829   0.09140828
10296.00   0.53352101   0.08735841
10298.00   0.49655189   0.08534177
10300.00   0.48123171   0.08521783
10302.00   0.47563399   0.08297935
10304.00   0.47435379   0.07919491
10306.00   0.53807633   0.07574132
10308.00   0.60531616   0.07261123
10310.00   0.60022170   0.06914559
10312.00   0.56107845   0.06722859
10314.00   0.46608575   0.06760016
10316.00   0.37938790   0.06776856
10318.00   0.38764674   0.06724290
10320.00   0.50571344   0.06727691
10322.00   0.48653397   0.06698305
10324.00   0.39100631   0.06731438
10326.00   0.35363622   0.06839758
10328.00   0.28808243   0.06970698
10330.00   0.20583112   0.06895528
10332.00   0.19428248   0.06743073
10334.00   0.30037584   0.06710761
10336.00   0.38212402   0.06764792
10338.00   0.38369238   0.06893419
10340.00   0.47280103   0.07064875
10342.00   0.50329500   0.07279607
10344.00   0.44060467   0.07518425
10346.00   0.35097887   0.07884874
10348.00   0.26798541   0.08160012
10350.00   0.14999176   0.08309158
10352.00   0.11842824   0.08229512
10354.00   0.16987188   0.07927410
10356.00   0.21832123   0.07700267
10358.00   0.28790409   0.07568650
10360.00   0.34135310   0.07567457
10362.00   0.37689278   0.07574198
10364.00   0.39448272   0.07638116
10366.00   0.44073155   0.07889925
10368.00   0.51364101   0.08218759
10370.00   0.61322078   0.08640511
10372.00   0.71112663   0.09124310
10374.00   0.74327056   0.09387884
10376.00   0.79128412   0.09417750
10378.00   0.81225139   0.09183095
10380.00   0.76697701   0.08761517
10382.00   0.73688334   0.08197951
10384.00   0.64002875   0.07887389
10386.00   0.45921166   0.07725391
10388.00   0.29624894   0.07752401
10390.00   0.24623576   0.07920750
10392.00   0.29352691   0.08120998
10394.00   0.32904852   0.08225670
10396.00   0.41919226   0.08266386
10398.00   0.47474678   0.08283205
10400.00   0.42199218   0.08300682
10402.00   0.38812508   0.08249494
10404.00   0.51716462   0.08214252
10406.00   0.68632225   0.08251292
10408.00   0.67042319   0.08171078
10410.00   0.62998650   0.08130072
10412.00   0.56998976   0.08486403
10414.00   0.44167685   0.09112191
10416.00   0.40259809   0.09536227
10418.00   0.54271456   0.09916516
10420.00   0.72449388   0.10135160
10422.00   0.76462201   0.09793704
10424.00   0.61130089   0.09271394
10426.00   0.35454750   0.08901768
10428.00   0.09115009   0.08482367
10430.00   -0.02721327   0.08010154
10432.00   0.06980598   0.07531569
10434.00   0.19943605   0.07290407
10436.00   0.24393683   0.07239232
10438.00   0.16588732   0.07462075
10440.00   0.08517046   0.07624743
10442.00   0.11754810   0.07764335
10444.00   0.25564795   0.07843091
10446.00   0.51656533   0.07839146
10448.00   0.74151382   0.07773271
10450.00   0.85178622   0.07723061
10452.00   0.91476887   0.07802002
10454.00   0.96415039   0.07881868
10456.00   0.83525650   0.07691772
10458.00   0.66948535   0.07573873
10460.00   0.55027809   0.07635141
10462.00   0.49999780   0.07725990
10464.00   0.49993364   0.07891762
10466.00   0.57070752   0.08164290
10468.00   0.77360084   0.08473613
10470.00   0.83790656   0.08617499
10472.00   0.75791335   0.08470558
10474.00   0.62090905   0.08169232
10476.00   0.59868567   0.07910860
10478.00   0.60853067   0.07723418
10480.00   0.65004024   0.07670536
10482.00   0.71849467   0.07783508
10484.00   0.76649255   0.07978907
10486.00   0.68303644   0.07971808
10488.00   0.46910854   0.07849024
10490.00   0.43435936   0.07739679
10492.00   0.51916748   0.07650073
10494.00   0.62484558   0.07553658
10496.00   0.74841881   0.07557353
10498.00   0.88801410   0.07602592
10500.00   1.05663750   0.07738045
10502.00   1.05511566   0.07711713
10504.00   0.97523246   0.07713228
10506.00   0.80391276   0.07756051
10508.00   0.67350888   0.07820803
10510.00   0.56571750   0.07926795
10512.00   0.59412081   0.08137123
10514.00   0.78509035   0.08276635
10516.00   0.93473323   0.08223574
10518.00   1.01882325   0.08219106
10520.00   0.93302010   0.08305669
10522.00   0.78951474   0.08381145
10524.00   0.60677382   0.08504178
10526.00   0.55183389   0.08666941
10528.00   0.60448190   0.08761968
10530.00   0.68239293   0.08717832
10532.00   0.81117849   0.08661246
10534.00   0.80637433   0.08541458
10536.00   0.70012442   0.08584825
10538.00   0.62796705   0.08874446
10540.00   0.66718299   0.09168620
10542.00   0.75554970   0.09334621
10544.00   0.83370841   0.09338569
10546.00   0.90328723   0.09205687
10548.00   0.87149692   0.08957557
10550.00   0.86672751   0.09014424
10552.00   0.95034842   0.09355247
10554.00   0.91119335   0.09575229
10556.00   0.79620147   0.09721098
10558.00   0.71309448   0.09780525
10560.00   0.72396552   0.09960440
10562.00   0.73183084   0.10196949
10564.00   0.85164005   0.10487939
10566.00   1.04244385   0.10878290
10568.00   0.97992724   0.11110671
10570.00   0.76159599   0.11146015
10572.00   0.67567902   0.11019989
10574.00   0.74834942   0.11097971
10576.00   0.79621243   0.11170732
10578.00   0.93826109   0.11233728
10580.00   1.04284418   0.11331831
10582.00   1.01294998   0.11469000
10584.00   0.91412843   0.11679192
10586.00   0.93667375   0.11983189
10588.00   1.00202617   0.12195508
10590.00   0.99592948   0.12228924
10592.00   1.06598826   0.12216518
10594.00   1.11710856   0.12076012
10596.00   1.18195935   0.12008577
10598.00   1.18711819   0.12037220
10600.00   1.09888474   0.12096522
10602.00   0.99405271   0.12200249
10604.00   0.94969193   0.12329840
10606.00   0.89844672   0.12296155
10608.00   0.92328163   0.12275935
10610.00   1.08507895   0.12355033
10612.00   1.23149502   0.12421339
10614.00   1.18304197   0.12364669
10616.00   1.04733517   0.12287258
10618.00   1.00445155   0.12177709
10620.00   0.89398350   0.11889423
10622.00   0.77814437   0.11725088
10624.00   0.82613848   0.11783304
10626.00   0.90210726   0.11832127
10628.00   0.88226904   0.11737632
10630.00   0.78743931   0.11546052
10632.00   0.80015131   0.11404109
10634.00   0.83167915   0.11201458
10636.00   0.84566998   0.11064275
10638.00   0.90019258   0.11049804
10640.00   0.91857406   0.10984582
10642.00   0.92293119   0.10802071
10644.00   0.89160766   0.10545999
10646.00   0.88941032   0.10359982
10648.00   0.88648949   0.10195019
10650.00   0.91309223   0.10028004
10652.00   0.86204487   0.09876398
10654.00   0.66867206   0.09771320
10656.00   0.65646953   0.09694294
10658.00   0.78197712   0.09600010
10660.00   0.84597512   0.09407756
10662.00   0.82581999   0.09120121
10664.00   0.83205099   0.08863753
10666.00   0.82211591   0.08643644
10668.00   0.80503341   0.08465186
10670.00   0.80638577   0.08300144
10672.00   0.85131188   0.08162176
10674.00   0.85756025   0.08021881
10676.00   0.81262094   0.07897206
10678.00   0.72532414   0.07838701
10680.00   0.71257988   0.07782141
10682.00   0.73357115   0.07677423
10684.00   0.71427274   0.07537277
10686.00   0.74044889   0.07444347
10688.00   0.82192492   0.07485395
10690.00   0.86891268   0.07601464
10692.00   0.79036677   0.07510729
10694.00   0.71283071   0.07215896
10696.00   0.66283107   0.06946082
10698.00   0.60253765   0.06662219
10700.00   0.64687706   0.06456344
10702.00   0.69443986   0.06389981
10704.00   0.67411129   0.06387540
10706.00   0.63790856   0.06348537
10708.00   0.59667925   0.06241937
10710.00   0.59273977   0.06119697
10712.00   0.68831503   0.06044133
10714.00   0.82887332   0.05991743
10716.00   0.84529811   0.05909942
10718.00   0.78625453   0.05792260
10720.00   0.73910143   0.05745255
10722.00   0.76401405   0.05779929
10724.00   0.80800521   0.05764762
10726.00   0.69764446   0.05635304
10728.00   0.52592410   0.05532734
10730.00   0.52694674   0.05508815
10732.00   0.68040051   0.05472563
10734.00   0.71988010   0.05301111
10736.00   0.62552923   0.05052913
10738.00   0.51900749   0.04827180
10740.00   0.45950878   0.04814977
10742.00   0.50795886   0.04884154
10744.00   0.59186191   0.04971262
10746.00   0.66810906   0.05177877
10748.00   0.65251319   0.05155688
10750.00   0.57174287   0.04983654
10752.00   0.48855806   0.04873350
10754.00   0.57231005   0.04859618
10756.00   0.65082018   0.04698865
10758.00   0.64670130   0.04442812
10760.00   0.62744459   0.04260480
10762.00   0.56489815   0.04174178
10764.00   0.51976721   0.04154530
10766.00   0.53771058   0.04101451
10768.00   0.61515659   0.04075523
10770.00   0.65993834   0.03958061
10772.00   0.66924671   0.03744460
10774.00   0.61997694   0.03694888
10776.00   0.53465153   0.03773737
10778.00   0.51040339   0.03887334
10780.00   0.56072109   0.03872090
10782.00   0.67553296   0.03681544
10784.00   0.67800675   0.03438463
10786.00   0.57225826   0.03239241
10788.00   0.49585532   0.03188118
10790.00   0.47418692   0.03151664
10792.00   0.48482054   0.03088597
10794.00   0.48618031   0.03036055
10796.00   0.48603605   0.03050840
10798.00   0.46338934   0.03056304
10800.00   0.45188741   0.03055424
10802.00   0.45228429   0.03021365
10804.00   0.49237796   0.02958148
10806.00   0.57242581   0.03062387
10808.00   0.57186684   0.03191068
10810.00   0.50525887   0.03243030
10812.00   0.47240264   0.03227516
10814.00   0.45739760   0.03012855
10816.00   0.40302297   0.02757838
10818.00   0.40661229   0.02570391
10820.00   0.49523193   0.02509518
10822.00   0.57540063   0.02570913
10824.00   0.59599400   0.02609345
10826.00   0.54405312   0.02538861
10828.00   0.48392761   0.02414298
10830.00   0.45382206   0.02361320
10832.00   0.44562031   0.02427832
10834.00   0.51146443   0.02537672
10836.00   0.51857814   0.02639836
10838.00   0.45487636   0.02700773
10840.00   0.44879230   0.02639570
10842.00   0.50572811   0.02529644
10844.00   0.57138565   0.02433539
10846.00   0.51888223   0.02361851
10848.00   0.45395243   0.02331705
10850.00   0.47632025   0.02307324
10852.00   0.50115349   0.02257704
10854.00   0.42965063   0.02232413
10856.00   0.36679565   0.02253698
10858.00   0.43165571   0.02246396
10860.00   0.49088555   0.02254589
10862.00   0.48153714   0.02258471
10864.00   0.48609555   0.02299048
10866.00   0.49773955   0.02402603
10868.00   0.50779204   0.02339792
10870.00   0.58035885   0.02240444
