# File created by shivutils (I.Shivvers)
# wl(A)   flm    er(optional)
3440.00   3.23505759   0.09904524
3442.00   3.37404776   0.10080468
3444.00   3.36219478   0.10099307
3446.00   3.40413213   0.10220654
3448.00   3.35044670   0.10235847
3450.00   3.45419168   0.10455471
3452.00   3.45296717   0.10520490
3454.00   3.43677211   0.10518520
3456.00   3.34506345   0.10412499
3458.00   3.50528955   0.10669378
3460.00   3.32557893   0.10386145
3462.00   3.18041468   0.10226037
3464.00   3.45374298   0.10566332
3466.00   3.69454694   0.10990202
3468.00   3.32287192   0.10533915
3470.00   3.37210441   0.10583194
3472.00   3.49055696   0.10758782
3474.00   3.46779013   0.10698222
3476.00   3.52202725   0.10819949
3478.00   3.28848910   0.10661627
3480.00   3.24992156   0.10689159
3482.00   3.65726423   0.11210549
3484.00   3.50298357   0.10972445
3486.00   3.51650476   0.10997907
3488.00   3.63552165   0.11108196
3490.00   3.54772854   0.10981415
3492.00   3.43169117   0.10793220
3494.00   3.41390944   0.10698575
3496.00   3.69568563   0.11087683
3498.00   3.40958023   0.10723970
3500.00   3.52780437   0.10846739
3502.00   3.65283728   0.10968809
3504.00   3.55749607   0.10880705
3506.00   3.44581890   0.10742458
3508.00   3.47526336   0.10751089
3510.00   3.48166943   0.10798042
3512.00   3.68437648   0.11019120
3514.00   3.46966219   0.10772404
3516.00   3.51726198   0.10779461
3518.00   3.49763608   0.10719320
3520.00   3.66248870   0.10892935
3522.00   3.58186769   0.10774636
3524.00   3.64353323   0.10768668
3526.00   3.52556372   0.10616238
3528.00   3.61905289   0.10704715
3530.00   3.64310312   0.10742829
3532.00   3.46599507   0.10485955
3534.00   3.37342548   0.10341623
3536.00   3.49005342   0.10416253
3538.00   3.49378753   0.10466414
3540.00   3.61221576   0.10584762
3542.00   3.61642337   0.10695767
3544.00   3.51484752   0.10576402
3546.00   3.49128890   0.10501833
3548.00   3.55662608   0.10507395
3550.00   3.41370511   0.10276322
3552.00   3.56446075   0.10396072
3554.00   3.70093513   0.10588203
3556.00   3.67812800   0.10483162
3558.00   3.74006963   0.10489545
3560.00   3.49285436   0.10236309
3562.00   3.66438127   0.10207608
3564.00   3.82567668   0.10307514
3566.00   3.68054128   0.10179502
3568.00   3.84262204   0.10266674
3570.00   3.75315404   0.10089628
3572.00   3.69954157   0.10041209
3574.00   3.85081577   0.10148127
3576.00   3.68934131   0.09907205
3578.00   3.69126654   0.09822857
3580.00   3.68041325   0.09763461
3582.00   3.80393481   0.09861058
3584.00   3.86362076   0.09869439
3586.00   3.65264201   0.09551269
3588.00   3.77644825   0.09705617
3590.00   3.80677485   0.09675597
3592.00   3.81429744   0.09639890
3594.00   3.76392841   0.09555881
3596.00   3.90716982   0.09625064
3598.00   3.72062755   0.09391139
3600.00   3.67382050   0.09327302
3602.00   3.78476143   0.09339955
3604.00   3.85934234   0.09396838
3606.00   3.83788133   0.09309094
3608.00   3.73956895   0.09199891
3610.00   3.76321459   0.09160591
3612.00   3.80528259   0.09194653
3614.00   3.82484627   0.09257173
3616.00   3.79446387   0.09180368
3618.00   3.68191576   0.08999024
3620.00   3.87701488   0.09151752
3622.00   3.73436999   0.08950256
3624.00   3.78655839   0.08965194
3626.00   3.87636733   0.09036457
3628.00   3.78350759   0.08897888
3630.00   3.79857397   0.08948366
3632.00   3.96504712   0.09028715
3634.00   3.93469858   0.09000480
3636.00   3.78445935   0.08789685
3638.00   3.90285468   0.08877215
3640.00   3.97122860   0.08917985
3642.00   3.83046269   0.08807363
3644.00   3.82969618   0.08769567
3646.00   3.85087228   0.08820833
3648.00   3.91999364   0.09182270
3650.00   3.81754971   0.09351400
3652.00   3.65281558   0.08999087
3654.00   3.78411150   0.08862962
3656.00   3.63057089   0.08608692
3658.00   3.67303705   0.08357407
3660.00   3.62942719   0.08281546
3662.00   3.74762225   0.08551287
3664.00   3.57411742   0.08340873
3666.00   3.31913805   0.07850969
3668.00   3.53392220   0.07899499
3670.00   3.45045853   0.07776684
3672.00   3.40988493   0.07687338
3674.00   3.54385686   0.07751931
3676.00   3.54830527   0.07724062
3678.00   3.45499730   0.07593626
3680.00   3.46683574   0.07561860
3682.00   3.43320584   0.07489856
3684.00   3.42139411   0.07445116
3686.00   3.41912818   0.07413991
3688.00   3.43060446   0.07415190
3690.00   3.37053084   0.07355392
3692.00   3.46202922   0.07410085
3694.00   3.46959329   0.07370141
3696.00   3.45454097   0.07326123
3698.00   3.50446343   0.07374621
3700.00   3.30696440   0.07205477
3702.00   3.37520742   0.07235616
3704.00   3.41376209   0.07178713
3706.00   3.47311568   0.07207468
3708.00   3.47050977   0.07190272
3710.00   3.42477107   0.07136658
3712.00   3.25523901   0.06957632
3714.00   3.31568146   0.06990170
3716.00   3.35698247   0.07010980
3718.00   3.35711098   0.06997130
3720.00   3.29624104   0.06935420
3722.00   3.40905643   0.06984305
3724.00   3.38988924   0.06953285
3726.00   3.17407084   0.06758595
3728.00   3.24225140   0.06796804
3730.00   3.21022558   0.06775012
3732.00   3.15521955   0.06694250
3734.00   3.08884454   0.06634518
3736.00   3.04258394   0.06578471
3738.00   3.05531073   0.06559509
3740.00   3.08055091   0.06604408
3742.00   3.02734423   0.06527950
3744.00   2.88345480   0.06329091
3746.00   2.86574936   0.06284641
3748.00   2.76610970   0.06152062
3750.00   2.79914808   0.06150893
3752.00   2.89369702   0.06221613
3754.00   2.86811757   0.06191572
3756.00   2.81360221   0.06112780
3758.00   2.80201602   0.06063949
3760.00   2.77997637   0.06024346
3762.00   2.56893444   0.05807378
3764.00   2.74237204   0.05950810
3766.00   2.97696805   0.06239681
3768.00   3.67924833   0.07088230
3770.00   4.37907600   0.07771447
3772.00   4.18045950   0.07574670
3774.00   3.28924441   0.06524760
3776.00   2.79541302   0.05943615
3778.00   2.81400275   0.05936781
3780.00   2.79161429   0.05901112
3782.00   2.93614650   0.05987228
3784.00   2.77018404   0.05842527
3786.00   2.82932997   0.05855269
3788.00   2.81011868   0.05817736
3790.00   2.88543630   0.05914366
3792.00   2.92555332   0.05960215
3794.00   2.94369411   0.05955418
3796.00   2.92019105   0.05898664
3798.00   2.90988445   0.05869851
3800.00   2.95059228   0.05893559
3802.00   2.95448899   0.05896569
3804.00   2.88841462   0.05814264
3806.00   2.84314036   0.05752322
3808.00   2.77547979   0.05637141
3810.00   2.77001333   0.05631209
3812.00   2.83754253   0.05676254
3814.00   2.90222549   0.05730582
3816.00   2.79539108   0.05654626
3818.00   2.87628317   0.05701308
3820.00   2.94549155   0.05748926
3822.00   2.93676519   0.05737956
3824.00   3.04947662   0.05810994
3826.00   2.99796772   0.05794651
3828.00   3.04702473   0.05848107
3830.00   3.05099559   0.05889156
3832.00   3.11293817   0.05898001
3834.00   3.02799773   0.05798314
3836.00   3.11284804   0.05831357
3838.00   3.15696907   0.05856733
3840.00   3.06319213   0.05751010
3842.00   3.20725965   0.05862157
3844.00   3.17444015   0.05799267
3846.00   3.07451415   0.05691867
3848.00   3.10299873   0.05687748
3850.00   3.16420054   0.05705173
3852.00   3.18542194   0.05712951
3854.00   3.18756557   0.05685057
3856.00   3.24656940   0.05716208
3858.00   3.20853233   0.05672191
3860.00   3.25851703   0.05693048
3862.00   3.27571464   0.05689999
3864.00   3.29786777   0.05709055
3866.00   3.40048194   0.05766380
3868.00   3.44477248   0.05779766
3870.00   3.51967549   0.05814479
3872.00   3.55754900   0.05851714
3874.00   3.55009031   0.05850310
3876.00   3.53512883   0.05837499
3878.00   3.65655279   0.05879955
3880.00   3.74889708   0.05929829
3882.00   3.63285184   0.05822717
3884.00   3.71641564   0.05868140
3886.00   3.73956299   0.05879958
3888.00   3.79958463   0.05895760
3890.00   3.85607862   0.05915347
3892.00   3.81625342   0.05909332
3894.00   3.92952394   0.05969783
3896.00   3.97103071   0.05990107
3898.00   3.74353623   0.05828521
3900.00   3.88335443   0.05919985
3902.00   3.92510962   0.05942008
3904.00   3.89714622   0.05948538
3906.00   3.97683501   0.06065714
3908.00   3.96169400   0.06109762
3910.00   3.93295360   0.06082071
3912.00   4.31592321   0.06304372
3914.00   4.37225103   0.06279102
3916.00   4.16113138   0.06074771
3918.00   4.19670486   0.06072393
3920.00   4.20582581   0.06037546
3922.00   4.13557911   0.05949288
3924.00   4.22310448   0.05989003
3926.00   4.21428585   0.05970900
3928.00   4.16789150   0.05903265
3930.00   4.21887398   0.05931176
3932.00   4.08669567   0.05857731
3934.00   4.29711056   0.05972309
3936.00   4.26866436   0.05916157
3938.00   4.29733515   0.05939024
3940.00   4.22045708   0.05894118
3942.00   4.16362715   0.05883276
3944.00   4.30336571   0.05981075
3946.00   4.35439491   0.05978953
3948.00   4.28285313   0.05917393
3950.00   4.36416626   0.05943533
3952.00   4.36944389   0.05942877
3954.00   4.36911249   0.05936750
3956.00   4.38011789   0.05926255
3958.00   4.35880041   0.05899834
3960.00   4.39693213   0.05942070
3962.00   4.58008099   0.06046530
3964.00   4.29962492   0.05828296
3966.00   4.33900213   0.05824356
3968.00   4.49451828   0.05892336
3970.00   4.42160559   0.05845720
3972.00   4.48397684   0.05878166
3974.00   4.44838953   0.05844036
3976.00   4.46111584   0.05842697
3978.00   4.39168310   0.05786506
3980.00   4.46897745   0.05816024
3982.00   4.48694515   0.05824765
3984.00   4.56317186   0.05855431
3986.00   4.61752939   0.05867610
3988.00   4.65660143   0.05872017
3990.00   4.59903049   0.05837584
3992.00   4.74592733   0.05909360
3994.00   4.63009882   0.05840810
3996.00   4.50260401   0.05780319
3998.00   4.58474779   0.05814156
4000.00   4.56608200   0.05769517
4002.00   4.68420982   0.05806915
4004.00   4.62121153   0.05745699
4006.00   4.65654278   0.05765958
4008.00   4.60922146   0.05754992
4010.00   4.76731157   0.05829567
4012.00   4.68062925   0.05776683
4014.00   4.74729300   0.05787680
4016.00   4.78221369   0.05804383
4018.00   4.63030243   0.05759244
4020.00   4.51188421   0.05750279
4022.00   4.56695604   0.05799715
4024.00   4.59888554   0.05785736
4026.00   4.59579611   0.05716068
4028.00   4.50276089   0.05619803
4030.00   4.49089384   0.05598528
4032.00   4.51012278   0.05593156
4034.00   4.55566645   0.05589823
4036.00   4.50452900   0.05549076
4038.00   4.40908194   0.05478481
4040.00   4.50304222   0.05524223
4042.00   4.46318483   0.05523363
4044.00   4.52181244   0.05903401
4046.00   4.47970629   0.06294965
4048.00   4.42378855   0.06136080
4050.00   4.42995977   0.05669601
4052.00   4.43022346   0.05478837
4054.00   4.35886812   0.05421308
4056.00   4.31723404   0.05382702
4058.00   4.29422522   0.05317980
4060.00   4.20963335   0.05250173
4062.00   4.32945108   0.05291419
4064.00   4.28082800   0.05266171
4066.00   4.33379555   0.05296301
4068.00   4.21584415   0.05216169
4070.00   4.27267504   0.05226670
4072.00   4.21428537   0.05162829
4074.00   4.29192162   0.05230954
4076.00   4.28555584   0.05301918
4078.00   4.28226995   0.05330307
4080.00   4.29993820   0.05304080
4082.00   4.34156513   0.05277502
4084.00   4.40345287   0.05283140
4086.00   4.41269636   0.05269919
4088.00   4.28952169   0.05175856
4090.00   4.34909391   0.05172493
4092.00   4.40028143   0.05165803
4094.00   4.43013573   0.05172750
4096.00   4.45317316   0.05179196
4098.00   4.50885487   0.05204662
4100.00   4.38738155   0.05127338
4102.00   4.44532442   0.05135434
4104.00   4.39098549   0.05092288
4106.00   4.40696764   0.05096692
4108.00   4.36825657   0.05073591
4110.00   4.42105007   0.05089671
4112.00   4.29882193   0.05016554
4114.00   4.40523100   0.05057653
4116.00   4.40477896   0.05054188
4118.00   4.34727669   0.05000996
4120.00   4.36962080   0.04997119
4122.00   4.43169451   0.05025466
4124.00   4.41253901   0.05008788
4126.00   4.37451553   0.04981877
4128.00   4.42972898   0.04998075
4130.00   4.33199883   0.04951498
4132.00   4.35174179   0.04976362
4134.00   4.35131121   0.04957400
4136.00   4.34099150   0.04936726
4138.00   4.30063009   0.04898578
4140.00   4.28784418   0.04896922
4142.00   4.34728098   0.04892999
4144.00   4.29741287   0.04838492
4146.00   4.29909039   0.04819865
4148.00   4.43363476   0.04886860
4150.00   4.39198780   0.04867894
4152.00   4.38362503   0.04872481
4154.00   4.27442741   0.04806077
4156.00   4.21846437   0.04756418
4158.00   4.17670202   0.04726443
4160.00   4.13089466   0.04689489
4162.00   4.19948769   0.04740963
4164.00   4.20164680   0.04764797
4166.00   4.28406382   0.04810312
4168.00   4.24483633   0.04753819
4170.00   4.22849274   0.04713024
4172.00   4.24612856   0.04695011
4174.00   4.19058323   0.04649435
4176.00   4.25853014   0.04679843
4178.00   4.19559765   0.04645805
4180.00   4.12939978   0.04604501
4182.00   4.31394434   0.04677940
4184.00   4.27853584   0.04653423
4186.00   4.26332569   0.04630095
4188.00   4.25223398   0.04617458
4190.00   4.33150101   0.04663063
4192.00   4.29551554   0.04636633
4194.00   4.34778643   0.04648474
4196.00   4.32841110   0.04631370
4198.00   4.35444403   0.04641685
4200.00   4.31839323   0.04611643
4202.00   4.37321424   0.04636673
4204.00   4.43447256   0.04668351
4206.00   4.43124580   0.04664508
4208.00   4.34956741   0.04641039
4210.00   4.44519472   0.04670955
4212.00   4.35153961   0.04615702
4214.00   4.39473915   0.04622261
4216.00   4.37465429   0.04600361
4218.00   4.33712053   0.04559838
4220.00   4.30307722   0.04537692
4222.00   4.25119352   0.04504210
4224.00   4.28983831   0.04510022
4226.00   4.22615290   0.04466574
4228.00   4.28933620   0.04490426
4230.00   4.21222973   0.04456042
4232.00   4.18924379   0.04449847
4234.00   4.19934559   0.04446561
4236.00   4.08854532   0.04395457
4238.00   4.08468676   0.04389422
4240.00   4.10054111   0.04384220
4242.00   4.14694500   0.04388104
4244.00   4.11691618   0.04402630
4246.00   4.02209854   0.04408234
4248.00   3.97608232   0.04374258
4250.00   4.00943041   0.04334430
4252.00   3.93650746   0.04257114
4254.00   3.96083498   0.04251955
4256.00   3.96128893   0.04260784
4258.00   3.98919797   0.04260299
4260.00   3.94502425   0.04227549
4262.00   3.89958000   0.04191661
4264.00   3.91760159   0.04195552
4266.00   3.79384065   0.04131575
4268.00   3.92178535   0.04186009
4270.00   3.86329174   0.04152588
4272.00   3.82184267   0.04134406
4274.00   3.87705064   0.04155848
4276.00   3.81825757   0.04120539
4278.00   3.85254240   0.04134880
4280.00   3.75711632   0.04085225
4282.00   3.79523063   0.04100642
4284.00   3.76600075   0.04078229
4286.00   3.68229508   0.04033199
4288.00   3.72681713   0.04045176
4290.00   3.70267153   0.04025850
4292.00   3.65182924   0.03999905
4294.00   3.67792511   0.04011083
4296.00   3.74147630   0.04039859
4298.00   3.75531197   0.04028881
4300.00   3.70654321   0.04004688
4302.00   3.65093732   0.03967713
4304.00   3.63490152   0.03955949
4306.00   3.61996531   0.03952242
4308.00   3.58710074   0.03931699
4310.00   3.60383940   0.03938362
4312.00   3.63771081   0.03992356
4314.00   3.57944345   0.03986877
4316.00   3.60514092   0.03976204
4318.00   3.51724648   0.03920513
4320.00   3.45056868   0.03893248
4322.00   3.46475005   0.03903813
4324.00   3.48275757   0.03895316
4326.00   3.56081939   0.03917305
4328.00   3.53161049   0.03879913
4330.00   3.50675154   0.03853504
4332.00   3.50046086   0.03846553
4334.00   3.51642323   0.03848942
4336.00   3.45546579   0.03826939
4338.00   3.47819877   0.03842587
4340.00   3.54988432   0.03873710
4342.00   3.41720986   0.03806628
4344.00   3.44030142   0.03836880
4346.00   3.47993350   0.03875865
4348.00   3.44885564   0.03868591
4350.00   3.44280958   0.03840444
4352.00   3.44584680   0.03833813
4354.00   3.38449025   0.03881849
4356.00   3.36037302   0.04474944
4358.00   3.57663989   0.04952539
4360.00   3.44688320   0.04707556
4362.00   3.43081236   0.04208990
4364.00   3.36534142   0.03891408
4366.00   3.39771843   0.03822340
4368.00   3.37850785   0.03792775
4370.00   3.40426874   0.03791717
4372.00   3.30990028   0.03758225
4374.00   3.35160923   0.03785678
4376.00   3.37293839   0.03780390
4378.00   3.33611822   0.03736191
4380.00   3.38013434   0.03736574
4382.00   3.39916539   0.03733543
4384.00   3.37214088   0.03713180
4386.00   3.31254363   0.03678235
4388.00   3.56293130   0.03794271
4390.00   3.71961617   0.03911947
4392.00   3.61520052   0.03825810
4394.00   3.43214703   0.03734782
4396.00   3.40501738   0.03701954
4398.00   3.37168908   0.03699427
4400.00   3.42913651   0.03740121
4402.00   3.38170815   0.03707904
4404.00   3.47512794   0.03737079
4406.00   3.45888853   0.03727491
4408.00   3.52820659   0.03751784
4410.00   3.47590590   0.03728493
4412.00   3.46789408   0.03727963
4414.00   3.49992776   0.03751052
4416.00   3.51236343   0.03748909
4418.00   3.47841454   0.03723793
4420.00   3.48084402   0.03714241
4422.00   3.49335384   0.03715507
4424.00   3.47504115   0.03705475
4426.00   3.49862266   0.03707287
4428.00   3.51494789   0.03708020
4430.00   3.42675829   0.03663926
4432.00   3.51405263   0.03698609
4434.00   3.48560524   0.03684466
4436.00   3.48410439   0.03673675
4438.00   3.51394939   0.03689599
4440.00   3.53698111   0.03699494
4442.00   3.47414470   0.03661897
4444.00   3.52776790   0.03690143
4446.00   3.57189155   0.03702382
4448.00   3.52242780   0.03676382
4450.00   3.56621027   0.03695136
4452.00   3.45836449   0.03637194
4454.00   3.55999041   0.03678405
4456.00   3.61929035   0.03706912
4458.00   3.61000156   0.03700669
4460.00   3.60849714   0.03697775
4462.00   3.66461515   0.03717049
4464.00   3.78445816   0.03768912
4466.00   3.70111823   0.03727964
4468.00   3.68594503   0.03719532
4470.00   3.75163198   0.03744442
4472.00   3.82149053   0.03774232
4474.00   3.71809149   0.03727123
4476.00   3.78496671   0.03758137
4478.00   3.71399832   0.03727308
4480.00   3.77968574   0.03759687
4482.00   3.78203630   0.03756627
4484.00   3.73673248   0.03735869
4486.00   3.73536563   0.03729511
4488.00   3.80559373   0.03758020
4490.00   3.80751920   0.03763163
4492.00   3.79568100   0.03757392
4494.00   3.79474807   0.03758714
4496.00   3.87522411   0.03794223
4498.00   3.90320444   0.03805283
4500.00   3.93497586   0.03815168
4502.00   3.91123796   0.03797932
4504.00   3.89396477   0.03787136
4506.00   3.89880753   0.03786281
4508.00   3.98122001   0.03818127
4510.00   3.98181200   0.03809577
4512.00   3.97838950   0.03809147
4514.00   3.99046707   0.03807919
4516.00   3.90631080   0.03772398
4518.00   3.97001004   0.03791539
4520.00   3.99288630   0.03797321
4522.00   3.95767403   0.03777923
4524.00   3.94925809   0.03777364
4526.00   3.88796115   0.03745765
4528.00   3.98849440   0.03786023
4530.00   3.96823382   0.03777491
4532.00   3.95575142   0.03765788
4534.00   3.93233633   0.03760392
4536.00   3.92589808   0.03752465
4538.00   3.98662663   0.03778873
4540.00   3.96962523   0.03762785
4542.00   4.02176237   0.03791464
4544.00   3.94921279   0.03765539
4546.00   4.09590483   0.03816276
4548.00   4.08603811   0.03807060
4550.00   4.08927250   0.03799474
4552.00   4.02984476   0.03769400
4554.00   4.00744486   0.03760839
4556.00   4.08449841   0.03791334
4558.00   4.12426090   0.03808617
4560.00   4.09917784   0.03795340
4562.00   4.10484743   0.03794007
4564.00   4.10833502   0.03786469
4566.00   4.13977098   0.03795935
4568.00   4.05847311   0.03762169
4570.00   4.19162083   0.03822945
4572.00   4.17223454   0.03811869
4574.00   4.20839310   0.03828071
4576.00   4.23204279   0.03833949
4578.00   4.27493334   0.03853523
4580.00   4.19274187   0.03815684
4582.00   4.31127405   0.03856038
4584.00   4.29252100   0.03850437
4586.00   4.28362942   0.03843331
4588.00   4.25195122   0.03830816
4590.00   4.29296780   0.03842704
4592.00   4.34366035   0.03871379
4594.00   4.32253551   0.03861306
4596.00   4.35611534   0.03872016
4598.00   4.29439926   0.03842396
4600.00   4.32943010   0.03849369
4602.00   4.36252642   0.03862246
4604.00   4.40592670   0.03879878
4606.00   4.38697290   0.03876976
4608.00   4.38781929   0.03874936
4610.00   4.43934011   0.03892077
4612.00   4.47855091   0.03907213
4614.00   4.50054216   0.03908671
4616.00   4.48499489   0.03896874
4618.00   4.50908756   0.03908495
4620.00   4.45662117   0.03880130
4622.00   4.57656670   0.03925433
4624.00   4.43871307   0.03868207
4626.00   4.46142435   0.03876610
4628.00   4.53134537   0.03901189
4630.00   4.43327951   0.03860984
4632.00   4.50955629   0.03890426
4634.00   4.48791265   0.03875493
4636.00   4.48877859   0.03873510
4638.00   4.45299053   0.03855386
4640.00   4.48606157   0.03865305
4642.00   4.40784883   0.03833625
4644.00   4.46072721   0.03852671
4646.00   4.56725883   0.03893387
4648.00   4.48169327   0.03861910
4650.00   4.58864832   0.03905945
4652.00   4.49443865   0.03868764
4654.00   4.44671869   0.03855252
4656.00   4.54968405   0.03897659
4658.00   4.51529789   0.03886969
4660.00   4.46691084   0.03878132
4662.00   4.50365877   0.03893593
4664.00   4.58369017   0.03932114
4666.00   4.53700304   0.03924689
4668.00   4.60861015   0.04055586
4670.00   4.43772602   0.03895756
4672.00   4.54186201   0.03932003
4674.00   4.43747282   0.03881359
4676.00   4.50904608   0.03900833
4678.00   4.42206812   0.03858734
4680.00   4.32477140   0.03813550
4682.00   4.36469173   0.03821849
4684.00   4.35317850   0.03812316
4686.00   4.33740187   0.03801285
4688.00   4.35069418   0.03803153
4690.00   4.30944395   0.03782579
4692.00   4.32073545   0.03788435
4694.00   4.26952791   0.03762757
4696.00   4.28206205   0.03760647
4698.00   4.28229046   0.03756237
4700.00   4.24235916   0.03737047
4702.00   4.19157839   0.03716142
4704.00   4.17957640   0.03713237
4706.00   4.15096903   0.03699164
4708.00   4.12887955   0.03692830
4710.00   4.11551237   0.03693298
4712.00   4.13807631   0.03695932
4714.00   4.08562517   0.03675162
4716.00   4.05177212   0.03649424
4718.00   4.03533030   0.03638610
4720.00   4.02721024   0.03633301
4722.00   3.95356917   0.03601557
4724.00   3.96408796   0.03605885
4726.00   3.91194439   0.03591314
4728.00   3.89879251   0.03610719
4730.00   3.92664886   0.03626307
4732.00   3.86332560   0.03599242
4734.00   3.86974740   0.03603712
4736.00   3.86536336   0.03607043
4738.00   3.85705853   0.03617407
4740.00   3.79718065   0.03602118
4742.00   3.87694693   0.03648780
4744.00   3.76483178   0.03590070
4746.00   3.79533577   0.03567314
4748.00   3.72483921   0.03514921
4750.00   3.71737814   0.03502298
4752.00   3.74986362   0.03519627
4754.00   3.67601109   0.03482261
4756.00   3.64722681   0.03458181
4758.00   3.68356371   0.03458612
4760.00   3.65121269   0.03437461
4762.00   3.68059421   0.03449646
4764.00   3.64781165   0.03429566
4766.00   3.56011796   0.03388124
4768.00   3.49818206   0.03356855
4770.00   3.54488659   0.03375339
4772.00   3.48600006   0.03347768
4774.00   3.45950937   0.03332034
4776.00   3.49587393   0.03358476
4778.00   3.38658667   0.03318932
4780.00   3.44436073   0.03336956
4782.00   3.43484259   0.03326682
4784.00   3.35059428   0.03279204
4786.00   3.42223620   0.03302960
4788.00   3.38830042   0.03292910
4790.00   3.38413978   0.03286574
4792.00   3.34344673   0.03263976
4794.00   3.33446312   0.03261358
4796.00   3.32379150   0.03252087
4798.00   3.32171607   0.03247710
4800.00   3.28527713   0.03226442
4802.00   3.33043313   0.03240303
4804.00   3.29835939   0.03224492
4806.00   3.25072241   0.03205852
4808.00   3.31199074   0.03232767
4810.00   3.26083398   0.03208218
4812.00   3.24074817   0.03194746
4814.00   3.26413846   0.03210192
4816.00   3.22397876   0.03190802
4818.00   3.27686453   0.03208921
4820.00   3.26128578   0.03208151
4822.00   3.21691394   0.03185114
4824.00   3.19515204   0.03174018
4826.00   3.22804284   0.03192102
4828.00   3.26236320   0.03210817
4830.00   3.22927260   0.03194207
4832.00   3.16708446   0.03171756
4834.00   3.25572896   0.03207514
4836.00   3.24520874   0.03197413
4838.00   3.17376518   0.03171965
4840.00   3.21940565   0.03192318
4842.00   3.18291092   0.03174059
4844.00   3.17047834   0.03162520
4846.00   3.18310452   0.03159428
4848.00   3.19032407   0.03159855
4850.00   3.21953368   0.03175952
4852.00   3.19740105   0.03160902
4854.00   3.19271445   0.03155167
4856.00   3.17708874   0.03136417
4858.00   3.12054396   0.03112663
4860.00   3.12977362   0.03115491
4862.00   3.12236166   0.03113104
4864.00   3.14665771   0.03122050
4866.00   3.12730479   0.03116317
4868.00   3.08265901   0.03094376
4870.00   3.06505489   0.03081080
4872.00   3.17984200   0.03129293
4874.00   3.18758869   0.03135278
4876.00   3.19019485   0.03134705
4878.00   3.12709880   0.03109145
4880.00   3.13634539   0.03114890
4882.00   3.17811251   0.03126274
4884.00   3.17806101   0.03127781
4886.00   3.22774267   0.03139830
4888.00   3.19615722   0.03120282
4890.00   3.16557288   0.03106388
4892.00   3.18040323   0.03109814
4894.00   3.19644809   0.03119286
4896.00   3.21409774   0.03123016
4898.00   3.26180196   0.03139681
4900.00   3.21716762   0.03122201
4902.00   3.24296761   0.03126005
4904.00   3.27029824   0.03136500
4906.00   3.26610923   0.03132959
4908.00   3.29317045   0.03146309
4910.00   3.30134797   0.03149955
4912.00   3.28670669   0.03139482
4914.00   3.52243304   0.03269709
4916.00   3.78555274   0.03559729
4918.00   3.79072261   0.03523000
4920.00   3.62155247   0.03334077
4922.00   3.52109981   0.03225162
4924.00   3.38356805   0.03162782
4926.00   3.35066605   0.03144683
4928.00   3.32872725   0.03132504
4930.00   3.35100031   0.03137454
4932.00   3.36520457   0.03140240
4934.00   3.38443232   0.03151054
4936.00   3.38747597   0.03153686
4938.00   3.31141639   0.03121538
4940.00   3.30670929   0.03121406
4942.00   3.37090135   0.03143053
4944.00   3.34077597   0.03127086
4946.00   3.44049478   0.03164760
4948.00   3.39411187   0.03142202
4950.00   3.43456531   0.03159951
4952.00   3.42575502   0.03166531
4954.00   3.39404631   0.03154285
4956.00   3.37601948   0.03141034
4958.00   3.39942789   0.03149167
4960.00   3.40330696   0.03149047
4962.00   3.43338561   0.03162429
4964.00   3.47422338   0.03183058
4966.00   3.39592195   0.03155729
4968.00   3.38543296   0.03150567
4970.00   3.43637276   0.03179220
4972.00   3.42475176   0.03189624
4974.00   3.43983865   0.03205276
4976.00   3.43133354   0.03219794
4978.00   3.46337032   0.03253034
4980.00   3.37812781   0.03246114
4982.00   3.41874504   0.03279218
4984.00   3.42553592   0.03280956
4986.00   3.37516165   0.03250605
4988.00   3.42111111   0.03249808
4990.00   3.42718077   0.03232959
4992.00   3.44062686   0.03222830
4994.00   3.38003016   0.03183013
4996.00   3.38432693   0.03170247
4998.00   3.38046432   0.03154573
5000.00   3.39437294   0.03151143
5002.00   3.35104322   0.03132509
5004.00   3.31462216   0.03109423
5006.00   3.37069941   0.03127462
5008.00   3.36113906   0.03118679
5010.00   3.27727294   0.03081365
5012.00   3.43239474   0.03155855
5014.00   3.60350561   0.03378421
5016.00   3.67712855   0.03465592
5018.00   3.56863999   0.03363721
5020.00   3.47028661   0.03220382
5022.00   3.36576343   0.03138617
5024.00   3.28110933   0.03087080
5026.00   3.23397899   0.03067482
5028.00   3.23945403   0.03076464
5030.00   3.25583339   0.03086952
5032.00   3.31562352   0.03112845
5034.00   3.21640682   0.03069141
5036.00   3.19290042   0.03058704
5038.00   3.19062066   0.03052948
5040.00   3.25656271   0.03077901
5042.00   3.21804571   0.03062735
5044.00   3.22936606   0.03065655
5046.00   3.24690032   0.03076450
5048.00   3.24447465   0.03080942
5050.00   3.22967482   0.03075198
5052.00   3.23621821   0.03076969
5054.00   3.25358057   0.03083479
5056.00   3.25118613   0.03084004
5058.00   3.23114800   0.03073581
5060.00   3.42828751   0.03256409
5062.00   4.02045059   0.03659707
5064.00   4.40473890   0.04094192
5066.00   4.20063210   0.04083142
5068.00   3.85438061   0.03694593
5070.00   3.69772053   0.03376569
5072.00   3.45086098   0.03208612
5074.00   3.31740761   0.03148609
5076.00   3.26741242   0.03116935
5078.00   3.25636268   0.03118777
5080.00   3.30750799   0.03176787
5082.00   3.31454468   0.03219321
5084.00   3.24791121   0.03218947
5086.00   3.35105181   0.03269968
5088.00   3.36165357   0.03251189
5090.00   3.34206128   0.03207896
5092.00   3.37538576   0.03189948
5094.00   3.30281162   0.03146261
5096.00   3.35785365   0.03168335
5098.00   3.40062046   0.03199107
5100.00   3.41569614   0.03210221
5102.00   3.36138129   0.03172079
5104.00   3.40154147   0.03183718
5106.00   3.38906527   0.03165338
5108.00   3.40847111   0.03172481
5110.00   3.36891961   0.03149789
5112.00   3.32465434   0.03135824
5114.00   3.38257527   0.03163662
5116.00   3.35577941   0.03162267
5118.00   3.38452315   0.03173583
5120.00   3.38084030   0.03167390
5122.00   3.39853930   0.03175549
5124.00   3.45613027   0.03195726
5126.00   3.37983394   0.03166252
5128.00   3.33375430   0.03149718
5130.00   3.39690995   0.03183589
5132.00   3.40535164   0.03189742
5134.00   3.45982385   0.03219435
5136.00   3.48121548   0.03227540
5138.00   3.45173788   0.03220249
5140.00   3.46119547   0.03228095
5142.00   3.44681859   0.03225258
5144.00   3.45157194   0.03233011
5146.00   3.44461799   0.03237669
5148.00   3.45738173   0.03259393
5150.00   3.50886416   0.03295399
5152.00   3.45888019   0.03287723
5154.00   3.50046039   0.03314292
5156.00   3.47058630   0.03298145
5158.00   3.45830011   0.03285535
5160.00   3.47056246   0.03284103
5162.00   3.38193703   0.03242083
5164.00   3.45220399   0.03267993
5166.00   3.41923594   0.03248674
5168.00   3.41790247   0.03251897
5170.00   3.45988536   0.03265852
5172.00   3.48815632   0.03284532
5174.00   3.52047873   0.03305172
5176.00   3.51653886   0.03309597
5178.00   3.51107550   0.03311481
5180.00   3.54422426   0.03327399
5182.00   3.49013281   0.03305756
5184.00   3.48239970   0.03306498
5186.00   3.58886099   0.03361284
5188.00   3.53284478   0.03344643
5190.00   3.53920794   0.03348565
5192.00   3.50220966   0.03335106
5194.00   3.56945801   0.03371572
5196.00   3.55014968   0.03368264
5198.00   3.59994364   0.03403557
5200.00   3.52772427   0.03376797
5202.00   3.55910730   0.03394866
5204.00   3.59388328   0.03409625
5206.00   3.59350562   0.03412823
5208.00   3.61828780   0.03432072
5210.00   3.60273743   0.03434632
5212.00   3.61086440   0.03441025
5214.00   3.57016540   0.03422704
5216.00   3.58339405   0.03434685
5218.00   3.59842181   0.03451349
5220.00   3.59300160   0.03453230
5222.00   3.62392592   0.03472693
5224.00   3.61095500   0.03468632
5226.00   3.58252168   0.03454489
5228.00   3.57635474   0.03453708
5230.00   3.63951492   0.03488149
5232.00   3.59636354   0.03470093
5234.00   3.63589263   0.03498007
5236.00   3.64314365   0.03507246
5238.00   3.58980346   0.03494480
5240.00   3.59099269   0.03499898
5242.00   3.60826898   0.03506436
5244.00   3.67061639   0.03541357
5246.00   3.66837311   0.03547514
5248.00   3.64246583   0.03545321
5250.00   3.68404770   0.03567008
5252.00   3.59176731   0.03541028
5254.00   3.69972181   0.03590787
5256.00   3.69441557   0.03606476
5258.00   3.66183162   0.03603127
5260.00   3.64544082   0.03595159
5262.00   3.70702839   0.03621753
5264.00   3.66294742   0.03603590
5266.00   3.63469100   0.03592489
5268.00   3.70174384   0.03633698
5270.00   3.71256375   0.03639786
5272.00   3.66280437   0.03626872
5274.00   3.68846941   0.03644098
5276.00   3.72100592   0.03670106
5278.00   3.66916585   0.03654237
5280.00   3.65441728   0.03652263
5282.00   3.69347692   0.03676514
5284.00   3.62045813   0.03656628
5286.00   3.73511195   0.03716552
5288.00   3.72787285   0.03717862
5290.00   3.73537731   0.03728265
5292.00   3.64403462   0.03692332
5294.00   3.70563149   0.03730126
5296.00   3.68921804   0.03732739
5298.00   3.69696879   0.03741227
5300.00   3.70011997   0.03752176
5302.00   3.74830079   0.03781677
5304.00   3.73836637   0.03784936
5306.00   3.74843216   0.03798564
5308.00   3.74573255   0.03810025
5310.00   3.69227171   0.03795958
5312.00   3.71936798   0.03821345
5314.00   3.76251268   0.03848154
5316.00   3.77252507   0.03857148
5318.00   3.73373818   0.03845678
5320.00   3.73901629   0.03857392
5322.00   3.70430732   0.03853310
5324.00   3.70095372   0.03868560
5326.00   3.75749135   0.03897575
5328.00   3.68809628   0.03884738
5330.00   3.72334290   0.03911475
5332.00   3.71681762   0.03918898
5334.00   3.69995904   0.03914646
5336.00   3.70785260   0.03931775
5338.00   3.71636772   0.03943290
5340.00   3.63639808   0.03923125
5342.00   3.68326092   0.03960688
5344.00   3.70915842   0.03985727
5346.00   3.63565016   0.03960926
5348.00   3.67077184   0.04001853
5350.00   3.67200923   0.04010681
5352.00   3.66066432   0.04014140
5354.00   3.74076128   0.04066721
5356.00   3.62607884   0.04021638
5358.00   3.57879734   0.03997356
5360.00   3.65366888   0.04037879
5362.00   3.65493107   0.04039591
5364.00   3.67554498   0.04044127
5366.00   3.63217115   0.04031263
5368.00   3.66566539   0.04061089
5370.00   3.62219667   0.04043407
5372.00   3.62377548   0.04053152
5374.00   3.54196835   0.04037000
5376.00   3.56220889   0.04060197
5378.00   3.50153947   0.04030025
5380.00   3.55753088   0.04067422
5382.00   3.58693624   0.04086472
5384.00   3.57250118   0.04079349
5386.00   3.56162310   0.04093145
5388.00   3.56005001   0.04100048
5390.00   3.53456855   0.04109661
5392.00   3.59514046   0.04151333
5394.00   3.52209854   0.04123321
5396.00   3.57999110   0.04163456
5398.00   3.60229754   0.04183447
5400.00   3.53305745   0.04153332
5402.00   3.58196330   0.04193305
5404.00   3.52535129   0.04172964
5406.00   3.56465960   0.04203967
5408.00   3.55677199   0.04204995
5410.00   3.58759880   0.04250464
5412.00   3.49701285   0.04217280
5414.00   3.52512717   0.04255911
5416.00   3.50661540   0.04264926
5418.00   3.46994829   0.04268381
5420.00   3.43701935   0.04266861
5422.00   3.53492475   0.04325110
5424.00   3.47330022   0.04300430
5426.00   3.60173655   0.04422433
5428.00   3.60937595   0.04431054
5430.00   3.63499665   0.02043501
5432.00   3.57926893   0.01904344
5434.00   3.53422761   0.01757701
5436.00   3.53034377   0.01662431
5438.00   3.54245257   0.01587286
5440.00   3.54486418   0.01560274
5442.00   3.54780889   0.01593021
5444.00   3.54893398   0.01612891
5446.00   3.55921936   0.01609820
5448.00   3.54908442   0.01674587
5450.00   3.49285793   0.01863358
5452.00   3.44001150   0.02036450
5454.00   3.46934199   0.02034833
5456.00   3.57084441   0.01892980
5458.00   3.60033941   0.01860362
5460.00   3.59974456   0.01892638
5462.00   3.58175635   0.01888562
5464.00   3.52685595   0.01822785
5466.00   3.47641683   0.01781576
5468.00   3.46671867   0.01856589
5470.00   3.48105478   0.02003154
5472.00   3.49324489   0.02015005
5474.00   3.53666306   0.01934998
5476.00   3.53151560   0.01860313
5478.00   3.46573949   0.01747359
5480.00   3.41832376   0.01640681
5482.00   3.42994785   0.01561950
5484.00   3.46781373   0.01503108
5486.00   3.46938562   0.01475589
5488.00   3.44117260   0.01477244
5490.00   3.44304967   0.01510096
5492.00   3.46921086   0.01587007
5494.00   3.48552847   0.01660998
5496.00   3.48470354   0.01735254
5498.00   3.47781563   0.01802311
5500.00   3.47741508   0.01840547
5502.00   3.48476696   0.01864255
5504.00   3.46510553   0.01855142
5506.00   3.41959929   0.01819082
5508.00   3.37794161   0.01753555
5510.00   3.33275294   0.01625294
5512.00   3.29391384   0.01492542
5514.00   3.27465057   0.01431573
5516.00   3.27001715   0.01419946
5518.00   3.26183271   0.01405014
5520.00   3.27012944   0.01417412
5522.00   3.25001526   0.01417726
5524.00   3.19352436   0.01413395
5526.00   3.14456391   0.01406369
5528.00   3.12641454   0.01389541
5530.00   3.12354231   0.01370062
5532.00   3.11174393   0.01391646
5534.00   3.09204912   0.01472189
5536.00   3.09065461   0.01491713
5538.00   3.11184311   0.01476833
5540.00   3.12223911   0.01455971
5542.00   3.11338019   0.01430562
5544.00   3.09568310   0.01401070
5546.00   3.07998419   0.01377985
5548.00   3.06423235   0.01346182
5550.00   3.03758836   0.01360014
5552.00   2.99044561   0.01433958
5554.00   2.96160007   0.01470010
5556.00   2.95341516   0.01473240
5558.00   2.95491219   0.01453105
5560.00   2.96200109   0.01398545
5562.00   2.98050261   0.01298033
5564.00   2.96920514   0.01274425
5566.00   2.92748642   0.01303105
5568.00   2.90055108   0.01343658
5570.00   2.87418079   0.01415443
5572.00   2.86283660   0.01482189
5574.00   2.88457441   0.01522262
5576.00   2.92706943   0.01551151
5578.00   2.93033218   0.01599083
5580.00   2.89992857   0.01681267
5582.00   2.88842416   0.01707087
5584.00   2.88720942   0.01696808
5586.00   2.88007116   0.01669165
5588.00   2.85919333   0.01623333
5590.00   2.83426666   0.01560937
5592.00   2.82391691   0.01497292
5594.00   2.82980251   0.01412208
5596.00   2.81308961   0.01362380
5598.00   2.77461863   0.01330973
5600.00   2.74701047   0.01325799
5602.00   2.73119807   0.01372205
5604.00   2.72254443   0.01416076
5606.00   2.72239280   0.01389747
5608.00   2.73441029   0.01309450
5610.00   2.72435212   0.01265605
5612.00   2.69496679   0.01230156
5614.00   2.67256832   0.01202740
5616.00   2.65585732   0.01185170
5618.00   2.63776898   0.01175284
5620.00   2.61302567   0.01174106
5622.00   2.58444691   0.01181128
5624.00   2.56501722   0.01177589
5626.00   2.54334354   0.01142364
5628.00   2.54223228   0.01166898
5630.00   2.57631230   0.01272846
5632.00   2.59078383   0.01328579
5634.00   2.56065845   0.01286627
5636.00   2.51083899   0.01196176
5638.00   2.48497677   0.01152902
5640.00   2.47360778   0.01122574
5642.00   2.44853091   0.01107211
5644.00   2.41086650   0.01097775
5646.00   2.38213325   0.01121431
5648.00   2.36722708   0.01200328
5650.00   2.35616660   0.01280969
5652.00   2.33811045   0.01304574
5654.00   2.31701469   0.01299249
5656.00   2.29692435   0.01268549
5658.00   2.27705884   0.01150404
5660.00   2.25581980   0.01122491
5662.00   2.22978902   0.01231649
5664.00   2.20745230   0.01315140
5666.00   2.19830966   0.01261331
5668.00   2.19839168   0.01113628
5670.00   2.18048024   0.01073295
5672.00   2.13765574   0.01093053
5674.00   2.12307048   0.01125907
5676.00   2.13771653   0.01215990
5678.00   2.14605188   0.01267962
5680.00   2.13209772   0.01236540
5682.00   2.10877419   0.01163881
5684.00   2.09581017   0.01151921
5686.00   2.08368015   0.01178399
5688.00   2.08069420   0.01191397
5690.00   2.08783340   0.01212867
5692.00   2.09521699   0.01224256
5694.00   2.10161090   0.01228827
5696.00   2.10885644   0.01220247
5698.00   2.11849785   0.01173921
5700.00   2.13267827   0.01065317
5702.00   2.13553596   0.01066110
5704.00   2.12501931   0.01144924
5706.00   2.12268829   0.01230549
5708.00   2.12518930   0.01369334
5710.00   2.13480759   0.01462442
5712.00   2.15868688   0.01420600
5714.00   2.19544816   0.01272347
5716.00   2.21048498   0.01209652
5718.00   2.20814943   0.01169006
5720.00   2.21204853   0.01165106
5722.00   2.21737790   0.01232200
5724.00   2.22341919   0.01273864
5726.00   2.23038149   0.01238289
5728.00   2.23805475   0.01163292
5730.00   2.24544740   0.01146576
5732.00   2.25073671   0.01142527
5734.00   2.26151228   0.01192758
5736.00   2.27566791   0.01336625
5738.00   2.29281330   0.01407421
5740.00   2.31287479   0.01375123
5742.00   2.33594084   0.01293808
5744.00   2.36365366   0.01224952
5746.00   2.40293360   0.01115257
5748.00   2.41560364   0.01095605
5750.00   2.39832020   0.01179177
5752.00   2.39694977   0.01214460
5754.00   2.41123271   0.01201377
5756.00   2.43371224   0.01173728
5758.00   2.46171784   0.01149791
5760.00   2.49696827   0.01117934
5762.00   2.53369045   0.01112021
5764.00   2.58291745   0.01129240
5766.00   2.61554384   0.01143973
5768.00   2.63047242   0.01165326
5770.00   2.64443779   0.01182493
5772.00   2.66530132   0.01184267
5774.00   2.68864727   0.01179021
5776.00   2.71470237   0.01201928
5778.00   2.75107288   0.01274008
5780.00   2.77185249   0.01277983
5782.00   2.78313732   0.01219987
5784.00   2.78832221   0.01174329
5786.00   2.78206801   0.01152187
5788.00   2.77353501   0.01151819
5790.00   2.78733277   0.01208348
5792.00   2.81920624   0.01347644
5794.00   2.84507537   0.01359123
5796.00   2.87428951   0.01245412
5798.00   2.90115118   0.01197436
5800.00   2.92924142   0.01253492
5802.00   2.95167208   0.01323497
5804.00   2.95555353   0.01330415
5806.00   2.94070292   0.01299671
5808.00   2.95780253   0.01321015
5810.00   3.00276375   0.01417549
5812.00   3.03629184   0.01419029
5814.00   3.06928921   0.01303525
5816.00   3.09141326   0.01183404
5818.00   3.09001350   0.01149589
5820.00   3.07239842   0.01162879
5822.00   3.07505059   0.01169595
5824.00   3.09440446   0.01202888
5826.00   3.09985423   0.01213851
5828.00   3.09839511   0.01190974
5830.00   3.09293437   0.01200938
5832.00   3.07697105   0.01283686
5834.00   3.06062841   0.01383105
5836.00   3.07707977   0.01402555
5838.00   3.13036466   0.01374672
5840.00   3.15166402   0.01333333
5842.00   3.15752101   0.01220091
5844.00   3.16076875   0.01162632
5846.00   3.15960336   0.01188984
5848.00   3.15713882   0.01252510
5850.00   3.15857077   0.01321206
5852.00   3.15887928   0.01419775
5854.00   3.17789197   0.01444995
5856.00   3.23359895   0.01418698
5858.00   3.25025272   0.01387440
5860.00   3.22034597   0.01336761
5862.00   3.18730879   0.01281444
5864.00   3.18092418   0.01231765
5866.00   3.18654776   0.01182175
5868.00   3.18419957   0.01169376
5870.00   3.18039036   0.01169194
5872.00   3.17630434   0.01223864
5874.00   3.16903234   0.01344070
5876.00   3.16548085   0.01450863
5878.00   3.17465687   0.01541108
5880.00   3.18607831   0.01612763
5882.00   3.16626287   0.01600597
5884.00   3.11860657   0.01471512
5886.00   3.07768893   0.01441369
5888.00   3.01355171   0.01470743
5890.00   2.98221350   0.01495360
5892.00   2.99998546   0.01523049
5894.00   3.03739285   0.01537924
5896.00   3.05970716   0.01495614
5898.00   3.08337355   0.01395311
5900.00   3.09576440   0.01325798
5902.00   3.09131312   0.01252024
5904.00   3.09936953   0.01196995
5906.00   3.13120532   0.01132151
5908.00   3.15318918   0.01123847
5910.00   3.13260365   0.01256635
5912.00   3.08222294   0.01471730
5914.00   3.06326127   0.01526784
5916.00   3.05313110   0.01505098
5918.00   3.05790710   0.01452506
5920.00   3.08782315   0.01293288
5922.00   3.11302567   0.01169272
5924.00   3.11939311   0.01200348
5926.00   3.11685872   0.01302980
5928.00   3.11736155   0.01305158
5930.00   3.11543894   0.01251016
5932.00   3.11502385   0.01210399
5934.00   3.11480999   0.01101774
5936.00   3.11518598   0.01092058
5938.00   3.11988926   0.01274927
5940.00   3.12227917   0.01464387
5942.00   3.10858202   0.01458292
5944.00   3.07971811   0.01305630
5946.00   3.05986810   0.01222724
5948.00   3.03697014   0.01101322
5950.00   3.02454257   0.01065145
5952.00   3.02531648   0.01172121
5954.00   3.03059363   0.01274739
5956.00   3.03555822   0.01257335
5958.00   3.04441452   0.01163959
5960.00   3.03164053   0.01144443
5962.00   2.98886895   0.01173779
5964.00   2.97018862   0.01178501
5966.00   2.96912456   0.01156565
5968.00   2.97470379   0.01150388
5970.00   2.98512816   0.01196874
5972.00   3.00050426   0.01264634
5974.00   3.00591493   0.01252012
5976.00   3.00408316   0.01148656
5978.00   3.00386596   0.01107046
5980.00   2.99964166   0.01094369
5982.00   2.99986601   0.01087935
5984.00   3.01011491   0.01079872
5986.00   3.02227616   0.01080251
5988.00   3.02058554   0.01104574
5990.00   3.00818086   0.01157541
5992.00   2.99930072   0.01181828
5994.00   2.99226069   0.01184085
5996.00   2.97896028   0.01200435
5998.00   2.95080519   0.01244355
6000.00   2.92705679   0.01280472
6002.00   2.93274212   0.01272568
6004.00   2.96217752   0.01231989
6006.00   2.96426749   0.01204531
6008.00   2.95129251   0.01179864
6010.00   2.93748283   0.01142341
6012.00   2.91380978   0.01070737
6014.00   2.89622402   0.01018753
6016.00   2.89631414   0.01016837
6018.00   2.90743351   0.01052473
6020.00   2.91555071   0.01162492
6022.00   2.93784761   0.01438501
6024.00   2.93338609   0.01461442
6026.00   2.90162754   0.01260799
6028.00   2.87400818   0.01072465
6030.00   2.85630655   0.01012727
6032.00   2.84527373   0.01012490
6034.00   2.84979439   0.01001589
6036.00   2.87684393   0.01017374
6038.00   2.88228059   0.01018601
6040.00   2.87707639   0.01008146
6042.00   2.86861110   0.01014540
6044.00   2.85366654   0.01043652
6046.00   2.83833098   0.01080064
6048.00   2.83157396   0.01113361
6050.00   2.82914162   0.01154743
6052.00   2.83404398   0.01153068
6054.00   2.86096740   0.01089454
6056.00   2.86103296   0.01073969
6058.00   2.82495713   0.01124696
6060.00   2.79258943   0.01160204
6062.00   2.79248118   0.01122385
6064.00   2.81020689   0.01036687
6066.00   2.81680536   0.01008525
6068.00   2.82756066   0.01020013
6070.00   2.82507038   0.01019854
6072.00   2.80442357   0.00991070
6074.00   2.79022145   0.01013070
6076.00   2.79094791   0.01133486
6078.00   2.79995441   0.01278780
6080.00   2.81325984   0.01333464
6082.00   2.84420466   0.01368926
6084.00   2.84643912   0.01316697
6086.00   2.82295775   0.01090529
6088.00   2.80543208   0.00942881
6090.00   2.79879785   0.00975383
6092.00   2.79369688   0.01072969
6094.00   2.78037357   0.01135251
6096.00   2.75803375   0.01219302
6098.00   2.75726986   0.01223418
6100.00   2.77995896   0.01151138
6102.00   2.79026198   0.01093960
6104.00   2.78901434   0.01035754
6106.00   2.78474951   0.00988576
6108.00   2.78290606   0.00969895
6110.00   2.78109360   0.00973490
6112.00   2.77245951   0.01005848
6114.00   2.75341845   0.01094074
6116.00   2.74326301   0.01131065
6118.00   2.73758817   0.01139031
6120.00   2.73632765   0.01133292
6122.00   2.74346113   0.01110334
6124.00   2.75425982   0.01075925
6126.00   2.74837184   0.01073862
6128.00   2.72458243   0.01120484
6130.00   2.71445894   0.01099006
6132.00   2.70782542   0.01003179
6134.00   2.70683885   0.00937342
6136.00   2.71767187   0.00934614
6138.00   2.72921467   0.00957560
6140.00   2.72000480   0.00966668
6142.00   2.69195080   0.00975146
6144.00   2.68212986   0.00997710
6146.00   2.68573093   0.01049443
6148.00   2.68191648   0.01067550
6150.00   2.67255139   0.01048860
6152.00   2.65808010   0.01016953
6154.00   2.63444018   0.00986395
6156.00   2.60159564   0.00947472
6158.00   2.58789659   0.00933206
6160.00   2.59037280   0.00945792
6162.00   2.58801675   0.00945887
6164.00   2.58826566   0.00940299
6166.00   2.58332872   0.00932491
6168.00   2.56717062   0.00916630
6170.00   2.54427528   0.00898793
6172.00   2.52720714   0.00919559
6174.00   2.51017404   0.00997350
6176.00   2.49748445   0.01012533
6178.00   2.48982477   0.00992343
6180.00   2.48175812   0.00963995
6182.00   2.47309780   0.00920468
6184.00   2.46350121   0.00874783
6186.00   2.44998288   0.00875467
6188.00   2.43231034   0.00919685
6190.00   2.41733098   0.00931867
6192.00   2.39919543   0.00936243
6194.00   2.38902402   0.00932170
6196.00   2.39077187   0.00914337
6198.00   2.39426184   0.00893569
6200.00   2.38970494   0.00882534
6202.00   2.38145709   0.00876133
6204.00   2.36994696   0.00871328
6206.00   2.34656954   0.00861291
6208.00   2.33821797   0.00871123
6210.00   2.34895825   0.00906660
6212.00   2.35645485   0.00939440
6214.00   2.34650660   0.00956336
6216.00   2.32765603   0.00965649
6218.00   2.31837177   0.00969291
6220.00   2.31234622   0.00971527
6222.00   2.30882430   0.00956179
6224.00   2.31321144   0.00906824
6226.00   2.31133533   0.00876992
6228.00   2.29674959   0.00894437
6230.00   2.27723408   0.00927599
6232.00   2.26635623   0.00924900
6234.00   2.26054215   0.00898335
6236.00   2.25251341   0.00882785
6238.00   2.24623346   0.00865204
6240.00   2.23661351   0.00852529
6242.00   2.22206187   0.00847004
6244.00   2.20627522   0.00844017
6246.00   2.19165897   0.00837937
6248.00   2.17463541   0.00830044
6250.00   2.17554879   0.00829496
6252.00   2.19776082   0.00832716
6254.00   2.20998859   0.00841624
6256.00   2.22072077   0.00852641
6258.00   2.22162628   0.00872992
6260.00   2.19937611   0.00912205
6262.00   2.16116095   0.00962828
6264.00   2.15791106   0.00985400
6266.00   2.18604589   0.01004267
6268.00   2.19873452   0.00989719
6270.00   2.21188998   0.00915629
6272.00   2.21515465   0.00865010
6274.00   2.19865036   0.00887588
6276.00   2.17428517   0.00936536
6278.00   2.17331576   0.00930963
6280.00   2.19196987   0.00885537
6282.00   2.19803143   0.00863235
6284.00   2.20016170   0.00842829
6286.00   2.20155787   0.00831944
6288.00   2.20328617   0.00821240
6290.00   2.20320249   0.00829820
6292.00   2.19769239   0.00892639
6294.00   2.18571067   0.01003107
6296.00   2.18429852   0.01046653
6298.00   2.18966007   0.01071978
6300.00   2.19663358   0.01060784
6302.00   2.20866823   0.00988017
6304.00   2.21934223   0.00909040
6306.00   2.22129822   0.00881155
6308.00   2.21764946   0.00882527
6310.00   2.22756457   0.00867918
6312.00   2.25557303   0.00848974
6314.00   2.26537991   0.00838060
6316.00   2.25904250   0.00825604
6318.00   2.25363803   0.00829765
6320.00   2.25497985   0.00862729
6322.00   2.25919199   0.00910246
6324.00   2.26584172   0.00942342
6326.00   2.27519393   0.00974734
6328.00   2.28685784   0.00992989
6330.00   2.30764794   0.01009385
6332.00   2.31849599   0.01003709
6334.00   2.31089830   0.00962568
6336.00   2.29976988   0.00906151
6338.00   2.30812049   0.00870697
6340.00   2.33334804   0.00841987
6342.00   2.33662605   0.00824971
6344.00   2.32172585   0.00824490
6346.00   2.31459808   0.00824140
6348.00   2.31366611   0.00826484
6350.00   2.31615043   0.00829775
6352.00   2.32270670   0.00831260
6354.00   2.33371615   0.00832214
6356.00   2.33732343   0.00833226
6358.00   2.33504033   0.00834641
6360.00   2.33488107   0.00834705
6362.00   2.33575606   0.00833363
6364.00   2.33604455   0.00831716
6366.00   2.33260655   0.00829969
6368.00   2.32858324   0.00828114
6370.00   2.33873129   0.00827481
6372.00   2.37482738   0.00822089
6374.00   2.37737751   0.00831037
6376.00   2.35588908   0.00843572
6378.00   2.33299160   0.00872709
6380.00   2.30428839   0.00941405
6382.00   2.27981472   0.01004128
6384.00   2.29113507   0.00982124
6386.00   2.34259868   0.00871340
6388.00   2.34907246   0.00835776
6390.00   2.32136965   0.00825185
6392.00   2.30685329   0.00850959
6394.00   2.31153297   0.00946351
6396.00   2.31409550   0.01022434
6398.00   2.29351568   0.01000461
6400.00   2.25565624   0.00905657
6402.00   2.24264336   0.00858322
6404.00   2.24940681   0.00817355
6406.00   2.24755335   0.00793769
6408.00   2.23993707   0.00795533
6410.00   2.23306727   0.00802233
6412.00   2.23115039   0.00802916
6414.00   2.23133492   0.00803949
6416.00   2.22397351   0.00809310
6418.00   2.20727348   0.00810256
6420.00   2.19884014   0.00831115
6422.00   2.19574475   0.00890245
6424.00   2.19236326   0.00913962
6426.00   2.18813896   0.00873442
6428.00   2.18312240   0.00804298
6430.00   2.17470264   0.00780208
6432.00   2.16195869   0.00783690
6434.00   2.15364814   0.00777507
6436.00   2.14653373   0.00766663
6438.00   2.14220762   0.00770577
6440.00   2.14367676   0.00789244
6442.00   2.14449096   0.00819329
6444.00   2.13638401   0.00868417
6446.00   2.12182188   0.00942487
6448.00   2.11084318   0.00933073
6450.00   2.10008097   0.00817694
6452.00   2.08980846   0.00770557
6454.00   2.08243346   0.00794613
6456.00   2.07200027   0.00830392
6458.00   2.05174232   0.00856340
6460.00   2.02560639   0.00883149
6462.00   2.01626825   0.00868162
6464.00   2.02486038   0.00789357
6466.00   2.02122521   0.00762281
6468.00   2.01002002   0.00777407
6470.00   2.00009871   0.00786650
6472.00   1.99403811   0.00773337
6474.00   1.98964524   0.00753262
6476.00   1.98536468   0.00748234
6478.00   1.98065698   0.00753667
6480.00   1.98018885   0.00755417
6482.00   1.98117435   0.00758186
6484.00   1.98758900   0.00760800
6486.00   2.00122237   0.00762213
6488.00   2.01835442   0.00764567
6490.00   2.03560567   0.00770201
6492.00   2.05681586   0.00777199
6494.00   2.06508183   0.00791487
6496.00   2.06053877   0.00812847
6498.00   2.05968380   0.00834617
6500.00   2.06016183   0.00872883
6502.00   2.06193972   0.00891347
6504.00   2.06692600   0.00854016
6506.00   2.07432055   0.00772229
6508.00   2.07473373   0.00747491
6510.00   2.06726003   0.00765291
6512.00   2.06549001   0.00770798
6514.00   2.06402183   0.00780809
6516.00   2.06837249   0.00786255
6518.00   2.08340764   0.00777094
6520.00   2.10392213   0.00764405
6522.00   2.11539459   0.00782426
6524.00   2.12209392   0.00823920
6526.00   2.12834048   0.00861738
6528.00   2.12717843   0.00932585
6530.00   2.13480473   0.00952015
6532.00   2.15947080   0.00884865
6534.00   2.18598056   0.00791913
6536.00   2.19167781   0.00786562
6538.00   2.18143463   0.00838299
6540.00   2.18200254   0.00873918
6542.00   2.18606997   0.00936153
6544.00   2.18999267   0.00961395
6546.00   2.19364476   0.00942909
6548.00   2.19828844   0.00918591
6550.00   2.20382285   0.00924489
6552.00   2.20988965   0.00946402
6554.00   2.22490525   0.00920874
6556.00   2.25315809   0.00827768
6558.00   2.27148008   0.00789747
6560.00   2.28358555   0.00803697
6562.00   2.29317021   0.00820527
6564.00   2.29959106   0.00819792
6566.00   2.30422640   0.00815873
6568.00   2.31728053   0.00824600
6570.00   2.33975744   0.00852887
6572.00   2.35488296   0.00854624
6574.00   2.37034988   0.00825325
6576.00   2.37853098   0.00816254
6578.00   2.37423897   0.00844255
6580.00   2.36606932   0.00883088
6582.00   2.36810493   0.00904199
6584.00   2.37368178   0.00926464
6586.00   2.38807058   0.00915248
6588.00   2.41864157   0.00854946
6590.00   2.43815923   0.00820712
6592.00   2.44853592   0.00814994
6594.00   2.45091796   0.00824154
6596.00   2.44228935   0.00843752
6598.00   2.42260146   0.00876924
6600.00   2.41022038   0.00896664
6602.00   2.39074397   0.00928963
6604.00   2.39071941   0.00920870
6606.00   2.41519070   0.00842110
6608.00   2.43812728   0.00788167
6610.00   2.44528461   0.00834510
6612.00   2.44567752   0.00926823
6614.00   2.45263290   0.00963060
6616.00   2.46264982   0.00984839
6618.00   2.47143531   0.00987842
6620.00   2.47979760   0.00948213
6622.00   2.48892927   0.00935693
6624.00   2.48698068   0.00981666
6626.00   2.49381566   0.01041612
6628.00   2.55289984   0.01047512
6630.00   2.62975097   0.00980636
6632.00   2.80597687   0.01058629
6634.00   3.15181065   0.01272148
6636.00   3.38333797   0.01384439
6638.00   3.53339529   0.01416978
6640.00   3.56847286   0.01405954
6642.00   3.38597894   0.01356819
6644.00   2.99075222   0.01254094
6646.00   2.76419115   0.01165984
6648.00   2.55317354   0.01045080
6650.00   2.44597363   0.00959751
6652.00   2.47264600   0.00916834
6654.00   2.52139664   0.00894183
6656.00   2.53056335   0.00884432
6658.00   2.53343081   0.00891858
6660.00   2.53058171   0.00881450
6662.00   2.52286959   0.00858763
6664.00   2.50675750   0.00845301
6666.00   2.47366881   0.00821167
6668.00   2.44942117   0.00825200
6670.00   2.44226098   0.00884924
6672.00   2.44425249   0.00958163
6674.00   2.44809771   0.00972046
6676.00   2.46421361   0.00951784
6678.00   2.46021938   0.00922131
6680.00   2.43790889   0.00846444
6682.00   2.42099571   0.00800569
6684.00   2.41102767   0.00807816
6686.00   2.40346742   0.00827498
6688.00   2.39532590   0.00814475
6690.00   2.38657975   0.00778792
6692.00   2.38700366   0.00785339
6694.00   2.39842248   0.00816210
6696.00   2.40526986   0.00859241
6698.00   2.41059136   0.00936736
6700.00   2.41276884   0.00991945
6702.00   2.40897751   0.00989441
6704.00   2.40060735   0.00949886
6706.00   2.39604521   0.00914576
6708.00   2.39348769   0.00841427
6710.00   2.38931656   0.00815641
6712.00   2.38694191   0.00834353
6714.00   2.37971663   0.00856932
6716.00   2.36211705   0.00876992
6718.00   2.34035468   0.00895540
6720.00   2.33090067   0.00888576
6722.00   2.32915473   0.00855305
6724.00   2.32898307   0.00832222
6726.00   2.33828187   0.00800072
6728.00   2.33964849   0.00782150
6730.00   2.32785034   0.00788711
6732.00   2.31287003   0.00802015
6734.00   2.30726910   0.00798503
6736.00   2.30766273   0.00783968
6738.00   2.30245066   0.00783335
6740.00   2.28997397   0.00792310
6742.00   2.28673172   0.00799684
6744.00   2.29510450   0.00803118
6746.00   2.30480027   0.00811304
6748.00   2.31022429   0.00835116
6750.00   2.31463146   0.00869767
6752.00   2.30407882   0.00873333
6754.00   2.26699305   0.00835485
6756.00   2.25656533   0.00837791
6758.00   2.27110672   0.00873965
6760.00   2.28334570   0.00909945
6762.00   2.28333712   0.00946952
6764.00   2.27752185   0.00977720
6766.00   2.26664925   0.00941638
6768.00   2.24456096   0.00797957
6770.00   2.23261094   0.00744412
6772.00   2.22755337   0.00756492
6774.00   2.22055650   0.00765538
6776.00   2.20644975   0.00762846
6778.00   2.19405365   0.00759911
6780.00   2.19788480   0.00757604
6782.00   2.21516228   0.00750844
6784.00   2.22899127   0.00765325
6786.00   2.24615526   0.00778038
6788.00   2.26221776   0.00830736
6790.00   2.28152132   0.00948672
6792.00   2.29535627   0.01042314
6794.00   2.29503608   0.01053724
6796.00   2.28440905   0.01015643
6798.00   2.26642680   0.00961214
6800.00   2.22386456   0.00795439
6802.00   2.20898271   0.00759300
6804.00   2.22172666   0.00883132
6806.00   2.23475742   0.00980075
6808.00   2.23842287   0.00994396
6810.00   2.23756719   0.00971822
6812.00   2.22075009   0.00934795
6814.00   2.18144679   0.00829833
6816.00   2.15584207   0.00795278
6818.00   2.13279009   0.00827796
6820.00   2.11364126   0.00838691
6822.00   2.09923601   0.00799707
6824.00   2.08830833   0.00746202
6826.00   2.07848191   0.00737058
6828.00   2.07005692   0.00762249
6830.00   2.06612277   0.00766917
6832.00   2.07002187   0.00768252
6834.00   2.06889820   0.00766147
6836.00   2.06028867   0.00749077
6838.00   2.05140901   0.00741562
6840.00   2.04903173   0.00777319
6842.00   2.05053973   0.00844578
6844.00   2.05159378   0.00867842
6846.00   2.05753064   0.00871632
6848.00   2.05594349   0.00865270
6850.00   2.04534221   0.00835441
6852.00   2.03506136   0.00809256
6854.00   2.03102016   0.00809707
6856.00   2.02966309   0.00823236
6858.00   2.02323151   0.00809225
6860.00   2.01462102   0.00753847
6862.00   2.00332236   0.00748035
6864.00   1.98358166   0.00781968
6866.00   1.97146893   0.00815047
6868.00   1.97112453   0.00843455
6870.00   1.97873855   0.00867967
6872.00   1.99352932   0.00873053
6874.00   2.02606034   0.00862973
6876.00   2.03141594   0.00847651
6878.00   2.01576662   0.00811991
6880.00   2.00151229   0.00789066
6882.00   1.98702955   0.00783401
6884.00   1.97384405   0.00785597
6886.00   1.96738720   0.00790124
6888.00   1.96586239   0.00802306
6890.00   1.96479118   0.00797988
6892.00   1.96739805   0.00762669
6894.00   1.96814013   0.00765697
6896.00   1.96581030   0.00816237
6898.00   1.96544445   0.00861693
6900.00   1.96998537   0.00876085
6902.00   1.97790682   0.00875231
6904.00   1.98978412   0.00863406
6906.00   2.01264238   0.00819879
6908.00   2.02253270   0.00805712
6910.00   2.02369809   0.00820830
6912.00   2.02122879   0.00826051
6914.00   2.01523900   0.00803525
6916.00   2.00651383   0.00770099
6918.00   2.00069070   0.00760374
6920.00   1.99514079   0.00769784
6922.00   1.99187827   0.00767445
6924.00   1.99081576   0.00759661
6926.00   1.99043906   0.00755175
6928.00   1.99131513   0.00756559
6930.00   1.99235368   0.00758761
6932.00   1.99128878   0.00754118
6934.00   1.98816395   0.00741077
6936.00   1.98900163   0.00750701
6938.00   1.99299467   0.00785281
6940.00   1.99666846   0.00804652
6942.00   2.00096822   0.00816490
6944.00   2.00478101   0.00817587
6946.00   2.00639296   0.00797738
6948.00   2.00648737   0.00759279
6950.00   2.01093054   0.00750968
6952.00   2.02033472   0.00770975
6954.00   2.02612948   0.00773250
6956.00   2.02976346   0.00758841
6958.00   2.03274226   0.00753560
6960.00   2.03573060   0.00767091
6962.00   2.03816557   0.00792117
6964.00   2.03880143   0.00825603
6966.00   2.03337741   0.00892415
6968.00   2.03943276   0.00898575
6970.00   2.05800772   0.00842988
6972.00   2.07119846   0.00810961
6974.00   2.07588768   0.00822849
6976.00   2.07700706   0.00850371
6978.00   2.07803726   0.00872193
6980.00   2.07558823   0.00908430
6982.00   2.08085823   0.00892677
6984.00   2.10029340   0.00807191
6986.00   2.10345197   0.00760329
6988.00   2.08460569   0.00765774
6990.00   2.06408262   0.00779886
6992.00   2.05795789   0.00769552
6994.00   2.05886912   0.00748220
6996.00   2.06280613   0.00747504
6998.00   2.07551599   0.00765634
7000.00   2.08278441   0.00774168
7002.00   2.08808064   0.00780881
7004.00   2.09033918   0.00781909
7006.00   2.08891106   0.00768725
7008.00   2.08417797   0.00749150
7010.00   2.07597017   0.00761062
7012.00   2.05862069   0.00807872
7014.00   2.05201077   0.00826445
7016.00   2.04878521   0.00842335
7018.00   2.05306911   0.00839020
7020.00   2.06853127   0.00798340
7022.00   2.08920979   0.00746456
7024.00   2.10469556   0.00745777
7026.00   2.12131262   0.00787233
7028.00   2.12811565   0.00797321
7030.00   2.12718201   0.00795391
7032.00   2.12253380   0.00793737
7034.00   2.11153650   0.00783864
7036.00   2.09922552   0.00782105
7038.00   2.09181046   0.00813160
7040.00   2.08711720   0.00869505
7042.00   2.07780242   0.00878865
7044.00   2.06186748   0.00849845
7046.00   2.05345631   0.00835687
7048.00   2.05212665   0.00825829
7050.00   2.05220842   0.00821921
7052.00   2.05037189   0.00833226
7054.00   2.04872322   0.00851951
7056.00   2.05198288   0.00833465
7058.00   2.06133938   0.00756196
7060.00   2.06713128   0.00738532
7062.00   2.07098556   0.00760607
7064.00   2.07592583   0.00791621
7066.00   2.08608079   0.00835292
7068.00   2.09523034   0.00878769
7070.00   2.08851624   0.00883957
7072.00   2.06549740   0.00860443
7074.00   2.05424452   0.00837446
7076.00   2.04349756   0.00785824
7078.00   2.04097319   0.00761340
7080.00   2.05422688   0.00774382
7082.00   2.06668067   0.00801985
7084.00   2.05645299   0.00827077
7086.00   2.02855253   0.00859430
7088.00   2.02249169   0.00874623
7090.00   2.02799320   0.00876169
7092.00   2.03677511   0.00880581
7094.00   2.05916262   0.00891515
7096.00   2.07348752   0.00893378
7098.00   2.06101584   0.00874765
7100.00   2.03224707   0.00840967
7102.00   2.02515864   0.00809423
7104.00   2.03311920   0.00760239
7106.00   2.03402281   0.00736857
7108.00   2.03095651   0.00730782
7110.00   2.03126884   0.00739506
7112.00   2.03936625   0.00766693
7114.00   2.05009007   0.00804232
7116.00   2.05224228   0.00833075
7118.00   2.04978132   0.00876591
7120.00   2.04392552   0.00869583
7122.00   2.02999020   0.00802034
7124.00   2.02053118   0.00755864
7126.00   2.01797485   0.00745313
7128.00   2.01702738   0.00748668
7130.00   2.01195383   0.00750384
7132.00   2.00411129   0.00759247
7134.00   2.00106478   0.00759689
7136.00   1.99843967   0.00742736
7138.00   2.00225472   0.00751856
7140.00   2.01746583   0.00789544
7142.00   2.03036618   0.00831441
7144.00   2.03247881   0.00874106
7146.00   2.02820182   0.00920065
7148.00   2.00928116   0.00896447
7150.00   1.96077693   0.00766290
7152.00   1.94112551   0.00712844
7154.00   1.94400370   0.00723767
7156.00   1.94865549   0.00739932
7158.00   1.95014369   0.00742816
7160.00   1.95082521   0.00745466
7162.00   1.94296622   0.00750252
7164.00   1.92598152   0.00751603
7166.00   1.91304457   0.00767168
7168.00   1.89463913   0.00790826
7170.00   1.88667011   0.00822497
7172.00   1.89553249   0.00872858
7174.00   1.90956473   0.00918491
7176.00   1.91354263   0.00926101
7178.00   1.91457903   0.00907729
7180.00   1.90770447   0.00883744
7182.00   1.88850737   0.00823000
7184.00   1.87533092   0.00795627
7186.00   1.86385286   0.00808122
7188.00   1.85904908   0.00833126
7190.00   1.86951244   0.00859321
7192.00   1.89258504   0.00894061
7194.00   1.89833808   0.00882356
7196.00   1.89531422   0.00804177
7198.00   1.88864589   0.00779089
7200.00   1.86798477   0.00798573
7202.00   1.85704291   0.00823781
7204.00   1.86799407   0.00848234
7206.00   1.89197016   0.00872064
7208.00   1.91529620   0.00858223
7210.00   1.94943500   0.00789702
7212.00   1.97142100   0.00768785
7214.00   1.99092543   0.00775316
7216.00   1.99992621   0.00786361
7218.00   1.99618208   0.00799534
7220.00   1.98298764   0.00816680
7222.00   1.96401644   0.00837495
7224.00   1.93657351   0.00872871
7226.00   1.90702772   0.00864675
7228.00   1.86126161   0.00795543
7230.00   1.83585262   0.00768631
7232.00   1.82997227   0.00787288
7234.00   1.83828580   0.00830360
7236.00   1.86435580   0.00895564
7238.00   1.91113925   0.00985003
7240.00   1.92024672   0.01009232
7242.00   1.90098703   0.00994794
7244.00   1.88585818   0.00966545
7246.00   1.86631000   0.00898970
7248.00   1.84752440   0.00834856
7250.00   1.82948053   0.00803910
7252.00   1.81338775   0.00792908
7254.00   1.81882405   0.00791028
7256.00   1.85130882   0.00803857
7258.00   1.86848092   0.00826206
7260.00   1.88142264   0.00883428
7262.00   1.89328623   0.00905642
7264.00   1.91005695   0.00865384
7266.00   1.92222130   0.00798636
7268.00   1.90755093   0.00776534
7270.00   1.86584687   0.00771837
7272.00   1.83867550   0.00794536
7274.00   1.80095816   0.00850328
7276.00   1.78900468   0.00903982
7278.00   1.81013536   0.00976705
7280.00   1.84427381   0.01027051
7282.00   1.87633729   0.00997306
7284.00   1.91749930   0.00888840
7286.00   1.92590141   0.00896294
7288.00   1.90644729   0.01033112
7290.00   1.88707793   0.01049897
7292.00   1.85681307   0.00930697
7294.00   1.83047879   0.00817882
7296.00   1.81850994   0.00850537
7298.00   1.81508386   0.00951792
7300.00   1.81277311   0.00938045
7302.00   1.81451476   0.00815530
7304.00   1.81921828   0.00768797
7306.00   1.82797539   0.00768092
7308.00   1.83862591   0.00777719
7310.00   1.85369718   0.00791016
7312.00   1.86893773   0.00811220
7314.00   1.87047577   0.00830604
7316.00   1.85640800   0.00861085
7318.00   1.85732269   0.00863892
7320.00   1.86986911   0.00843532
7322.00   1.87650335   0.00822054
7324.00   1.87710822   0.00793112
7326.00   1.87293720   0.00767628
7328.00   1.86036026   0.00765219
7330.00   1.83606184   0.00777196
7332.00   1.83639169   0.00809496
7334.00   1.86262953   0.00881771
7336.00   1.87408864   0.00916968
7338.00   1.87686670   0.00929268
7340.00   1.87112880   0.00921355
7342.00   1.85013318   0.00882398
7344.00   1.81705081   0.00813183
7346.00   1.81185544   0.00783264
7348.00   1.83575666   0.00771511
7350.00   1.83916748   0.00778278
7352.00   1.82801986   0.00825523
7354.00   1.81943369   0.00852148
7356.00   1.82315063   0.00826527
7358.00   1.82914877   0.00781109
7360.00   1.81395590   0.00796883
7362.00   1.77104437   0.00852401
7364.00   1.76018715   0.00905426
7366.00   1.76750970   0.01004444
7368.00   1.78102875   0.01038799
7370.00   1.81028426   0.00984327
7372.00   1.83680189   0.00891749
7374.00   1.82591045   0.00831074
7376.00   1.78263247   0.00766693
7378.00   1.76593161   0.00750653
7380.00   1.75809860   0.00807533
7382.00   1.75572515   0.00819930
7384.00   1.76368475   0.00784364
7386.00   1.77172256   0.00744138
7388.00   1.76977098   0.00733536
7390.00   1.76213348   0.00738149
7392.00   1.76413524   0.00739231
7394.00   1.77279830   0.00744476
7396.00   1.78084505   0.00749517
7398.00   1.78943551   0.00755165
7400.00   1.79988301   0.00761843
7402.00   1.81649280   0.00768686
7404.00   1.83430195   0.00776762
7406.00   1.83244872   0.00791529
7408.00   1.80971074   0.00828237
7410.00   1.79827631   0.00822984
7412.00   1.78707087   0.00773752
7414.00   1.78027880   0.00737104
7416.00   1.78150928   0.00726737
7418.00   1.78448129   0.00727110
7420.00   1.77811718   0.00725415
7422.00   1.76415753   0.00728079
7424.00   1.75753319   0.00728524
7426.00   1.75508249   0.00727227
7428.00   1.75213695   0.00729027
7430.00   1.74851751   0.00728644
7432.00   1.74564493   0.00736739
7434.00   1.74473417   0.00770388
7436.00   1.74540782   0.00823831
7438.00   1.74493158   0.00826578
7440.00   1.74689686   0.00771621
7442.00   1.74269176   0.00759546
7444.00   1.73026419   0.00778876
7446.00   1.71933150   0.00808250
7448.00   1.71376503   0.00852676
7450.00   1.71147358   0.00901421
7452.00   1.71500278   0.00883391
7454.00   1.72775531   0.00770055
7456.00   1.73506272   0.00732148
7458.00   1.74439669   0.00718841
7460.00   1.74700236   0.00747776
7462.00   1.73706555   0.00852629
7464.00   1.72340155   0.00956482
7466.00   1.72254801   0.00942501
7468.00   1.73088217   0.00815377
7470.00   1.73436201   0.00779244
7472.00   1.74149263   0.00803033
7474.00   1.73990262   0.00807369
7476.00   1.72528052   0.00783103
7478.00   1.70871973   0.00761463
7480.00   1.70105052   0.00776259
7482.00   1.69761992   0.00818336
7484.00   1.69631767   0.00817484
7486.00   1.70180404   0.00782347
7488.00   1.70148766   0.00758822
7490.00   1.69837677   0.00734237
7492.00   1.69076502   0.00719971
7494.00   1.67253971   0.00726709
7496.00   1.64828217   0.00747959
7498.00   1.65023530   0.00766936
7500.00   1.68454647   0.00807702
7502.00   1.69235182   0.00808148
7504.00   1.68365419   0.00760518
7506.00   1.67546260   0.00731606
7508.00   1.67193222   0.00754046
7510.00   1.66932893   0.00791070
7512.00   1.66583729   0.00786610
7514.00   1.66061592   0.00749137
7516.00   1.66040123   0.00735931
7518.00   1.66774583   0.00723418
7520.00   1.66906261   0.00730900
7522.00   1.66208625   0.00774774
7524.00   1.65256381   0.00815923
7526.00   1.64564037   0.00809700
7528.00   1.63882029   0.00766640
7530.00   1.63421381   0.00761126
7532.00   1.63244593   0.00786795
7534.00   1.62940812   0.00789256
7536.00   1.62583494   0.00768985
7538.00   1.62153935   0.00745390
7540.00   1.61530662   0.00724421
7542.00   1.60779572   0.00703146
7544.00   1.60603380   0.00723566
7546.00   1.61326909   0.00804812
7548.00   1.61064494   0.00825324
7550.00   1.60047722   0.00805259
7552.00   1.58949411   0.00781757
7554.00   1.57792318   0.00764858
7556.00   1.56673765   0.00747931
7558.00   1.56361163   0.00734579
7560.00   1.56830204   0.00723128
7562.00   1.57019079   0.00715680
7564.00   1.57410932   0.00711528
7566.00   1.57538581   0.00711367
7568.00   1.57233536   0.00718133
7570.00   1.56832516   0.00725968
7572.00   1.56850755   0.00723919
7574.00   1.57331824   0.00709911
7576.00   1.56557214   0.00727798
7578.00   1.54210901   0.00789449
7580.00   1.52972364   0.00808819
7582.00   1.52588832   0.00784145
7584.00   1.52810931   0.00751020
7586.00   1.54029739   0.00720714
7588.00   1.56157136   0.00683811
7590.00   1.55490506   0.00757610
7592.00   1.52738369   0.00873790
7594.00   1.49723971   0.01047259
7596.00   1.44183397   0.01303961
7598.00   1.40909553   0.01485239
7600.00   1.43171334   0.01558628
7602.00   1.47883141   0.01588710
7604.00   1.47008967   0.01664275
7606.00   1.40104961   0.01791369
7608.00   1.39831817   0.01816945
7610.00   1.44495106   0.01785393
7612.00   1.48134160   0.01710864
7614.00   1.50309801   0.01552705
7616.00   1.51545370   0.01357842
7618.00   1.51028192   0.01270879
7620.00   1.48326015   0.01278003
7622.00   1.47779834   0.01231110
7624.00   1.48492312   0.01164664
7626.00   1.49014628   0.01112243
7628.00   1.49617147   0.01071542
7630.00   1.50040805   0.01044607
7632.00   1.49837708   0.01040947
7634.00   1.49153495   0.01059701
7636.00   1.49100423   0.01053286
7638.00   1.49811745   0.01017835
7640.00   1.49647403   0.01016743
7642.00   1.48299026   0.01065310
7644.00   1.47452140   0.01088809
7646.00   1.48030877   0.01043757
7648.00   1.49371874   0.00959119
7650.00   1.50218022   0.00926379
7652.00   1.51813877   0.00901023
7654.00   1.51423168   0.00934687
7656.00   1.48291445   0.01052732
7658.00   1.46788990   0.01121712
7660.00   1.48505652   0.01119599
7662.00   1.51136112   0.01090341
7664.00   1.51232505   0.01083180
7666.00   1.49366021   0.01078650
7668.00   1.49552190   0.01076632
7670.00   1.51051033   0.01098842
7672.00   1.52321553   0.01080267
7674.00   1.53975892   0.01001672
7676.00   1.54947650   0.00903072
7678.00   1.53572524   0.00828979
7680.00   1.50194287   0.00759134
7682.00   1.49460888   0.00727131
7684.00   1.50833178   0.00750682
7686.00   1.51117289   0.00755958
7688.00   1.50728190   0.00755970
7690.00   1.50157714   0.00754063
7692.00   1.49503148   0.00748979
7694.00   1.48735917   0.00741774
7696.00   1.48385406   0.00740865
7698.00   1.48403668   0.00751016
7700.00   1.48318160   0.00746186
7702.00   1.48329353   0.00722334
7704.00   1.48253024   0.00709854
7706.00   1.47848403   0.00719489
7708.00   1.47475517   0.00739333
7710.00   1.48026645   0.00753919
7712.00   1.49775112   0.00761046
7714.00   1.49925303   0.00797094
7716.00   1.48725665   0.00857163
7718.00   1.47988319   0.00912345
7720.00   1.47428477   0.00981667
7722.00   1.47455072   0.01029265
7724.00   1.49121630   0.01009262
7726.00   1.52458167   0.00931305
7728.00   1.53244460   0.00872983
7730.00   1.51734710   0.00778236
7732.00   1.51467466   0.00737034
7734.00   1.52287030   0.00762507
7736.00   1.53130174   0.00803163
7738.00   1.53538060   0.00840617
7740.00   1.53745604   0.00882740
7742.00   1.53248489   0.00875607
7744.00   1.51287270   0.00802391
7746.00   1.50975299   0.00778620
7748.00   1.52253020   0.00789369
7750.00   1.53079402   0.00799399
7752.00   1.52661395   0.00798852
7754.00   1.51784050   0.00796098
7756.00   1.51576602   0.00795983
7758.00   1.51481724   0.00795905
7760.00   1.52028346   0.00799006
7762.00   1.53537309   0.00815073
7764.00   1.54606819   0.00812720
7766.00   1.55098951   0.00774545
7768.00   1.55337822   0.00733591
7770.00   1.55538619   0.00740133
7772.00   1.55617511   0.00778233
7774.00   1.55521810   0.00811452
7776.00   1.55359292   0.00877759
7778.00   1.54847944   0.00891875
7780.00   1.53306937   0.00842039
7782.00   1.52434421   0.00785986
7784.00   1.53876901   0.00770493
7786.00   1.56873214   0.00775225
7788.00   1.57809913   0.00786044
7790.00   1.57648540   0.00826436
7792.00   1.57309830   0.00833054
7794.00   1.55897343   0.00809638
7796.00   1.55182695   0.00787821
7798.00   1.56271338   0.00779257
7800.00   1.58088064   0.00776291
7802.00   1.58094656   0.00776101
7804.00   1.56624174   0.00777944
7806.00   1.55997908   0.00788656
7808.00   1.55306649   0.00813480
7810.00   1.55156088   0.00830240
7812.00   1.55567515   0.00832838
7814.00   1.56518209   0.00833372
7816.00   1.58281004   0.00847588
7818.00   1.61268449   0.00871998
7820.00   1.62357318   0.00885951
7822.00   1.61852229   0.00900821
7824.00   1.61857831   0.00902760
7826.00   1.62454462   0.00893428
7828.00   1.62900591   0.00872609
7830.00   1.62712824   0.00832529
7832.00   1.62122548   0.00770792
7834.00   1.61132812   0.00747028
7836.00   1.58822548   0.00753388
7838.00   1.58177590   0.00759090
7840.00   1.59290969   0.00769772
7842.00   1.60220456   0.00787988
7844.00   1.60032523   0.00816286
7846.00   1.59401166   0.00850679
7848.00   1.59336329   0.00878384
7850.00   1.59533465   0.00893370
7852.00   1.59767389   0.00934411
7854.00   1.60250044   0.01026293
7856.00   1.60573459   0.01058741
7858.00   1.60590947   0.00997302
7860.00   1.60527706   0.00894541
7862.00   1.60722315   0.00846120
7864.00   1.61146641   0.00817913
7866.00   1.61239254   0.00816048
7868.00   1.61558461   0.00865520
7870.00   1.60950732   0.00885779
7872.00   1.58731329   0.00877879
7874.00   1.56632137   0.00858571
7876.00   1.56330824   0.00833670
7878.00   1.57130945   0.00796207
7880.00   1.58085811   0.00787656
7882.00   1.60151577   0.00800592
7884.00   1.61275101   0.00817138
7886.00   1.62038183   0.00853253
7888.00   1.62007165   0.00875902
7890.00   1.60528934   0.00863797
7892.00   1.58127964   0.00831693
7894.00   1.57273662   0.00822821
7896.00   1.57115960   0.00834781
7898.00   1.57542324   0.00824912
7900.00   1.59240627   0.00783178
7902.00   1.60401607   0.00769342
7904.00   1.60515928   0.00803484
7906.00   1.60174644   0.00859615
7908.00   1.60004520   0.00914263
7910.00   1.59703887   0.00997881
7912.00   1.59535241   0.01003859
7914.00   1.59673619   0.00927616
7916.00   1.59357524   0.00884004
7918.00   1.58187485   0.00893233
7920.00   1.57104027   0.00907628
7922.00   1.57178247   0.00883076
7924.00   1.58054709   0.00830599
7926.00   1.58623648   0.00811686
7928.00   1.60014606   0.00782853
7930.00   1.59807706   0.00822482
7932.00   1.57212210   0.00971962
7934.00   1.55204511   0.01063695
7936.00   1.55928981   0.01013669
7938.00   1.58140814   0.00868450
7940.00   1.58391082   0.00801088
7942.00   1.57364893   0.00760947
7944.00   1.56822360   0.00741313
7946.00   1.55613613   0.00744905
7948.00   1.55568039   0.00776349
7950.00   1.58168721   0.00858337
7952.00   1.61492431   0.00944318
7954.00   1.60964680   0.00936122
7956.00   1.56587541   0.00805718
7958.00   1.55764222   0.00833925
7960.00   1.57155013   0.01012991
7962.00   1.58062971   0.01084160
7964.00   1.58601332   0.01035141
7966.00   1.58694208   0.00941330
7968.00   1.57707083   0.00876985
7970.00   1.55701768   0.00804259
7972.00   1.54242170   0.00767494
7974.00   1.52329671   0.00771562
7976.00   1.51500952   0.00772396
7978.00   1.51960862   0.00779133
7980.00   1.52669668   0.00786038
7982.00   1.53077269   0.00786560
7984.00   1.53469241   0.00784029
7986.00   1.53138936   0.00785589
7988.00   1.52020657   0.00768383
7990.00   1.51136887   0.00799508
7992.00   1.49834192   0.00897542
7994.00   1.49168801   0.00953312
7996.00   1.49584663   0.00925470
7998.00   1.50697625   0.00859125
8000.00   1.52053940   0.00855561
8002.00   1.54845953   0.00906364
8004.00   1.55088568   0.00900739
8006.00   1.53155899   0.00844358
8008.00   1.51431251   0.00814205
8010.00   1.49639022   0.00829700
8012.00   1.48329890   0.00859248
8014.00   1.49052358   0.00872956
8016.00   1.51689208   0.00884275
8018.00   1.52945864   0.00888904
8020.00   1.54338729   0.00883878
8022.00   1.54436922   0.00882960
8024.00   1.52913964   0.00883874
8026.00   1.50935459   0.00887910
8028.00   1.49034393   0.00901367
8030.00   1.46844816   0.00922359
8032.00   1.47099006   0.00911790
8034.00   1.50155807   0.00845606
8036.00   1.51819026   0.00842241
8038.00   1.53357911   0.00912384
8040.00   1.53968894   0.00956141
8042.00   1.52853191   0.00936620
8044.00   1.50773335   0.00882746
8046.00   1.50110769   0.00835240
8048.00   1.50266635   0.00752412
8050.00   1.50245857   0.00722423
8052.00   1.50365734   0.00738666
8054.00   1.50567651   0.00759156
8056.00   1.50877321   0.00777522
8058.00   1.51243937   0.00801999
8060.00   1.51614308   0.00840112
8062.00   1.52227783   0.00901381
8064.00   1.51902282   0.00907794
8066.00   1.50441778   0.00868868
8068.00   1.49568772   0.00833315
8070.00   1.49231935   0.00789949
8072.00   1.49170613   0.00752021
8074.00   1.49433637   0.00742971
8076.00   1.50105488   0.00756323
8078.00   1.49644399   0.00753869
8080.00   1.47911835   0.00744502
8082.00   1.47013748   0.00740607
8084.00   1.46660662   0.00739703
8086.00   1.46483088   0.00741740
8088.00   1.46290994   0.00739748
8090.00   1.46220410   0.00740886
8092.00   1.46610200   0.00786249
8094.00   1.47744679   0.00884383
8096.00   1.48244572   0.00933758
8098.00   1.49241519   0.00971466
8100.00   1.48719895   0.00989676
8102.00   1.45375419   0.00981719
8104.00   1.41175044   0.00959366
8106.00   1.39710903   0.00947309
8108.00   1.39758229   0.00944670
8110.00   1.40387189   0.00908532
8112.00   1.43264353   0.00817580
8114.00   1.44275045   0.00761183
8116.00   1.42821479   0.00759312
8118.00   1.40793288   0.00772957
8120.00   1.39810741   0.00766933
8122.00   1.39168406   0.00754352
8124.00   1.38651061   0.00761137
8126.00   1.38562465   0.00780861
8128.00   1.38163352   0.00805390
8130.00   1.37527776   0.00854105
8132.00   1.36808145   0.00880339
8134.00   1.36040366   0.00849759
8136.00   1.35211670   0.00781359
8138.00   1.34507906   0.00759644
8140.00   1.33706295   0.00763533
8142.00   1.33333766   0.00772032
8144.00   1.33552933   0.00804667
8146.00   1.33524966   0.00822408
8148.00   1.32882810   0.00807470
8150.00   1.32060945   0.00782380
8152.00   1.31834722   0.00790892
8154.00   1.32276535   0.00816061
8156.00   1.31766510   0.00855668
8158.00   1.30167663   0.00944779
8160.00   1.29344058   0.00973202
8162.00   1.28816438   0.00906497
8164.00   1.29422796   0.00827229
8166.00   1.33138633   0.00857377
8168.00   1.40217733   0.00957222
8170.00   1.41836751   0.00998790
8172.00   1.39515591   0.01052297
8174.00   1.37476897   0.01038258
8176.00   1.34409511   0.00916772
8178.00   1.31845534   0.00790436
8180.00   1.31152248   0.00769740
8182.00   1.31614661   0.00811962
8184.00   1.31579685   0.00822796
8186.00   1.31791389   0.00834601
8188.00   1.31687129   0.00848388
8190.00   1.31140852   0.00870681
8192.00   1.30873787   0.00882981
8194.00   1.31288874   0.00873596
8196.00   1.31956196   0.00855878
8198.00   1.31972420   0.00862737
8200.00   1.31692398   0.00889461
8202.00   1.31058812   0.00904016
8204.00   1.29494703   0.00928065
8206.00   1.28719592   0.00927520
8208.00   1.29410648   0.00890392
8210.00   1.30219483   0.00837597
8212.00   1.29296768   0.00796806
8214.00   1.26972795   0.00751889
8216.00   1.26190603   0.00734895
8218.00   1.27074051   0.00732499
8220.00   1.26325679   0.00760085
8222.00   1.22889769   0.00825726
8224.00   1.20254433   0.00893983
8226.00   1.21296501   0.00952804
8228.00   1.24698842   0.01010971
8230.00   1.26922190   0.01010654
8232.00   1.30631638   0.00938546
8234.00   1.31063759   0.00903918
8236.00   1.27718008   0.00897673
8238.00   1.24834239   0.00881466
8240.00   1.24025345   0.00829374
8242.00   1.24150050   0.00760484
8244.00   1.24522579   0.00741892
8246.00   1.26197028   0.00778913
8248.00   1.26204979   0.00773218
8250.00   1.24986053   0.00740921
8252.00   1.23816454   0.00718201
8254.00   1.22547674   0.00711914
8256.00   1.21518731   0.00713568
8258.00   1.21760321   0.00716602
8260.00   1.23260212   0.00720906
8262.00   1.23702002   0.00741740
8264.00   1.23522866   0.00734076
8266.00   1.23622131   0.00815737
8268.00   1.24365783   0.01035587
8270.00   1.24712229   0.01181206
8272.00   1.23404717   0.01120276
8274.00   1.20804024   0.00888871
8276.00   1.20801938   0.00823550
8278.00   1.23579371   0.00885255
8280.00   1.24321949   0.00899145
8282.00   1.23799765   0.00896521
8284.00   1.22677553   0.00895404
8286.00   1.20867217   0.00895623
8288.00   1.18566990   0.00899885
8290.00   1.17509913   0.00938750
8292.00   1.16780460   0.01035461
8294.00   1.17376041   0.01057765
8296.00   1.20202160   0.01041094
8298.00   1.21904635   0.01005106
8300.00   1.21614659   0.00937549
8302.00   1.20485103   0.00853070
8304.00   1.19743478   0.00806009
8306.00   1.18780696   0.00783417
8308.00   1.18200946   0.00767883
8310.00   1.18343627   0.00776621
8312.00   1.17624080   0.00777994
8314.00   1.15354741   0.00766121
8316.00   1.13299716   0.00759125
8318.00   1.13263273   0.00778773
8320.00   1.14569247   0.00819439
8322.00   1.15615511   0.00818895
8324.00   1.17604208   0.00783522
8326.00   1.18394315   0.00758691
8328.00   1.18227410   0.00726882
8330.00   1.17522216   0.00710558
8332.00   1.16151047   0.00723881
8334.00   1.14277291   0.00758359
8336.00   1.13788033   0.00810673
8338.00   1.14370942   0.00910238
8340.00   1.14818656   0.00945562
8342.00   1.15970755   0.00944992
8344.00   1.16458130   0.00932033
8346.00   1.15628779   0.00905474
8348.00   1.14320385   0.00869016
8350.00   1.14004421   0.00846043
8352.00   1.14240694   0.00831821
8354.00   1.14438450   0.00809636
8356.00   1.14961493   0.00763221
8358.00   1.15272343   0.00754676
8360.00   1.15440667   0.00811390
8362.00   1.15375614   0.00867235
8364.00   1.14744258   0.00860145
8366.00   1.13460755   0.00811931
8368.00   1.13505960   0.00777216
8370.00   1.14486623   0.00718435
8372.00   1.15604722   0.00694426
8374.00   1.17686558   0.00714357
8376.00   1.19053292   0.00738751
8378.00   1.18342531   0.00747270
8380.00   1.16306007   0.00751118
8382.00   1.15178573   0.00748994
8384.00   1.13593471   0.00716897
8386.00   1.13500428   0.00735913
8388.00   1.15042436   0.00805150
8390.00   1.16458714   0.00859384
8392.00   1.17414606   0.00889528
8394.00   1.18067837   0.00905212
8396.00   1.17787981   0.00895951
8398.00   1.16320384   0.00852962
8400.00   1.15695882   0.00825649
8402.00   1.15195262   0.00783618
8404.00   1.15113688   0.00771769
8406.00   1.15713227   0.00808810
8408.00   1.16461837   0.00855557
8410.00   1.16502833   0.00872715
8412.00   1.15848589   0.00880077
8414.00   1.16947627   0.00866700
8416.00   1.20088434   0.00808716
8418.00   1.21928239   0.00786800
8420.00   1.22774339   0.00806642
8422.00   1.23023736   0.00832430
8424.00   1.22579753   0.00842644
8426.00   1.21457589   0.00848306
8428.00   1.21466267   0.00859786
8430.00   1.22853529   0.00889326
8432.00   1.22763252   0.00884549
8434.00   1.20931494   0.00842696
8436.00   1.19875157   0.00801580
8438.00   1.20759964   0.00772355
8440.00   1.22576499   0.00751079
8442.00   1.23609471   0.00756741
8444.00   1.24322009   0.00796159
8446.00   1.25376439   0.00815240
8448.00   1.26907873   0.00837592
8450.00   1.27960527   0.00843370
8452.00   1.28224969   0.00820222
8454.00   1.28257346   0.00790378
8456.00   1.28790557   0.00790520
8458.00   1.29633605   0.00809433
8460.00   1.30127656   0.00826042
8462.00   1.30968952   0.00858536
8464.00   1.30666888   0.00870471
8466.00   1.28432894   0.00861121
8468.00   1.26458204   0.00843216
8470.00   1.26750219   0.00823352
8472.00   1.28471339   0.00796980
8474.00   1.29145026   0.00781878
8476.00   1.30031693   0.00777408
8478.00   1.29758549   0.00767807
8480.00   1.27696109   0.00751516
8482.00   1.26245308   0.00741259
8484.00   1.26530242   0.00743460
8486.00   1.27770329   0.00753728
8488.00   1.29071701   0.00766139
8490.00   1.31396520   0.00785740
8492.00   1.32492745   0.00801205
8494.00   1.33062851   0.00816981
8496.00   1.33011127   0.00830196
8498.00   1.31909394   0.00840935
8500.00   1.30510652   0.00849106
8502.00   1.30381477   0.00854002
8504.00   1.31449664   0.00857856
8506.00   1.30822444   0.00850973
8508.00   1.27917218   0.00829053
8510.00   1.27225816   0.00813248
8512.00   1.29568350   0.00805599
8514.00   1.32271290   0.00798298
8516.00   1.32962191   0.00782371
8518.00   1.32599890   0.00758946
8520.00   1.32834423   0.00760748
8522.00   1.33224404   0.00772707
8524.00   1.33423841   0.00807703
8526.00   1.33618140   0.00896179
8528.00   1.33514571   0.00944361
8530.00   1.32708192   0.00895308
8532.00   1.31525719   0.00783822
8534.00   1.31541622   0.00761327
8536.00   1.32322776   0.00786243
8538.00   1.33429909   0.00834282
8540.00   1.35772753   0.00944538
8542.00   1.37189960   0.01007786
8544.00   1.37046075   0.01006494
8546.00   1.36088967   0.00972597
8548.00   1.35070014   0.00934069
8550.00   1.33034694   0.00851382
8552.00   1.33056355   0.00844227
8554.00   1.35288680   0.00927183
8556.00   1.36450553   0.00950232
8558.00   1.36315227   0.00896406
8560.00   1.35768461   0.00822480
8562.00   1.35358500   0.00789731
8564.00   1.34746790   0.00776273
8566.00   1.34819114   0.00767450
8568.00   1.35637760   0.00775544
8570.00   1.36087251   0.00778632
8572.00   1.36228061   0.00779849
8574.00   1.36391115   0.00780999
8576.00   1.36698890   0.00781371
8578.00   1.37091780   0.00781545
8580.00   1.37816644   0.00789112
8582.00   1.39372182   0.00800123
8584.00   1.39802980   0.00818143
8586.00   1.39748657   0.00844275
8588.00   1.38901949   0.00871228
8590.00   1.36451125   0.00907090
8592.00   1.33571219   0.00937875
8594.00   1.33489919   0.00921727
8596.00   1.35891771   0.00849259
8598.00   1.36890376   0.00819954
8600.00   1.37671864   0.00810064
8602.00   1.38238919   0.00806521
8604.00   1.38414752   0.00812911
8606.00   1.38556921   0.00822803
8608.00   1.39147413   0.00824189
8610.00   1.39989436   0.00819272
8612.00   1.41010273   0.00830223
8614.00   1.43133581   0.00857824
8616.00   1.43552339   0.00875629
8618.00   1.41858089   0.00885306
8620.00   1.40028036   0.00893488
8622.00   1.39172935   0.00903527
8624.00   1.38719988   0.00913704
8626.00   1.39570034   0.00923449
8628.00   1.42699945   0.00936232
8630.00   1.43860114   0.00941303
8632.00   1.44109845   0.00923450
8634.00   1.43447828   0.00930402
8636.00   1.40987968   0.00988915
8638.00   1.37927794   0.01065495
8640.00   1.38470018   0.01103412
8642.00   1.42600501   0.01140039
8644.00   1.44251883   0.01124605
8646.00   1.45538604   0.01030740
8648.00   1.45643187   0.00968939
8650.00   1.43476713   0.00967915
8652.00   1.41126704   0.00988074
8654.00   1.41945779   0.00993099
8656.00   1.45259976   0.01001969
8658.00   1.46577179   0.00990549
8660.00   1.47659159   0.00935154
8662.00   1.47494793   0.00929981
8664.00   1.45330822   0.00997650
8666.00   1.43193698   0.01055740
8668.00   1.42880189   0.01044294
8670.00   1.43602693   0.00989712
8672.00   1.43218780   0.00989618
8674.00   1.41960835   0.01036316
8676.00   1.41444027   0.01047175
8678.00   1.41308415   0.01044045
8680.00   1.41531146   0.01020800
8682.00   1.42329526   0.00958487
8684.00   1.43447185   0.00870106
8686.00   1.43764937   0.00838730
8688.00   1.43332863   0.00852665
8690.00   1.43454731   0.00863243
8692.00   1.43743885   0.00896183
8694.00   1.44195056   0.00917950
8696.00   1.44778168   0.00924300
8698.00   1.45547450   0.00922540
8700.00   1.46677589   0.00915232
8702.00   1.48393190   0.00895344
8704.00   1.49094808   0.00894289
8706.00   1.48976159   0.00919232
8708.00   1.48975945   0.00918607
8710.00   1.49066687   0.00879776
8712.00   1.49106240   0.00839882
8714.00   1.49068975   0.00838090
8716.00   1.48988843   0.00860164
8718.00   1.48551154   0.00865116
8720.00   1.47453010   0.00866952
8722.00   1.47007465   0.00865045
8724.00   1.47263801   0.00855899
8726.00   1.47411203   0.00848554
8728.00   1.46898735   0.00848437
8730.00   1.46134984   0.00851948
8732.00   1.46312785   0.00852413
8734.00   1.47216594   0.00849707
8736.00   1.48121333   0.00852406
8738.00   1.49531782   0.00861655
8740.00   1.50638330   0.00867138
8742.00   1.51400042   0.00862364
8744.00   1.51785350   0.00857186
8746.00   1.51312804   0.00869219
8748.00   1.49555492   0.00889210
8750.00   1.49484408   0.00925367
8752.00   1.51088202   0.00995418
8754.00   1.51644897   0.01031754
8756.00   1.50848377   0.01025869
8758.00   1.49753642   0.01013346
8760.00   1.49216795   0.01028974
8762.00   1.48861146   0.01060114
8764.00   1.48615742   0.01070825
8766.00   1.48946118   0.01070297
8768.00   1.48448467   0.01068320
8770.00   1.46917737   0.01058812
8772.00   1.45494986   0.01052265
8774.00   1.44576418   0.01053907
8776.00   1.43991590   0.01061116
8778.00   1.45017755   0.01079806
8780.00   1.49627423   0.01143630
8782.00   1.49692273   0.01130338
8784.00   1.45413256   0.01031514
8786.00   1.42339349   0.00950378
8788.00   1.42050612   0.00930081
8790.00   1.43004274   0.00938074
8792.00   1.43922091   0.00939026
8794.00   1.45786643   0.00949076
8796.00   1.46461976   0.00957041
8798.00   1.46065462   0.00979728
8800.00   1.46177959   0.00977642
8802.00   1.47256541   0.00933447
8804.00   1.48239231   0.00882563
8806.00   1.47964120   0.00872288
8808.00   1.46857083   0.00885701
8810.00   1.45531631   0.00909233
8812.00   1.42562938   0.00963879
8814.00   1.41789794   0.00992482
8816.00   1.43230236   0.00954472
8818.00   1.45375633   0.00973799
8820.00   1.47781777   0.01163504
8822.00   1.50670147   0.01411335
8824.00   1.51160681   0.01439900
8826.00   1.49191344   0.01279926
8828.00   1.48281169   0.01209030
8830.00   1.47500169   0.01172129
8832.00   1.46928120   0.01139850
8834.00   1.46797597   0.01105651
8836.00   1.46805882   0.01073663
8838.00   1.46038711   0.01037528
8840.00   1.44471729   0.00992632
8842.00   1.43578827   0.00965900
8844.00   1.42259109   0.00923037
8846.00   1.42405677   0.00943602
8848.00   1.45098412   0.01077158
8850.00   1.48201394   0.01200171
8852.00   1.48762953   0.01186082
8854.00   1.47660494   0.01065677
8856.00   1.47273839   0.01009995
8858.00   1.47199273   0.00958994
8860.00   1.46328104   0.00937562
8862.00   1.44300115   0.00962775
8864.00   1.42298710   0.00991215
8866.00   1.41122985   0.00992237
8868.00   1.40369630   0.00981123
8870.00   1.40358186   0.00967805
8872.00   1.41868019   0.00936600
8874.00   1.41992092   0.00926491
8876.00   1.40526962   0.00922814
8878.00   1.39790225   0.00941223
8880.00   1.40920496   0.00990979
8882.00   1.42970705   0.01058603
8884.00   1.44261754   0.01120783
8886.00   1.46321189   0.01225012
8888.00   1.45788288   0.01225346
8890.00   1.41812325   0.01108415
8892.00   1.39671981   0.01033167
8894.00   1.41042745   0.01052267
8896.00   1.43089056   0.01096516
8898.00   1.41957045   0.01092113
8900.00   1.38370395   0.01063828
8902.00   1.37133503   0.01042521
8904.00   1.37148929   0.01012188
8906.00   1.37133491   0.00990957
8908.00   1.37354839   0.00972750
8910.00   1.37517726   0.00968334
8912.00   1.37096667   0.00977400
8914.00   1.36239946   0.00993466
8916.00   1.36601925   0.01114782
8918.00   1.39013541   0.01394987
8920.00   1.38993275   0.01465222
8922.00   1.36470520   0.01383320
8924.00   1.34069407   0.01260991
8926.00   1.32866538   0.01124832
8928.00   1.32211983   0.00952683
8930.00   1.32075679   0.00884378
8932.00   1.32801199   0.00938641
8934.00   1.33237374   0.00948339
8936.00   1.34132266   0.00966293
8938.00   1.34346735   0.00982803
8940.00   1.33667541   0.00999290
8942.00   1.32342505   0.01012475
8944.00   1.30304754   0.01010656
8946.00   1.26623487   0.00988376
8948.00   1.26080811   0.00996236
8950.00   1.28569746   0.01004492
8952.00   1.29934323   0.01053376
8954.00   1.30750287   0.01160755
8956.00   1.30471504   0.01262110
8958.00   1.27569163   0.01316871
8960.00   1.22181726   0.01354581
8962.00   1.20507061   0.01322971
8964.00   1.21328044   0.01187952
8966.00   1.21979153   0.01091290
8968.00   1.23382735   0.01000849
8970.00   1.24510264   0.00940350
8972.00   1.24469876   0.00943613
8974.00   1.23852992   0.00992117
8976.00   1.24567080   0.01012037
8978.00   1.27429152   0.01034466
8980.00   1.27406013   0.01043905
8982.00   1.25067747   0.01031989
8984.00   1.22736561   0.01034577
8986.00   1.20329523   0.01067138
8988.00   1.18339562   0.01108488
8990.00   1.19187224   0.01125752
8992.00   1.23071456   0.01121836
8994.00   1.24873674   0.01145225
8996.00   1.26385772   0.01202689
8998.00   1.26971042   0.01226614
9000.00   1.26109743   0.01211163
9002.00   1.24948931   0.01178532
9004.00   1.24945319   0.01140793
9006.00   1.25704014   0.01080666
9008.00   1.25155342   0.01088261
9010.00   1.23830831   0.01140120
9012.00   1.22183979   0.01213851
9014.00   1.18820560   0.01371768
9016.00   1.16934896   0.01453689
9018.00   1.19428515   0.01340695
9020.00   1.24676991   0.01068491
9022.00   1.25967252   0.00994884
9024.00   1.24633372   0.01118168
9026.00   1.24035907   0.01116822
9028.00   1.22814476   0.01037262
9030.00   1.22255957   0.00978221
9032.00   1.23105395   0.00975882
9034.00   1.24524927   0.01005928
9036.00   1.24807143   0.01059012
9038.00   1.24659169   0.01173028
9040.00   1.23838174   0.01186593
9042.00   1.22299623   0.01088822
9044.00   1.20387805   0.01061392
9046.00   1.17265129   0.01170442
9048.00   1.14587128   0.01274955
9050.00   1.15160787   0.01232634
9052.00   1.18710768   0.01061075
9054.00   1.18873477   0.01015327
9056.00   1.16575193   0.01075687
9058.00   1.15298402   0.01076638
9060.00   1.14599788   0.01013337
9062.00   1.14359069   0.00948433
9064.00   1.14916921   0.00932125
9066.00   1.16142845   0.00943490
9068.00   1.15912545   0.00947572
9070.00   1.14122784   0.00963335
9072.00   1.13509595   0.00967608
9074.00   1.13378608   0.00959246
9076.00   1.13813913   0.00956263
9078.00   1.15237308   0.00965826
9080.00   1.17125201   0.00982110
9082.00   1.17603588   0.00999435
9084.00   1.16832530   0.01029259
9086.00   1.16845667   0.01035282
9088.00   1.17836940   0.01021729
9090.00   1.17504644   0.01008628
9092.00   1.14824951   0.00994219
9094.00   1.11659849   0.00982505
9096.00   1.10619557   0.00986129
9098.00   1.10829735   0.01002687
9100.00   1.11101031   0.01015254
9102.00   1.12282002   0.01039987
9104.00   1.12931645   0.01043639
9106.00   1.13156652   0.01021895
9108.00   1.13093042   0.00993018
9110.00   1.12690890   0.00969333
9112.00   1.11941767   0.00944070
9114.00   1.11488771   0.00934515
9116.00   1.11093724   0.00909054
9118.00   1.10824060   0.00952738
9120.00   1.11107576   0.01099277
9122.00   1.10805702   0.01185259
9124.00   1.08992946   0.01144169
9126.00   1.06481683   0.01033137
9128.00   1.05827653   0.00999385
9130.00   1.06410813   0.00994446
9132.00   1.07131958   0.01015474
9134.00   1.09171689   0.01090006
9136.00   1.10128915   0.01135547
9138.00   1.08920145   0.01139837
9140.00   1.07254684   0.01125215
9142.00   1.07961082   0.01109366
9144.00   1.10887253   0.01080007
9146.00   1.10935211   0.01061464
9148.00   1.08565593   0.01043746
9150.00   1.07206130   0.01034826
9152.00   1.06610096   0.01027889
9154.00   1.06660414   0.01036957
9156.00   1.07799685   0.01082907
9158.00   1.10038662   0.01158173
9160.00   1.10705066   0.01188307
9162.00   1.10068059   0.01201138
9164.00   1.10114408   0.01195104
9166.00   1.10423076   0.01157289
9168.00   1.11060619   0.01118988
9170.00   1.12284493   0.01098152
9172.00   1.13879406   0.01085144
9174.00   1.14704812   0.01074523
9176.00   1.15850437   0.01056577
9178.00   1.15011013   0.01071403
9180.00   1.11224413   0.01131037
9182.00   1.08974504   0.01166228
9184.00   1.09873593   0.01166604
9186.00   1.11888433   0.01144282
9188.00   1.12011731   0.01093659
9190.00   1.10800195   0.00974678
9192.00   1.11132681   0.00958213
9194.00   1.12646258   0.01042900
9196.00   1.13774335   0.01085406
9198.00   1.14932978   0.01089845
9200.00   1.15435088   0.01074629
9202.00   1.13885427   0.01036618
9204.00   1.10339415   0.00963936
9206.00   1.09984493   0.00949966
9208.00   1.12428725   0.00982254
9210.00   1.13533378   0.01009530
9212.00   1.13292360   0.01043761
9214.00   1.13492548   0.01076370
9216.00   1.15424168   0.01103929
9218.00   1.18327999   0.01128311
9220.00   1.19579411   0.01134683
9222.00   1.20619965   0.01123800
9224.00   1.19713891   0.01111876
9226.00   1.16261399   0.01081923
9228.00   1.13146985   0.01067231
9230.00   1.11259139   0.01082043
9232.00   1.09773016   0.01111336
9234.00   1.07846224   0.01135725
9236.00   1.04848778   0.01182375
9238.00   1.04801881   0.01167000
9240.00   1.08103645   0.01070422
9242.00   1.09999776   0.01015170
9244.00   1.10136402   0.01037039
9246.00   1.09489393   0.01070166
9248.00   1.08477080   0.01045174
9250.00   1.06666005   0.00978536
9252.00   1.05935252   0.00952573
9254.00   1.05785322   0.00935439
9256.00   1.05879092   0.00949260
9258.00   1.06202877   0.01002617
9260.00   1.06909657   0.01061206
9262.00   1.08473790   0.01117905
9264.00   1.10678697   0.01176765
9266.00   1.10516906   0.01152488
9268.00   1.07999015   0.01001988
9270.00   1.06515813   0.00945730
9272.00   1.05233657   0.00960975
9274.00   1.04125738   0.00987210
9276.00   1.03045583   0.01008641
9278.00   1.02202117   0.01034819
9280.00   1.02413285   0.01058337
9282.00   1.04291844   0.01083722
9284.00   1.04265702   0.01104156
9286.00   1.02797055   0.01112443
9288.00   1.01655018   0.01135936
9290.00   1.00598538   0.01161906
9292.00   1.00109303   0.01212532
9294.00   1.01670766   0.01338542
9296.00   1.05651629   0.01541793
9298.00   1.05923116   0.01572456
9300.00   1.03686762   0.01413103
9302.00   1.01257908   0.01392503
9304.00   0.96969938   0.01510794
9306.00   0.93998420   0.01668067
9308.00   0.96164513   0.01832879
9310.00   1.02022409   0.02018029
9312.00   1.01391339   0.02100816
9314.00   0.95476896   0.02120689
9316.00   0.91620010   0.02124156
9318.00   0.87330455   0.02091430
9320.00   0.84724963   0.02046661
9322.00   0.85183001   0.01997413
9324.00   0.87554604   0.01939222
9326.00   0.89291108   0.01883535
9328.00   0.92891830   0.01801581
9330.00   0.92701036   0.01781604
9332.00   0.88681489   0.01803358
9334.00   0.85701543   0.01854480
9336.00   0.84306949   0.01935354
9338.00   0.83853894   0.02037075
9340.00   0.84540838   0.02162142
9342.00   0.86394346   0.02367535
9344.00   0.88836861   0.02313809
9346.00   0.94889671   0.01894165
9348.00   0.95948029   0.01681821
9350.00   0.89635617   0.01840827
9352.00   0.83095282   0.02007107
9354.00   0.82708997   0.01918052
9356.00   0.85806817   0.01659432
9358.00   0.88146603   0.01561827
9360.00   0.92497212   0.01467544
9362.00   0.94517809   0.01578655
9364.00   0.94341046   0.01923356
9366.00   0.93894500   0.02201302
9368.00   0.94264853   0.02329175
9370.00   0.94699717   0.02402316
9372.00   0.93571001   0.02531101
9374.00   0.89921612   0.02737663
9376.00   0.88986772   0.02800499
9378.00   0.89743721   0.02814525
9380.00   0.90762997   0.02719624
9382.00   0.92054009   0.02423948
9384.00   0.93421477   0.01995294
9386.00   0.93874413   0.01724153
9388.00   0.93641001   0.01562820
9390.00   0.93502885   0.01400973
9392.00   0.93887061   0.01282122
9394.00   0.92794091   0.01246306
9396.00   0.88654196   0.01350253
9398.00   0.85120940   0.01469923
9400.00   0.86521894   0.01499875
9402.00   0.91583025   0.01491905
9404.00   0.93611306   0.01465680
9406.00   0.94825166   0.01383737
9408.00   0.95184731   0.01337140
9410.00   0.94112080   0.01302261
9412.00   0.93050796   0.01302918
9414.00   0.92922348   0.01361477
9416.00   0.93190128   0.01457961
9418.00   0.92986840   0.01540282
9420.00   0.92698842   0.01617179
9422.00   0.92057896   0.01717625
9424.00   0.90643251   0.01889599
9426.00   0.89801514   0.01969300
9428.00   0.89787865   0.01890211
9430.00   0.90432709   0.01738479
9432.00   0.92136598   0.01697805
9434.00   0.96186697   0.01659621
9436.00   0.96310872   0.01809824
9438.00   0.92950881   0.02226960
9440.00   0.90461183   0.02392095
9442.00   0.88515991   0.02294765
9444.00   0.87449557   0.02088593
9446.00   0.88649899   0.01903842
9448.00   0.92092884   0.01636179
9450.00   0.93223488   0.01546300
9452.00   0.93486851   0.01638240
9454.00   0.92991376   0.01711068
9456.00   0.91020471   0.01825765
9458.00   0.89252132   0.01906419
9460.00   0.88821048   0.01896200
9462.00   0.89138877   0.01827391
9464.00   0.89872420   0.01776908
9466.00   0.91650629   0.01688604
9468.00   0.92773503   0.01656145
9470.00   0.94571614   0.01654004
9472.00   0.94653565   0.01693231
9474.00   0.91523445   0.01798913
9476.00   0.86813432   0.01926236
9478.00   0.84105456   0.01973426
9480.00   0.81220603   0.02004641
9482.00   0.81469166   0.01938543
9484.00   0.86750537   0.01714194
9486.00   0.88673216   0.01532313
9488.00   0.85524952   0.01427290
9490.00   0.80743980   0.01377883
9492.00   0.77470702   0.01384622
9494.00   0.73502445   0.01443214
9496.00   0.74636132   0.01582218
9498.00   0.81090289   0.01854939
9500.00   0.86453819   0.01994788
9502.00   0.92361039   0.02070845
9504.00   0.96992898   0.02063173
9506.00   0.98537230   0.01896120
9508.00   0.97864038   0.01551472
9510.00   0.95733452   0.01417959
9512.00   0.89388496   0.01417805
9514.00   0.86998236   0.01492343
9516.00   0.87853974   0.01710615
9518.00   0.88795364   0.01877661
9520.00   0.88568765   0.01967747
9522.00   0.88108838   0.02007630
9524.00   0.88374138   0.01919959
9526.00   0.88255012   0.01578586
9528.00   0.90547049   0.01470071
9530.00   0.96310985   0.01532670
9532.00   1.00153661   0.01605816
9534.00   1.01302695   0.01691679
9536.00   1.00908399   0.01775279
9538.00   0.99524063   0.01800245
9540.00   0.96627086   0.01789129
9542.00   0.93892777   0.01762457
9544.00   0.88711900   0.01683077
9546.00   0.87417114   0.01639009
9548.00   0.92194009   0.01619394
9550.00   0.96610069   0.01633544
9552.00   0.94755292   0.01703953
9554.00   0.89020449   0.01819107
9556.00   0.85922092   0.01890077
9558.00   0.82294416   0.01977608
9560.00   0.81285840   0.01990358
9562.00   0.83068818   0.01911525
9564.00   0.85489887   0.01834399
9566.00   0.87787032   0.01809804
9568.00   0.90357488   0.01807242
9570.00   0.92481154   0.01791805
9572.00   0.95734644   0.01789188
9574.00   0.95568961   0.01754076
9576.00   0.91226619   0.01677344
9578.00   0.88577420   0.01615848
9580.00   0.89816183   0.01593675
9582.00   0.91770190   0.01580872
9584.00   0.89498490   0.01527645
9586.00   0.83251810   0.01427248
9588.00   0.81573278   0.01396034
9590.00   0.82943773   0.01428147
9592.00   0.83926374   0.01442339
9594.00   0.84700048   0.01430782
9596.00   0.85454923   0.01424973
9598.00   0.86107910   0.01452119
9600.00   0.86756217   0.01501036
9602.00   0.86738276   0.01544507
9604.00   0.84980667   0.01626333
9606.00   0.85603940   0.01634237
9608.00   0.89658159   0.01554824
9610.00   0.92576063   0.01472797
9612.00   0.91241205   0.01422987
9614.00   0.87654912   0.01393345
9616.00   0.87223452   0.01474692
9618.00   0.89750421   0.01719712
9620.00   0.89430988   0.01788931
9622.00   0.86104280   0.01765402
9624.00   0.84685796   0.01720900
9626.00   0.87354094   0.01665264
9628.00   0.91370648   0.01590281
9630.00   0.91909432   0.01507321
9632.00   0.89190561   0.01372122
9634.00   0.90632039   0.01350066
9636.00   0.95571136   0.01440427
9638.00   0.99217486   0.01506544
9640.00   1.02173197   0.01562741
9642.00   1.03658998   0.01598788
9644.00   1.01814079   0.01581774
9646.00   0.97010666   0.01517044
9648.00   0.93001831   0.01475782
9650.00   0.86398590   0.01424556
9652.00   0.84008586   0.01395566
9654.00   0.86774826   0.01389511
9656.00   0.89664388   0.01395106
9658.00   0.89616144   0.01407797
9660.00   0.88263404   0.01429546
9662.00   0.87080783   0.01449207
9664.00   0.84966141   0.01478772
9666.00   0.83872539   0.01490946
9668.00   0.82989556   0.01492733
9670.00   0.83119708   0.01485499
9672.00   0.85125506   0.01461349
9674.00   0.87900865   0.01431338
9676.00   0.88607848   0.01433651
9678.00   0.88363165   0.01470398
9680.00   0.87002575   0.01473740
9682.00   0.82467985   0.01451568
9684.00   0.80888456   0.01441230
9686.00   0.83676720   0.01447023
9688.00   0.87827379   0.01459622
9690.00   0.90402162   0.01473601
9692.00   0.93149149   0.01493365
9694.00   0.92583877   0.01503361
9696.00   0.87919259   0.01511691
9698.00   0.85077071   0.01509222
9700.00   0.83326083   0.01492582
9702.00   0.82414335   0.01472385
9704.00   0.82793123   0.01454194
9706.00   0.84291786   0.01434892
9708.00   0.84065402   0.01430371
9710.00   0.81964189   0.01432740
9712.00   0.81688648   0.01450493
9714.00   0.83022922   0.01488505
9716.00   0.84181643   0.01526365
9718.00   0.84562296   0.01565712
9720.00   0.84589642   0.01600484
9722.00   0.84388500   0.01591049
9724.00   0.83471233   0.01504926
9726.00   0.83509225   0.01519030
9728.00   0.84420300   0.01623042
9730.00   0.85004210   0.01687716
9732.00   0.85017234   0.01706686
9734.00   0.84880918   0.01698430
9736.00   0.85087836   0.01658364
9738.00   0.85661334   0.01569534
9740.00   0.85265213   0.01526165
9742.00   0.83638173   0.01508473
9744.00   0.82877320   0.01492116
9746.00   0.83399284   0.01484342
9748.00   0.83706057   0.01475600
9750.00   0.82605642   0.01454955
9752.00   0.80635506   0.01426788
9754.00   0.78432643   0.01399694
9756.00   0.74225616   0.01358834
9758.00   0.73061651   0.01342377
9760.00   0.74171495   0.01330127
9762.00   0.76671004   0.01354400
9764.00   0.81210995   0.01451151
9766.00   0.86896992   0.01574615
9768.00   0.88466305   0.01599079
9770.00   0.86691707   0.01556999
9772.00   0.85611832   0.01513611
9774.00   0.83512169   0.01405263
9776.00   0.81843090   0.01346638
9778.00   0.80951691   0.01383795
9780.00   0.80353510   0.01455456
9782.00   0.79506743   0.01486221
9784.00   0.78454334   0.01501502
9786.00   0.78098965   0.01532595
9788.00   0.78799707   0.01559477
9790.00   0.78621465   0.01611254
9792.00   0.77390611   0.01713557
9794.00   0.75858915   0.01796150
9796.00   0.74377167   0.01797550
9798.00   0.72600460   0.01743987
9800.00   0.72812104   0.01695576
9802.00   0.74854809   0.01600129
9804.00   0.76799190   0.01553657
9806.00   0.79984432   0.01561351
9808.00   0.82009959   0.01571238
9810.00   0.81202197   0.01558590
9812.00   0.78685039   0.01537794
9814.00   0.77283454   0.01516285
9816.00   0.76485312   0.01475941
9818.00   0.74609131   0.01468279
9820.00   0.70783365   0.01484314
9822.00   0.68744421   0.01508954
9824.00   0.69814801   0.01557134
9826.00   0.72340500   0.01600513
9828.00   0.74012017   0.01566456
9830.00   0.75884491   0.01441803
9832.00   0.77252752   0.01401658
9834.00   0.78949648   0.01408520
9836.00   0.79149485   0.01424843
9838.00   0.77146435   0.01450210
9840.00   0.74653405   0.01488714
9842.00   0.73285276   0.01543375
9844.00   0.72153485   0.01614833
9846.00   0.72855359   0.01665962
9848.00   0.76184815   0.01715693
9850.00   0.77978230   0.01746405
9852.00   0.78812051   0.01772487
9854.00   0.79055440   0.01769165
9856.00   0.78477383   0.01696966
9858.00   0.77256405   0.01573936
9860.00   0.77615643   0.01577303
9862.00   0.79602331   0.01703990
9864.00   0.80452502   0.01757353
9866.00   0.81217027   0.01774158
9868.00   0.81060338   0.01804909
9870.00   0.79069203   0.01875332
9872.00   0.76469803   0.01951131
9874.00   0.76320481   0.01971122
9876.00   0.78063554   0.01957514
9878.00   0.79121768   0.01923788
9880.00   0.81157309   0.01835972
9882.00   0.81611657   0.01774507
9884.00   0.79936224   0.01739104
9886.00   0.77376777   0.01732847
9888.00   0.75010389   0.01783652
9890.00   0.72016507   0.01897484
9892.00   0.71042848   0.01912271
9894.00   0.71921962   0.01850965
9896.00   0.72507626   0.01811142
9898.00   0.73415446   0.01784041
9900.00   0.73947811   0.01757246
9902.00   0.73128909   0.01712940
9904.00   0.71427083   0.01658197
9906.00   0.72026682   0.01701513
9908.00   0.75254518   0.01840466
9910.00   0.76407206   0.01939233
9912.00   0.75960404   0.02046959
9914.00   0.75750321   0.02125689
9916.00   0.76830441   0.02177409
9918.00   0.78128403   0.02197630
9920.00   0.77138102   0.02131109
9922.00   0.73420864   0.01925945
9924.00   0.72319710   0.01826678
9926.00   0.72952229   0.01776024
9928.00   0.73223186   0.01751265
9930.00   0.72980261   0.01720667
9932.00   0.72492290   0.01747452
9934.00   0.71909577   0.01919755
9936.00   0.71645981   0.02182586
9938.00   0.68746316   0.02446776
9940.00   0.60683936   0.02855151
9942.00   0.58121538   0.03017272
9944.00   0.62625408   0.02908130
9946.00   0.67548722   0.02777441
9948.00   0.67743176   0.02857522
9950.00   0.65538228   0.03043553
9952.00   0.65048712   0.03014051
9954.00   0.64793324   0.02757739
9956.00   0.65044248   0.02651656
9958.00   0.66047060   0.02677258
9960.00   0.67005044   0.02686867
9962.00   0.67911839   0.02616489
9964.00   0.68603760   0.02509218
9966.00   0.67448193   0.02424115
9968.00   0.63388950   0.02297966
9970.00   0.62399065   0.02282018
9972.00   0.62746000   0.02405028
9974.00   0.64297777   0.02462434
9976.00   0.68291092   0.02425507
9978.00   0.72474921   0.02338696
9980.00   0.72535783   0.02222914
9982.00   0.69804674   0.02027300
9984.00   0.66509181   0.01932536
9986.00   0.58984667   0.01920952
9988.00   0.56210411   0.01905927
9990.00   0.59407526   0.01885695
9992.00   0.63934749   0.01883535
9994.00   0.66223812   0.01919496
9996.00   0.67962390   0.01986611
9998.00   0.68744928   0.02027027
10000.00   0.66915596   0.01980425
10002.00   0.68234771   0.02104619
10004.00   0.74233592   0.02403129
10006.00   0.78041553   0.02655460
10008.00   0.75297892   0.02798795
10010.00   0.69093972   0.02894726
10012.00   0.67078185   0.02971900
10014.00   0.67188388   0.03055302
10016.00   0.67090249   0.03037699
10018.00   0.68506116   0.02903393
10020.00   0.68557328   0.02775329
10022.00   0.66114485   0.02673568
10024.00   0.62726682   0.02586414
10026.00   0.60754526   0.02541876
10028.00   0.59393567   0.02551690
10030.00   0.58039016   0.02520677
10032.00   0.56105143   0.02480287
10034.00   0.55900592   0.02422796
10036.00   0.58308989   0.02330522
10038.00   0.61105400   0.02237313
10040.00   0.62122011   0.02187931
10042.00   0.62335330   0.02168971
10044.00   0.61685407   0.02144800
10046.00   0.58987051   0.02127215
10048.00   0.58064216   0.02117220
10050.00   0.58589309   0.02106180
10052.00   0.59648663   0.02115318
10054.00   0.60776561   0.02159220
10056.00   0.62243575   0.02227221
10058.00   0.64484131   0.02296092
10060.00   0.69662923   0.02407305
10062.00   0.70009023   0.02445452
10064.00   0.65608811   0.02422922
10066.00   0.62039137   0.02399910
10068.00   0.60934395   0.02386613
10070.00   0.60685456   0.02377635
10072.00   0.59706289   0.02385853
10074.00   0.57885408   0.02381639
10076.00   0.58360142   0.02470647
10078.00   0.61758274   0.02651689
10080.00   0.63408798   0.02804635
10082.00   0.63147193   0.02981709
10084.00   0.61664754   0.03093461
10086.00   0.58777905   0.02998154
10088.00   0.53898126   0.02699903
10090.00   0.52282733   0.02544955
10092.00   0.52480543   0.02384380
10094.00   0.53688926   0.02363388
10096.00   0.57584333   0.02520602
10098.00   0.60451031   0.02704267
10100.00   0.58945191   0.02848647
10102.00   0.54810196   0.02989746
10104.00   0.54835927   0.03051184
10106.00   0.59033459   0.03079350
10108.00   0.59561485   0.03026634
10110.00   0.57420725   0.02833448
10112.00   0.55278558   0.02670124
10114.00   0.53705752   0.02570373
10116.00   0.52409577   0.02543468
10118.00   0.52133077   0.02743940
10120.00   0.51932806   0.03220748
10122.00   0.54453534   0.03383005
10124.00   0.62935340   0.03434197
10126.00   0.65696019   0.03390827
10128.00   0.59640414   0.03189346
10130.00   0.50929868   0.02927052
10132.00   0.46325776   0.02803165
10134.00   0.42581329   0.02765190
10136.00   0.42376611   0.02702705
10138.00   0.48255679   0.02603221
10140.00   0.49711516   0.02618664
10142.00   0.45820090   0.02797664
10144.00   0.41972718   0.02964427
10146.00   0.41850001   0.03004549
10148.00   0.43677491   0.02979499
10150.00   0.46225309   0.02993151
10152.00   0.52325690   0.03015374
10154.00   0.54089445   0.03028460
10156.00   0.51794696   0.03029831
10158.00   0.49546093   0.03037307
10160.00   0.49203664   0.03024379
10162.00   0.49282092   0.03028114
10164.00   0.47342366   0.03216629
10166.00   0.41378281   0.03616062
10168.00   0.42124319   0.03801773
10170.00   0.51387745   0.03900681
10172.00   0.54907227   0.03967107
10174.00   0.48083836   0.04005426
10176.00   0.38669607   0.04013827
10178.00   0.37011251   0.03997561
10180.00   0.40288633   0.03945816
10182.00   0.40618157   0.03905439
10184.00   0.40097845   0.03872064
10186.00   0.39924300   0.03813348
10188.00   0.39768672   0.03726319
10190.00   0.40086654   0.03621239
10192.00   0.41043967   0.03458711
10194.00   0.42368284   0.03219476
10196.00   0.47236171   0.03385576
10198.00   0.58272558   0.03990274
10200.00   0.63553363   0.04263490
10202.00   0.66139323   0.04402701
10204.00   0.64701974   0.04429099
10206.00   0.56535965   0.04298959
10208.00   0.44179854   0.04046637
10210.00   0.38807160   0.03908114
10212.00   0.36704120   0.03823079
10214.00   0.36735782   0.03724078
10216.00   0.39901310   0.03557679
10218.00   0.44347385   0.03530986
10220.00   0.51769578   0.03766779
10222.00   0.59024906   0.04055003
10224.00   0.58436674   0.04098614
10226.00   0.50543177   0.03981021
10228.00   0.47847825   0.03930828
10230.00   0.46834081   0.03899498
10232.00   0.46354342   0.03818030
10234.00   0.47590709   0.03668814
10236.00   0.48171318   0.03488824
10238.00   0.44875041   0.03299227
10240.00   0.38505057   0.03068682
10242.00   0.36317128   0.02986719
10244.00   0.37603417   0.03088776
10246.00   0.36962822   0.03098292
10248.00   0.33814755   0.03015313
10250.00   0.32159254   0.02970691
10252.00   0.34886405   0.03058201
10254.00   0.40097430   0.03211252
10256.00   0.41774938   0.03253074
10258.00   0.39222375   0.03144772
10260.00   0.41977590   0.03239767
10262.00   0.49691394   0.03523853
10264.00   0.55978215   0.03724184
10266.00   0.60542279   0.03798281
10268.00   0.62859064   0.03807011
10270.00   0.57977486   0.03761889
10272.00   0.42390597   0.03540589
10274.00   0.40424705   0.03658553
10276.00   0.49723259   0.03981453
10278.00   0.55126375   0.04363417
10280.00   0.56630713   0.04808158
10282.00   0.55729580   0.05274547
10284.00   0.51307732   0.05770827
10286.00   0.42449570   0.06357182
10288.00   0.41024041   0.06433163
10290.00   0.46439794   0.06045882
10292.00   0.48375747   0.05730239
10294.00   0.46295333   0.05286949
10296.00   0.45653984   0.04963834
10298.00   0.51428145   0.05102307
10300.00   0.60812670   0.05510853
10302.00   0.59521544   0.05373048
10304.00   0.45632306   0.04658192
10306.00   0.42116168   0.04300684
10308.00   0.46099943   0.04162364
10310.00   0.49156165   0.04075708
10312.00   0.48005673   0.03995706
10314.00   0.45880124   0.03959501
10316.00   0.47789747   0.03970048
10318.00   0.54182416   0.04063134
10320.00   0.55443704   0.04086764
10322.00   0.52682805   0.04078319
10324.00   0.51171458   0.04065231
10326.00   0.51645070   0.03949640
10328.00   0.52479136   0.03924376
10330.00   0.51912600   0.04323832
10332.00   0.49826083   0.05050320
10334.00   0.52204740   0.05251363
10336.00   0.61238486   0.05163590
10338.00   0.64159566   0.05055832
10340.00   0.59279221   0.04801601
10342.00   0.54803354   0.04591114
10344.00   0.57200944   0.04645546
10346.00   0.63425910   0.04863788
10348.00   0.64010656   0.04886647
10350.00   0.59783888   0.04794002
10352.00   0.58697027   0.04735057
10354.00   0.57582831   0.04640289
10356.00   0.59720689   0.04597152
10358.00   0.68785959   0.04653347
10360.00   0.80707824   0.04765888
10362.00   0.82949775   0.04859922
10364.00   0.78566056   0.04975469
10366.00   0.73614091   0.05063450
10368.00   0.61306709   0.05116204
10370.00   0.55845469   0.05200770
10372.00   0.62497103   0.05381125
10374.00   0.71801370   0.05532003
10376.00   0.70358294   0.05440788
10378.00   0.60567617   0.05071589
10380.00   0.60792512   0.05110737
10382.00   0.71588379   0.05613192
10384.00   0.73430139   0.05723967
10386.00   0.62435418   0.05382869
10388.00   0.52532572   0.04959559
10390.00   0.55650997   0.04773668
10392.00   0.66789347   0.04694649
10394.00   0.72333938   0.04725694
10396.00   0.76924771   0.05022324
10398.00   0.80430204   0.05067861
10400.00   0.83519650   0.04881495
10402.00   0.84547186   0.04712126
10404.00   0.81876552   0.04595535
10406.00   0.77011973   0.04552934
10408.00   0.75237596   0.04981666
10410.00   0.72751939   0.06047678
10412.00   0.76178682   0.06315419
10414.00   0.86722302   0.06033149
10416.00   0.95481414   0.05908189
10418.00   1.01857018   0.06206697
10420.00   1.06096005   0.06521493
10422.00   1.05746937   0.06320134
10424.00   1.01001167   0.05625552
10426.00   0.95948482   0.05248839
10428.00   0.85129738   0.04923892
10430.00   0.81139332   0.04759274
10432.00   0.85839778   0.04799167
10434.00   0.92745054   0.04963293
10436.00   0.97465366   0.05235066
10438.00   1.02762759   0.05647650
10440.00   0.99397391   0.05623019
10442.00   0.82734334   0.05072587
10444.00   0.77451682   0.04882384
10446.00   0.82158905   0.04966556
10448.00   0.88096839   0.05161477
10450.00   0.92081141   0.05488535
10452.00   0.95707631   0.05879353
10454.00   0.95146656   0.05841525
10456.00   0.86193168   0.05179257
10458.00   0.87679607   0.05136363
10460.00   1.01167595   0.05617438
10462.00   1.07444191   0.05908533
10464.00   0.98222798   0.05867465
10466.00   0.84438145   0.05690489
10468.00   0.84545028   0.05570412
10470.00   0.95881468   0.05413302
10472.00   0.97369158   0.05297404
10474.00   0.94005507   0.05165148
10476.00   0.90300149   0.05121116
10478.00   0.83773971   0.05214187
10480.00   0.79116130   0.05330424
10482.00   0.83876663   0.05328315
10484.00   0.96898055   0.05230648
10486.00   0.98213112   0.05408225
10488.00   0.89264160   0.05944084
10490.00   0.86175102   0.06125083
10492.00   0.87561989   0.06021412
10494.00   0.89938188   0.05821494
10496.00   0.91670197   0.05574973
10498.00   0.93649679   0.05248456
10500.00   0.96510863   0.05139529
10502.00   1.00949073   0.05223713
10504.00   1.03899956   0.05275396
10506.00   1.06899917   0.05389341
10508.00   1.08016443   0.05469415
10510.00   1.05457902   0.05470443
10512.00   1.01575708   0.05446341
10514.00   1.02185321   0.05497959
10516.00   1.07256007   0.05608541
10518.00   1.07559788   0.05680451
10520.00   1.04333806   0.05762246
10522.00   1.02194536   0.05800604
10524.00   1.01694953   0.05743473
10526.00   1.01475537   0.05700012
10528.00   0.99958444   0.05824329
10530.00   0.96849042   0.06071207
10532.00   0.99273378   0.06234634
10534.00   1.08330810   0.06488143
10536.00   1.13417339   0.06504945
10538.00   1.15249288   0.06180089
10540.00   1.15891695   0.05864721
10542.00   1.16064572   0.05854922
10544.00   1.15384710   0.06013824
10546.00   1.15715897   0.06109272
10548.00   1.16211021   0.06282431
10550.00   1.17542303   0.06328241
10552.00   1.21976948   0.06256869
10554.00   1.23069894   0.06181471
10556.00   1.16039276   0.06112595
10558.00   1.06050622   0.06059880
10560.00   1.06603432   0.06151812
10562.00   1.17416584   0.06449863
10564.00   1.20005608   0.06508352
10566.00   1.18443608   0.06385912
10568.00   1.17041266   0.06312167
10570.00   1.16124606   0.06314323
10572.00   1.15121102   0.06346779
10574.00   1.14222419   0.06393483
10576.00   1.13844454   0.06477971
10578.00   1.10920405   0.06492188
10580.00   1.01740181   0.06412729
10582.00   1.00709605   0.06418535
10584.00   1.10351336   0.06535061
10586.00   1.20768416   0.06650138
10588.00   1.25264442   0.06689157
10590.00   1.27224576   0.06690002
10592.00   1.23238862   0.06651284
10594.00   1.08119321   0.06493639
10596.00   1.02530193   0.06473555
10598.00   1.03146803   0.06579049
10600.00   1.06415665   0.06690861
10602.00   1.13226163   0.06800283
10604.00   1.21874809   0.06894787
10606.00   1.21365440   0.06800875
10608.00   1.10528123   0.06431783
10610.00   1.08110690   0.06302702
10612.00   1.10526490   0.06325095
10614.00   1.12134182   0.06338305
10616.00   1.13002419   0.06331922
10618.00   1.12595320   0.06313119
10620.00   1.07506192   0.06240275
10622.00   0.95882809   0.06092066
10624.00   0.95110440   0.06064427
10626.00   1.03750682   0.06147586
10628.00   1.09596813   0.06188152
10630.00   1.14635503   0.06211216
10632.00   1.17054439   0.06195203
10634.00   1.13099551   0.06090513
10636.00   1.03744090   0.05903997
10638.00   0.99786842   0.05803427
10640.00   0.98257768   0.05740628
10642.00   0.97096825   0.05698524
10644.00   0.96750259   0.05705116
10646.00   0.97159183   0.05700537
10648.00   0.98406792   0.05645608
10650.00   1.00382793   0.05566780
10652.00   1.02205491   0.05529441
10654.00   1.06233311   0.05553874
10656.00   1.05540860   0.05493610
10658.00   0.98769259   0.05341188
10660.00   0.95320427   0.05229367
10662.00   0.98473454   0.05204975
10664.00   1.03875589   0.05212935
10666.00   1.05287290   0.05176520
10668.00   1.04334927   0.05103243
10670.00   1.05005693   0.05099932
10672.00   1.05329871   0.05175977
10674.00   1.07491243   0.05204600
10676.00   1.12935495   0.05165898
10678.00   1.18256807   0.05121625
10680.00   1.19787753   0.05142317
10682.00   1.18950403   0.05214331
10684.00   1.17930317   0.05156097
10686.00   1.15650225   0.04961839
10688.00   1.13243818   0.04826877
10690.00   1.10137677   0.04729310
10692.00   1.07236028   0.04642415
10694.00   1.05285168   0.04551221
10696.00   1.03825700   0.04465408
10698.00   1.01405549   0.04420717
10700.00   0.96977472   0.04309077
10702.00   0.95769566   0.04454743
10704.00   0.95978773   0.04995417
10706.00   0.98607141   0.05242102
10708.00   1.05879772   0.04971934
10710.00   1.14503837   0.04448686
10712.00   1.15903902   0.04213681
10714.00   1.10662234   0.04078244
10716.00   1.10570478   0.04069690
10718.00   1.14461958   0.04262696
10720.00   1.15146101   0.04415341
10722.00   1.10236084   0.04599911
10724.00   1.05161393   0.04693852
10726.00   1.06605864   0.04467420
10728.00   1.13092566   0.03888313
10730.00   1.13529062   0.03660260
10732.00   1.07782936   0.03672180
10734.00   1.07544386   0.03674020
10736.00   1.15437305   0.03705157
10738.00   1.20748889   0.03767111
10740.00   1.14746618   0.03902672
10742.00   1.01968956   0.04082308
10744.00   0.99126536   0.03928765
10746.00   1.05357671   0.03283258
10748.00   1.04316020   0.02955159
10750.00   0.96587509   0.02868918
10752.00   0.91717291   0.02830195
10754.00   0.94067276   0.02791952
10756.00   0.99355567   0.02781975
10758.00   0.99917912   0.02745811
10760.00   0.97643960   0.02696180
10762.00   0.96496552   0.02662549
10764.00   0.93961281   0.02633350
10766.00   0.93838364   0.02617490
10768.00   0.98277342   0.02635346
10770.00   1.03047979   0.02647465
10772.00   1.02020955   0.02583854
10774.00   0.96399891   0.02435881
10776.00   0.95096916   0.02422922
10778.00   0.93482566   0.02490336
10780.00   0.97038764   0.02594524
10782.00   1.09598482   0.02820434
10784.00   1.20563662   0.02963248
10786.00   1.21299112   0.02845099
10788.00   1.15828466   0.02524428
10790.00   1.11414075   0.02437986
10792.00   1.01437068   0.02505666
10794.00   0.99433297   0.02551122
10796.00   1.07285035   0.02689390
10798.00   1.11807847   0.02723749
10800.00   1.06185257   0.02526863
10802.00   0.96159935   0.02180516
10804.00   0.92913020   0.02017962
10806.00   0.91859245   0.01958265
10808.00   0.94703180   0.01948368
10810.00   1.04837728   0.02074386
10812.00   1.11173749   0.02139921
10814.00   1.11207438   0.02088026
10816.00   1.08969235   0.02022982
10818.00   1.08814240   0.02102052
10820.00   1.09380507   0.02294959
10822.00   1.08343828   0.02359909
10824.00   1.06937182   0.02359800
10826.00   1.03642738   0.02356358
10828.00   0.95291030   0.02325840
10830.00   0.89369243   0.02306855
10832.00   0.93436903   0.02330432
10834.00   1.04536927   0.02376169
10836.00   1.12898076   0.02522361
10838.00   1.27113986   0.02938420
10840.00   1.30041730   0.02937287
10842.00   1.20715952   0.02460449
10844.00   1.10890055   0.01930499
10846.00   1.05317664   0.01721280
