# File created by shivutils (I.Shivvers)
# wl(A)   flm    er(optional)
3438.00   0.40942663   0.04223583
3440.00   0.41126749   0.04089993
3442.00   0.36104318   0.03954331
3444.00   0.49267948   0.04229155
3446.00   0.37116924   0.03994854
3448.00   0.37271374   0.04101763
3450.00   0.42231178   0.04284095
3452.00   0.34371671   0.04233324
3454.00   0.43424541   0.04359813
3456.00   0.39830908   0.04278288
3458.00   0.42107308   0.04315667
3460.00   0.34516007   0.04112944
3462.00   0.30001998   0.04019182
3464.00   0.41329244   0.04154179
3466.00   0.46118239   0.04293211
3468.00   0.35065007   0.04166064
3470.00   0.38728628   0.04183629
3472.00   0.45228982   0.04331468
3474.00   0.41769084   0.04207673
3476.00   0.46185392   0.04385527
3478.00   0.34989226   0.04269178
3480.00   0.45146972   0.04546551
3482.00   0.37673002   0.04438837
3484.00   0.46917906   0.04591572
3486.00   0.47363394   0.04629680
3488.00   0.44111300   0.04495040
3490.00   0.38423955   0.04344871
3492.00   0.36983743   0.04291730
3494.00   0.33587366   0.04176574
3496.00   0.41079190   0.04318375
3498.00   0.38940358   0.04312186
3500.00   0.37018079   0.04259958
3502.00   0.41310412   0.04365164
3504.00   0.41053692   0.04362076
3506.00   0.35575992   0.04179320
3508.00   0.38412255   0.04241057
3510.00   0.39514631   0.04341504
3512.00   0.37074074   0.04278425
3514.00   0.47277981   0.04474914
3516.00   0.41121894   0.04300253
3518.00   0.36348352   0.04206709
3520.00   0.41762605   0.04253053
3522.00   0.44390434   0.04343411
3524.00   0.44707069   0.04256037
3526.00   0.37680316   0.04054522
3528.00   0.35157973   0.03956341
3530.00   0.30590373   0.03981718
3532.00   0.36491320   0.04134683
3534.00   0.36302674   0.04056567
3536.00   0.40243500   0.04141214
3538.00   0.34948236   0.04040309
3540.00   0.32504764   0.04109743
3542.00   0.47247034   0.04459181
3544.00   0.40539712   0.04333588
3546.00   0.40418017   0.04320366
3548.00   0.38650784   0.04171100
3550.00   0.46381930   0.04262956
3552.00   0.36604369   0.04102242
3554.00   0.39921325   0.04230997
3556.00   0.41875631   0.04221745
3558.00   0.37098727   0.04095819
3560.00   0.37982848   0.04008013
3562.00   0.42399016   0.04040660
3564.00   0.42678180   0.04010228
3566.00   0.42241699   0.03977713
3568.00   0.40873250   0.03887699
3570.00   0.38453487   0.03842882
3572.00   0.40878999   0.03945109
3574.00   0.36135402   0.03836101
3576.00   0.34890440   0.03722535
3578.00   0.40169176   0.03773130
3580.00   0.45728850   0.03823572
3582.00   0.44893354   0.03836189
3584.00   0.43581524   0.03692238
3586.00   0.39039207   0.03564657
3588.00   0.35717306   0.03521424
3590.00   0.45755827   0.03735465
3592.00   0.46740255   0.03707986
3594.00   0.41248235   0.03533262
3596.00   0.44702083   0.03606486
3598.00   0.41470838   0.03567404
3600.00   0.41066444   0.03536738
3602.00   0.47260216   0.03629158
3604.00   0.48846075   0.03571667
3606.00   0.51530522   0.03574478
3608.00   0.46984887   0.03471866
3610.00   0.37728649   0.03274949
3612.00   0.42897394   0.03533876
3614.00   0.45600215   0.03607790
3616.00   0.41263822   0.03439437
3618.00   0.38586923   0.03377543
3620.00   0.37505004   0.03271366
3622.00   0.44988337   0.03415593
3624.00   0.41425258   0.03311236
3626.00   0.46308556   0.03387766
3628.00   0.46928576   0.03421349
3630.00   0.44556767   0.03439254
3632.00   0.46555588   0.03446763
3634.00   0.41442680   0.03303270
3636.00   0.44062442   0.03350590
3638.00   0.43107319   0.03278650
3640.00   0.44514135   0.03345798
3642.00   0.44696444   0.03399970
3644.00   0.39481527   0.03336982
3646.00   0.45959908   0.03540527
3648.00   0.47087911   0.04199432
3650.00   0.39154559   0.04442965
3652.00   0.40914360   0.04149197
3654.00   0.40636367   0.03828300
3656.00   0.41951057   0.03620030
3658.00   0.40008849   0.03234015
3660.00   0.44514155   0.03357016
3662.00   0.37815642   0.03485822
3664.00   0.40609959   0.03417515
3666.00   0.41463664   0.03092252
3668.00   0.39123142   0.02891374
3670.00   0.41008338   0.02897453
3672.00   0.38203579   0.02827998
3674.00   0.43216142   0.02911799
3676.00   0.41813761   0.02831809
3678.00   0.38520426   0.02748813
3680.00   0.40729997   0.02788284
3682.00   0.41737926   0.02785602
3684.00   0.40177524   0.02741940
3686.00   0.38453785   0.02685361
3688.00   0.37065744   0.02653735
3690.00   0.38456181   0.02691594
3692.00   0.42515957   0.02790210
3694.00   0.36240396   0.02611868
3696.00   0.41804835   0.02727702
3698.00   0.36202776   0.02665101
3700.00   0.37056887   0.02672890
3702.00   0.34107217   0.02586591
3704.00   0.37756121   0.02645487
3706.00   0.39456889   0.02673386
3708.00   0.36692190   0.02597734
3710.00   0.43389630   0.02694748
3712.00   0.38770482   0.02625151
3714.00   0.40122941   0.02627611
3716.00   0.43539646   0.02662612
3718.00   0.41451451   0.02630259
3720.00   0.40112209   0.02621700
3722.00   0.33402219   0.02475340
3724.00   0.39436662   0.02540085
3726.00   0.38489607   0.02553075
3728.00   0.35927337   0.02503482
3730.00   0.32595000   0.02448733
3732.00   0.37918398   0.02546175
3734.00   0.33296585   0.02459147
3736.00   0.30253926   0.02387274
3738.00   0.31810093   0.02421342
3740.00   0.31791189   0.02515314
3742.00   0.28117466   0.02406809
3744.00   0.29681829   0.02382457
3746.00   0.35784402   0.02407118
3748.00   0.31103975   0.02347703
3750.00   0.32184306   0.02330215
3752.00   0.34438485   0.02374010
3754.00   0.27360335   0.02287069
3756.00   0.26259011   0.02269451
3758.00   0.25289479   0.02217485
3760.00   0.31741491   0.02286319
3762.00   0.34496200   0.02331254
3764.00   0.34757018   0.02362758
3766.00   0.92102838   0.03189000
3768.00   2.26991439   0.05458009
3770.00   3.22146034   0.06953986
3772.00   2.09210849   0.05170569
3774.00   0.71288234   0.02977481
3776.00   0.25103059   0.02218642
3778.00   0.24295144   0.02153070
3780.00   0.27456102   0.02153228
3782.00   0.28491476   0.02192183
3784.00   0.30494261   0.02236205
3786.00   0.26028028   0.02145928
3788.00   0.27493459   0.02138759
3790.00   0.25676641   0.02150792
3792.00   0.27604043   0.02203746
3794.00   0.26480761   0.02143882
3796.00   0.25728717   0.02096727
3798.00   0.30516735   0.02130444
3800.00   0.25219607   0.02091447
3802.00   0.28770402   0.02154264
3804.00   0.30949038   0.02186911
3806.00   0.29188886   0.02107929
3808.00   0.28737593   0.02080981
3810.00   0.29638010   0.02104897
3812.00   0.24377735   0.02035167
3814.00   0.31101355   0.02125094
3816.00   0.25942230   0.02040225
3818.00   0.28301427   0.02080880
3820.00   0.26901340   0.02053673
3822.00   0.29139999   0.02080590
3824.00   0.24561346   0.01988540
3826.00   0.25380281   0.02018929
3828.00   0.28791216   0.02107113
3830.00   0.31066313   0.02173046
3832.00   0.28515056   0.02101268
3834.00   0.28907850   0.02074536
3836.00   0.25136629   0.01990779
3838.00   0.25738990   0.01988969
3840.00   0.27394259   0.02010957
3842.00   0.29280370   0.02033295
3844.00   0.27751234   0.01997059
3846.00   0.26158020   0.01965442
3848.00   0.28828418   0.01996175
3850.00   0.28747118   0.01963137
3852.00   0.29030463   0.01955365
3854.00   0.31517175   0.01980061
3856.00   0.28861123   0.01911169
3858.00   0.28381568   0.01882979
3860.00   0.27886915   0.01895860
3862.00   0.29355609   0.01917292
3864.00   0.31454876   0.01946155
3866.00   0.26406860   0.01830394
3868.00   0.31202248   0.01904892
3870.00   0.29693854   0.01845765
3872.00   0.32546303   0.01935950
3874.00   0.29168811   0.01921810
3876.00   0.32623383   0.01951851
3878.00   0.35902822   0.01960039
3880.00   0.35834780   0.01932713
3882.00   0.34676066   0.01906210
3884.00   0.29377946   0.01810927
3886.00   0.33077639   0.01859238
3888.00   0.35566050   0.01908181
3890.00   0.32472202   0.01869761
3892.00   0.35048127   0.01917772
3894.00   0.36749825   0.01951971
3896.00   0.36215743   0.01971342
3898.00   0.40921342   0.02009235
3900.00   0.40776926   0.02017749
3902.00   0.39564681   0.02011518
3904.00   0.44382581   0.02128230
3906.00   0.45736271   0.02259229
3908.00   0.40992028   0.02273763
3910.00   0.43163621   0.02291592
3912.00   0.63200897   0.02521755
3914.00   0.63317174   0.02480977
3916.00   0.45298609   0.02149828
3918.00   0.44877750   0.02079468
3920.00   0.47873354   0.02079555
3922.00   0.46103725   0.02045076
3924.00   0.46923435   0.02054823
3926.00   0.44803393   0.01993027
3928.00   0.45861933   0.01980356
3930.00   0.48184448   0.02018008
3932.00   0.57041603   0.02216397
3934.00   0.59341031   0.02248236
3936.00   0.47612235   0.02005974
3938.00   0.48563293   0.02022614
3940.00   0.47430292   0.02024495
3942.00   0.50183463   0.02099622
3944.00   0.49361584   0.02119466
3946.00   0.48789951   0.02088043
3948.00   0.50175101   0.02062368
3950.00   0.52738941   0.02088977
3952.00   0.49674064   0.02029527
3954.00   0.52924770   0.02059631
3956.00   0.53467005   0.02073949
3958.00   0.49023268   0.02022467
3960.00   0.55317855   0.02153387
3962.00   0.51292008   0.02098809
3964.00   0.51712841   0.02031761
3966.00   0.53428280   0.02018085
3968.00   0.52701920   0.01996786
3970.00   0.54546541   0.01998217
3972.00   0.52209252   0.01991601
3974.00   0.57833833   0.02068617
3976.00   0.53016526   0.02015189
3978.00   0.55559283   0.02031388
3980.00   0.58021545   0.02056991
3982.00   0.57478267   0.02061535
3984.00   0.59243768   0.02073056
3986.00   0.60889417   0.02082332
3988.00   0.61792380   0.02092231
3990.00   0.63890189   0.02126737
3992.00   0.62216693   0.02094222
3994.00   0.60405684   0.02102339
3996.00   0.68393791   0.02227565
3998.00   0.65784985   0.02185600
4000.00   0.66715246   0.02143167
4002.00   0.64460742   0.02104226
4004.00   0.68065792   0.02131138
4006.00   0.68255728   0.02134823
4008.00   0.64934492   0.02121513
4010.00   0.68661588   0.02158795
4012.00   0.76392853   0.02231273
4014.00   0.79220152   0.02305277
4016.00   0.78469229   0.02240974
4018.00   0.71776503   0.02258513
4020.00   0.68316185   0.02306970
4022.00   0.67999476   0.02354831
4024.00   0.71469754   0.02349313
4026.00   0.71939182   0.02276237
4028.00   0.69791788   0.02188280
4030.00   0.71993393   0.02203080
4032.00   0.71841758   0.02179592
4034.00   0.69485271   0.02131014
4036.00   0.72857618   0.02161642
4038.00   0.70587689   0.02127031
4040.00   0.71905470   0.02148925
4042.00   0.69432163   0.02167579
4044.00   0.71501154   0.02776496
4046.00   0.68878710   0.03279110
4048.00   0.70982170   0.03058016
4050.00   0.71725208   0.02364348
4052.00   0.72283125   0.02190665
4054.00   0.67536676   0.02160019
4056.00   0.68363225   0.02141429
4058.00   0.67972261   0.02072794
4060.00   0.69434899   0.02069765
4062.00   0.64633328   0.01996638
4064.00   0.68853772   0.02043253
4066.00   0.66391164   0.02021393
4068.00   0.65475607   0.01992416
4070.00   0.69206613   0.02016428
4072.00   0.69600749   0.02015130
4074.00   0.70259988   0.02053789
4076.00   0.70075899   0.02174418
4078.00   0.69525272   0.02223435
4080.00   0.66362065   0.02129613
4082.00   0.67020380   0.02074907
4084.00   0.65605122   0.02046512
4086.00   0.68605721   0.02051279
4088.00   0.70027024   0.02087546
4090.00   0.69654936   0.01981586
4092.00   0.65791816   0.01922533
4094.00   0.68646324   0.01951504
4096.00   0.65098715   0.01913366
4098.00   0.67861444   0.01935459
4100.00   0.70216888   0.01945382
4102.00   0.72573084   0.01948521
4104.00   0.66382754   0.01888548
4106.00   0.72707492   0.01942790
4108.00   0.67524391   0.01903253
4110.00   0.67416871   0.01891528
4112.00   0.65137297   0.01867062
4114.00   0.70807177   0.01924682
4116.00   0.69758707   0.01914766
4118.00   0.67464554   0.01877536
4120.00   0.67826188   0.01870879
4122.00   0.69308066   0.01882799
4124.00   0.72131258   0.01918807
4126.00   0.69279730   0.01884014
4128.00   0.66467392   0.01861264
4130.00   0.71421230   0.01920775
4132.00   0.69948131   0.01935447
4134.00   0.70569021   0.01935531
4136.00   0.68682045   0.01888159
4138.00   0.68779516   0.01896426
4140.00   0.68730325   0.01911302
4142.00   0.66962129   0.01867511
4144.00   0.65328509   0.01810505
4146.00   0.74474335   0.01893468
4148.00   0.77364391   0.02057373
4150.00   0.80194706   0.02017873
4152.00   0.67064130   0.01878645
4154.00   0.70292920   0.01888404
4156.00   0.61963469   0.01771200
4158.00   0.68059337   0.01827097
4160.00   0.62850660   0.01776790
4162.00   0.65962911   0.01840647
4164.00   0.61823171   0.01853163
4166.00   0.68128246   0.01910676
4168.00   0.65593553   0.01836892
4170.00   0.64666724   0.01796010
4172.00   0.63431340   0.01763784
4174.00   0.67084986   0.01785108
4176.00   0.62631792   0.01742805
4178.00   0.65572882   0.01782586
4180.00   0.66400152   0.01774803
4182.00   0.63022149   0.01728825
4184.00   0.65467107   0.01750335
4186.00   0.66130096   0.01752360
4188.00   0.64300215   0.01733871
4190.00   0.62150210   0.01712999
4192.00   0.58358014   0.01673484
4194.00   0.62547445   0.01702118
4196.00   0.63148916   0.01703121
4198.00   0.58953482   0.01656712
4200.00   0.60979795   0.01670990
4202.00   0.58383924   0.01644515
4204.00   0.63508606   0.01699672
4206.00   0.62198591   0.01691164
4208.00   0.64992440   0.01728136
4210.00   0.64942145   0.01740571
4212.00   0.61759919   0.01699911
4214.00   0.61485213   0.01687505
4216.00   0.60933799   0.01670931
4218.00   0.62157106   0.01679577
4220.00   0.62466329   0.01681385
4222.00   0.63128775   0.01682207
4224.00   0.59856176   0.01647878
4226.00   0.61066484   0.01656299
4228.00   0.60785186   0.01645696
4230.00   0.58320528   0.01636937
4232.00   0.57522660   0.01643538
4234.00   0.60397780   0.01663012
4236.00   0.57881081   0.01653588
4238.00   0.59897327   0.01674004
4240.00   0.55525702   0.01613043
4242.00   0.55343217   0.01592507
4244.00   0.58632839   0.01680905
4246.00   0.60005516   0.01776347
4248.00   0.57573956   0.01738465
4250.00   0.59125656   0.01659123
4252.00   0.55234390   0.01586531
4254.00   0.54753000   0.01581558
4256.00   0.58941811   0.01622397
4258.00   0.58674294   0.01619577
4260.00   0.57056314   0.01588011
4262.00   0.58428717   0.01594832
4264.00   0.59552753   0.01603571
4266.00   0.58645403   0.01592867
4268.00   0.58628237   0.01589837
4270.00   0.57645607   0.01581827
4272.00   0.57375079   0.01584764
4274.00   0.58283490   0.01583761
4276.00   0.57099110   0.01581256
4278.00   0.56402457   0.01570523
4280.00   0.57193315   0.01580521
4282.00   0.56621599   0.01586335
4284.00   0.55248761   0.01558419
4286.00   0.57097292   0.01568446
4288.00   0.57258695   0.01565907
4290.00   0.60023344   0.01579010
4292.00   0.56187469   0.01557444
4294.00   0.55399954   0.01550863
4296.00   0.57262486   0.01561722
4298.00   0.55379498   0.01547837
4300.00   0.56059349   0.01544333
4302.00   0.56175321   0.01540018
4304.00   0.56350726   0.01549187
4306.00   0.54160011   0.01543569
4308.00   0.56729287   0.01564264
4310.00   0.55787438   0.01566544
4312.00   0.54852247   0.01608393
4314.00   0.56528276   0.01669363
4316.00   0.53616583   0.01607532
4318.00   0.56824416   0.01617729
4320.00   0.56178254   0.01636156
4322.00   0.55286354   0.01630688
4324.00   0.53145999   0.01587901
4326.00   0.51572549   0.01567582
4328.00   0.55138004   0.01567215
4330.00   0.51024204   0.01516393
4332.00   0.53738147   0.01539624
4334.00   0.51867998   0.01526086
4336.00   0.53670073   0.01551033
4338.00   0.51677960   0.01547514
4340.00   0.54521525   0.01573671
4342.00   0.54481816   0.01580468
4344.00   0.51892942   0.01570531
4346.00   0.46541020   0.01573080
4348.00   0.48846868   0.01608324
4350.00   0.50123811   0.01588452
4352.00   0.47241324   0.01540837
4354.00   0.49738902   0.01693333
4356.00   0.52826518   0.02553210
4358.00   0.54922229   0.03081217
4360.00   0.52380681   0.02780934
4362.00   0.51765311   0.02024543
4364.00   0.48496929   0.01649893
4366.00   0.45722345   0.01557296
4368.00   0.48081076   0.01559795
4370.00   0.46849698   0.01538590
4372.00   0.45675817   0.01549941
4374.00   0.45293757   0.01560913
4376.00   0.44812796   0.01535752
4378.00   0.46062818   0.01505185
4380.00   0.45838806   0.01482706
4382.00   0.45155439   0.01465007
4384.00   0.46237120   0.01462554
4386.00   0.46178865   0.01452815
4388.00   0.60827482   0.01640009
4390.00   0.66145808   0.01787094
4392.00   0.60897928   0.01676110
4394.00   0.50037354   0.01499205
4396.00   0.45469305   0.01447807
4398.00   0.47260255   0.01483434
4400.00   0.43849990   0.01479810
4402.00   0.46275195   0.01491652
4404.00   0.50946671   0.01495241
4406.00   0.50064790   0.01489454
4408.00   0.50156170   0.01490192
4410.00   0.51423579   0.01503457
4412.00   0.51705444   0.01512592
4414.00   0.52565169   0.01542178
4416.00   0.53419083   0.01545630
4418.00   0.52536601   0.01529044
4420.00   0.54382825   0.01526086
4422.00   0.53176665   0.01517788
4424.00   0.52270150   0.01504108
4426.00   0.51393330   0.01497724
4428.00   0.54570395   0.01514387
4430.00   0.52617115   0.01504001
4432.00   0.54869646   0.01515557
4434.00   0.53903389   0.01509157
4436.00   0.52997082   0.01495989
4438.00   0.56147915   0.01519401
4440.00   0.55481094   0.01518816
4442.00   0.54105371   0.01501301
4444.00   0.55413705   0.01508654
4446.00   0.55831093   0.01512336
4448.00   0.55466419   0.01511167
4450.00   0.54829752   0.01497454
4452.00   0.53175527   0.01478760
4454.00   0.56540072   0.01504786
4456.00   0.52735609   0.01470585
4458.00   0.54977864   0.01490233
4460.00   0.53326494   0.01478497
4462.00   0.58491737   0.01509855
4464.00   0.57471436   0.01506242
4466.00   0.55457324   0.01482881
4468.00   0.55549359   0.01481581
4470.00   0.54582465   0.01470364
4472.00   0.54858834   0.01470560
4474.00   0.57665908   0.01498754
4476.00   0.54309773   0.01470633
4478.00   0.55299306   0.01478392
4480.00   0.56357855   0.01485772
4482.00   0.54717994   0.01469120
4484.00   0.56618172   0.01490070
4486.00   0.56898189   0.01502194
4488.00   0.57558686   0.01494645
4490.00   0.58055162   0.01495228
4492.00   0.56542677   0.01487253
4494.00   0.58208919   0.01507933
4496.00   0.57983482   0.01504195
4498.00   0.60037798   0.01521197
4500.00   0.59537184   0.01513667
4502.00   0.58527488   0.01496966
4504.00   0.61197120   0.01515190
4506.00   0.61296803   0.01504601
4508.00   0.60137564   0.01503260
4510.00   0.58084071   0.01472162
4512.00   0.60518122   0.01495869
4514.00   0.59440619   0.01491962
4516.00   0.60333788   0.01490415
4518.00   0.61933619   0.01499255
4520.00   0.62460780   0.01502841
4522.00   0.63533640   0.01509985
4524.00   0.64324039   0.01509196
4526.00   0.62115192   0.01484905
4528.00   0.61373204   0.01475941
4530.00   0.67369729   0.01530081
4532.00   0.65775281   0.01514037
4534.00   0.65321112   0.01504805
4536.00   0.64295518   0.01503409
4538.00   0.64739668   0.01502575
4540.00   0.65764266   0.01508610
4542.00   0.66337973   0.01517721
4544.00   0.65235794   0.01521457
4546.00   0.66130769   0.01520509
4548.00   0.68014699   0.01525366
4550.00   0.67621058   0.01510002
4552.00   0.72147393   0.01548246
4554.00   0.67418486   0.01510737
4556.00   0.66529924   0.01509666
4558.00   0.67552966   0.01513066
4560.00   0.70538312   0.01527891
4562.00   0.68084252   0.01509629
4564.00   0.68925726   0.01507041
4566.00   0.69818503   0.01512082
4568.00   0.72043949   0.01528239
4570.00   0.72119117   0.01525859
4572.00   0.72573322   0.01540551
4574.00   0.71793455   0.01530662
4576.00   0.72062713   0.01529962
4578.00   0.74532670   0.01542543
4580.00   0.73695284   0.01529554
4582.00   0.73708230   0.01526562
4584.00   0.73431587   0.01517578
4586.00   0.74757522   0.01530404
4588.00   0.76663899   0.01542200
4590.00   0.75209457   0.01530670
4592.00   0.76602477   0.01544037
4594.00   0.74051064   0.01527110
4596.00   0.80287814   0.01571819
4598.00   0.78769857   0.01554402
4600.00   0.78695697   0.01550632
4602.00   0.79535651   0.01549402
4604.00   0.79670876   0.01554117
4606.00   0.78619093   0.01543519
4608.00   0.79311603   0.01554471
4610.00   0.83473462   0.01588337
4612.00   0.82062024   0.01572939
4614.00   0.80915517   0.01561782
4616.00   0.79086995   0.01539975
4618.00   0.83467108   0.01568200
4620.00   0.82585829   0.01562229
4622.00   0.83572084   0.01569593
4624.00   0.82087362   0.01556620
4626.00   0.81888592   0.01553273
4628.00   0.83035421   0.01565114
4630.00   0.83375019   0.01563868
4632.00   0.81629288   0.01551212
4634.00   0.85187572   0.01570614
4636.00   0.81157392   0.01543725
4638.00   0.83124214   0.01560165
4640.00   0.86259723   0.01581551
4642.00   0.86011529   0.01574979
4644.00   0.84039158   0.01559307
4646.00   0.83311623   0.01554549
4648.00   0.87627840   0.01586340
4650.00   0.85534525   0.01571782
4652.00   0.83971751   0.01566074
4654.00   0.85529572   0.01574530
4656.00   0.86901206   0.01588425
4658.00   0.87788641   0.01601356
4660.00   0.87153047   0.01600709
4662.00   0.86393625   0.01603477
4664.00   0.85072142   0.01602743
4666.00   0.85545975   0.01612393
4668.00   0.85812104   0.01633167
4670.00   0.89163548   0.01656899
4672.00   0.87561727   0.01647345
4674.00   0.86711836   0.01627886
4676.00   0.87591988   0.01619522
4678.00   0.87929231   0.01612449
4680.00   0.87206775   0.01603129
4682.00   0.90130073   0.01620110
4684.00   0.89604968   0.01602873
4686.00   0.89784646   0.01604611
4688.00   0.89568222   0.01598019
4690.00   0.88879001   0.01590005
4692.00   0.88531941   0.01585966
4694.00   0.89653897   0.01591609
4696.00   0.90388590   0.01596256
4698.00   0.86057264   0.01559831
4700.00   0.83408082   0.01540934
4702.00   0.83845019   0.01546068
4704.00   0.85588121   0.01560725
4706.00   0.86312473   0.01569634
4708.00   0.85449290   0.01565621
4710.00   0.90218514   0.01599670
4712.00   0.89590800   0.01594284
4714.00   0.83334517   0.01540674
4716.00   0.83302182   0.01540632
4718.00   0.81554353   0.01519522
4720.00   0.82722574   0.01528387
4722.00   0.78111929   0.01495013
4724.00   0.81512278   0.01517719
4726.00   0.81165063   0.01528399
4728.00   0.79225767   0.01543751
4730.00   0.82260025   0.01574854
4732.00   0.77531236   0.01535610
4734.00   0.81710953   0.01571649
4736.00   0.78233451   0.01560112
4738.00   0.79405439   0.01580819
4740.00   0.79042250   0.01590963
4742.00   0.78975761   0.01611273
4744.00   0.79370332   0.01600865
4746.00   0.78264058   0.01553981
4748.00   0.77514434   0.01509141
4750.00   0.76954782   0.01502944
4752.00   0.74835712   0.01494933
4754.00   0.77123410   0.01506419
4756.00   0.75897032   0.01483087
4758.00   0.74043888   0.01456578
4760.00   0.74250150   0.01448244
4762.00   0.73151505   0.01434236
4764.00   0.75109524   0.01440390
4766.00   0.74795336   0.01436824
4768.00   0.74218750   0.01437206
4770.00   0.75377470   0.01433354
4772.00   0.67762434   0.01376947
4774.00   0.69935304   0.01393151
4776.00   0.71021634   0.01411706
4778.00   0.68569916   0.01409761
4780.00   0.69434774   0.01419189
4782.00   0.67125857   0.01383722
4784.00   0.68284398   0.01377763
4786.00   0.67160404   0.01364243
4788.00   0.67788678   0.01370885
4790.00   0.65712637   0.01360128
4792.00   0.61880851   0.01328705
4794.00   0.65464830   0.01350662
4796.00   0.65520060   0.01346732
4798.00   0.63336086   0.01323845
4800.00   0.62679464   0.01323204
4802.00   0.60482293   0.01300418
4804.00   0.59915107   0.01300238
4806.00   0.60947573   0.01309633
4808.00   0.59005302   0.01293716
4810.00   0.59824622   0.01299053
4812.00   0.58160561   0.01289310
4814.00   0.57549715   0.01281110
4816.00   0.57601601   0.01282411
4818.00   0.56794506   0.01278484
4820.00   0.54841506   0.01269491
4822.00   0.54985225   0.01270983
4824.00   0.55133975   0.01276843
4826.00   0.54818988   0.01275202
4828.00   0.53214866   0.01265654
4830.00   0.54866558   0.01276691
4832.00   0.54657465   0.01277408
4834.00   0.54070461   0.01270138
4836.00   0.53776670   0.01268423
4838.00   0.49178436   0.01245294
4840.00   0.51326227   0.01264822
4842.00   0.51268250   0.01251431
4844.00   0.50211871   0.01238187
4846.00   0.50732297   0.01242007
4848.00   0.46839973   0.01212942
4850.00   0.48358724   0.01224736
4852.00   0.47105372   0.01216257
4854.00   0.48629501   0.01220473
4856.00   0.49084634   0.01217947
4858.00   0.48894998   0.01214510
4860.00   0.48492080   0.01208927
4862.00   0.47263789   0.01201667
4864.00   0.46691793   0.01203157
4866.00   0.46904320   0.01201104
4868.00   0.47096029   0.01203411
4870.00   0.49203411   0.01220583
4872.00   0.46304592   0.01191979
4874.00   0.45102936   0.01182960
4876.00   0.45986813   0.01195168
4878.00   0.46332449   0.01206343
4880.00   0.43492508   0.01180728
4882.00   0.48173374   0.01214323
4884.00   0.45700926   0.01184229
4886.00   0.46359292   0.01187512
4888.00   0.45853880   0.01176288
4890.00   0.45013466   0.01172646
4892.00   0.47491378   0.01197402
4894.00   0.44881013   0.01177327
4896.00   0.47364870   0.01196637
4898.00   0.47008085   0.01186861
4900.00   0.45232546   0.01173141
4902.00   0.48468676   0.01190427
4904.00   0.49373901   0.01197752
4906.00   0.49875471   0.01206174
4908.00   0.50591421   0.01216410
4910.00   0.50947684   0.01217291
4912.00   0.53263777   0.01233722
4914.00   0.66732717   0.01397711
4916.00   0.82282346   0.01611075
4918.00   0.95774257   0.01792344
4920.00   0.73466372   0.01490049
4922.00   0.63002133   0.01349031
4924.00   0.54572886   0.01233122
4926.00   0.55504704   0.01229856
4928.00   0.52575994   0.01205488
4930.00   0.55436373   0.01227162
4932.00   0.56414920   0.01240915
4934.00   0.56190711   0.01236200
4936.00   0.57204086   0.01245460
4938.00   0.57959217   0.01252188
4940.00   0.62394428   0.01292087
4942.00   0.61446893   0.01286601
4944.00   0.63392442   0.01295877
4946.00   0.63545978   0.01292525
4948.00   0.66120964   0.01313172
4950.00   0.69452298   0.01340642
4952.00   0.69763100   0.01349120
4954.00   0.72640306   0.01377115
4956.00   0.72495687   0.01372491
4958.00   0.72565603   0.01373568
4960.00   0.76604044   0.01397171
4962.00   0.73547083   0.01380140
4964.00   0.79847467   0.01431532
4966.00   0.81008160   0.01437082
4968.00   0.81709707   0.01453121
4970.00   0.83087879   0.01468832
4972.00   0.83668947   0.01490789
4974.00   0.84895915   0.01519328
4976.00   0.86002600   0.01547637
4978.00   0.86438280   0.01582104
4980.00   0.87825787   0.01618480
4982.00   0.89239174   0.01650064
4984.00   0.91112441   0.01660171
4986.00   0.89480913   0.01634751
4988.00   0.87059617   0.01597418
4990.00   0.89457458   0.01590423
4992.00   0.95599270   0.01610055
4994.00   0.95212752   0.01580493
4996.00   0.94303137   0.01555940
4998.00   0.95871431   0.01553017
5000.00   0.93551707   0.01524116
5002.00   0.94260049   0.01524411
5004.00   0.96529615   0.01535932
5006.00   0.93853551   0.01511802
5008.00   0.95151615   0.01517551
5010.00   0.94740510   0.01513024
5012.00   1.08593392   0.01617685
5014.00   1.22771347   0.01792019
5016.00   1.27217007   0.01963458
5018.00   1.13198304   0.01873475
5020.00   1.02921295   0.01684286
5022.00   0.98963714   0.01573772
5024.00   0.92444772   0.01494386
5026.00   0.92356420   0.01489740
5028.00   0.90439129   0.01480147
5030.00   0.91387916   0.01494779
5032.00   0.91305536   0.01497637
5034.00   0.93298781   0.01502122
5036.00   0.86863589   0.01451100
5038.00   0.85401618   0.01440895
5040.00   0.86354810   0.01443182
5042.00   0.87321514   0.01449644
5044.00   0.85893047   0.01443039
5046.00   0.86005211   0.01445387
5048.00   0.83334601   0.01427397
5050.00   0.83078444   0.01425994
5052.00   0.82209498   0.01418911
5054.00   0.79214811   0.01400599
5056.00   0.80942136   0.01409406
5058.00   0.81763577   0.01415073
5060.00   0.88543040   0.01507036
5062.00   1.28398621   0.02045184
5064.00   1.56875110   0.02230141
5066.00   1.41333222   0.02124565
5068.00   1.09787822   0.01953981
5070.00   0.88551593   0.01675199
5072.00   0.82988268   0.01493164
5074.00   0.76006091   0.01414763
5076.00   0.74042213   0.01395338
5078.00   0.74371547   0.01404324
5080.00   0.70750862   0.01416901
5082.00   0.72400326   0.01490230
5084.00   0.74764454   0.01541339
5086.00   0.70566350   0.01525862
5088.00   0.69993937   0.01492966
5090.00   0.70990807   0.01449713
5092.00   0.69588685   0.01397064
5094.00   0.67940032   0.01365670
5096.00   0.66305465   0.01359084
5098.00   0.66547573   0.01380269
5100.00   0.68980044   0.01406722
5102.00   0.68088233   0.01384043
5104.00   0.70116884   0.01377235
5106.00   0.72789073   0.01385798
5108.00   0.71230716   0.01365247
5110.00   0.70688176   0.01362541
5112.00   0.70199406   0.01364256
5114.00   0.71222031   0.01379594
5116.00   0.69956952   0.01370396
5118.00   0.70588529   0.01372556
5120.00   0.70034409   0.01358075
5122.00   0.72646219   0.01372302
5124.00   0.69442713   0.01347639
5126.00   0.68991989   0.01340845
5128.00   0.71411759   0.01358057
5130.00   0.72443640   0.01369605
5132.00   0.71283823   0.01361331
5134.00   0.71032923   0.01359748
5136.00   0.72859544   0.01374190
5138.00   0.75428480   0.01393552
5140.00   0.72830939   0.01373547
5142.00   0.71502060   0.01369384
5144.00   0.70657516   0.01368257
5146.00   0.71281111   0.01377645
5148.00   0.71820778   0.01395399
5150.00   0.71108282   0.01404139
5152.00   0.72273809   0.01436481
5154.00   0.73204082   0.01450490
5156.00   0.72708327   0.01442173
5158.00   0.72797209   0.01426786
5160.00   0.73868001   0.01418384
5162.00   0.72560459   0.01399782
5164.00   0.73147768   0.01398499
5166.00   0.72294158   0.01382574
5168.00   0.72572744   0.01381283
5170.00   0.71474940   0.01376374
5172.00   0.71765655   0.01377743
5174.00   0.70230806   0.01374153
5176.00   0.72285974   0.01392074
5178.00   0.73440766   0.01402852
5180.00   0.72531104   0.01395112
5182.00   0.71190238   0.01381427
5184.00   0.72674257   0.01396040
5186.00   0.73385382   0.01404175
5188.00   0.72205400   0.01398452
5190.00   0.72122812   0.01401688
5192.00   0.74237639   0.01418831
5194.00   0.74342740   0.01419295
5196.00   0.72473091   0.01415268
5198.00   0.72190511   0.01417563
5200.00   0.71824521   0.01419050
5202.00   0.71498537   0.01414818
5204.00   0.73217285   0.01426612
5206.00   0.69097030   0.01397911
5208.00   0.71397042   0.01419256
5210.00   0.72951603   0.01443943
5212.00   0.73773235   0.01448699
5214.00   0.73180068   0.01443037
5216.00   0.75018042   0.01456985
5218.00   0.72090232   0.01441041
5220.00   0.69888002   0.01428627
5222.00   0.75758708   0.01472840
5224.00   0.71595031   0.01435849
5226.00   0.74091345   0.01453701
5228.00   0.72326595   0.01435858
5230.00   0.75267315   0.01464312
5232.00   0.74799478   0.01464113
5234.00   0.74564344   0.01464137
5236.00   0.73200625   0.01455789
5238.00   0.73625338   0.01464935
5240.00   0.70882589   0.01445410
5242.00   0.73238081   0.01465648
5244.00   0.74841440   0.01480576
5246.00   0.73783863   0.01472496
5248.00   0.75103348   0.01479066
5250.00   0.74796206   0.01482939
5252.00   0.74645406   0.01483791
5254.00   0.75964820   0.01499103
5256.00   0.76945728   0.01516507
5258.00   0.77211881   0.01520677
5260.00   0.74302453   0.01607471
5262.00   0.76188606   0.01552739
5264.00   0.76131535   0.01516608
5266.00   0.73202991   0.01486781
5268.00   0.75911027   0.01508978
5270.00   0.77738768   0.01528331
5272.00   0.77931648   0.01535152
5274.00   0.77710229   0.01541270
5276.00   0.80180889   0.01562462
5278.00   0.79143173   0.01559214
5280.00   0.82068247   0.01583860
5282.00   0.81067246   0.01577470
5284.00   0.83160365   0.01603774
5286.00   0.78964746   0.01576086
5288.00   0.80675828   0.01594647
5290.00   0.82309461   0.01602739
5292.00   0.81544805   0.01598173
5294.00   0.82386208   0.01609593
5296.00   0.82370961   0.01612662
5298.00   0.80564368   0.01601884
5300.00   0.81805772   0.01619588
5302.00   0.82289559   0.01623868
5304.00   0.85329676   0.01648832
5306.00   0.84179717   0.01642080
5308.00   0.84965384   0.01653389
5310.00   0.83729798   0.01649331
5312.00   0.84287864   0.01660778
5314.00   0.84691179   0.01664160
5316.00   0.83516544   0.01655110
5318.00   0.82079434   0.01651115
5320.00   0.84714615   0.01675091
5322.00   0.82971060   0.01664693
5324.00   0.85055596   0.01685256
5326.00   0.87523830   0.01703036
5328.00   0.85797763   0.01697137
5330.00   0.83481729   0.01682192
5332.00   0.84034359   0.01692990
5334.00   0.86379534   0.01717417
5336.00   0.82668704   0.01694820
5338.00   0.87859011   0.01740083
5340.00   0.83482480   0.01718930
5342.00   0.83463562   0.01728156
5344.00   0.86756575   0.01753065
5346.00   0.86736214   0.01759136
5348.00   0.86869049   0.01780067
5350.00   0.87675107   0.01794221
5352.00   0.87370420   0.01791424
5354.00   0.92070645   0.01838796
5356.00   0.89800620   0.01832997
5358.00   0.87752473   0.01812845
5360.00   0.86222988   0.01795983
5362.00   0.87939978   0.01798691
5364.00   0.89998239   0.01815008
5366.00   0.91282690   0.01821886
5368.00   0.90623921   0.01823315
5370.00   0.90049571   0.01821847
5372.00   0.88582265   0.01818403
5374.00   0.93339461   0.01870032
5376.00   0.93004388   0.01886597
5378.00   0.96481532   0.01911036
5380.00   0.96316063   0.01916789
5382.00   0.94723928   0.01899531
5384.00   0.97749281   0.01931752
5386.00   0.95041519   0.01916116
5388.00   0.97582400   0.01945407
5390.00   0.97341651   0.01961261
5392.00   1.00260127   0.01993268
5394.00   0.97657251   0.01981408
5396.00   0.96305639   0.01970525
5398.00   0.96629012   0.01978651
5400.00   0.90106320   0.01931979
5402.00   0.97885901   0.02000991
5404.00   0.95397425   0.01985070
5406.00   0.97982997   0.02012266
5408.00   0.97129607   0.02019054
5410.00   0.99174345   0.02047237
5412.00   0.97395563   0.02053669
5414.00   0.98453707   0.02080697
5416.00   0.94112819   0.02054453
5418.00   0.99022073   0.02109833
5420.00   0.99981493   0.02124980
5422.00   0.98594576   0.02122503
5424.00   0.94492096   0.02099457
5426.00   0.91583538   0.02069363
5428.00   1.00545275   0.02145503
5430.00   0.99362272   0.02140975
5432.00   0.98437268   0.02144717
5434.00   0.97469503   0.00836840
5436.00   0.97294009   0.00872644
5438.00   0.94421077   0.00982697
5440.00   0.92297220   0.01039955
5442.00   0.92294401   0.00998794
5444.00   0.93266535   0.00902848
5446.00   0.93663460   0.00851196
5448.00   0.93939036   0.00792685
5450.00   0.94550681   0.00790473
5452.00   0.95540357   0.00853953
5454.00   0.96401542   0.00902883
5456.00   0.96920806   0.00928134
5458.00   0.97450960   0.00948030
5460.00   0.98689371   0.00974242
5462.00   1.01130462   0.01000274
5464.00   1.00811768   0.01034000
5466.00   0.97275025   0.01100308
5468.00   0.95610279   0.01115013
5470.00   0.96062273   0.01070216
5472.00   0.97253966   0.00996760
5474.00   0.98298746   0.00912828
5476.00   0.99692625   0.00787517
5478.00   1.00529301   0.00759584
5480.00   1.00936246   0.00840117
5482.00   1.01450932   0.00877071
5484.00   1.01946008   0.00897632
5486.00   1.02505803   0.00906088
5488.00   1.03360403   0.00894055
5490.00   1.04390633   0.00865376
5492.00   1.04392958   0.00868748
5494.00   1.02330041   0.00921758
5496.00   1.02992320   0.00910187
5498.00   1.06315100   0.00824492
5500.00   1.09324634   0.00753747
5502.00   1.10913885   0.00748194
5504.00   1.11928701   0.00775718
5506.00   1.13157201   0.00792290
5508.00   1.14536893   0.00826383
5510.00   1.15228820   0.00831946
5512.00   1.15268576   0.00814074
5514.00   1.15263128   0.00798378
5516.00   1.15102315   0.00787029
5518.00   1.15023005   0.00778487
5520.00   1.15776765   0.00778645
5522.00   1.17564070   0.00789644
5524.00   1.17879891   0.00789229
5526.00   1.17148685   0.00781880
5528.00   1.16441965   0.00774954
5530.00   1.15617895   0.00751208
5532.00   1.14812756   0.00745947
5534.00   1.14170742   0.00814607
5536.00   1.13449824   0.00939518
5538.00   1.14223015   0.00947779
5540.00   1.17235708   0.00845609
5542.00   1.18530810   0.00801904
5544.00   1.18538380   0.00821565
5546.00   1.17808652   0.00839357
5548.00   1.16223383   0.00814296
5550.00   1.13823199   0.00765248
5552.00   1.13165140   0.00747719
5554.00   1.14453959   0.00752854
5556.00   1.14109349   0.00751453
5558.00   1.12533247   0.00752027
5560.00   1.10973978   0.00751147
5562.00   1.09764588   0.00740504
5564.00   1.08723235   0.00729403
5566.00   1.08235538   0.00754588
5568.00   1.08787060   0.00823886
5570.00   1.08117592   0.00849881
5572.00   1.06055963   0.00850179
5574.00   1.04975808   0.00855368
5576.00   1.05939996   0.00878846
5578.00   1.07287884   0.00898945
5580.00   1.06246638   0.00881128
5582.00   1.03156245   0.00826113
5584.00   1.01760161   0.00788949
5586.00   1.01132298   0.00743220
5588.00   1.00553286   0.00716771
5590.00   1.00082314   0.00719644
5592.00   0.99695247   0.00731587
5594.00   0.99299723   0.00733250
5596.00   0.98966604   0.00734383
5598.00   0.98443419   0.00725377
5600.00   0.97871155   0.00703611
5602.00   0.97067291   0.00685727
5604.00   0.95860624   0.00667782
5606.00   0.94728750   0.00653023
5608.00   0.94054371   0.00642425
5610.00   0.93649024   0.00635546
5612.00   0.92947942   0.00649834
5614.00   0.91791719   0.00698498
5616.00   0.91340727   0.00714048
5618.00   0.91506952   0.00709309
5620.00   0.91790444   0.00697050
5622.00   0.92296404   0.00672470
5624.00   0.92805350   0.00642200
5626.00   0.91841847   0.00655324
5628.00   0.89059842   0.00725969
5630.00   0.87614143   0.00733987
5632.00   0.86723244   0.00703541
5634.00   0.85944808   0.00670315
5636.00   0.85342097   0.00624260
5638.00   0.84765905   0.00584626
5640.00   0.83676445   0.00622491
5642.00   0.81866634   0.00740159
5644.00   0.81346333   0.00753289
5646.00   0.82248932   0.00695508
5648.00   0.82325286   0.00649118
5650.00   0.81312370   0.00609318
5652.00   0.80040783   0.00580238
5654.00   0.79221582   0.00585719
5656.00   0.78544980   0.00624066
5658.00   0.77984983   0.00627143
5660.00   0.77919352   0.00607477
5662.00   0.77196389   0.00596392
5664.00   0.75902522   0.00587848
5666.00   0.74259883   0.00585183
5668.00   0.72252971   0.00585188
5670.00   0.69868731   0.00588338
5672.00   0.68089259   0.00647639
5674.00   0.66427642   0.00800622
5676.00   0.65369993   0.00824545
5678.00   0.65357780   0.00731702
5680.00   0.64948159   0.00642362
5682.00   0.63255084   0.00631068
5684.00   0.61031109   0.00655560
5686.00   0.60179126   0.00661142
5688.00   0.60511184   0.00669925
5690.00   0.60244119   0.00674461
5692.00   0.60025048   0.00661430
5694.00   0.59527493   0.00674294
5696.00   0.58728862   0.00740433
5698.00   0.57634044   0.00808322
5700.00   0.56024361   0.00803331
5702.00   0.53303802   0.00742538
5704.00   0.52656204   0.00688870
5706.00   0.54212850   0.00591336
5708.00   0.54666334   0.00524279
5710.00   0.53626692   0.00516190
5712.00   0.52268744   0.00528890
5714.00   0.51576829   0.00521800
5716.00   0.51079279   0.00511773
5718.00   0.51095337   0.00504273
5720.00   0.51938730   0.00486348
5722.00   0.52310699   0.00492919
5724.00   0.52277356   0.00530532
5726.00   0.52145559   0.00566842
5728.00   0.52143627   0.00588252
5730.00   0.52172357   0.00604027
5732.00   0.51664323   0.00587678
5734.00   0.50252742   0.00513928
5736.00   0.49766168   0.00483443
5738.00   0.50050920   0.00492104
5740.00   0.50405735   0.00502783
5742.00   0.50559372   0.00501463
5744.00   0.50691712   0.00497610
5746.00   0.50896865   0.00496868
5748.00   0.50998014   0.00496513
5750.00   0.51487505   0.00498868
5752.00   0.52420372   0.00501764
5754.00   0.53239155   0.00509180
5756.00   0.53826749   0.00525264
5758.00   0.54315758   0.00542736
5760.00   0.54750836   0.00547480
5762.00   0.54824966   0.00540252
5764.00   0.55860549   0.00544787
5766.00   0.57994306   0.00556315
5768.00   0.59618044   0.00566719
5770.00   0.60552812   0.00579780
5772.00   0.61322230   0.00588613
5774.00   0.62407541   0.00580874
5776.00   0.63679945   0.00555720
5778.00   0.64545006   0.00556166
5780.00   0.64628541   0.00565111
5782.00   0.65689045   0.00592138
5784.00   0.67969769   0.00654921
5786.00   0.70302236   0.00700039
5788.00   0.71894103   0.00691357
5790.00   0.73135531   0.00646430
5792.00   0.74170518   0.00624702
5794.00   0.74581271   0.00603983
5796.00   0.75565022   0.00592093
5798.00   0.76958859   0.00581057
5800.00   0.78479171   0.00588395
5802.00   0.80102992   0.00635038
5804.00   0.81808221   0.00695258
5806.00   0.83153182   0.00693419
5808.00   0.84146541   0.00625124
5810.00   0.85306382   0.00600659
5812.00   0.86459827   0.00592054
5814.00   0.87661272   0.00592354
5816.00   0.88989174   0.00605508
5818.00   0.90321434   0.00623571
5820.00   0.91383576   0.00626026
5822.00   0.92224693   0.00616988
5824.00   0.93106300   0.00615112
5826.00   0.94020849   0.00615049
5828.00   0.94753474   0.00615649
5830.00   0.95215231   0.00616033
5832.00   0.95604545   0.00618071
5834.00   0.96141332   0.00624031
5836.00   0.96713883   0.00632884
5838.00   0.97442251   0.00644152
5840.00   0.98415786   0.00667923
5842.00   0.99238104   0.00672836
5844.00   1.00255001   0.00652177
5846.00   1.00793767   0.00631863
5848.00   1.00106585   0.00633314
5850.00   0.98485398   0.00646834
5852.00   0.97833318   0.00658718
5854.00   0.97242612   0.00685363
5856.00   0.97552842   0.00687986
5858.00   0.99037272   0.00663028
5860.00   1.00517392   0.00641608
5862.00   1.01561975   0.00639779
5864.00   1.02410734   0.00647635
5866.00   1.02749455   0.00654443
5868.00   1.02018011   0.00663437
5870.00   1.02496171   0.00676348
5872.00   1.04087830   0.00701616
5874.00   1.05214810   0.00713710
5876.00   1.05423391   0.00699273
5878.00   1.05238605   0.00677067
5880.00   1.05306935   0.00684920
5882.00   1.05677867   0.00705008
5884.00   1.05027843   0.00748136
5886.00   1.02410078   0.00771091
5888.00   1.01787257   0.00876852
5890.00   1.04125476   0.01093274
5892.00   1.07205343   0.01278930
5894.00   1.08758366   0.01342245
5896.00   1.10003996   0.01353868
5898.00   1.09243321   0.01272179
5900.00   1.04729772   0.00976770
5902.00   1.03538716   0.00761256
5904.00   1.06534231   0.00679994
5906.00   1.09513247   0.00667906
5908.00   1.09219718   0.00681768
5910.00   1.07099736   0.00746814
5912.00   1.06275916   0.00758606
5914.00   1.05195498   0.00727849
5916.00   1.05448341   0.00739428
5918.00   1.07691026   0.00802189
5920.00   1.09367144   0.00840392
5922.00   1.08983469   0.00821348
5924.00   1.07598901   0.00768064
5926.00   1.07573736   0.00725307
5928.00   1.08359778   0.00653778
5930.00   1.08933997   0.00625931
5932.00   1.09934580   0.00643352
5934.00   1.10424888   0.00656088
5936.00   1.10030186   0.00650658
5938.00   1.09213233   0.00642224
5940.00   1.08743072   0.00648346
5942.00   1.08487236   0.00668251
5944.00   1.07731271   0.00674858
5946.00   1.06393147   0.00675370
5948.00   1.05352032   0.00673698
5950.00   1.04505575   0.00656194
5952.00   1.04007161   0.00649562
5954.00   1.04371560   0.00703476
5956.00   1.05746746   0.00812278
5958.00   1.05696726   0.00811600
5960.00   1.04478359   0.00709501
5962.00   1.03711021   0.00642419
5964.00   1.03217959   0.00607762
5966.00   1.02921069   0.00589639
5968.00   1.02980435   0.00584990
5970.00   1.03381979   0.00597419
5972.00   1.02932358   0.00605990
5974.00   1.01323831   0.00627199
5976.00   1.00850654   0.00630062
5978.00   1.01530516   0.00613906
5980.00   1.02071047   0.00597372
5982.00   1.01789153   0.00589543
5984.00   1.01138556   0.00585244
5986.00   1.00924718   0.00582035
5988.00   1.00936413   0.00581821
5990.00   1.00910389   0.00581320
5992.00   1.01155329   0.00583089
5994.00   1.01033914   0.00582716
5996.00   1.00206041   0.00577772
5998.00   0.99106818   0.00571304
6000.00   0.98594308   0.00569376
6002.00   0.98475558   0.00568573
6004.00   0.98165631   0.00573606
6006.00   0.97682482   0.00592308
6008.00   0.97494769   0.00597159
6010.00   0.97773999   0.00580593
6012.00   0.98162174   0.00558478
6014.00   0.98187208   0.00551669
6016.00   0.97951758   0.00553428
6018.00   0.98078835   0.00553699
6020.00   0.98837745   0.00558407
6022.00   0.98790234   0.00559269
6024.00   0.97608674   0.00555736
6026.00   0.96446031   0.00551407
6028.00   0.96338207   0.00548947
6030.00   0.96879041   0.00547157
6032.00   0.96530151   0.00544958
6034.00   0.95486140   0.00542562
6036.00   0.94790643   0.00540459
6038.00   0.94234258   0.00539147
6040.00   0.93791312   0.00537124
6042.00   0.93429130   0.00530881
6044.00   0.93179822   0.00523311
6046.00   0.93283886   0.00532028
6048.00   0.94022602   0.00557943
6050.00   0.94162291   0.00574534
6052.00   0.94101101   0.00601424
6054.00   0.93703181   0.00606151
6056.00   0.92635518   0.00562873
6058.00   0.91385311   0.00500330
6060.00   0.91253871   0.00511185
6062.00   0.92033899   0.00577824
6064.00   0.92509329   0.00620462
6066.00   0.93508244   0.00690037
6068.00   0.93708283   0.00708950
6070.00   0.92753291   0.00654360
6072.00   0.91377145   0.00571402
6074.00   0.90372545   0.00538174
6076.00   0.89255869   0.00532890
6078.00   0.88959777   0.00526983
6080.00   0.89536434   0.00540643
6082.00   0.89914531   0.00541548
6084.00   0.90237629   0.00526209
6086.00   0.90470028   0.00510797
6088.00   0.90484840   0.00509925
6090.00   0.90326726   0.00517969
6092.00   0.90236133   0.00519100
6094.00   0.89969444   0.00513913
6096.00   0.90048325   0.00517628
6098.00   0.90529442   0.00524906
6100.00   0.91002065   0.00540719
6102.00   0.91337830   0.00574116
6104.00   0.91591811   0.00615133
6106.00   0.91367680   0.00622096
6108.00   0.90431011   0.00600787
6110.00   0.90040559   0.00586174
6112.00   0.89815164   0.00561806
6114.00   0.89838153   0.00544704
6116.00   0.90253961   0.00544300
6118.00   0.90860975   0.00550844
6120.00   0.91133189   0.00544830
6122.00   0.91310084   0.00521478
6124.00   0.91235417   0.00529787
6126.00   0.90942496   0.00574365
6128.00   0.90472662   0.00595075
6130.00   0.89827067   0.00586398
6132.00   0.89002782   0.00564377
6134.00   0.87917447   0.00539040
6136.00   0.86351985   0.00491702
6138.00   0.85832691   0.00500439
6140.00   0.86383665   0.00576688
6142.00   0.86447740   0.00602730
6144.00   0.86171788   0.00581180
6146.00   0.85623419   0.00546485
6148.00   0.84599352   0.00522297
6150.00   0.83085096   0.00495891
6152.00   0.82623070   0.00490479
6154.00   0.82970774   0.00511752
6156.00   0.83249354   0.00518947
6158.00   0.83886272   0.00518839
6160.00   0.84257209   0.00515751
6162.00   0.83831775   0.00510309
6164.00   0.82962167   0.00502232
6166.00   0.82926428   0.00496104
6168.00   0.83653176   0.00489100
6170.00   0.83863473   0.00485294
6172.00   0.83995610   0.00481390
6174.00   0.83814120   0.00483468
6176.00   0.82954919   0.00498451
6178.00   0.81911445   0.00516414
6180.00   0.82065350   0.00513122
6182.00   0.83455241   0.00485120
6184.00   0.83814824   0.00482754
6186.00   0.83223605   0.00498393
6188.00   0.83435088   0.00510432
6190.00   0.85035807   0.00520773
6192.00   0.86900318   0.00526504
6194.00   0.87577492   0.00517053
6196.00   0.87589431   0.00490676
6198.00   0.87409759   0.00479235
6200.00   0.86561763   0.00473921
6202.00   0.86036205   0.00472407
6204.00   0.85686058   0.00470749
6206.00   0.85600281   0.00478400
6208.00   0.85947752   0.00508573
6210.00   0.86658984   0.00555945
6212.00   0.87610662   0.00567161
6214.00   0.89452583   0.00555072
6216.00   0.90244061   0.00541774
6218.00   0.89931387   0.00509523
6220.00   0.89592433   0.00489379
6222.00   0.89828795   0.00510480
6224.00   0.90286106   0.00552671
6226.00   0.90429747   0.00557348
6228.00   0.90649402   0.00536179
6230.00   0.90277117   0.00522588
6232.00   0.88968050   0.00501864
6234.00   0.88134044   0.00488614
6236.00   0.88387674   0.00491384
6238.00   0.89094853   0.00501585
6240.00   0.89137381   0.00501992
6242.00   0.88700372   0.00493352
6244.00   0.88726354   0.00498611
6246.00   0.89269239   0.00519442
6248.00   0.89354980   0.00530037
6250.00   0.88789105   0.00527134
6252.00   0.87929958   0.00517806
6254.00   0.87093681   0.00506413
6256.00   0.85954970   0.00484530
6258.00   0.85619432   0.00487723
6260.00   0.86237752   0.00517326
6262.00   0.86290902   0.00533803
6264.00   0.85854214   0.00541686
6266.00   0.85104781   0.00542183
6268.00   0.84014463   0.00531361
6270.00   0.82530385   0.00508739
6272.00   0.81441629   0.00493822
6274.00   0.80404395   0.00472990
6276.00   0.79675543   0.00469509
6278.00   0.79380608   0.00493138
6280.00   0.79088873   0.00508872
6282.00   0.78510427   0.00495280
6284.00   0.77816612   0.00464261
6286.00   0.77433175   0.00451847
6288.00   0.77344275   0.00445731
6290.00   0.77103227   0.00447417
6292.00   0.76742023   0.00459104
6294.00   0.76493555   0.00473356
6296.00   0.76496238   0.00493439
6298.00   0.76596403   0.00512861
6300.00   0.76445550   0.00507340
6302.00   0.76201594   0.00463917
6304.00   0.75762081   0.00466631
6306.00   0.75077081   0.00505555
6308.00   0.74377787   0.00534180
6310.00   0.73504752   0.00559159
6312.00   0.72759593   0.00571091
6314.00   0.72781897   0.00538567
6316.00   0.73564869   0.00443787
6318.00   0.73693967   0.00411229
6320.00   0.73424417   0.00431136
6322.00   0.73336893   0.00439113
6324.00   0.73526531   0.00438101
6326.00   0.73661774   0.00436308
6328.00   0.73389906   0.00435731
6330.00   0.72797137   0.00434777
6332.00   0.72735816   0.00440949
6334.00   0.73023170   0.00453921
6336.00   0.73340493   0.00465873
6338.00   0.74153048   0.00476804
6340.00   0.74466598   0.00490164
6342.00   0.73480737   0.00511568
6344.00   0.71663779   0.00536531
6346.00   0.70647216   0.00537708
6348.00   0.69442755   0.00520415
6350.00   0.69426006   0.00499801
6352.00   0.71040332   0.00447491
6354.00   0.72142923   0.00423204
6356.00   0.71970779   0.00469872
6358.00   0.71178174   0.00537170
6360.00   0.70449620   0.00545125
6362.00   0.69075096   0.00517319
6364.00   0.68785840   0.00492024
6366.00   0.69387668   0.00438533
6368.00   0.69946301   0.00403138
6370.00   0.70447576   0.00405543
6372.00   0.70886737   0.00421892
6374.00   0.71016145   0.00422342
6376.00   0.70917654   0.00417992
6378.00   0.70695245   0.00415167
6380.00   0.69973689   0.00408012
6382.00   0.69784105   0.00408099
6384.00   0.70482349   0.00408563
6386.00   0.71090662   0.00421937
6388.00   0.70562398   0.00468718
6390.00   0.69212574   0.00540325
6392.00   0.68755043   0.00547134
6394.00   0.68907952   0.00490586
6396.00   0.68766737   0.00468864
6398.00   0.68245775   0.00477272
6400.00   0.67955220   0.00490362
6402.00   0.68211401   0.00498989
6404.00   0.68845063   0.00507897
6406.00   0.69946676   0.00501677
6408.00   0.72679281   0.00464765
6410.00   0.73090619   0.00464655
6412.00   0.71396101   0.00497393
6414.00   0.69733226   0.00525837
6416.00   0.68452203   0.00544916
6418.00   0.67477661   0.00557541
6420.00   0.68204796   0.00547277
6422.00   0.71387637   0.00498455
6424.00   0.72221267   0.00488399
6426.00   0.71334893   0.00501157
6428.00   0.71045911   0.00519639
6430.00   0.71803886   0.00552907
6432.00   0.72896594   0.00581605
6434.00   0.73721522   0.00569378
6436.00   0.74868292   0.00519268
6438.00   0.74528170   0.00484830
6440.00   0.72349322   0.00437149
6442.00   0.71096385   0.00410830
6444.00   0.70986766   0.00410571
6446.00   0.71044552   0.00428690
6448.00   0.70415664   0.00465268
6450.00   0.69365954   0.00522368
6452.00   0.69097680   0.00531289
6454.00   0.70071661   0.00470806
6456.00   0.69581503   0.00487131
6458.00   0.67216313   0.00603572
6460.00   0.65134025   0.00674360
6462.00   0.64673227   0.00633273
6464.00   0.65115958   0.00511306
6466.00   0.65551478   0.00454249
6468.00   0.67213607   0.00416315
6470.00   0.67080075   0.00414918
6472.00   0.64844203   0.00479337
6474.00   0.63345373   0.00518184
6476.00   0.63787472   0.00503978
6478.00   0.65131360   0.00465114
6480.00   0.65791732   0.00452937
6482.00   0.66795206   0.00459671
6484.00   0.66524684   0.00447386
6486.00   0.64869285   0.00418059
6488.00   0.63514763   0.00394841
6490.00   0.62609321   0.00382673
6492.00   0.61983031   0.00377302
6494.00   0.61823314   0.00376210
6496.00   0.62204581   0.00378543
6498.00   0.62358338   0.00394312
6500.00   0.62729222   0.00432018
6502.00   0.62708193   0.00451475
6504.00   0.62221766   0.00455936
6506.00   0.61530244   0.00450097
6508.00   0.60789675   0.00431308
6510.00   0.59850246   0.00394559
6512.00   0.59457535   0.00378544
6514.00   0.59445262   0.00372284
6516.00   0.59564090   0.00375548
6518.00   0.60078776   0.00398691
6520.00   0.60454929   0.00415321
6522.00   0.60281593   0.00407590
6524.00   0.59774607   0.00384727
6526.00   0.59461951   0.00376593
6528.00   0.58796370   0.00368640
6530.00   0.58974606   0.00376157
6532.00   0.60145545   0.00404824
6534.00   0.61130762   0.00426401
6536.00   0.61504966   0.00432149
6538.00   0.61585158   0.00430680
6540.00   0.61588776   0.00431610
6542.00   0.61201167   0.00434882
6544.00   0.61277682   0.00427670
6546.00   0.61553729   0.00398808
6548.00   0.62053138   0.00388681
6550.00   0.62908071   0.00413546
6552.00   0.63886321   0.00447071
6554.00   0.64523685   0.00457029
6556.00   0.64927858   0.00449744
6558.00   0.65493125   0.00465434
6560.00   0.66473156   0.00503001
6562.00   0.66742986   0.00523557
6564.00   0.65604442   0.00529807
6566.00   0.64713919   0.00526239
6568.00   0.66083580   0.00510391
6570.00   0.69222105   0.00477961
6572.00   0.70501083   0.00465106
6574.00   0.70792818   0.00466729
6576.00   0.71098298   0.00464869
6578.00   0.70880836   0.00459548
6580.00   0.71024823   0.00457933
6582.00   0.72388202   0.00466509
6584.00   0.74539119   0.00481659
6586.00   0.75523835   0.00484665
6588.00   0.75622505   0.00477087
6590.00   0.76138896   0.00475752
6592.00   0.77096319   0.00478403
6594.00   0.77594495   0.00480166
6596.00   0.77107567   0.00479360
6598.00   0.76116848   0.00477203
6600.00   0.75787175   0.00474383
6602.00   0.75625706   0.00466726
6604.00   0.75857425   0.00468276
6606.00   0.76641464   0.00481207
6608.00   0.77342647   0.00487365
6610.00   0.77710539   0.00481214
6612.00   0.78131622   0.00471288
6614.00   0.79244030   0.00470241
6616.00   0.81078643   0.00474745
6618.00   0.82238400   0.00476732
6620.00   0.83014911   0.00476946
6622.00   0.83837718   0.00480664
6624.00   0.83604127   0.00485140
6626.00   0.84574389   0.00495169
6628.00   0.89524531   0.00517147
6630.00   0.97418725   0.00548049
6632.00   1.06598222   0.00576874
6634.00   1.21624839   0.00617036
6636.00   1.29926181   0.00636815
6638.00   1.34138393   0.00641292
6640.00   1.32841086   0.00634937
6642.00   1.22594190   0.00614751
6644.00   1.04944062   0.00580239
6646.00   0.95809126   0.00566797
6648.00   0.90155059   0.00582041
6650.00   0.86458492   0.00564455
6652.00   0.85695970   0.00502742
6654.00   0.86282867   0.00454483
6656.00   0.88360274   0.00463313
6658.00   0.91439241   0.00497841
6660.00   0.91685909   0.00493365
6662.00   0.89389998   0.00454005
6664.00   0.88536572   0.00448377
6666.00   0.88207299   0.00460384
6668.00   0.87649930   0.00479585
6670.00   0.86785561   0.00494691
6672.00   0.85681850   0.00522792
6674.00   0.84131140   0.00597573
6676.00   0.81674010   0.00724520
6678.00   0.80899483   0.00748626
6680.00   0.81047744   0.00713917
6682.00   0.81982160   0.00660153
6684.00   0.84548688   0.00550967
6686.00   0.86999732   0.00422481
6688.00   0.87019044   0.00391030
6690.00   0.85255867   0.00444180
6692.00   0.84715384   0.00470435
6694.00   0.84183270   0.00529615
6696.00   0.84387583   0.00541816
6698.00   0.85657459   0.00494496
6700.00   0.86943388   0.00448840
6702.00   0.87550485   0.00466103
6704.00   0.87832069   0.00516293
6706.00   0.87818593   0.00521888
6708.00   0.87289160   0.00501701
6710.00   0.86931002   0.00485349
6712.00   0.86517310   0.00449534
6714.00   0.86213040   0.00434591
6716.00   0.86362314   0.00470830
6718.00   0.86598605   0.00527192
6720.00   0.85406530   0.00543996
6722.00   0.81772602   0.00547713
6724.00   0.81198072   0.00533058
6726.00   0.83134091   0.00476022
6728.00   0.84554970   0.00439354
6730.00   0.84970295   0.00455715
6732.00   0.84905535   0.00485916
6734.00   0.84386796   0.00473594
6736.00   0.83168417   0.00423078
6738.00   0.82350487   0.00410489
6740.00   0.81178105   0.00421159
6742.00   0.80872929   0.00434270
6744.00   0.81963474   0.00458993
6746.00   0.83218849   0.00477412
6748.00   0.83157027   0.00462908
6750.00   0.82188165   0.00415984
6752.00   0.82159513   0.00408814
6754.00   0.82847309   0.00431234
6756.00   0.83077300   0.00445799
6758.00   0.83097529   0.00464783
6760.00   0.82744282   0.00473253
6762.00   0.81629837   0.00453752
6764.00   0.79900014   0.00411051
6766.00   0.79382372   0.00398476
6768.00   0.79992545   0.00409681
6770.00   0.79962212   0.00411855
6772.00   0.79500043   0.00411000
6774.00   0.79131544   0.00411508
6776.00   0.78982049   0.00414101
6778.00   0.79002231   0.00418595
6780.00   0.79525948   0.00428361
6782.00   0.80556464   0.00448060
6784.00   0.81660759   0.00455927
6786.00   0.83206475   0.00449449
6788.00   0.84529722   0.00454698
6790.00   0.85736901   0.00483858
6792.00   0.86576456   0.00516412
6794.00   0.86145824   0.00522388
6796.00   0.84275353   0.00508405
6798.00   0.83368933   0.00504054
6800.00   0.82517707   0.00498768
6802.00   0.82206321   0.00496745
6804.00   0.82887930   0.00502093
6806.00   0.83586013   0.00506009
6808.00   0.83054310   0.00497238
6810.00   0.81684077   0.00478506
6812.00   0.80593902   0.00462163
6814.00   0.79357952   0.00436190
6816.00   0.78171110   0.00424500
6818.00   0.76929057   0.00434654
6820.00   0.75808728   0.00443024
6822.00   0.74918425   0.00430277
6824.00   0.74195242   0.00403868
6826.00   0.73902601   0.00398239
6828.00   0.74296391   0.00410849
6830.00   0.74252391   0.00413798
6832.00   0.74051571   0.00412469
6834.00   0.73632890   0.00409665
6836.00   0.72855341   0.00405739
6838.00   0.71855146   0.00400631
6840.00   0.71217155   0.00396919
6842.00   0.71033847   0.00395604
6844.00   0.70262986   0.00390135
6846.00   0.68895382   0.00371797
6848.00   0.67808557   0.00369544
6850.00   0.67225003   0.00395134
6852.00   0.66885394   0.00430017
6854.00   0.66563863   0.00452281
6856.00   0.66562194   0.00479383
6858.00   0.65923548   0.00476210
6860.00   0.64897764   0.00430865
6862.00   0.63618916   0.00407399
6864.00   0.61780453   0.00422363
6866.00   0.59993094   0.00442987
6868.00   0.59094560   0.00437688
6870.00   0.58765364   0.00415347
6872.00   0.58703995   0.00408977
6874.00   0.59104121   0.00414243
6876.00   0.59668469   0.00412736
6878.00   0.60912627   0.00404206
6880.00   0.61737204   0.00394967
6882.00   0.61146098   0.00389143
6884.00   0.59579682   0.00384810
6886.00   0.58337736   0.00382177
6888.00   0.56414378   0.00382514
6890.00   0.55633414   0.00381652
6892.00   0.56080842   0.00380647
6894.00   0.56490815   0.00379185
6896.00   0.56233627   0.00376465
6898.00   0.55748236   0.00373223
6900.00   0.55740845   0.00373020
6902.00   0.56040943   0.00376182
6904.00   0.56359923   0.00377268
6906.00   0.56881917   0.00378466
6908.00   0.57333559   0.00378172
6910.00   0.57656103   0.00374926
6912.00   0.57908827   0.00370828
6914.00   0.58119279   0.00370634
6916.00   0.58277178   0.00373576
6918.00   0.58380508   0.00374946
6920.00   0.58414245   0.00376040
6922.00   0.58424193   0.00377315
6924.00   0.58325893   0.00379676
6926.00   0.58285826   0.00381264
6928.00   0.58515096   0.00378648
6930.00   0.58877820   0.00370950
6932.00   0.59686756   0.00373950
6934.00   0.61124080   0.00381368
6936.00   0.62316626   0.00396210
6938.00   0.63394248   0.00426522
6940.00   0.64331615   0.00449716
6942.00   0.65006953   0.00448329
6944.00   0.65457189   0.00430386
6946.00   0.66172260   0.00426615
6948.00   0.67173034   0.00427905
6950.00   0.67853886   0.00430499
6952.00   0.68189347   0.00441877
6954.00   0.68583006   0.00444915
6956.00   0.69162709   0.00426741
6958.00   0.69867587   0.00395571
6960.00   0.70930833   0.00386221
6962.00   0.72561425   0.00390922
6964.00   0.73769909   0.00397539
6966.00   0.74793738   0.00410541
6968.00   0.75769377   0.00426154
6970.00   0.76710194   0.00445920
6972.00   0.77613682   0.00466156
6974.00   0.78538764   0.00477922
6976.00   0.79496139   0.00487009
6978.00   0.80340934   0.00486146
6980.00   0.81069732   0.00474869
6982.00   0.81822342   0.00460775
6984.00   0.82578880   0.00438282
6986.00   0.83370757   0.00416791
6988.00   0.84270734   0.00415055
6990.00   0.85261685   0.00429832
6992.00   0.86251241   0.00434010
6994.00   0.87545770   0.00435929
6996.00   0.88294441   0.00437034
6998.00   0.88302809   0.00436546
7000.00   0.88271236   0.00435843
7002.00   0.88833100   0.00435185
7004.00   0.89738214   0.00433985
7006.00   0.89901519   0.00440942
7008.00   0.89386696   0.00458440
7010.00   0.89173353   0.00468116
7012.00   0.88861805   0.00476648
7014.00   0.88929492   0.00477970
7016.00   0.89829797   0.00464933
7018.00   0.91210556   0.00442448
7020.00   0.91726899   0.00436417
7022.00   0.91760319   0.00445110
7024.00   0.91654038   0.00444809
7026.00   0.91182595   0.00436743
7028.00   0.90693313   0.00436087
7030.00   0.90239894   0.00449975
7032.00   0.89790058   0.00468752
7034.00   0.89413404   0.00476840
7036.00   0.88950032   0.00480330
7038.00   0.88963503   0.00480748
7040.00   0.89351231   0.00472761
7042.00   0.89909393   0.00470550
7044.00   0.90971702   0.00478747
7046.00   0.91889900   0.00487539
7048.00   0.91632426   0.00484874
7050.00   0.90476352   0.00473137
7052.00   0.89449781   0.00469533
7054.00   0.87817663   0.00472498
7056.00   0.86822504   0.00470195
7058.00   0.86650687   0.00456390
7060.00   0.86523831   0.00448255
7062.00   0.85767919   0.00465881
7064.00   0.84649891   0.00500947
7066.00   0.84140927   0.00501761
7068.00   0.83934575   0.00471745
7070.00   0.83961844   0.00456852
7072.00   0.84408909   0.00445004
7074.00   0.84843594   0.00444077
7076.00   0.85143769   0.00465879
7078.00   0.85352874   0.00498895
7080.00   0.84963363   0.00500180
7082.00   0.83807719   0.00476042
7084.00   0.83059138   0.00458487
7086.00   0.82288349   0.00428827
7088.00   0.81761146   0.00411701
7090.00   0.81653577   0.00418989
7092.00   0.81738198   0.00438654
7094.00   0.81526822   0.00453507
7096.00   0.81178844   0.00477592
7098.00   0.80812013   0.00479124
7100.00   0.80439061   0.00458155
7102.00   0.79918796   0.00443041
7104.00   0.79203600   0.00436388
7106.00   0.78390801   0.00433713
7108.00   0.77537215   0.00434989
7110.00   0.76450795   0.00443841
7112.00   0.76178932   0.00437643
7114.00   0.76798022   0.00412449
7116.00   0.77049851   0.00400640
7118.00   0.76877755   0.00404966
7120.00   0.76750386   0.00412530
7122.00   0.77113879   0.00414846
7124.00   0.77835739   0.00416115
7126.00   0.77682227   0.00414755
7128.00   0.76625890   0.00408935
7130.00   0.76086396   0.00406135
7132.00   0.75852001   0.00405536
7134.00   0.75719470   0.00405427
7136.00   0.75637281   0.00404895
7138.00   0.75628817   0.00404532
7140.00   0.75562978   0.00405701
7142.00   0.75540626   0.00405188
7144.00   0.75380522   0.00412074
7146.00   0.75144732   0.00426452
7148.00   0.74801970   0.00440119
7150.00   0.74200672   0.00454376
7152.00   0.73563462   0.00466214
7154.00   0.73506546   0.00462978
7156.00   0.73743671   0.00443316
7158.00   0.74481028   0.00431809
7160.00   0.76035315   0.00417353
7162.00   0.77310365   0.00410596
7164.00   0.78365332   0.00415606
7166.00   0.79106629   0.00424910
7168.00   0.79110551   0.00429429
7170.00   0.78368467   0.00432733
7172.00   0.78002930   0.00436576
7174.00   0.77462304   0.00437793
7176.00   0.77336425   0.00444328
7178.00   0.77770078   0.00456631
7180.00   0.78287238   0.00470889
7182.00   0.78395212   0.00483171
7184.00   0.78247249   0.00494421
7186.00   0.78963286   0.00517608
7188.00   0.80512583   0.00560324
7190.00   0.81791621   0.00579738
7192.00   0.83499932   0.00588814
7194.00   0.84448725   0.00581619
7196.00   0.83669531   0.00542588
7198.00   0.81804389   0.00476978
7200.00   0.81103241   0.00462184
7202.00   0.80754000   0.00505619
7204.00   0.80797809   0.00503500
7206.00   0.81288725   0.00466900
7208.00   0.82050323   0.00440702
7210.00   0.83119327   0.00442112
7212.00   0.84411651   0.00457901
7214.00   0.85599291   0.00477014
7216.00   0.87141442   0.00511629
7218.00   0.87694514   0.00524941
7220.00   0.87693322   0.00530411
7222.00   0.87062329   0.00524967
7224.00   0.85408622   0.00501921
7226.00   0.83482087   0.00471776
7228.00   0.82485294   0.00452811
7230.00   0.82001889   0.00433882
7232.00   0.81540918   0.00440929
7234.00   0.81304640   0.00476609
7236.00   0.81153101   0.00503967
7238.00   0.81118423   0.00534252
7240.00   0.81162918   0.00553076
7242.00   0.81263357   0.00542078
7244.00   0.81448114   0.00505531
7246.00   0.81490159   0.00490527
7248.00   0.81164569   0.00486104
7250.00   0.81431013   0.00479859
7252.00   0.82259977   0.00473553
7254.00   0.83256054   0.00469030
7256.00   0.84304643   0.00467161
7258.00   0.85453975   0.00467487
7260.00   0.86234677   0.00469025
7262.00   0.86950827   0.00475460
7264.00   0.87142861   0.00475591
7266.00   0.86509281   0.00463921
7268.00   0.86195016   0.00463340
7270.00   0.86842769   0.00482667
7272.00   0.87725610   0.00511591
7274.00   0.87217849   0.00537663
7276.00   0.84952289   0.00574457
7278.00   0.84818369   0.00585774
7280.00   0.85981578   0.00576993
7282.00   0.87451780   0.00567970
7284.00   0.89859617   0.00563156
7286.00   0.92008954   0.00554352
7288.00   0.91449779   0.00529364
7290.00   0.88304108   0.00481640
7292.00   0.87646592   0.00463881
7294.00   0.88554060   0.00469704
7296.00   0.88944548   0.00475028
7298.00   0.89005953   0.00482421
7300.00   0.88796693   0.00491509
7302.00   0.88011873   0.00501956
7304.00   0.86622238   0.00515362
7306.00   0.86687869   0.00512835
7308.00   0.88156009   0.00488138
7310.00   0.89009207   0.00480461
7312.00   0.89708656   0.00486722
7314.00   0.90073425   0.00497113
7316.00   0.89796567   0.00507804
7318.00   0.89077365   0.00520639
7320.00   0.89006966   0.00532638
7322.00   0.89652109   0.00555546
7324.00   0.89510280   0.00553765
7326.00   0.88781136   0.00526460
7328.00   0.88003659   0.00499790
7330.00   0.87168401   0.00480589
7332.00   0.86383325   0.00465742
7334.00   0.86380768   0.00464064
7336.00   0.87364239   0.00480291
7338.00   0.87466264   0.00484205
7340.00   0.87037158   0.00485570
7342.00   0.86690527   0.00482945
7344.00   0.86574548   0.00474173
7346.00   0.86424953   0.00462890
7348.00   0.85936153   0.00455361
7350.00   0.85231417   0.00448799
7352.00   0.84323776   0.00444985
7354.00   0.82704306   0.00443891
7356.00   0.81898195   0.00444174
7358.00   0.81992078   0.00445792
7360.00   0.82470632   0.00449106
7362.00   0.83074397   0.00455047
7364.00   0.84034300   0.00463765
7366.00   0.84097397   0.00467505
7368.00   0.83458304   0.00470387
7370.00   0.82821023   0.00467819
7372.00   0.81751823   0.00457207
7374.00   0.80990684   0.00446579
7376.00   0.81035185   0.00440455
7378.00   0.81604540   0.00436583
7380.00   0.82247800   0.00436562
7382.00   0.83608872   0.00442299
7384.00   0.84077781   0.00445625
7386.00   0.83816957   0.00444347
7388.00   0.83521479   0.00450068
7390.00   0.83333588   0.00468615
7392.00   0.83182275   0.00492590
7394.00   0.83336604   0.00509190
7396.00   0.84207612   0.00530542
7398.00   0.83833885   0.00530310
7400.00   0.82164633   0.00508836
7402.00   0.81030434   0.00487376
7404.00   0.80591691   0.00465076
7406.00   0.80611169   0.00444293
7408.00   0.81212789   0.00437413
7410.00   0.82674295   0.00444129
7412.00   0.83223855   0.00443377
7414.00   0.83510995   0.00440327
7416.00   0.83263457   0.00439413
7418.00   0.82195115   0.00439294
7420.00   0.80983037   0.00442026
7422.00   0.80279815   0.00451589
7424.00   0.79780722   0.00467445
7426.00   0.79552060   0.00471991
7428.00   0.79903144   0.00471177
7430.00   0.79785782   0.00465480
7432.00   0.79146588   0.00449408
7434.00   0.78582484   0.00435193
7436.00   0.78473365   0.00431754
7438.00   0.78608251   0.00434652
7440.00   0.78531349   0.00437368
7442.00   0.78238297   0.00443433
7444.00   0.78272015   0.00448523
7446.00   0.78544360   0.00457036
7448.00   0.78916329   0.00460236
7450.00   0.79357481   0.00451104
7452.00   0.79884017   0.00437189
7454.00   0.80472952   0.00441552
7456.00   0.81524575   0.00468140
7458.00   0.81561822   0.00468461
7460.00   0.80816245   0.00446254
7462.00   0.79892570   0.00432117
7464.00   0.78707153   0.00431305
7466.00   0.77438617   0.00437425
7468.00   0.76541018   0.00448644
7470.00   0.75700849   0.00471602
7472.00   0.75596082   0.00472434
7474.00   0.76283044   0.00451301
7476.00   0.76951844   0.00439926
7478.00   0.77830803   0.00440611
7480.00   0.78576416   0.00443917
7482.00   0.78667241   0.00442808
7484.00   0.78239709   0.00440041
7486.00   0.78291410   0.00439877
7488.00   0.78991228   0.00439855
7490.00   0.78766209   0.00443310
7492.00   0.77484584   0.00453311
7494.00   0.76143622   0.00460657
7496.00   0.75297856   0.00460033
7498.00   0.74651510   0.00454380
7500.00   0.74169284   0.00445362
7502.00   0.73774344   0.00424538
7504.00   0.73760992   0.00416539
7506.00   0.74339378   0.00420186
7508.00   0.74756294   0.00423368
7510.00   0.74697006   0.00420623
7512.00   0.74430621   0.00416902
7514.00   0.74350500   0.00421108
7516.00   0.74328965   0.00422453
7518.00   0.74295646   0.00447724
7520.00   0.74251503   0.00504965
7522.00   0.74253577   0.00537847
7524.00   0.74157065   0.00540718
7526.00   0.74225128   0.00530096
7528.00   0.75081706   0.00518790
7530.00   0.76974016   0.00488822
7532.00   0.77339393   0.00502982
7534.00   0.76349890   0.00576881
7536.00   0.75898409   0.00595929
7538.00   0.76313603   0.00549533
7540.00   0.76568615   0.00482681
7542.00   0.75576043   0.00447170
7544.00   0.73599082   0.00424343
7546.00   0.72772330   0.00410664
7548.00   0.72966880   0.00416568
7550.00   0.72375649   0.00418200
7552.00   0.70842463   0.00420103
7554.00   0.69496459   0.00421333
7556.00   0.69047964   0.00418700
7558.00   0.69122815   0.00413842
7560.00   0.69195896   0.00420640
7562.00   0.69453210   0.00439648
7564.00   0.69883966   0.00451582
7566.00   0.70986217   0.00462898
7568.00   0.71457171   0.00469959
7570.00   0.70623344   0.00470911
7572.00   0.69092274   0.00467642
7574.00   0.68096370   0.00463822
7576.00   0.66991228   0.00459093
7578.00   0.66461217   0.00449480
7580.00   0.66512924   0.00429830
7582.00   0.66550201   0.00416775
7584.00   0.66433042   0.00413468
7586.00   0.66369420   0.00416920
7588.00   0.66618145   0.00424958
7590.00   0.67219085   0.00433471
7592.00   0.67451072   0.00464781
7594.00   0.68283153   0.00495451
7596.00   0.67496955   0.00561671
7598.00   0.63889182   0.00672627
7600.00   0.60363162   0.00770788
7602.00   0.60224408   0.00823594
7604.00   0.62446505   0.00858101
7606.00   0.62990505   0.00858389
7608.00   0.63440543   0.00810235
7610.00   0.62988365   0.00775089
7612.00   0.60762447   0.00747984
7614.00   0.59176415   0.00717402
7616.00   0.60154676   0.00672386
7618.00   0.62715971   0.00615517
7620.00   0.63736618   0.00587106
7622.00   0.64583230   0.00568872
7624.00   0.64325184   0.00586767
7626.00   0.62470144   0.00667362
7628.00   0.60907507   0.00712172
7630.00   0.60344565   0.00686881
7632.00   0.60268307   0.00622863
7634.00   0.60354286   0.00586020
7636.00   0.61503953   0.00527279
7638.00   0.60896671   0.00540193
7640.00   0.58267576   0.00649184
7642.00   0.56726104   0.00692880
7644.00   0.57111222   0.00638844
7646.00   0.58200884   0.00543206
7648.00   0.58460057   0.00516233
7650.00   0.58277160   0.00538311
7652.00   0.58757055   0.00527897
7654.00   0.60013443   0.00504414
7656.00   0.60681850   0.00483673
7658.00   0.60485405   0.00463656
7660.00   0.60201544   0.00447001
7662.00   0.60651493   0.00440792
7664.00   0.61603725   0.00444756
7666.00   0.61925024   0.00439962
7668.00   0.61840534   0.00429831
7670.00   0.61806989   0.00422621
7672.00   0.61666602   0.00416293
7674.00   0.61618173   0.00412768
7676.00   0.61963630   0.00414226
7678.00   0.62563580   0.00419602
7680.00   0.62212139   0.00424685
7682.00   0.61003274   0.00436717
7684.00   0.59994233   0.00436538
7686.00   0.58433038   0.00422691
7688.00   0.57612288   0.00410706
7690.00   0.58381402   0.00406697
7692.00   0.59972340   0.00406990
7694.00   0.60379434   0.00411257
7696.00   0.60065311   0.00424741
7698.00   0.60011518   0.00428586
7700.00   0.59949297   0.00417956
7702.00   0.59812164   0.00422553
7704.00   0.59357083   0.00455747
7706.00   0.58996844   0.00492938
7708.00   0.59649873   0.00501836
7710.00   0.61367124   0.00492781
7712.00   0.62154812   0.00486787
7714.00   0.62492943   0.00473163
7716.00   0.62799054   0.00463558
7718.00   0.62915790   0.00460079
7720.00   0.63118148   0.00457429
7722.00   0.63805491   0.00450058
7724.00   0.64839178   0.00439310
7726.00   0.65914977   0.00432829
7728.00   0.67754257   0.00420496
7730.00   0.68415928   0.00426511
7732.00   0.67670143   0.00461098
7734.00   0.66785586   0.00487463
7736.00   0.66541660   0.00482100
7738.00   0.66539377   0.00457029
7740.00   0.66857618   0.00445840
7742.00   0.67747355   0.00431755
7744.00   0.68299907   0.00432806
7746.00   0.68638742   0.00452202
7748.00   0.69004363   0.00469658
7750.00   0.69389242   0.00478046
7752.00   0.69844872   0.00483016
7754.00   0.70856667   0.00489022
7756.00   0.72787952   0.00499495
7758.00   0.73738116   0.00496777
7760.00   0.74160570   0.00472497
7762.00   0.74366403   0.00463782
7764.00   0.74202466   0.00487590
7766.00   0.73959911   0.00518286
7768.00   0.74421537   0.00520274
7770.00   0.75509810   0.00503901
7772.00   0.76135820   0.00490174
7774.00   0.76803756   0.00463855
7776.00   0.77022743   0.00448949
7778.00   0.76654303   0.00451319
7780.00   0.76041192   0.00458440
7782.00   0.75532323   0.00457659
7784.00   0.74965191   0.00453336
7786.00   0.74415797   0.00454716
7788.00   0.73764396   0.00460195
7790.00   0.73306602   0.00465280
7792.00   0.73123807   0.00473140
7794.00   0.72918433   0.00477875
7796.00   0.72473383   0.00474190
7798.00   0.71893907   0.00464437
7800.00   0.71342409   0.00457709
7802.00   0.70590305   0.00448772
7804.00   0.70200783   0.00444495
7806.00   0.70103675   0.00444690
7808.00   0.70140487   0.00446017
7810.00   0.70141476   0.00445592
7812.00   0.70271468   0.00446073
7814.00   0.71167862   0.00456555
7816.00   0.73346812   0.00480549
7818.00   0.74213481   0.00492139
7820.00   0.74696428   0.00502465
7822.00   0.74354190   0.00503338
7824.00   0.72688746   0.00489460
7826.00   0.70484197   0.00467990
7828.00   0.69347084   0.00453931
7830.00   0.68663520   0.00439807
7832.00   0.68346012   0.00434121
7834.00   0.68682057   0.00438424
7836.00   0.68904305   0.00441435
7838.00   0.69086838   0.00442064
7840.00   0.69154912   0.00443731
7842.00   0.68827909   0.00449267
7844.00   0.68075722   0.00457540
7846.00   0.68035287   0.00466815
7848.00   0.68491930   0.00479209
7850.00   0.68966568   0.00489448
7852.00   0.69723690   0.00500219
7854.00   0.70309812   0.00507315
7856.00   0.70268470   0.00507262
7858.00   0.69798970   0.00501802
7860.00   0.69773358   0.00493771
7862.00   0.70105720   0.00475329
7864.00   0.70105523   0.00467878
7866.00   0.69906580   0.00472526
7868.00   0.69571775   0.00474781
7870.00   0.69165146   0.00464251
7872.00   0.68624729   0.00449293
7874.00   0.67683965   0.00458364
7876.00   0.65684319   0.00489712
7878.00   0.65209591   0.00510382
7880.00   0.65833926   0.00542535
7882.00   0.66621184   0.00552163
7884.00   0.67684829   0.00521822
7886.00   0.68725580   0.00474139
7888.00   0.68589491   0.00464326
7890.00   0.67189246   0.00485395
7892.00   0.66951048   0.00481499
7894.00   0.67562318   0.00463073
7896.00   0.67739695   0.00449113
7898.00   0.67151558   0.00438796
7900.00   0.66583067   0.00433123
7902.00   0.66959751   0.00436737
7904.00   0.68068457   0.00448368
7906.00   0.68568182   0.00461735
7908.00   0.68976688   0.00483166
7910.00   0.69034988   0.00497842
7912.00   0.68593395   0.00506527
7914.00   0.68085122   0.00513615
7916.00   0.67826903   0.00523416
7918.00   0.67662936   0.00534371
7920.00   0.67569911   0.00530338
7922.00   0.67492455   0.00510071
7924.00   0.67635834   0.00494348
7926.00   0.68159795   0.00475729
7928.00   0.68537784   0.00461117
7930.00   0.68390387   0.00455978
7932.00   0.68021852   0.00456806
7934.00   0.68366563   0.00453838
7936.00   0.69506836   0.00449486
7938.00   0.70018029   0.00447525
7940.00   0.70279402   0.00447128
7942.00   0.70401597   0.00447583
7944.00   0.70473409   0.00449473
7946.00   0.70365322   0.00451748
7948.00   0.69760412   0.00451478
7950.00   0.68411839   0.00448897
7952.00   0.67952579   0.00448009
7954.00   0.68203336   0.00444838
7956.00   0.68215984   0.00447428
7958.00   0.67995822   0.00458920
7960.00   0.67601615   0.00471847
7962.00   0.66850764   0.00478228
7964.00   0.65571409   0.00481757
7966.00   0.65495658   0.00482209
7968.00   0.67012858   0.00479648
7970.00   0.67196900   0.00474142
7972.00   0.65644282   0.00462684
7974.00   0.64209306   0.00451710
7976.00   0.64316070   0.00446573
7978.00   0.65322727   0.00444832
7980.00   0.66002464   0.00447612
7982.00   0.67089027   0.00455433
7984.00   0.67558408   0.00464999
7986.00   0.67465383   0.00480408
7988.00   0.67244828   0.00492424
7990.00   0.67015260   0.00495933
7992.00   0.66728204   0.00495032
7994.00   0.66713321   0.00498969
7996.00   0.66770512   0.00494685
7998.00   0.67173600   0.00514714
8000.00   0.68505681   0.00576582
8002.00   0.68948448   0.00598833
8004.00   0.67659134   0.00551654
8006.00   0.65727550   0.00468544
8008.00   0.65139210   0.00437593
8010.00   0.65547276   0.00441689
8012.00   0.65117991   0.00438595
8014.00   0.64051658   0.00444507
8016.00   0.63408208   0.00450738
8018.00   0.63425583   0.00458545
8020.00   0.63566452   0.00465853
8022.00   0.63239545   0.00468496
8024.00   0.62650472   0.00468083
8026.00   0.62109923   0.00466408
8028.00   0.61263394   0.00462201
8030.00   0.60893857   0.00457494
8032.00   0.61154056   0.00452023
8034.00   0.61458141   0.00445687
8036.00   0.61389869   0.00437375
8038.00   0.61156291   0.00426947
8040.00   0.60662431   0.00425213
8042.00   0.59436375   0.00434611
8044.00   0.59103703   0.00435823
8046.00   0.59672469   0.00430221
8048.00   0.60233653   0.00424930
8050.00   0.60362262   0.00422908
8052.00   0.60326022   0.00422490
8054.00   0.60370231   0.00424168
8056.00   0.60417604   0.00429987
8058.00   0.60431373   0.00432351
8060.00   0.60414487   0.00433415
8062.00   0.60387713   0.00433330
8064.00   0.60315865   0.00431093
8066.00   0.60257012   0.00428272
8068.00   0.60400653   0.00429514
8070.00   0.60915536   0.00436391
8072.00   0.60774559   0.00434518
8074.00   0.59958875   0.00421673
8076.00   0.59438956   0.00416826
8078.00   0.59434122   0.00426052
8080.00   0.59466892   0.00436699
8082.00   0.58990318   0.00433781
8084.00   0.58156681   0.00420605
8086.00   0.57479125   0.00416473
8088.00   0.56625807   0.00417187
8090.00   0.56109464   0.00417040
8092.00   0.56121266   0.00415865
8094.00   0.56078976   0.00415681
8096.00   0.55398959   0.00418822
8098.00   0.54289562   0.00424664
8100.00   0.53996724   0.00423691
8102.00   0.54509169   0.00415879
8104.00   0.54509693   0.00411528
8106.00   0.54028934   0.00409200
8108.00   0.53691059   0.00407177
8110.00   0.53861940   0.00404039
8112.00   0.54294342   0.00400874
8114.00   0.54391539   0.00402580
8116.00   0.54320472   0.00409510
8118.00   0.54238504   0.00414396
8120.00   0.54109067   0.00420106
8122.00   0.53910470   0.00424422
8124.00   0.53532970   0.00425678
8126.00   0.53141880   0.00426191
8128.00   0.53183264   0.00431445
8130.00   0.53520101   0.00442950
8132.00   0.54008341   0.00445073
8134.00   0.55216497   0.00440236
8136.00   0.55624241   0.00435555
8138.00   0.54788399   0.00430494
8140.00   0.53624195   0.00425863
8142.00   0.53238726   0.00422210
8144.00   0.53252071   0.00413602
8146.00   0.53124738   0.00435457
8148.00   0.53360224   0.00500064
8150.00   0.52946675   0.00523287
8152.00   0.51587427   0.00508158
8154.00   0.50228667   0.00480338
8156.00   0.49689385   0.00454796
8158.00   0.49625102   0.00421132
8160.00   0.49318644   0.00412975
8162.00   0.48739514   0.00433063
8164.00   0.48760092   0.00440689
8166.00   0.49417990   0.00443109
8168.00   0.50166839   0.00443949
8170.00   0.50839061   0.00437285
8172.00   0.51506311   0.00428509
8174.00   0.51655418   0.00461472
8176.00   0.50832301   0.00547378
8178.00   0.51172626   0.00573601
8180.00   0.52620935   0.00568642
8182.00   0.53711295   0.00556009
8184.00   0.54075712   0.00535449
8186.00   0.54032725   0.00509655
8188.00   0.53670603   0.00503686
8190.00   0.52661359   0.00516474
8192.00   0.52210003   0.00516184
8194.00   0.51945204   0.00502189
8196.00   0.51878142   0.00504306
8198.00   0.52034849   0.00536689
8200.00   0.52364832   0.00568662
8202.00   0.52801830   0.00562390
8204.00   0.53399503   0.00522668
8206.00   0.54000843   0.00516593
8208.00   0.55042660   0.00538193
8210.00   0.55345720   0.00542346
8212.00   0.54876566   0.00532804
8214.00   0.54014254   0.00512954
8216.00   0.52885735   0.00476342
8218.00   0.51341897   0.00416831
8220.00   0.50648403   0.00397350
8222.00   0.50699311   0.00416588
8224.00   0.50474542   0.00425406
8226.00   0.50062591   0.00427216
8228.00   0.49756873   0.00438570
8230.00   0.49639836   0.00473944
8232.00   0.49676549   0.00518826
8234.00   0.50153714   0.00524530
8236.00   0.51726681   0.00499093
8238.00   0.51863724   0.00478997
8240.00   0.50974792   0.00446391
8242.00   0.49834490   0.00419148
8244.00   0.48430184   0.00402238
8246.00   0.46908104   0.00394940
8248.00   0.46161762   0.00405330
8250.00   0.46070117   0.00439219
8252.00   0.45749292   0.00455722
8254.00   0.45442733   0.00476856
8256.00   0.45223564   0.00477336
8258.00   0.45149475   0.00442467
8260.00   0.45109785   0.00395858
8262.00   0.44928920   0.00384486
8264.00   0.44631726   0.00399088
8266.00   0.44501641   0.00397661
8268.00   0.44686446   0.00386366
8270.00   0.44462556   0.00386983
8272.00   0.43822235   0.00400642
8274.00   0.42958817   0.00418676
8276.00   0.41846523   0.00436697
8278.00   0.40380278   0.00457375
8280.00   0.40093288   0.00468646
8282.00   0.41159636   0.00474619
8284.00   0.41387132   0.00477084
8286.00   0.41165948   0.00473088
8288.00   0.40601838   0.00469264
8290.00   0.39507288   0.00470677
8292.00   0.38032171   0.00474147
8294.00   0.37464309   0.00469815
8296.00   0.37610266   0.00451890
8298.00   0.37593505   0.00450721
8300.00   0.37764755   0.00460026
8302.00   0.37820393   0.00474594
8304.00   0.37684733   0.00500936
8306.00   0.37412342   0.00527214
8308.00   0.36982161   0.00519123
8310.00   0.36461332   0.00478238
8312.00   0.35615608   0.00445378
8314.00   0.34184790   0.00394407
8316.00   0.33119342   0.00358814
8318.00   0.32527775   0.00354970
8320.00   0.32210597   0.00363661
8322.00   0.32084960   0.00358669
8324.00   0.32299802   0.00348681
8326.00   0.32200202   0.00345052
8328.00   0.31883013   0.00345172
8330.00   0.31684741   0.00346446
8332.00   0.31677252   0.00343971
8334.00   0.31624484   0.00349182
8336.00   0.31308648   0.00373696
8338.00   0.30811995   0.00410698
8340.00   0.30365500   0.00439837
8342.00   0.29714254   0.00478631
8344.00   0.29424259   0.00494017
8346.00   0.29664633   0.00490863
8348.00   0.29749107   0.00477862
8350.00   0.29161981   0.00454802
8352.00   0.28218845   0.00420391
8354.00   0.28002608   0.00400525
8356.00   0.28265274   0.00392014
8358.00   0.28560096   0.00379849
8360.00   0.29159385   0.00365759
8362.00   0.29653791   0.00356093
8364.00   0.29958674   0.00356132
8366.00   0.30118704   0.00360214
8368.00   0.29981285   0.00353402
8370.00   0.29276505   0.00333417
8372.00   0.29280683   0.00329402
8374.00   0.29721460   0.00335334
8376.00   0.30273217   0.00344245
8378.00   0.30984926   0.00358468
8380.00   0.31759280   0.00372748
8382.00   0.32362631   0.00377637
8384.00   0.32917285   0.00376237
8386.00   0.33277699   0.00375352
8388.00   0.33412150   0.00364072
8390.00   0.33555752   0.00368806
8392.00   0.33704305   0.00394149
8394.00   0.33816561   0.00421266
8396.00   0.33884254   0.00438609
8398.00   0.33922791   0.00453634
8400.00   0.33800846   0.00453129
8402.00   0.33324170   0.00433819
8404.00   0.33247787   0.00419933
8406.00   0.33288649   0.00392768
8408.00   0.33793101   0.00387125
8410.00   0.35229117   0.00440651
8412.00   0.37303761   0.00517744
8414.00   0.38241470   0.00517534
8416.00   0.38470086   0.00439506
8418.00   0.38642412   0.00407712
8420.00   0.38379470   0.00394566
8422.00   0.38233382   0.00399157
8424.00   0.38413799   0.00429245
8426.00   0.38734955   0.00469628
8428.00   0.38964909   0.00483976
8430.00   0.39179704   0.00488518
8432.00   0.39422262   0.00481275
8434.00   0.39745805   0.00452637
8436.00   0.39961779   0.00428808
8438.00   0.40039840   0.00413070
8440.00   0.40030178   0.00402734
8442.00   0.39925325   0.00400456
8444.00   0.39541048   0.00408413
8446.00   0.39890456   0.00410548
8448.00   0.40927333   0.00410945
8450.00   0.41827372   0.00412627
8452.00   0.42654458   0.00414601
8454.00   0.43434587   0.00418382
8456.00   0.44125032   0.00425813
8458.00   0.44751158   0.00435994
8460.00   0.45251212   0.00447393
8462.00   0.45588884   0.00465707
8464.00   0.45943886   0.00473887
8466.00   0.46338198   0.00474960
8468.00   0.46637917   0.00470284
8470.00   0.46749911   0.00457733
8472.00   0.46726558   0.00437969
8474.00   0.46716693   0.00427477
8476.00   0.46603256   0.00423926
8478.00   0.46601018   0.00417385
8480.00   0.46597522   0.00407906
8482.00   0.46743491   0.00402111
8484.00   0.47155747   0.00402953
8486.00   0.47705677   0.00407919
8488.00   0.48050395   0.00413170
8490.00   0.48260611   0.00421923
8492.00   0.48554242   0.00427094
8494.00   0.49068451   0.00416262
8496.00   0.49227527   0.00431026
8498.00   0.48718926   0.00490878
8500.00   0.48087212   0.00549566
8502.00   0.48234493   0.00556293
8504.00   0.49063903   0.00528403
8506.00   0.49151510   0.00504865
8508.00   0.48499414   0.00457734
8510.00   0.48447821   0.00427665
8512.00   0.49179921   0.00420617
8514.00   0.50050282   0.00424349
8516.00   0.50473994   0.00431365
8518.00   0.50666386   0.00447140
8520.00   0.51131308   0.00447328
8522.00   0.51624817   0.00422309
8524.00   0.52391267   0.00427936
8526.00   0.53561753   0.00472435
8528.00   0.54712605   0.00506345
8530.00   0.55587202   0.00501682
8532.00   0.56323057   0.00475427
8534.00   0.56999487   0.00482500
8536.00   0.57763249   0.00521774
8538.00   0.58038372   0.00531047
8540.00   0.57792574   0.00522360
8542.00   0.57499552   0.00508318
8544.00   0.57196766   0.00488343
8546.00   0.56924397   0.00464436
8548.00   0.57219309   0.00458483
8550.00   0.58068365   0.00472386
8552.00   0.58775592   0.00471466
8554.00   0.59550393   0.00461930
8556.00   0.60391718   0.00455523
8558.00   0.61357939   0.00454293
8560.00   0.62344056   0.00455525
8562.00   0.63119555   0.00457452
8564.00   0.63631666   0.00461019
8566.00   0.64631408   0.00464912
8568.00   0.66044945   0.00470222
8570.00   0.67387313   0.00474829
8572.00   0.68798631   0.00478812
8574.00   0.70061880   0.00482413
8576.00   0.70791495   0.00485459
8578.00   0.71030176   0.00487771
8580.00   0.72019476   0.00491912
8582.00   0.73671836   0.00497563
8584.00   0.74975115   0.00502945
8586.00   0.76210821   0.00509242
8588.00   0.77122951   0.00514328
8590.00   0.77356297   0.00515814
8592.00   0.77098864   0.00515019
8594.00   0.77577561   0.00520039
8596.00   0.78572226   0.00531727
8598.00   0.79401475   0.00537562
8600.00   0.80269343   0.00541112
8602.00   0.81088978   0.00541591
8604.00   0.81727135   0.00536278
8606.00   0.82335365   0.00528360
8608.00   0.83419430   0.00529919
8610.00   0.84797448   0.00534626
8612.00   0.86447692   0.00549026
8614.00   0.88526517   0.00575454
8616.00   0.90611559   0.00599124
8618.00   0.92864031   0.00623075
8620.00   0.94970024   0.00641795
8622.00   0.96145064   0.00637973
8624.00   0.96472055   0.00601171
8626.00   0.97119766   0.00618456
8628.00   0.97571105   0.00681425
8630.00   0.98277289   0.00724036
8632.00   0.99326277   0.00762923
8634.00   1.00459826   0.00780099
8636.00   1.01509345   0.00740057
8638.00   1.02644074   0.00635807
8640.00   1.03020966   0.00600389
8642.00   1.02623129   0.00618007
8644.00   1.02373028   0.00623471
8646.00   1.02046955   0.00626208
8648.00   1.01809132   0.00630322
8650.00   1.01835990   0.00636500
8652.00   1.02037358   0.00644332
8654.00   1.02115047   0.00650965
8656.00   1.01507056   0.00656664
8658.00   1.02399123   0.00663846
8660.00   1.04972875   0.00675343
8662.00   1.07339442   0.00682044
8664.00   1.09020245   0.00679991
8666.00   1.10250509   0.00672529
8668.00   1.10229969   0.00664817
8670.00   1.08190227   0.00644895
8672.00   1.07978153   0.00648682
8674.00   1.09497905   0.00661519
8676.00   1.09790075   0.00693288
8678.00   1.07982540   0.00762733
8680.00   1.05372500   0.00828442
8682.00   1.03596890   0.00827436
8684.00   1.01744044   0.00774672
8686.00   1.01072073   0.00730404
8688.00   1.02023399   0.00651064
8690.00   1.02112114   0.00599038
8692.00   1.00960875   0.00591149
8694.00   0.99722540   0.00599808
8696.00   0.99542075   0.00599460
8698.00   1.00081420   0.00602115
8700.00   0.99880630   0.00601945
8702.00   0.98990500   0.00599877
8704.00   0.98748994   0.00598983
8706.00   0.98989910   0.00597631
8708.00   0.99588799   0.00598527
8710.00   1.00706041   0.00604402
8712.00   1.02278209   0.00613810
8714.00   1.02794874   0.00620079
8716.00   1.02495348   0.00626460
8718.00   1.02306390   0.00629996
8720.00   1.01922905   0.00614123
8722.00   1.01554215   0.00624089
8724.00   1.01537848   0.00691954
8726.00   1.01509738   0.00775696
8728.00   1.00102580   0.00791764
8730.00   0.96789175   0.00766776
8732.00   0.95243454   0.00733162
8734.00   0.94569725   0.00651794
8736.00   0.94209689   0.00589986
8738.00   0.94056636   0.00575333
8740.00   0.94245344   0.00584237
8742.00   0.94901764   0.00586949
8744.00   0.96142232   0.00596186
8746.00   0.97167987   0.00607150
8748.00   0.98564142   0.00625744
8750.00   0.99332863   0.00638069
8752.00   0.99226493   0.00640907
8754.00   0.98892105   0.00643642
8756.00   0.98986602   0.00655231
8758.00   0.99246007   0.00671159
8760.00   0.99459606   0.00693028
8762.00   1.00234294   0.00702351
8764.00   0.99890512   0.00752654
8766.00   0.97976673   0.00859264
8768.00   0.96191943   0.00942782
8770.00   0.95720929   0.00969942
8772.00   0.95973551   0.00966352
8774.00   0.96197057   0.00924832
8776.00   0.97280306   0.00792953
8778.00   0.97166216   0.00719926
8780.00   0.96189779   0.00696101
8782.00   0.94753969   0.00682828
8784.00   0.92740405   0.00666547
8786.00   0.90357357   0.00656032
8788.00   0.88938832   0.00646707
8790.00   0.87792665   0.00641083
8792.00   0.87631959   0.00636961
8794.00   0.88908792   0.00639977
8796.00   0.89771849   0.00636437
8798.00   0.89704049   0.00618483
8800.00   0.89401311   0.00597198
8802.00   0.89760607   0.00595354
8804.00   0.90682125   0.00611234
8806.00   0.90966177   0.00612165
8808.00   0.90986580   0.00602810
8810.00   0.90739864   0.00599471
8812.00   0.90018719   0.00600132
8814.00   0.89252990   0.00607228
8816.00   0.89017338   0.00625997
8818.00   0.89150745   0.00653992
8820.00   0.88943601   0.00683887
8822.00   0.88256514   0.00694381
8824.00   0.88242650   0.00756421
8826.00   0.89501548   0.00902064
8828.00   0.90206146   0.00995723
8830.00   0.88787222   0.00962033
8832.00   0.85966522   0.00836525
8834.00   0.84487724   0.00763610
8836.00   0.83569294   0.00683556
8838.00   0.82687616   0.00635692
8840.00   0.81952518   0.00635598
8842.00   0.81396836   0.00639429
8844.00   0.81137586   0.00629076
8846.00   0.81045228   0.00616290
8848.00   0.80512679   0.00606346
8850.00   0.79415351   0.00592430
8852.00   0.78954995   0.00591792
8854.00   0.79142869   0.00606795
8856.00   0.78957754   0.00616656
8858.00   0.78287590   0.00616989
8860.00   0.77208430   0.00613468
8862.00   0.75406456   0.00610923
8864.00   0.72351503   0.00605728
8866.00   0.71049500   0.00605730
8868.00   0.70820367   0.00614998
8870.00   0.70923698   0.00614364
8872.00   0.71349764   0.00594527
8874.00   0.72194010   0.00575733
8876.00   0.73577118   0.00583958
8878.00   0.75638855   0.00609355
8880.00   0.76936489   0.00637721
8882.00   0.78143716   0.00687957
8884.00   0.78623563   0.00711163
8886.00   0.78309721   0.00713979
8888.00   0.77577591   0.00703314
8890.00   0.76595098   0.00676499
8892.00   0.75257409   0.00631159
8894.00   0.74209452   0.00609877
8896.00   0.72807860   0.00599680
8898.00   0.72426611   0.00600908
8900.00   0.73368984   0.00625682
8902.00   0.74043947   0.00641949
8904.00   0.73773485   0.00633171
8906.00   0.73007530   0.00612184
8908.00   0.72060108   0.00608664
8910.00   0.70272750   0.00607736
8912.00   0.69508946   0.00624086
8914.00   0.69687891   0.00664177
8916.00   0.69507658   0.00693648
8918.00   0.68532914   0.00711219
8920.00   0.67326176   0.00718429
8922.00   0.66676670   0.00703658
8924.00   0.66238695   0.00660202
8926.00   0.66175002   0.00632111
8928.00   0.66648549   0.00597763
8930.00   0.67032760   0.00581793
8932.00   0.67311156   0.00593799
8934.00   0.67572516   0.00614542
8936.00   0.67893773   0.00624303
8938.00   0.68348747   0.00632383
8940.00   0.68165100   0.00634912
8942.00   0.67324007   0.00630052
8944.00   0.66657704   0.00627634
8946.00   0.66126126   0.00622939
8948.00   0.65546656   0.00623715
8950.00   0.64769697   0.00638100
8952.00   0.63851058   0.00661973
8954.00   0.63262630   0.00678822
8956.00   0.63132626   0.00702540
8958.00   0.62523329   0.00706916
8960.00   0.61329114   0.00691762
8962.00   0.60360700   0.00673148
8964.00   0.59863806   0.00657272
8966.00   0.59723288   0.00640512
8968.00   0.60399574   0.00625903
8970.00   0.62619281   0.00599539
8972.00   0.63357329   0.00605236
8974.00   0.62917054   0.00639947
8976.00   0.62919950   0.00673666
8978.00   0.64124924   0.00713185
8980.00   0.65509582   0.00744376
8982.00   0.65230405   0.00721899
8984.00   0.63626051   0.00625907
8986.00   0.62378728   0.00603759
8988.00   0.59912455   0.00635327
8990.00   0.59324503   0.00659325
8992.00   0.61499029   0.00676695
8994.00   0.64424336   0.00691689
8996.00   0.65930682   0.00700667
8998.00   0.67052609   0.00704296
9000.00   0.67075759   0.00710871
9002.00   0.65441567   0.00725977
9004.00   0.64585632   0.00724079
9006.00   0.64417571   0.00701556
9008.00   0.64374298   0.00673581
9010.00   0.64211220   0.00650998
9012.00   0.64073420   0.00628273
9014.00   0.63403702   0.00612626
9016.00   0.61566854   0.00602780
9018.00   0.61229980   0.00596882
9020.00   0.62594259   0.00597925
9022.00   0.63647926   0.00599822
9024.00   0.63360685   0.00598171
9026.00   0.62436742   0.00596349
9028.00   0.62039399   0.00604594
9030.00   0.62267494   0.00620117
9032.00   0.61368543   0.00638529
9034.00   0.59130526   0.00679582
9036.00   0.57535422   0.00690895
9038.00   0.57263273   0.00643691
9040.00   0.57502091   0.00571734
9042.00   0.57083160   0.00565962
9044.00   0.56351650   0.00597647
9046.00   0.55779010   0.00649970
9048.00   0.55117041   0.00761773
9050.00   0.54667228   0.00810506
9052.00   0.54413009   0.00793561
9054.00   0.54369015   0.00744587
9056.00   0.54672945   0.00686455
9058.00   0.55425000   0.00586195
9060.00   0.55559677   0.00548966
9062.00   0.55070078   0.00575887
9064.00   0.55032998   0.00587624
9066.00   0.55437148   0.00578771
9068.00   0.55982757   0.00586953
9070.00   0.56518501   0.00651629
9072.00   0.57130891   0.00748610
9074.00   0.57567364   0.00749485
9076.00   0.58063513   0.00651220
9078.00   0.58135539   0.00608126
9080.00   0.57780588   0.00608144
9082.00   0.57271039   0.00613167
9084.00   0.56556678   0.00607130
9086.00   0.55730450   0.00599948
9088.00   0.55787557   0.00598677
9090.00   0.56989372   0.00598419
9092.00   0.57249260   0.00607250
9094.00   0.57148129   0.00626718
9096.00   0.56736398   0.00644910
9098.00   0.55863255   0.00663071
9100.00   0.54771376   0.00677931
9102.00   0.54129422   0.00675807
9104.00   0.53780073   0.00658802
9106.00   0.53293031   0.00640320
9108.00   0.52703679   0.00608520
9110.00   0.52292907   0.00583296
9112.00   0.52220786   0.00566333
9114.00   0.52157933   0.00555687
9116.00   0.51588875   0.00553013
9118.00   0.50498253   0.00560830
9120.00   0.50401431   0.00559969
9122.00   0.51242727   0.00549276
9124.00   0.51700306   0.00551113
9126.00   0.51890635   0.00567767
9128.00   0.51929021   0.00586730
9130.00   0.51815778   0.00600709
9132.00   0.51543069   0.00613853
9134.00   0.51244456   0.00618672
9136.00   0.50725496   0.00617431
9138.00   0.50466591   0.00611731
9140.00   0.50181705   0.00596168
9142.00   0.50335377   0.00582829
9144.00   0.51416105   0.00576037
9146.00   0.53045911   0.00574246
9148.00   0.53595996   0.00589002
9150.00   0.53710020   0.00630035
9152.00   0.53186595   0.00646419
9154.00   0.51531237   0.00654473
9156.00   0.50245965   0.00652192
9158.00   0.49740976   0.00633486
9160.00   0.49616793   0.00606119
9162.00   0.49500948   0.00590741
9164.00   0.49057296   0.00549545
9166.00   0.50288129   0.00608079
9168.00   0.54098600   0.00765495
9170.00   0.56088495   0.00851936
9172.00   0.55551666   0.00884996
9174.00   0.54019105   0.00881857
9176.00   0.52848220   0.00826145
9178.00   0.51211864   0.00686614
9180.00   0.50709575   0.00616260
9182.00   0.51198024   0.00592062
9184.00   0.51549137   0.00572354
9186.00   0.51912332   0.00566331
9188.00   0.52258158   0.00568461
9190.00   0.52380615   0.00569848
9192.00   0.52311736   0.00574385
9194.00   0.53092432   0.00587048
9196.00   0.54874510   0.00617934
9198.00   0.56046057   0.00627291
9200.00   0.57115316   0.00617482
9202.00   0.57645357   0.00604913
9204.00   0.57117778   0.00595668
9206.00   0.55918390   0.00586712
9208.00   0.55800116   0.00587254
9210.00   0.56417722   0.00596875
9212.00   0.56830436   0.00605934
9214.00   0.56961149   0.00616771
9216.00   0.57732272   0.00629931
9218.00   0.59693348   0.00648465
9220.00   0.62162966   0.00667359
9222.00   0.63749886   0.00673988
9224.00   0.65519041   0.00672672
9226.00   0.65287441   0.00667244
9228.00   0.62749547   0.00651963
9230.00   0.60712636   0.00639377
9232.00   0.59317333   0.00629965
9234.00   0.58232033   0.00622966
9236.00   0.57497990   0.00619977
9238.00   0.57097733   0.00621182
9240.00   0.57032382   0.00621974
9242.00   0.57439637   0.00624568
9244.00   0.57898366   0.00626673
9246.00   0.58357519   0.00626498
9248.00   0.59040928   0.00628672
9250.00   0.60195303   0.00636828
9252.00   0.61758649   0.00648900
9254.00   0.62946308   0.00666790
9256.00   0.64475387   0.00701832
9258.00   0.64894116   0.00713742
9260.00   0.63858849   0.00706867
9262.00   0.62960660   0.00692945
9264.00   0.63075942   0.00673305
9266.00   0.63675892   0.00647433
9268.00   0.64055806   0.00640154
9270.00   0.64436948   0.00642632
9272.00   0.64917690   0.00656832
9274.00   0.65736568   0.00687649
9276.00   0.66176027   0.00717241
9278.00   0.66104138   0.00746643
9280.00   0.65595198   0.00772120
9282.00   0.64379859   0.00773239
9284.00   0.61670923   0.00741218
9286.00   0.61057717   0.00744530
9288.00   0.62546390   0.00781947
9290.00   0.62974107   0.00795898
9292.00   0.61960441   0.00770636
9294.00   0.60259122   0.00737619
9296.00   0.58214450   0.00737411
9298.00   0.55090654   0.00746903
9300.00   0.54380512   0.00804162
9302.00   0.55622721   0.00910078
9304.00   0.56838524   0.00994645
9306.00   0.58576876   0.01067488
9308.00   0.60097754   0.01133636
9310.00   0.60528338   0.01195906
9312.00   0.60238504   0.01256231
9314.00   0.59751916   0.01287951
9316.00   0.58722490   0.01296123
9318.00   0.57695395   0.01300753
9320.00   0.56553835   0.01298942
9322.00   0.55319911   0.01288396
9324.00   0.53685784   0.01269977
9326.00   0.51902020   0.01242276
9328.00   0.52162582   0.01191748
9330.00   0.55108935   0.01068705
9332.00   0.56007600   0.01041546
9334.00   0.55742162   0.01103479
9336.00   0.55395246   0.01161196
9338.00   0.55195087   0.01198740
9340.00   0.54991877   0.01228182
9342.00   0.54960197   0.01234712
9344.00   0.54999697   0.01231580
9346.00   0.55245554   0.01190628
9348.00   0.56355309   0.01075886
9350.00   0.56323957   0.00997353
9352.00   0.54563338   0.00985387
9354.00   0.52176380   0.01004188
9356.00   0.50348711   0.01020999
9358.00   0.48008266   0.01058444
9360.00   0.48484522   0.01060502
9362.00   0.52690357   0.00984605
9364.00   0.54652488   0.01014197
9366.00   0.54054272   0.01110996
9368.00   0.52973253   0.01284732
9370.00   0.52867723   0.01574121
9372.00   0.53038275   0.01928460
9374.00   0.53738105   0.02049276
9376.00   0.55612040   0.02058354
9378.00   0.56338769   0.02016970
9380.00   0.56460911   0.01894495
9382.00   0.55745953   0.01715902
9384.00   0.53445494   0.01453959
9386.00   0.50084102   0.01062565
9388.00   0.49514604   0.00830326
9390.00   0.50969893   0.00833834
9392.00   0.52475101   0.00810236
9394.00   0.55516553   0.00876565
9396.00   0.57529205   0.00926932
9398.00   0.57283586   0.00929906
9400.00   0.56056464   0.00918717
9402.00   0.56297082   0.00934350
9404.00   0.57583535   0.00978079
9406.00   0.57949901   0.00981578
9408.00   0.57807589   0.00947509
9410.00   0.57681930   0.00928044
9412.00   0.57592505   0.00929457
9414.00   0.57511628   0.00942785
9416.00   0.57555246   0.00967594
9418.00   0.57820201   0.01011539
9420.00   0.57501149   0.01026667
9422.00   0.56984019   0.01013734
9424.00   0.55872911   0.01019284
9426.00   0.53653765   0.01056317
9428.00   0.51541698   0.01084631
9430.00   0.50840455   0.01058126
9432.00   0.51098108   0.00981696
9434.00   0.50604355   0.01016180
9436.00   0.49152279   0.01099325
9438.00   0.49204558   0.01234238
9440.00   0.50180781   0.01490469
9442.00   0.52366799   0.01639596
9444.00   0.56760919   0.01570932
9446.00   0.62700415   0.01351615
9448.00   0.64796925   0.01249964
9450.00   0.64908451   0.01183389
9452.00   0.63161516   0.01148733
9454.00   0.57380956   0.01164722
9456.00   0.53279328   0.01195252
9458.00   0.53209311   0.01244784
9460.00   0.54967612   0.01297948
9462.00   0.55151033   0.01286392
9464.00   0.55118746   0.01208084
9466.00   0.54568738   0.01165997
9468.00   0.52554345   0.01094552
9470.00   0.52033621   0.01094503
9472.00   0.54218239   0.01202071
9474.00   0.56958216   0.01336940
9476.00   0.57210577   0.01428248
9478.00   0.56159103   0.01540417
9480.00   0.54137737   0.01507742
9482.00   0.49041164   0.01295005
9484.00   0.46897039   0.01124944
9486.00   0.48239908   0.00993116
9488.00   0.50687778   0.00903382
9490.00   0.52444869   0.00893624
9492.00   0.54388541   0.00959100
9494.00   0.55932724   0.01055475
9496.00   0.57803118   0.01250322
9498.00   0.58317614   0.01326630
9500.00   0.57440478   0.01331490
9502.00   0.56012750   0.01288943
9504.00   0.54184568   0.01181381
9506.00   0.51904881   0.00998529
9508.00   0.51216322   0.00905343
9510.00   0.52083284   0.00863550
9512.00   0.52252471   0.00868277
9514.00   0.52592689   0.00952849
9516.00   0.52350384   0.01026301
9518.00   0.50843668   0.01074378
9520.00   0.48846811   0.01109033
9522.00   0.48525903   0.01108090
9524.00   0.49499002   0.01056351
9526.00   0.50141084   0.01043969
9528.00   0.51067191   0.01058710
9530.00   0.51920539   0.01060010
9532.00   0.52598649   0.01036111
9534.00   0.53273594   0.01005940
9536.00   0.54278946   0.00996209
9538.00   0.55952877   0.00999063
9540.00   0.55790454   0.01001594
9542.00   0.53908008   0.01013740
9544.00   0.52326095   0.01017717
9546.00   0.51107258   0.00996776
9548.00   0.49737197   0.00990501
9550.00   0.47693893   0.01051316
9552.00   0.45004851   0.01161548
9554.00   0.43782377   0.01180485
9556.00   0.42642489   0.01104150
9558.00   0.43749785   0.01104463
9560.00   0.48360124   0.01180120
9562.00   0.52486092   0.01254582
9564.00   0.53503841   0.01301877
9566.00   0.52833283   0.01338360
9568.00   0.52767175   0.01319351
9570.00   0.52275455   0.01230180
9572.00   0.52114105   0.01161576
9574.00   0.52943397   0.01086249
9576.00   0.52506709   0.01012060
9578.00   0.49274012   0.00937871
9580.00   0.44834426   0.00868260
9582.00   0.43291417   0.00834350
9584.00   0.43732101   0.00842262
9586.00   0.43853784   0.00845143
9588.00   0.44883576   0.00853566
9590.00   0.45306525   0.00877111
9592.00   0.44609949   0.00921309
9594.00   0.43635935   0.00972525
9596.00   0.43567458   0.01015114
9598.00   0.44042218   0.01066584
9600.00   0.44459373   0.01072351
9602.00   0.44920647   0.01031885
9604.00   0.45686549   0.01000258
9606.00   0.47083795   0.00974361
9608.00   0.48366162   0.00952615
9610.00   0.48690158   0.00939597
9612.00   0.48344949   0.00933879
9614.00   0.48200205   0.00934185
9616.00   0.47962412   0.00941700
9618.00   0.47653157   0.00953989
9620.00   0.47121391   0.00982050
9622.00   0.46722618   0.00999450
9624.00   0.46555883   0.00984292
9626.00   0.46569973   0.00947594
9628.00   0.47667202   0.00940761
9630.00   0.49938965   0.00946607
9632.00   0.52049315   0.00964299
9634.00   0.54877687   0.00995282
9636.00   0.56993228   0.01033491
9638.00   0.57909167   0.01089698
9640.00   0.57967889   0.01146481
9642.00   0.57216221   0.01142539
9644.00   0.55125713   0.01080729
9646.00   0.53572816   0.01034491
9648.00   0.51728159   0.00963689
9650.00   0.50344735   0.00914568
9652.00   0.49576634   0.00893342
9654.00   0.49199015   0.00900722
9656.00   0.49009579   0.00950055
9658.00   0.49147916   0.01038333
9660.00   0.49321386   0.01119501
9662.00   0.50520301   0.01270193
9664.00   0.50060958   0.01297729
9666.00   0.46928963   0.01152632
9668.00   0.43710327   0.00955787
9670.00   0.43158907   0.00901436
9672.00   0.44302598   0.00941308
9674.00   0.44782987   0.00940470
9676.00   0.45792353   0.00938638
9678.00   0.46020767   0.00950451
9680.00   0.45176435   0.00983895
9682.00   0.44489959   0.01011955
9684.00   0.44853199   0.01020511
9686.00   0.45806971   0.01017797
9688.00   0.46170744   0.00997452
9690.00   0.46311158   0.00932763
9692.00   0.46369559   0.00913579
9694.00   0.46142468   0.00928228
9696.00   0.46071529   0.00953715
9698.00   0.46585709   0.00988506
9700.00   0.47235137   0.01028892
9702.00   0.46577376   0.01046256
9704.00   0.44593865   0.01042027
9706.00   0.43283322   0.01053330
9708.00   0.41274247   0.01073329
9710.00   0.40741223   0.01089420
9712.00   0.42893672   0.01103951
9714.00   0.45778024   0.01112299
9716.00   0.46051794   0.01099766
9718.00   0.44564328   0.01063200
9720.00   0.43721652   0.01043995
9722.00   0.42440853   0.01029982
9724.00   0.41708440   0.01020072
9726.00   0.41557494   0.01018594
9728.00   0.41775027   0.01016934
9730.00   0.42305321   0.01001794
9732.00   0.43282607   0.00973805
9734.00   0.43765572   0.00974534
9736.00   0.44086802   0.01005396
9738.00   0.44170687   0.01019195
9740.00   0.44105437   0.01025382
9742.00   0.43710187   0.01020976
9744.00   0.42627013   0.00996991
9746.00   0.41018274   0.00956242
9748.00   0.40738785   0.00939303
9750.00   0.41267076   0.00920098
9752.00   0.42209941   0.00941019
9754.00   0.44344795   0.01025537
9756.00   0.45892882   0.01076250
9758.00   0.46094549   0.01054476
9760.00   0.45522013   0.00994823
9762.00   0.44827268   0.00968485
9764.00   0.43154204   0.00958034
9766.00   0.42700949   0.00935853
9768.00   0.43143427   0.00899546
9770.00   0.43554133   0.00877633
9772.00   0.43850055   0.00880077
9774.00   0.44093665   0.00894302
9776.00   0.44021574   0.00901875
9778.00   0.43264461   0.00899613
9780.00   0.44102651   0.00937551
9782.00   0.47051328   0.01005471
9784.00   0.48473445   0.01074617
9786.00   0.48138794   0.01162568
9788.00   0.47005844   0.01233676
9790.00   0.45537806   0.01247484
9792.00   0.43175125   0.01219026
9794.00   0.42832425   0.01203770
9796.00   0.44220406   0.01174470
9798.00   0.45269230   0.01158639
9800.00   0.46512520   0.01158050
9802.00   0.47463739   0.01159295
9804.00   0.47667977   0.01154001
9806.00   0.47351676   0.01146357
9808.00   0.46835345   0.01138902
9810.00   0.45583093   0.01136469
9812.00   0.44985476   0.01120311
9814.00   0.44895312   0.01085314
9816.00   0.44832703   0.01054390
9818.00   0.44459063   0.01031324
9820.00   0.44086465   0.01017457
9822.00   0.44670674   0.01044476
9824.00   0.47088614   0.01148123
9826.00   0.47018167   0.01151505
9828.00   0.44457823   0.01056182
9830.00   0.42996788   0.01003834
9832.00   0.43629211   0.01054160
9834.00   0.45013809   0.01127999
9836.00   0.45481935   0.01123878
9838.00   0.45499882   0.01060163
9840.00   0.45985633   0.01043714
9842.00   0.47224522   0.01046154
9844.00   0.47528711   0.01056220
9846.00   0.46595284   0.01084646
9848.00   0.45250082   0.01109409
9850.00   0.44250306   0.01100960
9852.00   0.43216825   0.01066217
9854.00   0.42520359   0.01051244
9856.00   0.41583383   0.01037297
9858.00   0.41828048   0.01037057
9860.00   0.43930855   0.01037961
9862.00   0.45783573   0.01064920
9864.00   0.45719913   0.01129147
9866.00   0.44531232   0.01217970
9868.00   0.44250199   0.01353012
9870.00   0.44275674   0.01613329
9872.00   0.44291037   0.01669423
9874.00   0.44440681   0.01559469
9876.00   0.44543266   0.01423117
9878.00   0.44648507   0.01309840
9880.00   0.44662791   0.01192793
9882.00   0.43903667   0.01140682
9884.00   0.41692930   0.01167166
9886.00   0.41253090   0.01170535
9888.00   0.42002439   0.01182895
9890.00   0.42900738   0.01198832
9892.00   0.44053787   0.01223576
9894.00   0.45171443   0.01247289
9896.00   0.45129904   0.01246550
9898.00   0.43826497   0.01225111
9900.00   0.43775916   0.01208855
9902.00   0.44371200   0.01164252
9904.00   0.45104268   0.01165924
9906.00   0.46346810   0.01221731
9908.00   0.47387689   0.01302597
9910.00   0.47067347   0.01394972
9912.00   0.45518616   0.01514916
9914.00   0.45544514   0.01554295
9916.00   0.47044155   0.01547111
9918.00   0.47504085   0.01514904
9920.00   0.46954086   0.01427316
9922.00   0.46197188   0.01338272
9924.00   0.45689628   0.01302010
9926.00   0.45200369   0.01297548
9928.00   0.44812596   0.01285981
9930.00   0.44783702   0.01277248
9932.00   0.44184068   0.01283223
9934.00   0.42642376   0.01283172
9936.00   0.41663963   0.01322770
9938.00   0.42310017   0.01430542
9940.00   0.43691775   0.01568437
9942.00   0.43158656   0.01658966
9944.00   0.40418246   0.01749976
9946.00   0.39781845   0.01791632
9948.00   0.40515456   0.01781420
9950.00   0.41118914   0.01777631
9952.00   0.41320372   0.01792685
9954.00   0.41391343   0.01812774
9956.00   0.41323295   0.01830844
9958.00   0.40804741   0.01860096
9960.00   0.41256660   0.01853355
9962.00   0.42964920   0.01823646
9964.00   0.43798390   0.01774235
9966.00   0.43880126   0.01693310
9968.00   0.43150562   0.01597584
9970.00   0.40980273   0.01503328
9972.00   0.37152162   0.01377799
9974.00   0.35209653   0.01398360
9976.00   0.34090400   0.01612115
9978.00   0.33530402   0.01679373
9980.00   0.33663106   0.01629882
9982.00   0.34265932   0.01535322
9984.00   0.35335311   0.01418543
9986.00   0.36931646   0.01249601
9988.00   0.37515503   0.01189469
9990.00   0.37925011   0.01215395
9992.00   0.37145701   0.01266184
9994.00   0.34381908   0.01388427
9996.00   0.32256579   0.01479743
9998.00   0.31976515   0.01498941
10000.00   0.32740715   0.01483591
10002.00   0.33793753   0.01495395
10004.00   0.36893180   0.01468601
10006.00   0.37015000   0.01548891
10008.00   0.34589297   0.01737263
10010.00   0.32518363   0.01872724
10012.00   0.31286237   0.01944005
10014.00   0.30477321   0.01977569
10016.00   0.30335113   0.01965132
10018.00   0.30952007   0.01886911
10020.00   0.31498420   0.01842071
10022.00   0.32697669   0.01807435
10024.00   0.33179870   0.01762276
10026.00   0.32843068   0.01703239
10028.00   0.31996825   0.01635875
10030.00   0.30590805   0.01560753
10032.00   0.28099746   0.01465654
10034.00   0.28337282   0.01422563
10036.00   0.31921214   0.01438140
10038.00   0.33142355   0.01433162
10040.00   0.32015958   0.01412973
10042.00   0.30324212   0.01390016
10044.00   0.28969651   0.01367867
10046.00   0.27440217   0.01343860
10048.00   0.27287167   0.01337349
10050.00   0.28990456   0.01343302
10052.00   0.29290530   0.01357573
10054.00   0.28050280   0.01382393
10056.00   0.27456221   0.01413176
10058.00   0.29110074   0.01441012
10060.00   0.31748241   0.01473927
10062.00   0.31229070   0.01549193
10064.00   0.27879030   0.01695326
10066.00   0.25649393   0.01750975
10068.00   0.22367470   0.01771581
10070.00   0.20837760   0.01751322
10072.00   0.22352822   0.01645767
10074.00   0.25232387   0.01512653
10076.00   0.26466286   0.01543330
10078.00   0.26825255   0.01714855
10080.00   0.28041777   0.01790525
10082.00   0.31036153   0.01870467
10084.00   0.31565553   0.01887461
10086.00   0.28259590   0.01817693
10088.00   0.24118645   0.01710523
10090.00   0.22580983   0.01627753
10092.00   0.22155355   0.01530425
10094.00   0.22998470   0.01503891
10096.00   0.26115358   0.01548846
10098.00   0.28257051   0.01589432
10100.00   0.30118430   0.01649643
10102.00   0.31091586   0.01695644
10104.00   0.30184460   0.01696821
10106.00   0.27730477   0.01667982
10108.00   0.26670817   0.01632120
10110.00   0.26435477   0.01507271
10112.00   0.25646082   0.01527456
10114.00   0.23689532   0.01650741
10116.00   0.22877306   0.01832711
10118.00   0.25094721   0.02111320
10120.00   0.28882602   0.02406615
10122.00   0.28994122   0.02418499
10124.00   0.25375822   0.02096130
10126.00   0.24570510   0.02013544
10128.00   0.24756296   0.02068195
10130.00   0.25769326   0.02123435
10132.00   0.28624168   0.02181207
10134.00   0.31707293   0.02220480
10136.00   0.30504757   0.02116776
10138.00   0.24708927   0.01796613
10140.00   0.23068589   0.01685728
10142.00   0.23906857   0.01736464
10144.00   0.24295488   0.01775324
10146.00   0.24220486   0.01797514
10148.00   0.23852980   0.01822630
10150.00   0.22647108   0.01848831
10152.00   0.20126440   0.01875829
10154.00   0.20892942   0.01909751
10156.00   0.26026079   0.01970143
10158.00   0.27677074   0.01989720
10160.00   0.25348014   0.01914819
10162.00   0.22446075   0.01888446
10164.00   0.21076570   0.02034124
10166.00   0.20100449   0.02272974
10168.00   0.21699902   0.02521540
10170.00   0.27896133   0.02977753
10172.00   0.29811734   0.03049466
10174.00   0.28301683   0.02730671
10176.00   0.25961789   0.02378174
10178.00   0.23661417   0.02229778
10180.00   0.20956191   0.02180466
10182.00   0.18996446   0.02157306
10184.00   0.16478013   0.02215648
10186.00   0.16398457   0.02266899
10188.00   0.19142731   0.02372913
10190.00   0.21344629   0.02428157
10192.00   0.22016792   0.02394188
10194.00   0.22166578   0.02318602
10196.00   0.22940722   0.02284454
10198.00   0.24961074   0.02253866
10200.00   0.23779175   0.02254957
10202.00   0.18736865   0.02264597
10204.00   0.15690266   0.02324693
10206.00   0.15887181   0.02470503
10208.00   0.16678010   0.02616330
10210.00   0.14803524   0.02664940
10212.00   0.10492454   0.02662643
10214.00   0.10949738   0.02616985
10216.00   0.16177583   0.02465002
10218.00   0.19108708   0.02378852
10220.00   0.19980641   0.02339554
10222.00   0.20199271   0.02356938
10224.00   0.20425378   0.02456873
10226.00   0.20295198   0.02623130
10228.00   0.20570673   0.02766882
10230.00   0.22321586   0.03060278
10232.00   0.21290682   0.03042055
10234.00   0.16226502   0.02626464
10236.00   0.12487470   0.02190214
10238.00   0.13007647   0.02063406
10240.00   0.15954065   0.02115500
10242.00   0.18599324   0.02115111
10244.00   0.24086957   0.02179694
10246.00   0.25142857   0.02192220
10248.00   0.21872994   0.02172694
10250.00   0.19514671   0.02156902
10252.00   0.19982213   0.02157070
10254.00   0.21216089   0.02160671
10256.00   0.20033938   0.02149682
10258.00   0.15990828   0.02113023
10260.00   0.15928179   0.02123951
10262.00   0.19312577   0.02158154
10264.00   0.21651846   0.02219365
10266.00   0.22449920   0.02327572
10268.00   0.22768234   0.02436124
10270.00   0.23195136   0.02471601
10272.00   0.23037341   0.02428005
10274.00   0.25017348   0.02550805
10276.00   0.29351807   0.02593784
10278.00   0.32726991   0.03014151
10280.00   0.35760519   0.03916481
10282.00   0.37927422   0.04568723
10284.00   0.38931325   0.04602998
10286.00   0.39185974   0.04241593
10288.00   0.34739944   0.04170301
10290.00   0.21418002   0.04131611
10292.00   0.16832446   0.04228772
10294.00   0.21465088   0.04650050
10296.00   0.25186872   0.04835143
10298.00   0.22078189   0.04414020
10300.00   0.15852278   0.03517098
10302.00   0.14367083   0.03159731
10304.00   0.16349903   0.03303581
10306.00   0.16704531   0.03228465
10308.00   0.17457478   0.03129601
10310.00   0.16933903   0.03015796
10312.00   0.13719714   0.02864134
10314.00   0.09623517   0.02702611
10316.00   0.09026562   0.02639735
10318.00   0.10604301   0.02659990
10320.00   0.12955554   0.02689142
10322.00   0.19190499   0.02710995
10324.00   0.21576981   0.02832818
10326.00   0.17193437   0.03160486
10328.00   0.11705954   0.03440343
10330.00   0.13124755   0.03358081
10332.00   0.20218545   0.02940152
10334.00   0.20534749   0.02758320
10336.00   0.14741367   0.02618203
10338.00   0.12869893   0.02612511
10340.00   0.15290470   0.02748121
10342.00   0.18706788   0.02975450
10344.00   0.21112593   0.03315924
10346.00   0.23641893   0.03763257
10348.00   0.23745067   0.03774212
10350.00   0.19896138   0.03308845
10352.00   0.19691551   0.03099257
10354.00   0.23348178   0.03097726
10356.00   0.26585901   0.03135625
10358.00   0.27304894   0.03142783
10360.00   0.26698670   0.03158217
10362.00   0.25114340   0.03172217
10364.00   0.21285613   0.03135667
10366.00   0.19026777   0.03223493
10368.00   0.16136558   0.03425387
10370.00   0.15745746   0.03614141
10372.00   0.20498371   0.03801779
10374.00   0.27105746   0.03957219
10376.00   0.27160808   0.03921688
10378.00   0.20925011   0.03663941
10380.00   0.20044991   0.03536703
10382.00   0.23212864   0.03399683
10384.00   0.24033368   0.03359912
10386.00   0.19865426   0.03503826
10388.00   0.15686928   0.03665415
10390.00   0.19073476   0.03610677
10392.00   0.29757980   0.03378252
10394.00   0.31251416   0.03282177
10396.00   0.24370420   0.03210242
10398.00   0.22520560   0.03216215
10400.00   0.28046960   0.03325491
10402.00   0.32645205   0.03463249
10404.00   0.27957481   0.03588418
10406.00   0.16485082   0.03734235
10408.00   0.15369222   0.03719629
10410.00   0.23215368   0.03488355
10412.00   0.26249078   0.03406624
10414.00   0.26267603   0.03441655
10416.00   0.25420025   0.03515167
10418.00   0.23843600   0.03618198
10420.00   0.21597774   0.03747289
10422.00   0.23333424   0.03746012
10424.00   0.32057154   0.03646714
10426.00   0.32294351   0.03526744
10428.00   0.23730054   0.03301166
10430.00   0.18326423   0.03119350
10432.00   0.20705958   0.03042230
10434.00   0.26417679   0.03034632
10436.00   0.28967285   0.03078884
10438.00   0.32188678   0.03268552
10440.00   0.30693477   0.03252099
10442.00   0.21852538   0.03015792
10444.00   0.17856428   0.02892024
10446.00   0.21867944   0.02970191
10448.00   0.28162643   0.03111433
10450.00   0.29825372   0.03184402
10452.00   0.29352289   0.03264545
10454.00   0.28707173   0.03243406
10456.00   0.26348966   0.03078935
10458.00   0.25057259   0.02994831
10460.00   0.24939913   0.02988895
10462.00   0.25155061   0.03029854
10464.00   0.24408820   0.03083793
10466.00   0.22624774   0.03144836
10468.00   0.27544159   0.03428084
10470.00   0.43641019   0.04101916
10472.00   0.48530850   0.04254973
10474.00   0.42596412   0.03937733
10476.00   0.35282245   0.03533239
10478.00   0.31120968   0.03277761
10480.00   0.27648407   0.03058762
10482.00   0.25754845   0.02921263
10484.00   0.26645324   0.02920355
10486.00   0.25278994   0.02873363
10488.00   0.20985110   0.02807924
10490.00   0.19105810   0.02780323
10492.00   0.22977518   0.02837194
10494.00   0.28937575   0.02922782
10496.00   0.28225830   0.02897030
10498.00   0.21829799   0.02756351
10500.00   0.18637720   0.02710910
10502.00   0.13887449   0.02683510
10504.00   0.13503188   0.02720234
10506.00   0.20667212   0.02866737
10508.00   0.29664433   0.03026155
10510.00   0.31709561   0.03061879
10512.00   0.29311478   0.03014370
10514.00   0.28389758   0.02999178
10516.00   0.26956204   0.02970896
10518.00   0.25368500   0.02956107
10520.00   0.22710904   0.02937314
10522.00   0.20908949   0.02947760
10524.00   0.22616225   0.03045756
10526.00   0.27342546   0.03221487
10528.00   0.27274469   0.03221298
10530.00   0.22584181   0.03047995
10532.00   0.20933744   0.02960035
10534.00   0.21617824   0.02920083
10536.00   0.22914591   0.02914230
10538.00   0.24250381   0.02953758
10540.00   0.25913662   0.03029752
10542.00   0.26474974   0.03056058
10544.00   0.25774491   0.03057961
10546.00   0.26001853   0.03054716
10548.00   0.27018976   0.03027250
10550.00   0.27679875   0.03012748
10552.00   0.27399281   0.03026764
10554.00   0.26761410   0.03055391
10556.00   0.27050754   0.03079875
10558.00   0.29003370   0.03127441
10560.00   0.28006911   0.03121243
10562.00   0.22958049   0.03026995
10564.00   0.20939119   0.03006639
10566.00   0.24864684   0.03120404
10568.00   0.29699144   0.03260503
10570.00   0.27713606   0.03294067
10572.00   0.20038748   0.03274290
10574.00   0.17360659   0.03225401
10576.00   0.16757824   0.03080555
10578.00   0.16894856   0.03008826
10580.00   0.18253794   0.03024858
10582.00   0.20043440   0.03074762
10584.00   0.21506640   0.03128512
10586.00   0.23199321   0.03208597
10588.00   0.22979122   0.03214101
10590.00   0.20884253   0.03142921
10592.00   0.19031474   0.03108384
10594.00   0.15860188   0.03081087
10596.00   0.14239542   0.03084873
10598.00   0.16438052   0.03144521
10600.00   0.21210924   0.03243672
10602.00   0.24906886   0.03326895
10604.00   0.31132358   0.03455848
10606.00   0.32190743   0.03489811
10608.00   0.27445722   0.03421958
10610.00   0.23791745   0.03371248
10612.00   0.24027917   0.03389959
10614.00   0.25748539   0.03433198
10616.00   0.25503731   0.03432197
10618.00   0.24223985   0.03384511
10620.00   0.23241885   0.03395237
10622.00   0.21709046   0.03467403
10624.00   0.20893590   0.03501645
10626.00   0.21119832   0.03467891
10628.00   0.21869349   0.03416628
10630.00   0.22577581   0.03421878
10632.00   0.23705423   0.03472140
10634.00   0.24052553   0.03472315
10636.00   0.22964860   0.03416523
10638.00   0.23532234   0.03411857
10640.00   0.26449749   0.03480833
10642.00   0.29684651   0.03554922
10644.00   0.31475982   0.03575900
10646.00   0.32733628   0.03571106
10648.00   0.32357538   0.03541317
10650.00   0.29976630   0.03469488
10652.00   0.27901828   0.03405130
10654.00   0.25200108   0.03335509
10656.00   0.23152122   0.03270090
10658.00   0.22884610   0.03215631
10660.00   0.23798202   0.03169236
10662.00   0.23912106   0.03141927
10664.00   0.22324966   0.03126982
10666.00   0.24279699   0.03136113
10668.00   0.31225517   0.03203603
10670.00   0.35868677   0.03230304
10672.00   0.34520283   0.03155977
10674.00   0.30538839   0.03036612
10676.00   0.30768868   0.03027547
10678.00   0.33956289   0.03111522
10680.00   0.35358524   0.03144708
10682.00   0.36690715   0.03183085
10684.00   0.37124759   0.03191376
10686.00   0.36344194   0.03167169
10688.00   0.34859142   0.03112195
10690.00   0.33452773   0.03014369
10692.00   0.31995606   0.02851591
10694.00   0.29549274   0.02731382
10696.00   0.25056246   0.02609507
10698.00   0.22553788   0.02523452
10700.00   0.21914506   0.02478858
10702.00   0.22761214   0.02467759
10704.00   0.25702044   0.02494364
10706.00   0.31263846   0.02570107
10708.00   0.32187793   0.02564582
10710.00   0.28068313   0.02474921
10712.00   0.27673426   0.02443590
10714.00   0.31075424   0.02475885
10716.00   0.34537333   0.02504431
10718.00   0.35950834   0.02487416
10720.00   0.36416414   0.02446264
10722.00   0.36253029   0.02421509
10724.00   0.34915218   0.02403098
10726.00   0.33831671   0.02378227
10728.00   0.31402889   0.02336215
10730.00   0.30894765   0.02312880
10732.00   0.35071370   0.02328290
10734.00   0.41108570   0.02364696
10736.00   0.40447959   0.02385217
10738.00   0.32488525   0.02406306
10740.00   0.30890092   0.02418204
10742.00   0.32462013   0.02431629
10744.00   0.34692812   0.02425077
10746.00   0.38283336   0.02366849
10748.00   0.41814998   0.02309023
10750.00   0.41446227   0.02372283
10752.00   0.37588009   0.02581078
10754.00   0.35801595   0.02546938
10756.00   0.34319356   0.02225962
10758.00   0.33230868   0.02077858
10760.00   0.33048472   0.02204785
10762.00   0.32677031   0.02377142
10764.00   0.30343780   0.02434308
10766.00   0.26044336   0.02467669
10768.00   0.26631451   0.02362722
10770.00   0.32791409   0.02003781
10772.00   0.35340318   0.01783920
10774.00   0.34399864   0.01730881
10776.00   0.33279648   0.01721268
10778.00   0.34023768   0.01681490
10780.00   0.35594904   0.01649850
10782.00   0.36294439   0.01624725
10784.00   0.35982174   0.01571341
10786.00   0.37043899   0.01607263
10788.00   0.39667612   0.01758876
10790.00   0.41846874   0.01863448
10792.00   0.43025765   0.01876592
10794.00   0.43498081   0.01838627
10796.00   0.42526001   0.01767149
10798.00   0.38482147   0.01582361
10800.00   0.38154873   0.01516841
10802.00   0.41362098   0.01559870
10804.00   0.42944410   0.01573936
10806.00   0.41658103   0.01516611
10808.00   0.39210525   0.01447480
10810.00   0.37444076   0.01459480
10812.00   0.35609204   0.01525749
10814.00   0.33778891   0.01595333
10816.00   0.31253079   0.01737549
10818.00   0.30042437   0.01782634
10820.00   0.30077091   0.01710725
10822.00   0.31236872   0.01593549
10824.00   0.34302598   0.01500701
10826.00   0.40007800   0.01391093
10828.00   0.39459869   0.01340768
10830.00   0.31617400   0.01365351
10832.00   0.28809151   0.01358178
10834.00   0.29939744   0.01319995
10836.00   0.32952675   0.01288020
10838.00   0.37972364   0.01292494
10840.00   0.45083520   0.01319413
10842.00   0.46064612   0.01310864
10844.00   0.41335556   0.01239140
10846.00   0.38791382   0.01258601
10848.00   0.35711417   0.01395558
10850.00   0.34257969   0.01471673
10852.00   0.36576289   0.01419043
10854.00   0.40589201   0.01291967
10856.00   0.39402989   0.01204062
10858.00   0.33421066   0.01061870
10860.00   0.30143306   0.01046454
10862.00   0.26950961   0.01175062
