# File created by shivutils (I.Shivvers)
# wl(A)   flm    er(optional)
3442.00   0.57828634   0.25208873
3444.00   0.15157745   0.25700472
3446.00   0.32430811   0.26145447
3448.00   1.30634141   0.27147904
3450.00   0.73556410   0.28065322
3452.00   0.54824616   0.28926289
3454.00   0.71777993   0.28324986
3456.00   0.83688785   0.28100460
3458.00   0.66327018   0.27660072
3460.00   0.45170690   0.27233775
3462.00   0.84600976   0.27678864
3464.00   0.84343663   0.27751260
3466.00   0.74128520   0.28725063
3468.00   0.42556859   0.26904694
3470.00   0.83347370   0.26869513
3472.00   0.47640451   0.27266174
3474.00   1.18076612   0.28045663
3476.00   0.56072512   0.27477687
3478.00   0.53560113   0.28870745
3480.00   0.82274610   0.30476734
3482.00   1.05233535   0.30240868
3484.00   -0.34049884   0.29740546
3486.00   0.30437793   0.29296805
3488.00   1.11048367   0.29048883
3490.00   0.77511651   0.28341021
3492.00   0.71942769   0.28268365
3494.00   0.34488156   0.27783027
3496.00   0.71702045   0.27439277
3498.00   0.73595872   0.27111530
3500.00   0.82248259   0.27003006
3502.00   0.79458484   0.26479950
3504.00   0.36214702   0.26824704
3506.00   0.71861087   0.26540605
3508.00   0.26649729   0.26607273
3510.00   0.38611932   0.27155829
3512.00   0.90166296   0.27262517
3514.00   0.43012822   0.26572252
3516.00   0.96955633   0.26614807
3518.00   0.26000514   0.26495312
3520.00   0.29277593   0.26540164
3522.00   0.49721347   0.26339681
3524.00   0.63972899   0.26709856
3526.00   0.58267251   0.25936074
3528.00   0.79834919   0.25887249
3530.00   0.91292080   0.25721031
3532.00   0.77245423   0.26459374
3534.00   0.59047050   0.25427248
3536.00   0.39628876   0.25435055
3538.00   0.54050348   0.25857277
3540.00   0.86436066   0.26444979
3542.00   0.85562657   0.28080293
3544.00   0.86391455   0.28963892
3546.00   0.21523505   0.27785854
3548.00   1.03932733   0.27358027
3550.00   0.82178569   0.26900343
3552.00   0.68308936   0.26824349
3554.00   1.09550208   0.27390829
3556.00   0.28073511   0.26667346
3558.00   1.59375127   0.27146228
3560.00   0.51847571   0.26306914
3562.00   0.96293784   0.25664810
3564.00   1.07867322   0.25002249
3566.00   0.77038607   0.25203496
3568.00   0.74544204   0.24444466
3570.00   0.77937027   0.24342725
3572.00   1.01818645   0.24292129
3574.00   0.71491677   0.24280880
3576.00   0.66145652   0.23815664
3578.00   0.91751091   0.23540024
3580.00   1.11793965   0.22909206
3582.00   1.24256024   0.23180600
3584.00   0.99556071   0.21917379
3586.00   0.81695379   0.21419489
3588.00   0.75698738   0.21936771
3590.00   0.55476434   0.21914438
3592.00   0.77717356   0.22396758
3594.00   0.72705961   0.22207139
3596.00   0.71174178   0.21877768
3598.00   0.55132589   0.21044644
3600.00   0.61058723   0.20909914
3602.00   1.14314401   0.21174430
3604.00   0.91532677   0.20076998
3606.00   0.77915501   0.20203896
3608.00   0.43660954   0.20212099
3610.00   0.23957396   0.19670253
3612.00   0.68539909   0.20294057
3614.00   1.41452866   0.21693066
3616.00   1.27932747   0.21136059
3618.00   0.82616353   0.21359318
3620.00   0.62812954   0.19912490
3622.00   0.25981296   0.20013081
3624.00   0.54181536   0.19486262
3626.00   0.70489618   0.19611317
3628.00   0.89080014   0.19542555
3630.00   0.83392664   0.20473956
3632.00   0.96988155   0.20866317
3634.00   0.98680007   0.20054635
3636.00   0.85988353   0.19796081
3638.00   0.67743282   0.19789287
3640.00   0.74144142   0.19759917
3642.00   0.37319733   0.20064300
3644.00   0.85000235   0.20499944
3646.00   0.72714166   0.20225974
3648.00   0.93569112   0.24754960
3650.00   1.53958523   0.29419269
3652.00   1.00803684   0.27972108
3654.00   0.52248150   0.24657997
3656.00   0.98642060   0.23331398
3658.00   0.97234177   0.20343237
3660.00   0.96989865   0.19708364
3662.00   0.83621314   0.21610328
3664.00   0.77255381   0.21578670
3666.00   0.89228615   0.18864374
3668.00   0.58871868   0.16903848
3670.00   0.75239037   0.16712425
3672.00   0.59454847   0.16692946
3674.00   0.80110158   0.16180724
3676.00   0.81475324   0.15946584
3678.00   0.55870196   0.15639084
3680.00   0.62055707   0.15409056
3682.00   0.47589445   0.15031996
3684.00   0.63470840   0.14903954
3686.00   0.84444295   0.14845136
3688.00   0.70230129   0.14796524
3690.00   0.63081900   0.14886440
3692.00   0.50075453   0.14818383
3694.00   0.70516241   0.14825858
3696.00   0.90813022   0.14658565
3698.00   1.01163638   0.15576943
3700.00   0.89112250   0.15471545
3702.00   0.75976443   0.15389916
3704.00   0.75894651   0.14999749
3706.00   1.26540555   0.15330091
3708.00   0.88644465   0.14439098
3710.00   0.77463239   0.14508241
3712.00   1.07117874   0.14774907
3714.00   1.31628883   0.14723535
3716.00   0.92524280   0.14613963
3718.00   0.52174071   0.14012112
3720.00   1.00820934   0.14262941
3722.00   0.69876539   0.13671400
3724.00   0.79594907   0.14138403
3726.00   0.95720715   0.14229452
3728.00   1.18368100   0.14559548
3730.00   1.09522643   0.14175838
3732.00   1.18914601   0.14376387
3734.00   1.36030250   0.14344358
3736.00   1.11480819   0.14308572
3738.00   1.53562544   0.15078806
3740.00   1.08470381   0.14502859
3742.00   0.93081517   0.14444491
3744.00   1.47385030   0.14313368
3746.00   1.12377936   0.13521287
3748.00   1.21605934   0.13606360
3750.00   1.23432530   0.13425481
3752.00   0.91312831   0.13226138
3754.00   1.14172377   0.13474174
3756.00   1.25691080   0.13647337
3758.00   1.10134364   0.13353027
3760.00   1.36933194   0.13509767
3762.00   1.36918421   0.13262874
3764.00   1.21387477   0.13082558
3766.00   1.20897693   0.12776295
3768.00   1.22735133   0.12618173
3770.00   1.39000273   0.13103331
3772.00   1.17130431   0.12909298
3774.00   1.31947062   0.12958555
3776.00   1.22137272   0.12719909
3778.00   1.26086040   0.12729917
3780.00   1.16075447   0.12434584
3782.00   1.03094904   0.12330053
3784.00   1.19874718   0.12545698
3786.00   1.14733182   0.12471320
3788.00   1.38411926   0.12554572
3790.00   1.34971830   0.12716071
3792.00   1.23632540   0.12540761
3794.00   1.21577781   0.12208294
3796.00   1.27652335   0.12061107
3798.00   1.21734405   0.11979806
3800.00   1.31998467   0.12243410
3802.00   1.12452276   0.12026236
3804.00   1.17562358   0.12159597
3806.00   1.29649756   0.11872015
3808.00   1.49440094   0.12110698
3810.00   1.44834120   0.11866765
3812.00   1.34533686   0.12131075
3814.00   1.45225204   0.12254370
3816.00   1.31706166   0.12067723
3818.00   1.47096307   0.11981936
3820.00   1.26822101   0.11761238
3822.00   1.44492754   0.11992145
3824.00   1.36354577   0.11792378
3826.00   1.32998841   0.11582049
3828.00   1.43530590   0.12077296
3830.00   1.15259235   0.12134833
3832.00   1.31021627   0.12125224
3834.00   1.18517409   0.11554338
3836.00   1.00548806   0.11279511
3838.00   1.04373938   0.11231384
3840.00   0.91654312   0.11185579
3842.00   0.83254166   0.10988649
3844.00   0.96547799   0.11035325
3846.00   0.86319221   0.10680417
3848.00   0.70120273   0.10328422
3850.00   0.90539926   0.10451292
3852.00   0.95454141   0.10601964
3854.00   1.09066026   0.10647411
3856.00   0.89237782   0.10219518
3858.00   0.99311478   0.10400764
3860.00   1.02417835   0.10165171
3862.00   0.81426803   0.10122067
3864.00   0.79646172   0.10118943
3866.00   0.77195514   0.09957814
3868.00   0.70505812   0.09771327
3870.00   0.77231322   0.09614956
3872.00   0.61881337   0.09763064
3874.00   0.78909168   0.10173414
3876.00   0.83632604   0.10269655
3878.00   0.74342763   0.09853924
3880.00   0.84529069   0.09729108
3882.00   0.64882670   0.09530359
3884.00   0.68572942   0.09472490
3886.00   0.73663733   0.09431515
3888.00   0.65035525   0.09305776
3890.00   0.64375278   0.09373800
3892.00   0.82815304   0.09592105
3894.00   0.88145901   0.09761760
3896.00   0.93609683   0.09858836
3898.00   0.77780889   0.09626526
3900.00   0.84814211   0.09730374
3902.00   0.86608566   0.09913269
3904.00   0.81850005   0.10308616
3906.00   0.77216989   0.11436762
3908.00   0.98874905   0.12329704
3910.00   1.04335314   0.12332518
3912.00   0.89110737   0.12249710
3914.00   1.05339042   0.11885370
3916.00   0.79257558   0.10777278
3918.00   0.97739862   0.10600690
3920.00   1.22046618   0.10252627
3922.00   1.18486600   0.10106344
3924.00   1.18122964   0.10062897
3926.00   0.95436673   0.09592738
3928.00   1.05696539   0.09678246
3930.00   0.96490622   0.09513952
3932.00   0.94630618   0.09844029
3934.00   1.07536972   0.10075811
3936.00   1.24246083   0.09886255
3938.00   1.09996455   0.09476419
3940.00   1.39296698   0.09980745
3942.00   1.60517782   0.10652738
3944.00   1.23507205   0.10734457
3946.00   1.11351049   0.10384045
3948.00   1.29212472   0.10055889
3950.00   1.27756641   0.09997835
3952.00   1.24257003   0.09877902
3954.00   1.35359875   0.09796798
3956.00   1.34925104   0.09710689
3958.00   1.28684613   0.09737423
3960.00   1.38578948   0.10197811
3962.00   1.42877594   0.10517669
3964.00   1.45295447   0.09877984
3966.00   1.04971775   0.09173401
3968.00   1.26507342   0.09136405
3970.00   1.24289466   0.08975810
3972.00   1.37992001   0.09345543
3974.00   1.31459774   0.09391185
3976.00   1.30499237   0.09308684
3978.00   1.28715964   0.09326523
3980.00   1.41285411   0.09445842
3982.00   1.43321413   0.09614551
3984.00   1.43664227   0.09539187
3986.00   1.36950913   0.09269317
3988.00   1.49250571   0.09471945
3990.00   1.16229912   0.09281325
3992.00   1.45103344   0.09477291
3994.00   1.43792106   0.09727987
3996.00   1.27127747   0.09949759
3998.00   1.35437737   0.09973590
4000.00   1.45587814   0.09685302
4002.00   1.63732963   0.09686414
4004.00   1.35398446   0.09206329
4006.00   1.39277285   0.09301542
4008.00   1.45782708   0.09631051
4010.00   1.58892353   0.09826606
4012.00   1.61362256   0.09925246
4014.00   1.50255773   0.09804467
4016.00   1.64488238   0.09852329
4018.00   1.52190224   0.10409243
4020.00   1.46463335   0.11301544
4022.00   1.87979139   0.12132307
4024.00   1.42460020   0.11707317
4026.00   1.45206453   0.11008339
4028.00   1.78181980   0.10578176
4030.00   1.51519072   0.10205230
4032.00   1.62144798   0.10078494
4034.00   1.60348211   0.09900597
4036.00   1.50906164   0.09713051
4038.00   1.47940580   0.09655176
4040.00   1.55654727   0.09693654
4042.00   1.57951110   0.09974203
4044.00   1.47080479   0.13950726
4046.00   1.65593596   0.18670832
4048.00   1.48533820   0.18163218
4050.00   1.16773033   0.13010464
4052.00   1.25876357   0.10447065
4054.00   1.21208332   0.10136848
4056.00   1.55621630   0.10263480
4058.00   1.22578955   0.09509130
4060.00   1.48978830   0.09383427
4062.00   1.27968666   0.09205936
4064.00   1.29007085   0.09177298
4066.00   1.32516839   0.09184084
4068.00   1.22298698   0.09105664
4070.00   1.46867234   0.09065972
4072.00   1.33912794   0.08869855
4074.00   1.26115110   0.09030752
4076.00   1.29506923   0.10105830
4078.00   1.14916974   0.10727742
4080.00   1.24378873   0.10466319
4082.00   1.05901556   0.09862900
4084.00   1.07899172   0.09636312
4086.00   1.19656757   0.09490119
4088.00   1.17532637   0.09257567
4090.00   1.09784136   0.08576951
4092.00   1.30853147   0.08631443
4094.00   1.00300066   0.08367998
4096.00   1.18171420   0.08493430
4098.00   1.09004646   0.08392829
4100.00   1.17899047   0.08375590
4102.00   1.16556286   0.08289803
4104.00   1.01352404   0.07993281
4106.00   1.10264230   0.08119142
4108.00   1.03039828   0.08218747
4110.00   1.03200612   0.08142267
4112.00   1.19179665   0.08278750
4114.00   1.32957179   0.08401943
4116.00   1.37288525   0.08429334
4118.00   1.00665837   0.08022966
4120.00   1.23338017   0.08067167
4122.00   1.35547477   0.08177421
4124.00   1.40141661   0.08353832
4126.00   1.25111769   0.08212553
4128.00   1.38733211   0.08296442
4130.00   1.26634334   0.08335410
4132.00   1.41448293   0.08651456
4134.00   1.47756159   0.08776765
4136.00   1.23412374   0.08369911
4138.00   1.33311753   0.08543051
4140.00   1.14734826   0.08467622
4142.00   1.19249041   0.08278947
4144.00   1.30867589   0.08032489
4146.00   1.15136522   0.07768778
4148.00   1.06268856   0.07775580
4150.00   1.01767422   0.08029425
4152.00   1.21417079   0.08476678
4154.00   1.25294004   0.08453082
4156.00   1.07448157   0.08057898
4158.00   1.21678634   0.07955481
4160.00   1.14184607   0.07868970
4162.00   1.05383896   0.08025306
4164.00   1.15066901   0.08747665
4166.00   1.04528154   0.08770708
4168.00   0.87050320   0.08200026
4170.00   1.05565055   0.07932355
4172.00   1.15983682   0.07817399
4174.00   1.16006203   0.07671530
4176.00   1.21824477   0.07693889
4178.00   1.04114906   0.07595579
4180.00   1.07683133   0.07641847
4182.00   1.01754815   0.07367701
4184.00   0.99811812   0.07282357
4186.00   1.06996490   0.07409467
4188.00   0.96460888   0.07299443
4190.00   1.02476609   0.07294847
4192.00   1.03593482   0.07438870
4194.00   0.95951125   0.07272135
4196.00   1.00124842   0.07170506
4198.00   1.13499962   0.07199094
4200.00   1.12119648   0.07168098
4202.00   1.03511860   0.07178239
4204.00   1.00682616   0.07240055
4206.00   1.05478168   0.07249470
4208.00   1.23062340   0.07475084
4210.00   0.92175864   0.07322573
4212.00   1.10680554   0.07430134
4214.00   0.96269073   0.07296854
4216.00   1.12161619   0.07369422
4218.00   0.97732282   0.07209663
4220.00   1.03755682   0.07230665
4222.00   1.01756584   0.07109072
4224.00   0.98132368   0.07072155
4226.00   0.97285913   0.07106861
4228.00   0.98687121   0.07113365
4230.00   0.90005062   0.07120830
4232.00   0.91396074   0.07245690
4234.00   1.17393528   0.07516454
4236.00   1.16242935   0.07572939
4238.00   0.98508028   0.07580069
4240.00   1.29628624   0.07552427
4242.00   1.20464198   0.07344946
4244.00   1.23847032   0.07835876
4246.00   1.24852959   0.08672158
4248.00   1.13575039   0.08677213
4250.00   1.13109711   0.07882365
4252.00   1.24083807   0.07904109
4254.00   1.16798650   0.07290723
4256.00   1.24430960   0.07392405
4258.00   1.14724560   0.07270454
4260.00   1.24519398   0.07257440
4262.00   1.25273053   0.07190114
4264.00   1.16296179   0.07135063
4266.00   1.09736136   0.07067973
4268.00   1.26430865   0.07125678
4270.00   1.15522563   0.07078684
4272.00   1.17082485   0.07094363
4274.00   1.20771679   0.07092492
4276.00   1.26286870   0.07255907
4278.00   1.14393979   0.07120541
4280.00   1.37281170   0.07321385
4282.00   1.37356063   0.07407567
4284.00   1.21103847   0.07228237
4286.00   1.19461499   0.07151264
4288.00   1.36267316   0.07193095
4290.00   1.15214550   0.07052571
4292.00   1.22792032   0.07156658
4294.00   1.12727033   0.07162474
4296.00   1.17436421   0.07131474
4298.00   1.12443459   0.07041860
4300.00   1.15414881   0.06992516
4302.00   1.08940736   0.06900310
4304.00   1.07717841   0.06976954
4306.00   1.08623486   0.07056642
4308.00   1.28904598   0.07233279
4310.00   1.23374445   0.07185326
4312.00   1.15604546   0.07717662
4314.00   1.13916851   0.08120300
4316.00   1.25212136   0.07928720
4318.00   1.31624590   0.07889489
4320.00   1.20877397   0.07915659
4322.00   1.26134794   0.07960457
4324.00   1.22501774   0.07803158
4326.00   0.92953806   0.07513969
4328.00   1.15946113   0.07307262
4330.00   1.14873902   0.07211525
4332.00   1.10218354   0.07126709
4334.00   1.19239963   0.07232037
4336.00   1.10617468   0.07268109
4338.00   1.21861004   0.07447310
4340.00   1.29794075   0.07628318
4342.00   1.19519582   0.07549973
4344.00   1.21881171   0.07714354
4346.00   1.28362121   0.08135056
4348.00   1.30831214   0.08270565
4350.00   1.29362049   0.08076270
4352.00   1.07162751   0.07766817
4354.00   1.24112986   0.08641692
4356.00   1.39464493   0.14739402
4358.00   1.43691008   0.18556939
4360.00   1.09982892   0.17460003
4362.00   1.46254578   0.13182418
4364.00   1.41250882   0.09787711
4366.00   1.15213965   0.08286497
4368.00   1.52974721   0.08218753
4370.00   1.29189623   0.08019382
4372.00   1.29814526   0.08192832
4374.00   1.27816698   0.08357878
4376.00   1.35805179   0.08288059
4378.00   1.46611897   0.08064998
4380.00   1.37980221   0.07825441
4382.00   1.24434978   0.07631547
4384.00   1.27979939   0.07538911
4386.00   1.33251481   0.07546154
4388.00   1.37764959   0.07577091
4390.00   1.38803305   0.07594415
4392.00   1.33772550   0.07606809
4394.00   1.16249341   0.07444017
4396.00   1.28484470   0.07471948
4398.00   1.36959631   0.07748528
4400.00   1.23429144   0.07803616
4402.00   1.17621096   0.07814065
4404.00   1.23161014   0.07618571
4406.00   1.17976043   0.07597589
4408.00   1.03637179   0.07461134
4410.00   1.21880251   0.07594019
4412.00   1.19758569   0.07610525
4414.00   1.05715277   0.07712939
4416.00   1.14522209   0.07825221
4418.00   1.19408367   0.07730671
4420.00   1.07194754   0.07507625
4422.00   1.06862377   0.07432854
4424.00   0.93486517   0.07306640
4426.00   1.01359624   0.07335031
4428.00   1.18575858   0.07454180
4430.00   1.01314475   0.07293918
4432.00   1.00942185   0.07275980
4434.00   1.03791373   0.07268648
4436.00   1.04567773   0.07273336
4438.00   0.99685157   0.07288072
4440.00   0.73886341   0.07089352
4442.00   1.03133048   0.07219626
4444.00   1.09921056   0.07295884
4446.00   1.00688557   0.07224691
4448.00   0.81439661   0.07085462
4450.00   0.91207930   0.07086907
4452.00   0.81897128   0.07039617
4454.00   0.86516976   0.07049815
4456.00   0.77108526   0.07036769
4458.00   0.74692375   0.06952735
4460.00   0.76936388   0.06965017
4462.00   0.85469426   0.06991074
4464.00   0.84443498   0.06938948
4466.00   0.80921848   0.06938033
4468.00   0.74143828   0.06894291
4470.00   0.72005253   0.06839067
4472.00   0.78903331   0.06837012
4474.00   0.82185062   0.06896643
4476.00   0.68931024   0.06832891
4478.00   0.78461290   0.06875375
4480.00   0.69300345   0.06785508
4482.00   0.65483910   0.06797005
4484.00   0.72332511   0.06831959
4486.00   0.69448608   0.06816202
4488.00   0.70614499   0.06791413
4490.00   0.82390789   0.06902942
4492.00   0.68973256   0.06846946
4494.00   0.55353539   0.06806501
4496.00   0.59634559   0.06912113
4498.00   0.77665627   0.07016382
4500.00   0.61972000   0.06915301
4502.00   0.80946133   0.06963046
4504.00   0.74566475   0.06827270
4506.00   0.73641910   0.06808445
4508.00   0.79242800   0.06777776
4510.00   0.80821647   0.06782754
4512.00   0.74285736   0.06719850
4514.00   0.78155527   0.06767018
4516.00   0.88230943   0.06703423
4518.00   0.80563561   0.06631689
4520.00   0.67727206   0.06591703
4522.00   0.74761399   0.06632157
4524.00   0.90677150   0.06653014
4526.00   0.78595388   0.06535562
4528.00   0.84373758   0.06586157
4530.00   0.79099270   0.06598546
4532.00   0.87435671   0.06653971
4534.00   0.81089475   0.06583240
4536.00   0.88957419   0.06607942
4538.00   0.98101540   0.06608516
4540.00   0.99115384   0.06666862
4542.00   0.72853063   0.06572354
4544.00   0.93593631   0.06746271
4546.00   0.96633955   0.06736199
4548.00   0.96622096   0.06611783
4550.00   0.91634188   0.06534997
4552.00   0.86044054   0.06450811
4554.00   0.94205424   0.06542357
4556.00   0.93054924   0.06513466
4558.00   0.82973392   0.06450813
4560.00   0.87936624   0.06367462
4562.00   0.94953850   0.06383462
4564.00   1.14860651   0.06497737
4566.00   1.05377946   0.06362130
4568.00   0.93120778   0.06259921
4570.00   0.76122483   0.06157519
4572.00   0.99949599   0.06400592
4574.00   1.02261089   0.06438830
4576.00   1.06825844   0.06362935
4578.00   1.12516384   0.06413738
4580.00   1.04249647   0.06309473
4582.00   1.10207782   0.06229849
4584.00   1.11254376   0.06171416
4586.00   1.14110468   0.06224023
4588.00   1.11531940   0.06259650
4590.00   1.14921987   0.06230023
4592.00   1.16949526   0.06230594
4594.00   1.13626623   0.06260080
4596.00   1.17615854   0.06304440
4598.00   1.11449700   0.06225196
4600.00   1.31248156   0.06286017
4602.00   1.38258900   0.06291664
4604.00   1.39021726   0.06294734
4606.00   1.38946555   0.06319847
4608.00   1.42767520   0.06408812
4610.00   1.55558848   0.06473465
4612.00   1.56990563   0.06404393
4614.00   1.54527440   0.06369067
4616.00   1.59253082   0.06393675
4618.00   1.61401115   0.06340269
4620.00   1.60793435   0.06372224
4622.00   1.67400274   0.06413454
4624.00   1.71884286   0.06405988
4626.00   1.91975265   0.06570821
4628.00   1.77675445   0.06479655
4630.00   1.90217800   0.06584237
4632.00   1.97058355   0.06640535
4634.00   1.88381316   0.06558901
4636.00   1.89694472   0.06539265
4638.00   1.90584438   0.06557930
4640.00   2.09490835   0.06661658
4642.00   2.02820239   0.06632924
4644.00   2.06726782   0.06643792
4646.00   2.13273640   0.06631186
4648.00   2.10628378   0.06652495
4650.00   2.04056386   0.06667586
4652.00   2.02600535   0.06641981
4654.00   1.98451688   0.06690226
4656.00   2.08228674   0.06750589
4658.00   2.17479640   0.06870448
4660.00   2.23961758   0.07024417
4662.00   2.20487010   0.07076166
4664.00   2.26254470   0.07164647
4666.00   2.16855545   0.07252822
4668.00   2.18303558   0.07398309
4670.00   2.17927144   0.07396525
4672.00   2.32464718   0.07486706
4674.00   2.14814384   0.07244288
4676.00   2.15314133   0.07154498
4678.00   2.17786056   0.07052129
4680.00   2.48687378   0.07127273
4682.00   2.27585392   0.06972715
4684.00   2.45776424   0.06973189
4686.00   2.36549269   0.06890805
4688.00   2.50615019   0.06913358
4690.00   2.46671086   0.06870545
4692.00   2.46408701   0.06883249
4694.00   2.63389242   0.06942628
4696.00   2.55982910   0.06866222
4698.00   2.57509969   0.06855730
4700.00   2.48736469   0.06765664
4702.00   2.43200472   0.06799022
4704.00   2.52605152   0.06827442
4706.00   2.46399283   0.06841422
4708.00   2.49727513   0.06919283
4710.00   2.44038041   0.06940755
4712.00   2.44688752   0.06890109
4714.00   2.34947310   0.06807671
4716.00   2.34896355   0.06754873
4718.00   2.23329276   0.06635422
4720.00   2.36753648   0.06671163
4722.00   2.36646167   0.06671324
4724.00   2.30240741   0.06625038
4726.00   2.21475429   0.06742718
4728.00   2.26857341   0.07026465
4730.00   2.17314067   0.07056405
4732.00   2.17500931   0.07073033
4734.00   1.99758117   0.07047718
4736.00   1.83347138   0.07066630
4738.00   1.95678329   0.07264099
4740.00   2.07670403   0.07470405
4742.00   1.87970104   0.07557718
4744.00   1.85352973   0.07439473
4746.00   1.58675054   0.06884012
4748.00   1.58496411   0.06443404
4750.00   1.60999322   0.06417564
4752.00   1.67071241   0.06440912
4754.00   1.59041282   0.06346399
4756.00   1.47015707   0.06100372
4758.00   1.60768368   0.05985284
4760.00   1.51005483   0.05840793
4762.00   1.37925118   0.05667197
4764.00   1.37608328   0.05630254
4766.00   1.26200430   0.05489979
4768.00   1.43421056   0.05604977
4770.00   1.31191727   0.05455628
4772.00   1.34693547   0.05514175
4774.00   1.32244575   0.05467365
4776.00   1.21185648   0.05519620
4778.00   1.17647857   0.05702817
4780.00   1.18563569   0.05741688
4782.00   1.20090853   0.05620395
4784.00   1.35002245   0.05620013
4786.00   1.21903123   0.05461447
4788.00   1.14376525   0.05377585
4790.00   1.23434449   0.05459033
4792.00   1.25626006   0.05484541
4794.00   1.28408615   0.05437355
4796.00   1.15577418   0.05358695
4798.00   1.23402178   0.05346565
4800.00   1.20174242   0.05279903
4802.00   1.33622765   0.05407235
4804.00   1.25959365   0.05351708
4806.00   1.23876036   0.05392848
4808.00   1.18156875   0.05354959
4810.00   1.25079849   0.05424619
4812.00   1.19065590   0.05340579
4814.00   1.14185259   0.05271817
4816.00   1.14387226   0.05315451
4818.00   1.16447883   0.05354570
4820.00   1.22517334   0.05372442
4822.00   1.11316883   0.05395861
4824.00   1.14406116   0.05448679
4826.00   1.07504143   0.05439836
4828.00   1.12937590   0.05501572
4830.00   1.11798357   0.05535501
4832.00   1.17462686   0.05605601
4834.00   1.10079678   0.05517062
4836.00   0.97860247   0.05413664
4838.00   1.02987910   0.05610031
4840.00   1.04802845   0.05677259
4842.00   1.11804419   0.05645254
4844.00   1.12565263   0.05622564
4846.00   1.14682732   0.05588103
4848.00   1.03537996   0.05533349
4850.00   1.02641184   0.05521518
4852.00   0.97879051   0.05504763
4854.00   1.10683623   0.05541468
4856.00   1.10197275   0.05475170
4858.00   1.05383453   0.05413021
4860.00   1.05112410   0.05452345
4862.00   1.20205570   0.05574793
4864.00   1.08406997   0.05563930
4866.00   1.10664522   0.05566587
4868.00   1.28462534   0.05684328
4870.00   1.18806171   0.05570546
4872.00   1.34584010   0.05706431
4874.00   1.41642512   0.05717698
4876.00   1.22240639   0.05637210
4878.00   1.23217278   0.05729503
4880.00   1.37187910   0.05765092
4882.00   1.30605332   0.05707923
4884.00   1.33022305   0.05718201
4886.00   1.40098990   0.05653858
4888.00   1.25960073   0.05564981
4890.00   1.25073162   0.05557178
4892.00   1.42155046   0.05693154
4894.00   1.24246235   0.05605277
4896.00   1.29292573   0.05612506
4898.00   1.34051375   0.05610342
4900.00   1.44558109   0.05575843
4902.00   1.39953481   0.05549475
4904.00   1.43544656   0.05581445
4906.00   1.21780436   0.05462962
4908.00   1.24455366   0.05509049
4910.00   1.20479282   0.05571445
4912.00   1.18644924   0.05497483
4914.00   1.25482164   0.05501785
4916.00   1.25450700   0.05549531
4918.00   1.11176993   0.05390658
4920.00   1.14101503   0.05398465
4922.00   1.25499474   0.05455510
4924.00   1.13527430   0.05349684
4926.00   1.08546868   0.05221137
4928.00   1.14122936   0.05251013
4930.00   1.12646115   0.05211142
4932.00   1.17491679   0.05251228
4934.00   1.18368774   0.05252821
4936.00   1.23207264   0.05339797
4938.00   1.17034651   0.05338435
4940.00   1.22877365   0.05412403
4942.00   1.15832570   0.05339545
4944.00   1.20207643   0.05323105
4946.00   1.21012469   0.05287334
4948.00   1.15072844   0.05255771
4950.00   1.18327105   0.05312563
4952.00   1.15079858   0.05459534
4954.00   1.09667560   0.05485545
4956.00   1.33432101   0.05499267
4958.00   1.45267740   0.05595019
4960.00   1.44977059   0.05554692
4962.00   1.32140719   0.05507677
4964.00   1.38787782   0.05584926
4966.00   1.36847355   0.05644226
4968.00   1.42822775   0.05742640
4970.00   1.39548229   0.05874679
4972.00   1.47151159   0.06155751
4974.00   1.46632235   0.06339028
4976.00   1.45410699   0.06601704
4978.00   1.48968561   0.06986709
4980.00   1.53444954   0.07358669
4982.00   1.50084595   0.07550545
4984.00   1.55772327   0.07693376
4986.00   1.48949446   0.07488718
4988.00   1.63369003   0.07312587
4990.00   1.47260303   0.06979237
4992.00   1.57276290   0.06770163
4994.00   1.63336832   0.06520119
4996.00   1.56659549   0.06257515
4998.00   1.49594238   0.06004061
5000.00   1.57211907   0.05939352
5002.00   1.58493669   0.05786884
5004.00   1.57454886   0.05725044
5006.00   1.69290085   0.05715243
5008.00   1.56971329   0.05579839
5010.00   1.74478744   0.05652588
5012.00   1.65952859   0.05555408
5014.00   1.63127116   0.05554557
5016.00   1.49388629   0.05514480
5018.00   1.48932911   0.05560532
5020.00   1.60665047   0.05688738
5022.00   1.63131481   0.05654883
5024.00   1.58846758   0.05527354
5026.00   1.70780608   0.05613347
5028.00   1.61632823   0.05587246
5030.00   1.59841930   0.05612794
5032.00   1.61289474   0.05644390
5034.00   1.48189588   0.05494531
5036.00   1.56178499   0.05491444
5038.00   1.52631004   0.05465989
5040.00   1.45500966   0.05345587
5042.00   1.47962182   0.05357651
5044.00   1.43493776   0.05376877
5046.00   1.49527765   0.05416055
5048.00   1.31612684   0.05311301
5050.00   1.40912572   0.05342843
5052.00   1.40444955   0.05360733
5054.00   1.33493451   0.05279462
5056.00   1.36977284   0.05291898
5058.00   1.34550876   0.05275025
5060.00   1.29472539   0.05243960
5062.00   1.19324135   0.05361592
5064.00   1.23205971   0.05494847
5066.00   1.19340082   0.05567425
5068.00   1.27211777   0.05812592
5070.00   1.17539652   0.05843123
5072.00   1.07510099   0.05692632
5074.00   1.07944652   0.05620896
5076.00   1.08410542   0.05546018
5078.00   1.09664597   0.05642611
5080.00   1.09986709   0.06091676
5082.00   1.09248812   0.06765999
5084.00   1.01472766   0.07179006
5086.00   1.35734725   0.07477742
5088.00   1.16663452   0.07181121
5090.00   1.01564419   0.06605034
5092.00   1.16707572   0.06063459
5094.00   1.10335164   0.05731910
5096.00   1.03210411   0.05680515
5098.00   1.03427397   0.05838516
5100.00   1.06750739   0.05941449
5102.00   1.09548561   0.05801971
5104.00   1.03490172   0.05570071
5106.00   1.03143591   0.05371377
5108.00   1.07522742   0.05327615
5110.00   0.99566601   0.05219198
5112.00   1.04343473   0.05292083
5114.00   1.06721796   0.05389801
5116.00   0.98085907   0.05403177
5118.00   1.02440350   0.05356797
5120.00   1.10936901   0.05347220
5122.00   1.08879631   0.05256286
5124.00   1.00432793   0.05133839
5126.00   0.93534999   0.05064793
5128.00   0.98095974   0.05054254
5130.00   0.97369312   0.05095130
5132.00   0.95601105   0.05119857
5134.00   1.06697247   0.05193463
5136.00   1.00677763   0.05191374
5138.00   1.02313334   0.05146359
5140.00   0.98563072   0.05138343
5142.00   0.96554810   0.05185351
5144.00   0.98316786   0.05207782
5146.00   1.04085278   0.05364229
5148.00   0.93555030   0.05476914
5150.00   1.09124522   0.05771633
5152.00   1.11995801   0.05997462
5154.00   0.98399982   0.06081929
5156.00   0.96505005   0.05967270
5158.00   1.00387730   0.05847353
5160.00   1.00298647   0.05625050
5162.00   0.97958359   0.05437528
5164.00   0.96349224   0.05282470
5166.00   0.97038685   0.05182504
5168.00   0.94146564   0.05130695
5170.00   0.88868793   0.05036908
5172.00   0.95592646   0.05091835
5174.00   0.91318420   0.05080865
5176.00   0.97057528   0.05197103
5178.00   0.90389350   0.05153901
5180.00   0.90524098   0.05125832
5182.00   0.97160743   0.05183710
5184.00   0.88753749   0.05134576
5186.00   0.96435913   0.05229328
5188.00   0.95494048   0.05292705
5190.00   0.94161717   0.05282472
5192.00   1.00006537   0.05284818
5194.00   0.95077016   0.05296600
5196.00   1.00065311   0.05326204
5198.00   0.91092254   0.05364123
5200.00   0.97520416   0.05428088
5202.00   0.89883834   0.05336534
5204.00   0.96590880   0.05387037
5206.00   0.98733566   0.05371945
5208.00   0.96070862   0.05514053
5210.00   1.05727996   0.05643400
5212.00   0.92468665   0.05573008
5214.00   0.85854680   0.05460596
5216.00   0.90026694   0.05493709
5218.00   1.04161999   0.05666006
5220.00   1.00049034   0.05637590
5222.00   0.94988730   0.05615804
5224.00   1.01503224   0.05631847
5226.00   1.06069550   0.05550397
5228.00   1.04069490   0.05552268
5230.00   0.97849625   0.05522920
5232.00   0.99504540   0.05587480
5234.00   0.95051502   0.05525261
5236.00   1.08364752   0.05642141
5238.00   1.01295780   0.05701833
5240.00   1.04619715   0.05747677
5242.00   1.08142075   0.05702350
5244.00   1.06364143   0.05671463
5246.00   1.13935850   0.05698650
5248.00   1.18952057   0.05726901
5250.00   1.17079251   0.05740351
5252.00   0.97836393   0.05622791
5254.00   1.18970805   0.05886755
5256.00   1.19201521   0.05965812
5258.00   1.18426493   0.06080897
5260.00   1.03339431   0.05920167
5262.00   1.11225663   0.05884530
5264.00   1.29060008   0.05948005
5266.00   1.33659722   0.05949742
5268.00   1.13562648   0.05788246
5270.00   1.27910342   0.05812596
5272.00   1.36722836   0.05945764
5274.00   1.37314324   0.06051828
5276.00   1.25438630   0.06024101
5278.00   1.37054885   0.06160644
5280.00   1.38136071   0.06112092
5282.00   1.38907485   0.06151713
5284.00   1.46039058   0.06324695
5286.00   1.37328786   0.06330398
5288.00   1.48611692   0.06375763
5290.00   1.54032691   0.06404985
5292.00   1.55626828   0.06411906
5294.00   1.62891220   0.06445273
5296.00   1.65880559   0.06518912
5298.00   1.52831014   0.06488958
5300.00   1.67499252   0.06636373
5302.00   1.53713626   0.06590733
5304.00   1.78087059   0.06680002
5306.00   1.69282115   0.06614148
5308.00   1.63489990   0.06647460
5310.00   1.72399988   0.06795873
5312.00   1.73334184   0.06802501
5314.00   1.77954405   0.06830234
5316.00   1.62731514   0.06756542
5318.00   1.72001059   0.06818653
5320.00   1.69999590   0.06837064
5322.00   1.65366954   0.06807665
5324.00   1.78151111   0.06874975
5326.00   1.68750182   0.06858152
5328.00   1.67989833   0.06859847
5330.00   1.81615409   0.07027425
5332.00   1.77515322   0.07062861
5334.00   1.72259694   0.07027527
5336.00   1.97765062   0.07258561
5338.00   2.00287200   0.07374116
5340.00   2.01537131   0.07457804
5342.00   1.92343279   0.07465871
5344.00   2.02648211   0.07581762
5346.00   1.97373376   0.07585980
5348.00   1.84264884   0.07809271
5350.00   2.00182676   0.07978755
5352.00   1.88598407   0.07849877
5354.00   1.86897275   0.08016103
5356.00   1.89431882   0.08107546
5358.00   2.02854276   0.08082427
5360.00   2.03687645   0.07897010
5362.00   2.14997537   0.07826115
5364.00   2.07574319   0.07684012
5366.00   1.98314695   0.07625397
5368.00   2.09818641   0.07650270
5370.00   2.01511753   0.07640715
5372.00   1.85909055   0.07662408
5374.00   1.98375704   0.07867349
5376.00   1.95251118   0.08023987
5378.00   1.99889892   0.07941621
5380.00   1.98423617   0.08004683
5382.00   2.09166276   0.08054041
5384.00   1.91782924   0.07915317
5386.00   2.05400464   0.08069013
5388.00   1.99603028   0.08124895
5390.00   2.20461942   0.08465856
5392.00   2.16005647   0.08565575
5394.00   2.04230756   0.08478249
5396.00   1.96441104   0.08353863
5398.00   2.15290738   0.08505221
5400.00   1.85761274   0.08273796
5402.00   2.04134156   0.08443564
5404.00   2.06214354   0.08453194
5406.00   1.99701923   0.08512531
5408.00   1.94828358   0.08538763
5410.00   1.96229252   0.08668383
5412.00   1.84600859   0.08806269
5414.00   1.94486398   0.09143287
5416.00   1.88582625   0.09281160
5418.00   2.04759515   0.09509051
5420.00   1.82392161   0.09488734
5422.00   1.96194441   0.09532925
5424.00   1.96837427   0.09547052
5426.00   1.94914138   0.09544760
5428.00   2.01728950   0.09507006
5430.00   2.10795638   0.09653034
5432.00   1.79620779   0.09386288
5434.00   1.74694459   0.09403165
5436.00   1.78335568   0.09511191
5438.00   1.82651199   0.09582777
5440.00   1.91176760   0.09652942
5442.00   1.85513658   0.09678916
5444.00   1.73173234   0.09749084
5446.00   1.89692712   0.09951244
5448.00   1.93808991   0.03738686
5450.00   2.01566976   0.03908393
5452.00   1.99973512   0.04154657
5454.00   1.92738861   0.04459130
5456.00   1.89549524   0.04826723
5458.00   1.85726565   0.05407107
5460.00   1.85747206   0.05648829
5462.00   1.90419990   0.05710052
5464.00   1.94060862   0.05604297
5466.00   1.95083326   0.05247400
5468.00   1.95558929   0.04678488
5470.00   1.96760470   0.04313704
5472.00   1.98120469   0.04017870
5474.00   1.99600291   0.03822829
5476.00   2.03683871   0.03800133
5478.00   2.03334361   0.03786892
5480.00   1.95579660   0.03748590
5482.00   1.85500836   0.03740907
5484.00   1.80829763   0.03817791
5486.00   1.76967978   0.04030349
5488.00   1.82217443   0.03985678
5490.00   2.03649825   0.03666719
5492.00   2.12248230   0.03462319
5494.00   2.04310054   0.03433194
5496.00   1.92368221   0.03438056
5498.00   1.87471122   0.03353510
5500.00   1.84837890   0.03221090
5502.00   1.84526819   0.03176942
5504.00   1.88526326   0.03208603
5506.00   1.90512836   0.03220852
5508.00   1.91571808   0.03226262
5510.00   1.91323119   0.03236578
5512.00   1.88794684   0.03255779
5514.00   1.84510738   0.03284256
5516.00   1.84689248   0.03333291
5518.00   1.89661509   0.03438407
5520.00   1.91250020   0.03462859
5522.00   1.90263093   0.03432906
5524.00   1.90009886   0.03382094
5526.00   1.92019254   0.03307375
5528.00   1.94353318   0.03216858
5530.00   1.93573195   0.03159060
5532.00   1.89604640   0.03117066
5534.00   1.87740421   0.03084888
5536.00   1.86995304   0.03068378
5538.00   1.85873443   0.03059061
5540.00   1.82461584   0.03057262
5542.00   1.79047197   0.03058743
5544.00   1.80775207   0.03058115
5546.00   1.87558359   0.03061334
5548.00   1.88593227   0.03049931
5550.00   1.84936130   0.03020522
5552.00   1.83870125   0.03000745
5554.00   1.87013096   0.02992290
5556.00   1.88402867   0.02984143
5558.00   1.82281977   0.02965252
5560.00   1.70770359   0.02938873
5562.00   1.66937256   0.02943217
5564.00   1.67747867   0.02912486
5566.00   1.68590921   0.03015426
5568.00   1.71908438   0.03177836
5570.00   1.74899501   0.03463484
5572.00   1.76050043   0.03942259
5574.00   1.75194627   0.04483236
5576.00   1.69712335   0.04734777
5578.00   1.52759534   0.04927019
5580.00   1.52048087   0.04848469
5582.00   1.68078178   0.04381478
5584.00   1.76950800   0.03956462
5586.00   1.70713294   0.03731946
5588.00   1.59429288   0.03574551
5590.00   1.57608598   0.03351689
5592.00   1.61689442   0.03088698
5594.00   1.62572706   0.02931617
5596.00   1.62875986   0.02881896
5598.00   1.63102663   0.02845089
5600.00   1.63622767   0.02834179
5602.00   1.63589835   0.02836210
5604.00   1.62284458   0.02824451
5606.00   1.60054022   0.02810997
5608.00   1.57761693   0.02798595
5610.00   1.54017407   0.02772156
5612.00   1.52183253   0.02774779
5614.00   1.52369654   0.02807739
5616.00   1.53275412   0.02856837
5618.00   1.54255766   0.02921995
5620.00   1.55702013   0.03005063
5622.00   1.56595355   0.03003895
5624.00   1.58753896   0.02924886
5626.00   1.57460070   0.02858900
5628.00   1.51265812   0.02769616
5630.00   1.46207178   0.02705106
5632.00   1.45705187   0.02688098
5634.00   1.47258884   0.02699903
5636.00   1.47074205   0.02710901
5638.00   1.47390342   0.02746422
5640.00   1.45801204   0.02756963
5642.00   1.41369736   0.02733346
5644.00   1.38609287   0.02741297
5646.00   1.39209533   0.02815933
5648.00   1.40312356   0.02904581
5650.00   1.38209182   0.02917262
5652.00   1.33621258   0.02875300
5654.00   1.30746400   0.02849229
5656.00   1.27449730   0.02789412
5658.00   1.26232165   0.02777367
5660.00   1.29007214   0.02821611
5662.00   1.30936617   0.02895098
5664.00   1.26242307   0.02971569
5666.00   1.16615963   0.03054008
5668.00   1.14562985   0.03188145
5670.00   1.18103588   0.03407327
5672.00   1.20129398   0.03539956
5674.00   1.23956358   0.03572410
5676.00   1.25387079   0.03625159
5678.00   1.20675716   0.03757146
5680.00   1.11845276   0.03929703
5682.00   1.06124490   0.04161286
5684.00   0.97795695   0.04533882
5686.00   0.97704369   0.04713886
5688.00   1.07614821   0.04816359
5690.00   1.13902289   0.04813556
5692.00   1.11855757   0.04655830
5694.00   1.06891036   0.04397058
5696.00   1.06950995   0.04228361
5698.00   1.10932696   0.04121157
5700.00   1.10442573   0.03918383
5702.00   1.05109715   0.03568063
5704.00   1.03499499   0.03313850
5706.00   1.08257237   0.03247234
5708.00   1.13982815   0.03257049
5710.00   1.13279742   0.03193624
5712.00   1.07848135   0.03099047
5714.00   1.04159805   0.03040247
5716.00   0.99116358   0.03012833
5718.00   0.96130010   0.02977311
5720.00   0.95497903   0.02893003
5722.00   0.95035514   0.02839500
5724.00   0.93261421   0.02934721
5726.00   0.91515121   0.03124775
5728.00   0.91801810   0.03061336
5730.00   0.94983652   0.02696574
5732.00   0.95587939   0.02530700
5734.00   0.93946341   0.02509540
5736.00   0.92925853   0.02519120
5738.00   0.94572490   0.02527058
5740.00   0.97231281   0.02552148
5742.00   0.96770456   0.02569610
5744.00   0.92957914   0.02603354
5746.00   0.92071700   0.02599687
5748.00   0.92811385   0.02541624
5750.00   0.93614063   0.02520683
5752.00   0.94124836   0.02558629
5754.00   0.94975930   0.02626467
5756.00   0.96744135   0.02699117
5758.00   1.01589951   0.02799408
5760.00   0.98354763   0.02865155
5762.00   0.84803131   0.02873151
5764.00   0.77648979   0.02952263
5766.00   0.79258642   0.03154163
5768.00   0.83405438   0.03341379
5770.00   0.84775981   0.03386042
5772.00   0.85677636   0.03347417
5774.00   0.84821734   0.03262022
5776.00   0.81445304   0.03037106
5778.00   0.79554713   0.02900078
5780.00   0.76668048   0.02811711
5782.00   0.75982156   0.02802813
5784.00   0.82058167   0.02924439
5786.00   0.92814311   0.03141243
5788.00   0.94935724   0.03278854
5790.00   0.91795763   0.03443693
5792.00   0.87425470   0.03495844
5794.00   0.77141798   0.03461791
5796.00   0.70694387   0.03373422
5798.00   0.72645342   0.03210558
5800.00   0.79001820   0.03001220
5802.00   0.82791373   0.02909894
5804.00   0.86850563   0.02884401
5806.00   0.90010649   0.02909274
5808.00   0.94258299   0.03065343
5810.00   0.95038509   0.03133400
5812.00   0.88705477   0.03053668
5814.00   0.81389934   0.02921412
5816.00   0.83834231   0.02864756
5818.00   0.94536692   0.02828107
5820.00   0.99412641   0.02835052
5822.00   1.04446015   0.02914454
5824.00   1.04657251   0.02956804
5826.00   0.97464365   0.02949905
5828.00   0.90521544   0.02944238
5830.00   0.91041505   0.02984230
5832.00   0.96359968   0.03052377
5834.00   1.00393984   0.03091649
5836.00   1.06258261   0.03121757
5838.00   1.10258329   0.03143043
5840.00   1.13368556   0.03139378
5842.00   1.15433794   0.03149157
5844.00   1.15379158   0.03191449
5846.00   1.14041647   0.03250396
5848.00   1.18060279   0.03346934
5850.00   1.30980477   0.03515094
5852.00   1.33259434   0.03609447
5854.00   1.24249032   0.03661230
5856.00   1.19195628   0.03689262
5858.00   1.24945623   0.03698194
5860.00   1.34648472   0.03686037
5862.00   1.37095851   0.03657208
5864.00   1.36290276   0.03585650
5866.00   1.33511013   0.03557800
5868.00   1.23670045   0.03551468
5870.00   1.20431328   0.03557924
5872.00   1.27169406   0.03553879
5874.00   1.36384302   0.03584133
5876.00   1.40384716   0.03722287
5878.00   1.43202633   0.03974575
5880.00   1.43246949   0.04127731
5882.00   1.39310282   0.04003372
5884.00   1.36151457   0.04360935
5886.00   1.33676541   0.05199181
5888.00   1.32125741   0.06017099
5890.00   1.29649442   0.06652106
5892.00   1.26158351   0.07250313
5894.00   1.38842684   0.07518502
5896.00   1.80387014   0.07713683
5898.00   1.90952939   0.07452642
5900.00   1.71778917   0.06503100
5902.00   1.53054595   0.05430677
5904.00   1.47575903   0.04567959
5906.00   1.47193223   0.03790297
5908.00   1.48091674   0.03347258
5910.00   1.54049617   0.03549742
5912.00   1.56678832   0.03534602
5914.00   1.57751024   0.03573962
5916.00   1.59086460   0.03622770
5918.00   1.61899930   0.03663661
5920.00   1.64299440   0.03720177
5922.00   1.62221974   0.03832903
5924.00   1.55392617   0.04037120
5926.00   1.52884001   0.04025764
5928.00   1.51736253   0.03771618
5930.00   1.52339524   0.03643635
5932.00   1.55661368   0.03684613
5934.00   1.59584451   0.03744128
5936.00   1.61896652   0.03702290
5938.00   1.63238060   0.03603354
5940.00   1.66132551   0.03548682
5942.00   1.71357185   0.03505502
5944.00   1.74091327   0.03473749
5946.00   1.74190795   0.03443620
5948.00   1.73053473   0.03439579
5950.00   1.71410441   0.03491647
5952.00   1.68819171   0.03588934
5954.00   1.67827398   0.03639480
5956.00   1.67777556   0.03703546
5958.00   1.68078440   0.03686742
5960.00   1.69822782   0.03577312
5962.00   1.70112532   0.03468164
5964.00   1.67342836   0.03387704
5966.00   1.62972999   0.03330042
5968.00   1.60561049   0.03341554
5970.00   1.57935196   0.03439251
5972.00   1.58206546   0.03488135
5974.00   1.61658478   0.03556697
5976.00   1.64938420   0.03569526
5978.00   1.67984265   0.03488888
5980.00   1.70358223   0.03365016
5982.00   1.70350403   0.03287066
5984.00   1.67905527   0.03206737
5986.00   1.66362965   0.03195758
5988.00   1.64336133   0.03285195
5990.00   1.63020229   0.03318025
5992.00   1.62468165   0.03286114
5994.00   1.61792505   0.03230248
5996.00   1.59958673   0.03174354
5998.00   1.57020974   0.03101111
6000.00   1.57150954   0.03086844
6002.00   1.60670274   0.03127412
6004.00   1.62188715   0.03155469
6006.00   1.62805259   0.03214747
6008.00   1.62366295   0.03240907
6010.00   1.59950101   0.03157751
6012.00   1.56183690   0.03010861
6014.00   1.54704982   0.03004996
6016.00   1.55684090   0.03156204
6018.00   1.54059237   0.03156236
6020.00   1.51027632   0.03013812
6022.00   1.47456896   0.02959013
6024.00   1.42124283   0.03111788
6026.00   1.36702037   0.03324152
6028.00   1.36403507   0.03299690
6030.00   1.40881050   0.03058939
6032.00   1.42108232   0.02935209
6034.00   1.42227286   0.02821599
6036.00   1.42472231   0.02748168
6038.00   1.42787218   0.02736869
6040.00   1.42338908   0.02751144
6042.00   1.39817953   0.02732325
6044.00   1.34794667   0.02692040
6046.00   1.34019661   0.02702701
6048.00   1.37455970   0.02763918
6050.00   1.38574898   0.02805578
6052.00   1.37319130   0.02850449
6054.00   1.35452026   0.02864280
6056.00   1.34927768   0.02797234
6058.00   1.35193497   0.02658733
6060.00   1.32686162   0.02605259
6062.00   1.25807840   0.02613431
6064.00   1.23605099   0.02598610
6066.00   1.25324079   0.02573805
6068.00   1.27696317   0.02557475
6070.00   1.29804188   0.02555691
6072.00   1.31762272   0.02560811
6074.00   1.31188512   0.02554251
6076.00   1.27268010   0.02539326
6078.00   1.26188821   0.02529064
6080.00   1.26632851   0.02511424
6082.00   1.27136928   0.02509305
6084.00   1.27455926   0.02529230
6086.00   1.28169227   0.02560697
6088.00   1.29847538   0.02599652
6090.00   1.33320564   0.02673293
6092.00   1.33362067   0.02675490
6094.00   1.29670566   0.02583811
6096.00   1.28029415   0.02560342
6098.00   1.29194409   0.02609463
6100.00   1.30368066   0.02706635
6102.00   1.29547036   0.02856439
6104.00   1.27894101   0.03057826
6106.00   1.27172515   0.03126865
6108.00   1.25803971   0.03068793
6110.00   1.26667947   0.03092255
6112.00   1.32294261   0.03185824
6114.00   1.35588127   0.03262041
6116.00   1.31673896   0.03291800
6118.00   1.23309141   0.03287099
6120.00   1.17657888   0.03192358
6122.00   1.09345284   0.02934303
6124.00   1.07925496   0.02790564
6126.00   1.14047369   0.02709289
6128.00   1.19190726   0.02648695
6130.00   1.20298690   0.02595003
6132.00   1.19834793   0.02560110
6134.00   1.20326656   0.02562237
6136.00   1.20799088   0.02598284
6138.00   1.21163094   0.02662861
6140.00   1.21687227   0.02803478
6142.00   1.21727741   0.02877585
6144.00   1.20762503   0.02865401
6146.00   1.19612026   0.02808483
6148.00   1.20184487   0.02756463
6150.00   1.23144287   0.02680247
6152.00   1.21036205   0.02679790
6154.00   1.12696937   0.02752634
6156.00   1.08836612   0.02803915
6158.00   1.09145492   0.02854071
6160.00   1.11452091   0.02887880
6162.00   1.15720102   0.02893860
6164.00   1.22479123   0.02881850
6166.00   1.23991793   0.02823922
6168.00   1.19761109   0.02702422
6170.00   1.19775715   0.02592204
6172.00   1.24535069   0.02450658
6174.00   1.27578723   0.02333301
6176.00   1.24333310   0.02292660
6178.00   1.17741910   0.02303849
6180.00   1.16632187   0.02300388
6182.00   1.19200757   0.02320072
6184.00   1.20848024   0.02313278
6186.00   1.23486593   0.02282469
6188.00   1.25427872   0.02261086
6190.00   1.26138303   0.02256047
6192.00   1.26303819   0.02256633
6194.00   1.26524004   0.02252263
6196.00   1.26666227   0.02234073
6198.00   1.26038840   0.02258170
6200.00   1.24297443   0.02330785
6202.00   1.23099664   0.02380175
6204.00   1.23171806   0.02402929
6206.00   1.22821838   0.02410470
6208.00   1.20229018   0.02409702
6210.00   1.15994564   0.02398146
6212.00   1.12415031   0.02381712
6214.00   1.07844234   0.02366774
6216.00   1.05047578   0.02326888
6218.00   1.04305944   0.02243811
6220.00   1.03924349   0.02160592
6222.00   1.03116608   0.02103825
6224.00   1.02496526   0.02057411
6226.00   0.99871898   0.02131412
6228.00   0.93379480   0.02357744
6230.00   0.91404381   0.02476109
6232.00   0.93203622   0.02558076
6234.00   0.95932314   0.02585911
6236.00   0.99713823   0.02533966
6238.00   1.04003671   0.02422834
6240.00   1.02769586   0.02372149
6242.00   0.95638758   0.02368173
6244.00   0.91424835   0.02323693
6246.00   0.86656687   0.02240464
6248.00   0.83864200   0.02180562
6250.00   0.83011338   0.02139234
6252.00   0.84043044   0.02136614
6254.00   0.88013247   0.02228788
6256.00   0.95499998   0.02412341
6258.00   1.00712606   0.02495924
6260.00   1.07159978   0.02566872
6262.00   1.09966215   0.02568457
6264.00   1.07754436   0.02459730
6266.00   1.03703797   0.02319070
6268.00   1.00583237   0.02224694
6270.00   0.96783647   0.02131400
6272.00   0.94900405   0.02114986
6274.00   0.94426784   0.02207661
6276.00   0.94395837   0.02238920
6278.00   0.94730416   0.02221838
6280.00   0.95717672   0.02193592
6282.00   0.97725931   0.02171572
6284.00   1.00255549   0.02145905
6286.00   1.01810357   0.02137599
6288.00   1.02182901   0.02101547
6290.00   1.04067376   0.02167387
6292.00   1.07399690   0.02343940
6294.00   1.09808487   0.02474171
6296.00   1.11049941   0.02531049
6298.00   1.11431262   0.02560660
6300.00   1.10261852   0.02597188
6302.00   1.06634420   0.02629135
6304.00   1.05955195   0.02664825
6306.00   1.08475834   0.02756978
6308.00   1.08548656   0.02738736
6310.00   1.04715025   0.02557881
6312.00   1.00150070   0.02319729
6314.00   0.99214220   0.02178251
6316.00   1.00886527   0.02078183
6318.00   1.00726810   0.02027017
6320.00   0.99309027   0.02049043
6322.00   0.99178624   0.02077198
6324.00   1.00662395   0.02148359
6326.00   1.02374491   0.02208115
6328.00   1.03431708   0.02195934
6330.00   1.04327780   0.02133186
6332.00   1.03003615   0.02085014
6334.00   0.99184829   0.02006363
6336.00   0.96021938   0.01969938
6338.00   0.92378435   0.01984685
6340.00   0.89337766   0.01997970
6342.00   0.87223539   0.01970869
6344.00   0.86264640   0.01925294
6346.00   0.88178876   0.01934938
6348.00   0.94360653   0.02008727
6350.00   0.97344255   0.02028481
6352.00   0.99221513   0.02010972
6354.00   1.00325310   0.02000997
6356.00   1.00338522   0.02010363
6358.00   0.99860358   0.02026677
6360.00   1.00114611   0.02047480
6362.00   1.00755137   0.02083963
6364.00   1.01382661   0.02117834
6366.00   1.02890065   0.02195673
6368.00   1.02853242   0.02187541
6370.00   1.00430343   0.02059270
6372.00   0.98267549   0.01911232
6374.00   0.99103072   0.01863387
6376.00   1.02196434   0.01877554
6378.00   1.03859186   0.01882947
6380.00   1.05561936   0.01923086
6382.00   1.06340939   0.01932752
6384.00   1.06719163   0.01912764
6386.00   1.06288889   0.01890635
6388.00   1.04014799   0.01868303
6390.00   1.00374579   0.01846299
6392.00   1.00117338   0.01922688
6394.00   1.01974410   0.02161309
6396.00   1.04719087   0.02202454
6398.00   1.09976268   0.02090993
6400.00   1.14243636   0.01981318
6402.00   1.16110045   0.01912339
6404.00   1.16489634   0.01855353
6406.00   1.16719311   0.01843809
6408.00   1.17154771   0.01900591
6410.00   1.15130761   0.01897626
6412.00   1.08817786   0.01854617
6414.00   1.05635786   0.01825740
6416.00   1.07511812   0.01820042
6418.00   1.11157349   0.01819767
6420.00   1.13028908   0.01808683
6422.00   1.14957869   0.01792398
6424.00   1.15381849   0.01778573
6426.00   1.13846892   0.01758459
6428.00   1.13197210   0.01751355
6430.00   1.13190612   0.01764666
6432.00   1.13589475   0.01775903
6434.00   1.14959186   0.01765931
6436.00   1.17351729   0.01743139
6438.00   1.17720938   0.01736172
6440.00   1.15290383   0.01732684
6442.00   1.15782350   0.01741151
6444.00   1.19826436   0.01772060
6446.00   1.23017511   0.01794163
6448.00   1.22542208   0.01787880
6450.00   1.19951054   0.01767866
6452.00   1.19352454   0.01770973
6454.00   1.19949636   0.01790535
6456.00   1.19670469   0.01802904
6458.00   1.18960631   0.01807365
6460.00   1.18022087   0.01827198
6462.00   1.16118285   0.01878043
6464.00   1.14170882   0.01933172
6466.00   1.15453422   0.01943142
6468.00   1.20555970   0.01923664
6470.00   1.21914041   0.01900644
6472.00   1.21222416   0.01857772
6474.00   1.20292446   0.01816016
6476.00   1.18819451   0.01774805
6478.00   1.17209667   0.01737182
6480.00   1.16297090   0.01710853
6482.00   1.15553802   0.01694264
6484.00   1.15919381   0.01677244
6486.00   1.17666176   0.01647633
6488.00   1.18983743   0.01653336
6490.00   1.19916746   0.01688461
6492.00   1.21345428   0.01751154
6494.00   1.23929691   0.01856549
6496.00   1.27406317   0.01996057
6498.00   1.26136565   0.02029645
6500.00   1.18012127   0.01978580
6502.00   1.16006160   0.01943915
6504.00   1.20068333   0.01903539
6506.00   1.23598981   0.01862291
6508.00   1.23119187   0.01816621
6510.00   1.20898777   0.01768024
6512.00   1.20025784   0.01733416
6514.00   1.19079810   0.01703111
6516.00   1.19105029   0.01693066
6518.00   1.20883563   0.01708812
6520.00   1.21425539   0.01722603
6522.00   1.19503734   0.01725715
6524.00   1.16716033   0.01732868
6526.00   1.15802798   0.01764988
6528.00   1.15670830   0.01822918
6530.00   1.16864815   0.01848031
6532.00   1.20821396   0.01851223
6534.00   1.22657353   0.01858744
6536.00   1.22641191   0.01875328
6538.00   1.21317324   0.01884874
6540.00   1.17659518   0.01856474
6542.00   1.11111322   0.01776997
6544.00   1.08078977   0.01818940
6546.00   1.05641344   0.01972066
6548.00   1.06504226   0.02076076
6550.00   1.12395471   0.02190411
6552.00   1.18030480   0.02237488
6554.00   1.19630226   0.02130827
6556.00   1.19126266   0.01889379
6558.00   1.20230535   0.01791277
6560.00   1.21929294   0.01788452
6562.00   1.23327944   0.01772885
6564.00   1.25166434   0.01772751
6566.00   1.26086283   0.01775422
6568.00   1.25049880   0.01772656
6570.00   1.23323956   0.01772393
6572.00   1.23666525   0.01793399
6574.00   1.25746366   0.01839821
6576.00   1.26566344   0.01862559
6578.00   1.27650043   0.01880544
6580.00   1.27198321   0.01884127
6582.00   1.24344152   0.01874628
6584.00   1.21030766   0.01849522
6586.00   1.19580248   0.01785702
6588.00   1.18772733   0.01651809
6590.00   1.18844345   0.01652238
6592.00   1.20570305   0.01764702
6594.00   1.21472967   0.01859016
6596.00   1.21327129   0.01988874
6598.00   1.21282107   0.02063857
6600.00   1.21994013   0.01987018
6602.00   1.22929150   0.01781998
6604.00   1.22358558   0.01703541
6606.00   1.20524105   0.01706801
6608.00   1.18730909   0.01689023
6610.00   1.15667209   0.01671577
6612.00   1.13671827   0.01656066
6614.00   1.14115509   0.01641169
6616.00   1.15887934   0.01627511
6618.00   1.17226478   0.01625106
6620.00   1.19484863   0.01630244
6622.00   1.20315275   0.01645352
6624.00   1.19947773   0.01680145
6626.00   1.19592771   0.01702707
6628.00   1.19261596   0.01706748
6630.00   1.18776253   0.01700054
6632.00   1.18298784   0.01685798
6634.00   1.17283544   0.01641194
6636.00   1.17711699   0.01648938
6638.00   1.19920251   0.01699050
6640.00   1.21156421   0.01747262
6642.00   1.21155238   0.01811075
6644.00   1.20729253   0.01852240
6646.00   1.20192444   0.01795909
6648.00   1.19011062   0.01628174
6650.00   1.18973228   0.01568508
6652.00   1.20985273   0.01578601
6654.00   1.20563182   0.01585321
6656.00   1.16644585   0.01594722
6658.00   1.12924722   0.01605189
6660.00   1.12482250   0.01614139
6662.00   1.14051214   0.01623372
6664.00   1.13708878   0.01623436
6666.00   1.12473592   0.01602519
6668.00   1.11338934   0.01609607
6670.00   1.09966451   0.01648309
6672.00   1.08597165   0.01679425
6674.00   1.07474288   0.01689309
6676.00   1.06378919   0.01689241
6678.00   1.05366910   0.01672510
6680.00   1.04001158   0.01618247
6682.00   1.04279298   0.01596661
6684.00   1.06433848   0.01580768
6686.00   1.08008528   0.01593601
6688.00   1.08997282   0.01649109
6690.00   1.09370610   0.01716644
6692.00   1.08213064   0.01752775
6694.00   1.05398640   0.01788921
6696.00   1.03397891   0.01757324
6698.00   1.01051307   0.01602841
6700.00   0.99544096   0.01541242
6702.00   0.98852247   0.01609809
6704.00   0.98633212   0.01702771
6706.00   0.99114060   0.01745922
6708.00   1.00459695   0.01779972
6710.00   1.00523904   0.01766728
6712.00   0.99876577   0.01686392
6714.00   0.98993307   0.01635995
6716.00   0.97474086   0.01607207
6718.00   0.95843157   0.01586743
6720.00   0.94440830   0.01568925
6722.00   0.93175668   0.01556710
6724.00   0.92271069   0.01541790
6726.00   0.91629565   0.01522927
6728.00   0.91205081   0.01513558
6730.00   0.91223168   0.01513169
6732.00   0.91480091   0.01515533
6734.00   0.91995800   0.01520403
6736.00   0.92598358   0.01526747
6738.00   0.92172834   0.01525692
6740.00   0.90444523   0.01515343
6742.00   0.89778668   0.01516672
6744.00   0.89609027   0.01529768
6746.00   0.89554036   0.01535665
6748.00   0.89619431   0.01534818
6750.00   0.89843872   0.01527786
6752.00   0.89962205   0.01508522
6754.00   0.90253609   0.01470302
6756.00   0.89423093   0.01466907
6758.00   0.86974713   0.01499561
6760.00   0.85654393   0.01512715
6762.00   0.85929689   0.01501308
6764.00   0.86197028   0.01493003
6766.00   0.85121039   0.01507008
6768.00   0.83344257   0.01530207
6770.00   0.82541201   0.01543545
6772.00   0.81731156   0.01570547
6774.00   0.82232231   0.01558703
6776.00   0.85092327   0.01491594
6778.00   0.86739996   0.01436646
6780.00   0.85124865   0.01428621
6782.00   0.81843248   0.01442529
6784.00   0.81116000   0.01442461
6786.00   0.81827340   0.01434990
6788.00   0.82691780   0.01443375
6790.00   0.85023361   0.01472578
6792.00   0.86061153   0.01490746
6794.00   0.85151142   0.01490492
6796.00   0.83088732   0.01477972
6798.00   0.80506524   0.01451909
6800.00   0.76532799   0.01395858
6802.00   0.73680007   0.01377300
6804.00   0.70250961   0.01385875
6806.00   0.69019443   0.01394431
6808.00   0.70636120   0.01405516
6810.00   0.73412794   0.01416076
6812.00   0.75784251   0.01415757
6814.00   0.78791147   0.01405841
6816.00   0.79191911   0.01415192
6818.00   0.77141374   0.01419806
6820.00   0.75473660   0.01463921
6822.00   0.73285076   0.01541662
6824.00   0.71671513   0.01640066
6826.00   0.71685457   0.01766043
6828.00   0.72920361   0.01910503
6830.00   0.73306012   0.01973324
6832.00   0.74524394   0.01993383
6834.00   0.73278117   0.01981501
6836.00   0.69189164   0.01911970
6838.00   0.65659973   0.01841665
6840.00   0.63559473   0.01801521
6842.00   0.62385982   0.01771238
6844.00   0.63299534   0.01704044
6846.00   0.67619565   0.01592528
6848.00   0.68781412   0.01508471
6850.00   0.68243212   0.01406703
6852.00   0.67481610   0.01358005
6854.00   0.66379404   0.01384730
6856.00   0.65150407   0.01464119
6858.00   0.64535508   0.01572100
6860.00   0.64153421   0.01712884
6862.00   0.64365913   0.01860955
6864.00   0.65528814   0.02081024
6866.00   0.66269143   0.02186890
6868.00   0.66991776   0.02189648
6870.00   0.66876650   0.02137031
6872.00   0.64673339   0.02045335
6874.00   0.60575558   0.01883856
6876.00   0.59447201   0.01777599
6878.00   0.60753997   0.01681166
6880.00   0.61088474   0.01623474
6882.00   0.60931182   0.01604198
6884.00   0.60351643   0.01623396
6886.00   0.59639385   0.01693121
6888.00   0.58854541   0.01795571
6890.00   0.58431329   0.01803514
6892.00   0.58248775   0.01736147
6894.00   0.58214100   0.01683514
6896.00   0.58139199   0.01611035
6898.00   0.58218446   0.01547377
6900.00   0.58752006   0.01493645
6902.00   0.59524359   0.01458310
6904.00   0.60281004   0.01485242
6906.00   0.61545756   0.01586972
6908.00   0.61882336   0.01637694
6910.00   0.62023079   0.01691445
6912.00   0.61041087   0.01707150
6914.00   0.57637535   0.01655912
6916.00   0.54525840   0.01592309
6918.00   0.56034948   0.01614787
6920.00   0.61590856   0.01706283
6922.00   0.63253683   0.01726001
6924.00   0.63833931   0.01724934
6926.00   0.62475041   0.01687977
6928.00   0.57730934   0.01583091
6930.00   0.53361914   0.01475112
6932.00   0.52357951   0.01435235
6934.00   0.53249215   0.01439112
6936.00   0.53989145   0.01458303
6938.00   0.55984285   0.01516109
6940.00   0.56950444   0.01562282
6942.00   0.57709649   0.01615837
6944.00   0.57564506   0.01658505
6946.00   0.55497535   0.01687467
6948.00   0.52342789   0.01703939
6950.00   0.51484442   0.01684033
6952.00   0.52264132   0.01624520
6954.00   0.52589273   0.01561687
6956.00   0.53719151   0.01448289
6958.00   0.53942515   0.01377007
6960.00   0.52076781   0.01388385
6962.00   0.49750170   0.01439925
6964.00   0.49860105   0.01471654
6966.00   0.51661371   0.01514672
6968.00   0.52704717   0.01532052
6970.00   0.54089698   0.01518301
6972.00   0.54878655   0.01524985
6974.00   0.54516910   0.01567332
6976.00   0.54337069   0.01609971
6978.00   0.55766623   0.01619153
6980.00   0.58597460   0.01610566
6982.00   0.58323380   0.01578923
6984.00   0.54892476   0.01503437
6986.00   0.53061481   0.01447936
6988.00   0.52257638   0.01403382
6990.00   0.52385938   0.01370111
6992.00   0.53605480   0.01353373
6994.00   0.55655578   0.01350723
6996.00   0.55518676   0.01341305
6998.00   0.53129122   0.01322181
7000.00   0.52155191   0.01327521
7002.00   0.52114873   0.01358346
7004.00   0.52185991   0.01387283
7006.00   0.51772866   0.01408527
7008.00   0.51339361   0.01425265
7010.00   0.51367769   0.01428559
7012.00   0.51834334   0.01423792
7014.00   0.51688242   0.01403343
7016.00   0.50855735   0.01356030
7018.00   0.50495778   0.01317182
7020.00   0.50709516   0.01287570
7022.00   0.51462071   0.01269971
7024.00   0.52784842   0.01277562
7026.00   0.55052386   0.01307813
7028.00   0.55792509   0.01341203
7030.00   0.55445230   0.01402158
7032.00   0.55063652   0.01432294
7034.00   0.54518667   0.01431193
7036.00   0.53813443   0.01416474
7038.00   0.53092101   0.01394993
7040.00   0.52298342   0.01358622
7042.00   0.52401225   0.01360775
7044.00   0.53352681   0.01402633
7046.00   0.54242735   0.01423171
7048.00   0.55525956   0.01434803
7050.00   0.56494094   0.01438187
7052.00   0.56870136   0.01429235
7054.00   0.56809320   0.01410914
7056.00   0.55716711   0.01400174
7058.00   0.52866004   0.01388924
7060.00   0.51388898   0.01383683
7062.00   0.50715412   0.01386166
7064.00   0.50127266   0.01388495
7066.00   0.49314000   0.01388589
7068.00   0.48600601   0.01387910
7070.00   0.48575310   0.01383243
7072.00   0.49375725   0.01365006
7074.00   0.49673331   0.01385879
7076.00   0.50023825   0.01447962
7078.00   0.49936894   0.01490531
7080.00   0.49322195   0.01516627
7082.00   0.48499890   0.01536521
7084.00   0.47904699   0.01548747
7086.00   0.47434583   0.01549952
7088.00   0.47043657   0.01566189
7090.00   0.46156098   0.01615913
7092.00   0.46569915   0.01614107
7094.00   0.48763250   0.01553218
7096.00   0.50945671   0.01481966
7098.00   0.52113441   0.01426089
7100.00   0.52882242   0.01365452
7102.00   0.52739498   0.01326049
7104.00   0.50938095   0.01301415
7106.00   0.50423506   0.01294244
7108.00   0.51104800   0.01313347
7110.00   0.51595807   0.01329045
7112.00   0.51156017   0.01321949
7114.00   0.50271598   0.01311858
7116.00   0.49745655   0.01346966
7118.00   0.49323624   0.01428552
7120.00   0.48863910   0.01471913
7122.00   0.47741581   0.01520753
7124.00   0.47849846   0.01528182
7126.00   0.50197880   0.01466494
7128.00   0.53057776   0.01381244
7130.00   0.53751306   0.01354089
7132.00   0.53236374   0.01360726
7134.00   0.52416548   0.01360510
7136.00   0.50110060   0.01369978
7138.00   0.48973684   0.01379266
7140.00   0.49161090   0.01391649
7142.00   0.49963233   0.01399495
7144.00   0.51017980   0.01391085
7146.00   0.52519509   0.01367199
7148.00   0.52940308   0.01354739
7150.00   0.53450254   0.01341897
7152.00   0.52090031   0.01339181
7154.00   0.47400510   0.01347104
7156.00   0.43395318   0.01360622
7158.00   0.42620279   0.01378762
7160.00   0.43500184   0.01401145
7162.00   0.44788349   0.01393153
7164.00   0.48360042   0.01342726
7166.00   0.49641910   0.01327222
7168.00   0.48741950   0.01332166
7170.00   0.48105876   0.01349525
7172.00   0.48636740   0.01382660
7174.00   0.49579574   0.01422875
7176.00   0.50330779   0.01438642
7178.00   0.51358126   0.01447042
7180.00   0.51706707   0.01430197
7182.00   0.51706876   0.01360847
7184.00   0.51230869   0.01329556
7186.00   0.49960488   0.01363899
7188.00   0.48571207   0.01411752
7190.00   0.48115319   0.01422081
7192.00   0.48532012   0.01418085
7194.00   0.48158427   0.01393030
7196.00   0.47247855   0.01317644
7198.00   0.46555227   0.01284401
7200.00   0.45572878   0.01302107
7202.00   0.45376591   0.01323374
7204.00   0.47638057   0.01315004
7206.00   0.51946035   0.01291280
7208.00   0.52827483   0.01291365
7210.00   0.50924049   0.01308350
7212.00   0.50090092   0.01322222
7214.00   0.49061699   0.01341981
7216.00   0.48949791   0.01354455
7218.00   0.50981395   0.01346672
7220.00   0.54206415   0.01325836
7222.00   0.54856990   0.01332698
7224.00   0.53786360   0.01356910
7226.00   0.52672531   0.01385940
7228.00   0.50517288   0.01396255
7230.00   0.48851186   0.01458786
7232.00   0.48029861   0.01557436
7234.00   0.47504508   0.01706176
7236.00   0.46750025   0.01972328
7238.00   0.45329221   0.02353732
7240.00   0.46526763   0.02559344
7242.00   0.50582759   0.02748683
7244.00   0.53771073   0.02805430
7246.00   0.56673774   0.02704910
7248.00   0.58389637   0.02518744
7250.00   0.56837808   0.02315069
7252.00   0.51982574   0.02021427
7254.00   0.51573630   0.01824581
7256.00   0.55188130   0.01710035
7258.00   0.56222890   0.01600963
7260.00   0.54580557   0.01511323
7262.00   0.53175442   0.01455643
7264.00   0.54014288   0.01430136
7266.00   0.55981062   0.01438596
7268.00   0.55113639   0.01555476
7270.00   0.51713610   0.01744982
7272.00   0.49377015   0.01963245
7274.00   0.45576020   0.02287188
7276.00   0.44361867   0.02494467
7278.00   0.49125455   0.02537982
7280.00   0.56670791   0.02487826
7282.00   0.58012286   0.02403096
7284.00   0.54797271   0.02205003
7286.00   0.53671072   0.02065584
7288.00   0.52588713   0.01934501
7290.00   0.51537354   0.01815421
7292.00   0.50796358   0.01704017
7294.00   0.50364415   0.01616232
7296.00   0.49852271   0.01587917
7298.00   0.49276638   0.01625077
7300.00   0.49444108   0.01648561
7302.00   0.50274459   0.01692717
7304.00   0.51144782   0.01726152
7306.00   0.52862698   0.01731582
7308.00   0.54078600   0.01755391
7310.00   0.53218924   0.01846482
7312.00   0.50886717   0.01982782
7314.00   0.50944032   0.02087399
7316.00   0.52497105   0.02242953
7318.00   0.54197757   0.02271812
7320.00   0.57924402   0.02166054
7322.00   0.59647618   0.02032764
7324.00   0.56033891   0.01920350
7326.00   0.49351621   0.01804932
7328.00   0.48166956   0.01797515
7330.00   0.51286508   0.01905776
7332.00   0.52523991   0.01981279
7334.00   0.54658967   0.02060954
7336.00   0.54720189   0.02146008
7338.00   0.50327499   0.02255444
7340.00   0.44653870   0.02354439
7342.00   0.45304582   0.02368484
7344.00   0.51764804   0.02335635
7346.00   0.54037558   0.02236600
7348.00   0.54952325   0.01995576
7350.00   0.55208676   0.01800179
7352.00   0.54313923   0.01667215
7354.00   0.52836356   0.01600126
7356.00   0.52348600   0.01652826
7358.00   0.52509311   0.01823861
7360.00   0.52225691   0.01942756
7362.00   0.51054902   0.02102978
7364.00   0.51447411   0.02179975
7366.00   0.54324509   0.02178656
7368.00   0.56499501   0.02157946
7370.00   0.55076811   0.02155782
7372.00   0.51210839   0.02153278
7374.00   0.51089233   0.02063485
7376.00   0.54706548   0.01844089
7378.00   0.55263574   0.01682900
7380.00   0.52948709   0.01528759
7382.00   0.51200156   0.01425555
7384.00   0.51512749   0.01417910
7386.00   0.52936257   0.01483387
7388.00   0.54535471   0.01551299
7390.00   0.58090891   0.01663118
7392.00   0.58468497   0.01744967
7394.00   0.55755825   0.01810807
7396.00   0.53883216   0.01885567
7398.00   0.53562205   0.01996511
7400.00   0.53804186   0.02095547
7402.00   0.54291411   0.02100091
7404.00   0.55447152   0.02035408
7406.00   0.56011115   0.01958078
7408.00   0.57195851   0.01822089
7410.00   0.56564896   0.01688768
7412.00   0.52642207   0.01543629
7414.00   0.48831563   0.01415968
7416.00   0.48999403   0.01366113
7418.00   0.51913601   0.01387637
7420.00   0.53717583   0.01398713
7422.00   0.55860831   0.01428300
7424.00   0.57691520   0.01467929
7426.00   0.60067403   0.01523580
7428.00   0.61440180   0.01580262
7430.00   0.60276811   0.01630015
7432.00   0.57221498   0.01677090
7434.00   0.55246690   0.01719405
7436.00   0.52656938   0.01774949
7438.00   0.51738103   0.01788844
7440.00   0.52332559   0.01774788
7442.00   0.53182516   0.01733904
7444.00   0.54078741   0.01651193
7446.00   0.55001625   0.01539136
7448.00   0.55155382   0.01467817
7450.00   0.54525410   0.01411609
7452.00   0.54569657   0.01384124
7454.00   0.55201121   0.01390103
7456.00   0.55349183   0.01410802
7458.00   0.54904775   0.01444564
7460.00   0.54179372   0.01491772
7462.00   0.53464580   0.01550847
7464.00   0.52817768   0.01626308
7466.00   0.51870754   0.01688867
7468.00   0.50044183   0.01753033
7470.00   0.49353123   0.01804248
7472.00   0.50494432   0.01842447
7474.00   0.51516859   0.01874814
7476.00   0.50946440   0.01910872
7478.00   0.49661566   0.01950122
7480.00   0.49427153   0.01952883
7482.00   0.50080995   0.01930041
7484.00   0.50006279   0.01889158
7486.00   0.48993029   0.01811967
7488.00   0.48955704   0.01735293
7490.00   0.51192902   0.01684094
7492.00   0.54579082   0.01644027
7494.00   0.55012143   0.01595586
7496.00   0.52759506   0.01540362
7498.00   0.51909852   0.01497411
7500.00   0.51610216   0.01461381
7502.00   0.51121995   0.01432031
7504.00   0.49803220   0.01408737
7506.00   0.48323151   0.01393501
7508.00   0.48617348   0.01392121
7510.00   0.50824966   0.01399275
7512.00   0.51605000   0.01427809
7514.00   0.51214828   0.01444473
7516.00   0.51823834   0.01530291
7518.00   0.54123373   0.01702909
7520.00   0.56748272   0.01886442
7522.00   0.58085920   0.02025620
7524.00   0.58976400   0.02166218
7526.00   0.58829446   0.02204699
7528.00   0.57117105   0.02167814
7530.00   0.55947863   0.02094781
7532.00   0.55406807   0.01942902
7534.00   0.54944557   0.01777703
7536.00   0.54270652   0.01667641
7538.00   0.53502361   0.01586318
7540.00   0.52868593   0.01542783
7542.00   0.52796243   0.01579694
7544.00   0.51771173   0.01566350
7546.00   0.48943587   0.01503886
7548.00   0.46708283   0.01453383
7550.00   0.47075367   0.01451757
7552.00   0.48721792   0.01477995
7554.00   0.47964324   0.01502914
7556.00   0.44840133   0.01549030
7558.00   0.43773453   0.01570466
7560.00   0.43415500   0.01568870
7562.00   0.44053437   0.01579352
7564.00   0.46459639   0.01597526
7566.00   0.49161746   0.01632980
7568.00   0.48727328   0.01720449
7570.00   0.45303552   0.01863185
7572.00   0.44446880   0.01935565
7574.00   0.44257426   0.02011480
7576.00   0.45259961   0.02006031
7578.00   0.48477352   0.01865401
7580.00   0.51741003   0.01687908
7582.00   0.52319750   0.01616167
7584.00   0.51031259   0.01601683
7586.00   0.51660258   0.01626779
7588.00   0.54870179   0.01675300
7590.00   0.54664737   0.01806532
7592.00   0.51501039   0.01819363
7594.00   0.46682332   0.02135407
7596.00   0.39416370   0.02894652
7598.00   0.30064631   0.03748015
7600.00   0.29216152   0.04351751
7602.00   0.37450334   0.05224322
7604.00   0.40701227   0.05303316
7606.00   0.41132024   0.04593065
7608.00   0.42609781   0.03792233
7610.00   0.47249708   0.03265518
7612.00   0.52848276   0.02844831
7614.00   0.53874010   0.02477907
7616.00   0.50675379   0.02256111
7618.00   0.49797563   0.02161613
7620.00   0.49567424   0.02291156
7622.00   0.49177296   0.02447759
7624.00   0.47728495   0.02671321
7626.00   0.46468478   0.02878924
7628.00   0.48607586   0.02920600
7630.00   0.54404661   0.02854105
7632.00   0.56573090   0.02745960
7634.00   0.57513873   0.02508240
7636.00   0.56843287   0.02302142
7638.00   0.53041394   0.02111487
7640.00   0.49502522   0.01950438
7642.00   0.49923714   0.01854931
7644.00   0.52814209   0.01824464
7646.00   0.53204733   0.01805792
7648.00   0.52724785   0.01846910
7650.00   0.51615371   0.01856575
7652.00   0.48440528   0.01833945
7654.00   0.46389674   0.01827472
7656.00   0.47845818   0.01869558
7658.00   0.51072478   0.01935517
7660.00   0.51076861   0.01965497
7662.00   0.47627790   0.01946506
7664.00   0.47633411   0.01996020
7666.00   0.50428377   0.02159652
7668.00   0.52733776   0.02222121
7670.00   0.53422029   0.02085632
7672.00   0.53153165   0.01837312
7674.00   0.52664335   0.01707257
7676.00   0.51405129   0.01634337
7678.00   0.50617491   0.01569385
7680.00   0.49904962   0.01535390
7682.00   0.49350375   0.01524086
7684.00   0.49135421   0.01542292
7686.00   0.48784307   0.01571538
7688.00   0.47236286   0.01588531
7690.00   0.44186082   0.01594689
7692.00   0.44992352   0.01660834
7694.00   0.50416519   0.01798646
7696.00   0.52766557   0.01882243
7698.00   0.52743474   0.01932320
7700.00   0.51066554   0.01950968
7702.00   0.47255667   0.01905505
7704.00   0.41437435   0.01801904
7706.00   0.40657106   0.01906074
7708.00   0.43108115   0.02126780
7710.00   0.46824162   0.02386486
7712.00   0.55344003   0.02754957
7714.00   0.60410249   0.03028813
7716.00   0.57237905   0.03197574
7718.00   0.50241882   0.03294494
7720.00   0.49780779   0.03208737
7722.00   0.54473430   0.02863855
7724.00   0.55431618   0.02607288
7726.00   0.55131815   0.02284698
7728.00   0.54010727   0.02013288
7730.00   0.51387942   0.01868404
7732.00   0.48492283   0.01805253
7734.00   0.48110226   0.01719857
7736.00   0.50455755   0.01619555
7738.00   0.49036843   0.01672618
7740.00   0.43389271   0.01853007
7742.00   0.40936247   0.02047148
7744.00   0.43179239   0.02271173
7746.00   0.45650655   0.02475284
7748.00   0.44447215   0.02622869
7750.00   0.41161045   0.02741265
7752.00   0.39675105   0.02773080
7754.00   0.37118040   0.02730083
7756.00   0.38508422   0.02653367
7758.00   0.45341876   0.02500165
7760.00   0.51299234   0.02327852
7762.00   0.52814110   0.02173995
7764.00   0.52080695   0.02021142
7766.00   0.51890050   0.01903648
7768.00   0.51284932   0.01810668
7770.00   0.50029175   0.01763077
7772.00   0.47897081   0.01776723
7774.00   0.46126509   0.01808238
7776.00   0.44419184   0.01856674
7778.00   0.43299896   0.01913838
7780.00   0.44668853   0.01930321
7782.00   0.48971687   0.01900005
7784.00   0.50971876   0.01925747
7786.00   0.52858371   0.01963355
7788.00   0.53004263   0.02046010
7790.00   0.50925520   0.02195500
7792.00   0.47337417   0.02351625
7794.00   0.42891464   0.02452371
7796.00   0.36385222   0.02545419
7798.00   0.34070933   0.02518989
7800.00   0.34344832   0.02344857
7802.00   0.35970780   0.02204606
7804.00   0.40428072   0.02064669
7806.00   0.44795986   0.01962434
7808.00   0.46027853   0.01948543
7810.00   0.45164412   0.02003980
7812.00   0.44997919   0.02067792
7814.00   0.43298569   0.02144559
7816.00   0.44373892   0.02274011
7818.00   0.47895998   0.02482602
7820.00   0.52234605   0.02651604
7822.00   0.57513571   0.02768687
7824.00   0.62981111   0.02848223
7826.00   0.63567826   0.02767759
7828.00   0.60208237   0.02469285
7830.00   0.56514558   0.02245779
7832.00   0.49303316   0.01933470
7834.00   0.44135761   0.01729700
7836.00   0.42941217   0.01793843
7838.00   0.43438607   0.01976582
7840.00   0.42650861   0.02027463
7842.00   0.41754659   0.01998386
7844.00   0.40915644   0.02100761
7846.00   0.39037070   0.02257015
7848.00   0.39111470   0.02465560
7850.00   0.41712980   0.02765304
7852.00   0.45724730   0.03032539
7854.00   0.50608723   0.03164508
7856.00   0.57888737   0.03229627
7858.00   0.57958874   0.03194217
7860.00   0.50460689   0.02989135
7862.00   0.46154398   0.02850431
7864.00   0.44462140   0.02755427
7866.00   0.43009539   0.02680151
7868.00   0.40769501   0.02613230
7870.00   0.38444188   0.02557149
7872.00   0.36252595   0.02537934
7874.00   0.33206992   0.02600551
7876.00   0.32176514   0.02576143
7878.00   0.33213620   0.02449290
7880.00   0.34678687   0.02345248
7882.00   0.35272954   0.02328066
7884.00   0.35684821   0.02360393
7886.00   0.38819036   0.02409408
7888.00   0.45626093   0.02513269
7890.00   0.49998640   0.02570807
7892.00   0.54832503   0.02675700
7894.00   0.56782317   0.02651898
7896.00   0.55071664   0.02404703
7898.00   0.51650828   0.02042322
7900.00   0.48881947   0.01828366
7902.00   0.45111257   0.01655193
7904.00   0.44033661   0.01707332
7906.00   0.45583454   0.01915582
7908.00   0.46416713   0.02252414
7910.00   0.46995421   0.02781451
7912.00   0.47166602   0.03215026
7914.00   0.45618071   0.03390548
7916.00   0.42418344   0.03427275
7918.00   0.43165722   0.03368504
7920.00   0.48906958   0.03104295
7922.00   0.50234278   0.02916425
7924.00   0.47922130   0.02755959
7926.00   0.45310809   0.02605608
7928.00   0.43398578   0.02463225
7930.00   0.41525799   0.02332113
7932.00   0.41412854   0.02230337
7934.00   0.43304484   0.02188888
7936.00   0.44462878   0.02102521
7938.00   0.45994209   0.01960612
7940.00   0.46642821   0.01857218
7942.00   0.45689391   0.01832840
7944.00   0.43793409   0.01857055
7946.00   0.42794992   0.01897828
7948.00   0.42010689   0.02002589
7950.00   0.41598389   0.02017118
7952.00   0.41193224   0.01933710
7954.00   0.41687785   0.01915472
7956.00   0.44178487   0.01949361
7958.00   0.46651705   0.02054536
7960.00   0.45606768   0.02299249
7962.00   0.41416503   0.02665981
7964.00   0.39417841   0.02798401
7966.00   0.36743835   0.02822887
7968.00   0.37067202   0.02791404
7970.00   0.41988915   0.02649389
7972.00   0.47029661   0.02493186
7974.00   0.47607830   0.02386417
7976.00   0.45309016   0.02290424
7978.00   0.44081794   0.02361127
7980.00   0.40888734   0.02702138
7982.00   0.41458541   0.02759964
7984.00   0.47233251   0.02548622
7986.00   0.50976627   0.02401830
7988.00   0.48048122   0.02499166
7990.00   0.42162138   0.02703616
7992.00   0.43928792   0.02828682
7994.00   0.53958380   0.03043866
7996.00   0.56697620   0.03004659
7998.00   0.54992154   0.02701467
8000.00   0.53362294   0.02386232
8002.00   0.52561864   0.02095015
8004.00   0.51498528   0.01820905
8006.00   0.50129099   0.01714950
8008.00   0.48822665   0.01803767
8010.00   0.47226852   0.01853771
8012.00   0.44345099   0.01947185
8014.00   0.43256336   0.02043221
8016.00   0.45531689   0.02075467
8018.00   0.47802022   0.02193455
8020.00   0.46212763   0.02565535
8022.00   0.42009769   0.03077463
8024.00   0.41425230   0.03245206
8026.00   0.43924834   0.03288184
8028.00   0.44628251   0.03182767
8030.00   0.44186035   0.02782998
8032.00   0.42985192   0.02311168
8034.00   0.41111910   0.02003352
8036.00   0.38776968   0.01784295
8038.00   0.38578272   0.01610704
8040.00   0.39886770   0.01564244
8042.00   0.41652380   0.01541250
8044.00   0.45391525   0.01585228
8046.00   0.48081206   0.01660442
8048.00   0.48245433   0.01736876
8050.00   0.46960185   0.01841778
8052.00   0.46140189   0.02040600
8054.00   0.45197812   0.02388866
8056.00   0.44556828   0.02479364
8058.00   0.44232883   0.02394500
8060.00   0.43569504   0.02319284
8062.00   0.42771596   0.02281844
8064.00   0.41980855   0.02234631
8066.00   0.41571939   0.02132746
8068.00   0.41808692   0.01967205
8070.00   0.41036475   0.01843577
8072.00   0.38613360   0.01716921
8074.00   0.38004968   0.01632250
8076.00   0.40034848   0.01611295
8078.00   0.42115110   0.01611501
8080.00   0.41912484   0.01592868
8082.00   0.40302463   0.01572315
8084.00   0.39647286   0.01571674
8086.00   0.38722678   0.01567851
8088.00   0.38936856   0.01612300
8090.00   0.40605755   0.01719355
8092.00   0.42223445   0.01809044
8094.00   0.43162660   0.01852480
8096.00   0.43891683   0.01876180
8098.00   0.43888758   0.01902576
8100.00   0.43659340   0.01930827
8102.00   0.42006029   0.01936924
8104.00   0.38256542   0.01927765
8106.00   0.35242803   0.01901269
8108.00   0.33323582   0.01848359
8110.00   0.32463421   0.01784005
8112.00   0.33995771   0.01750948
8114.00   0.38805407   0.01745347
8116.00   0.40871574   0.01720191
8118.00   0.41794540   0.01686031
8120.00   0.42245175   0.01652236
8122.00   0.42196129   0.01616678
8124.00   0.41892239   0.01585608
8126.00   0.41592459   0.01569755
8128.00   0.41251406   0.01564395
8130.00   0.40914695   0.01576451
8132.00   0.40352100   0.01609234
8134.00   0.40140337   0.01643677
8136.00   0.40540685   0.01686014
8138.00   0.40889880   0.01727133
8140.00   0.40934770   0.01761850
8142.00   0.41024353   0.01793993
8144.00   0.40967686   0.01809296
8146.00   0.40409148   0.01811815
8148.00   0.40596654   0.01805529
8150.00   0.42235048   0.01785489
8152.00   0.42866723   0.01762283
8154.00   0.40984643   0.01735732
8156.00   0.37903418   0.01708465
8158.00   0.37011655   0.01704694
8160.00   0.37354237   0.01713329
8162.00   0.38022999   0.01742972
8164.00   0.40179072   0.01792888
8166.00   0.41263364   0.01853677
8168.00   0.39986566   0.01896372
8170.00   0.38407271   0.01969950
8172.00   0.40181457   0.02153436
8174.00   0.45322853   0.02367185
8176.00   0.46653749   0.02715928
8178.00   0.45261356   0.03215352
8180.00   0.44461793   0.03577045
8182.00   0.43978128   0.03847673
8184.00   0.44613266   0.04059971
8186.00   0.47263116   0.04210968
8188.00   0.51842928   0.04304550
8190.00   0.53591833   0.04414451
8192.00   0.54092526   0.04550479
8194.00   0.53221151   0.04607328
8196.00   0.50531356   0.04633091
8198.00   0.47851597   0.04569422
8200.00   0.45390351   0.04336431
8202.00   0.42917748   0.03951720
8204.00   0.43542546   0.03614156
8206.00   0.49570109   0.03156500
8208.00   0.49774274   0.02859637
8210.00   0.45846836   0.02775589
8212.00   0.41060466   0.02711347
8214.00   0.35540888   0.02605841
8216.00   0.29949721   0.02497253
8218.00   0.27965448   0.02360704
8220.00   0.28951948   0.02175009
8222.00   0.29515266   0.02048801
8224.00   0.31355560   0.01951055
8226.00   0.32499704   0.01899286
8228.00   0.33070590   0.01921731
8230.00   0.33337748   0.01970142
8232.00   0.32301965   0.01986997
8234.00   0.29548887   0.02006876
8236.00   0.30018403   0.01956600
8238.00   0.33180058   0.01775749
8240.00   0.35650751   0.01705165
8242.00   0.38862896   0.01775046
8244.00   0.41279866   0.01853299
8246.00   0.40701047   0.01859564
8248.00   0.38210565   0.01835778
8250.00   0.37746626   0.01812863
8252.00   0.38123962   0.01770957
8254.00   0.38597128   0.01738066
8256.00   0.40191419   0.01706331
8258.00   0.41294345   0.01677911
8260.00   0.41048409   0.01655287
8262.00   0.40128505   0.01639577
8264.00   0.39131479   0.01641377
8266.00   0.36883318   0.01634722
8268.00   0.36610970   0.01696258
8270.00   0.38077670   0.01741407
8272.00   0.39364190   0.01920858
8274.00   0.40598522   0.02238295
8276.00   0.41628152   0.02616811
8278.00   0.41211171   0.03018289
8280.00   0.39996614   0.03535299
8282.00   0.37965239   0.03759000
8284.00   0.33787926   0.03844281
8286.00   0.31384931   0.03838499
8288.00   0.31433295   0.03682177
8290.00   0.31435192   0.03508988
8292.00   0.30427018   0.03527403
8294.00   0.29607557   0.03679384
8296.00   0.27409755   0.03682251
8298.00   0.24380534   0.03625749
8300.00   0.20155632   0.03523462
8302.00   0.11141947   0.03346903
8304.00   0.06116497   0.03112981
8306.00   0.14057241   0.02822803
8308.00   0.30770494   0.02457194
8310.00   0.32768433   0.02239609
8312.00   0.21154884   0.02206827
8314.00   0.18820299   0.02101177
8316.00   0.23145796   0.01976408
8318.00   0.26682305   0.01858131
8320.00   0.26464633   0.01753767
8322.00   0.24698469   0.01664297
8324.00   0.23725764   0.01609106
8326.00   0.21798429   0.01615271
8328.00   0.22118902   0.01565800
8330.00   0.26002444   0.01113181
8332.00   0.27052314   nan
8334.00   0.25066444   nan
8336.00   0.19750756   nan
8338.00   0.08210890   0.06380266
8340.00   -0.12657166   0.11207157
8342.00   -0.16467643   0.11421816
8344.00   -0.05229832   0.07695290
8346.00   0.01423813   0.04665104
8348.00   0.05265110   0.03994313
8350.00   0.07843005   0.04225068
8352.00   0.08422759   0.03729701
8354.00   0.07062138   0.03187458
8356.00   0.08746336   0.02768384
8358.00   0.12214956   0.02480855
8360.00   0.16083898   0.02352602
8362.00   0.21886078   0.02546454
8364.00   0.26491453   0.02683711
8366.00   0.28408006   0.02576228
8368.00   0.28933807   0.02348026
8370.00   0.28224881   0.02172597
8372.00   0.24832644   0.01846703
8374.00   0.23162016   0.01816851
8376.00   0.20666906   0.02109196
8378.00   0.20992416   0.02344795
8380.00   0.27870175   0.02498584
8382.00   0.37516171   0.02609208
8384.00   0.38785398   0.02584454
8386.00   0.33496935   0.02375622
8388.00   0.30412688   0.02311883
8390.00   0.27541080   0.02151591
8392.00   0.22952050   0.02323523
8394.00   0.15748608   0.02849591
8396.00   0.08130737   0.03438953
8398.00   0.01909443   0.03988244
8400.00   -0.05371322   0.04662310
8402.00   -0.03124980   0.04574508
8404.00   0.10985753   0.03541410
8406.00   0.19307144   0.02810125
8408.00   0.22556532   0.02457565
8410.00   0.24425719   0.02329003
8412.00   0.26883644   0.02389856
8414.00   0.29308300   0.02674676
8416.00   0.31033345   0.02783326
8418.00   0.31575783   0.02831421
8420.00   0.32867867   0.02910448
8422.00   0.35925345   0.02949011
8424.00   0.38151872   0.03074248
8426.00   0.37852430   0.03374941
8428.00   0.35780455   0.03738787
8430.00   0.33602569   0.03919038
8432.00   0.29399914   0.04142546
8434.00   0.28600166   0.03993230
8436.00   0.30721717   0.03329165
8438.00   0.32197230   0.02672356
8440.00   0.32345744   0.02188148
8442.00   0.32074870   0.01831738
8444.00   0.32948439   0.01771119
8446.00   0.35351157   0.02108023
8448.00   0.35011800   0.02290511
8450.00   0.32489979   0.02563920
8452.00   0.30010580   0.02693038
8454.00   0.26504733   0.02586731
8456.00   0.23980539   0.02494069
8458.00   0.25413748   0.02735282
8460.00   0.30209143   0.03172621
8462.00   0.33907800   0.03433440
8464.00   0.39722364   0.03779497
8466.00   0.41990696   0.03825100
8468.00   0.40900669   0.03545580
8470.00   0.38460284   0.03147742
8472.00   0.35601927   0.02753580
8474.00   0.32038338   0.02264905
8476.00   0.29684655   0.01921923
8478.00   0.27815104   0.01753385
8480.00   0.26496018   0.01615157
8482.00   0.26092303   0.01580803
8484.00   0.25716060   0.01632815
8486.00   0.25232916   0.01773881
8488.00   0.25000807   0.01967663
8490.00   0.24895979   0.02122744
8492.00   0.25016490   0.02284154
8494.00   0.25163716   0.02414046
8496.00   0.25880780   0.02496899
8498.00   0.25668813   0.02625127
8500.00   0.24687172   0.02843688
8502.00   0.23131328   0.03043405
8504.00   0.20236764   0.03099230
8506.00   0.14932844   0.03068850
8508.00   0.14266630   0.02969018
8510.00   0.16754975   0.02732594
8512.00   0.20174157   0.02508561
8514.00   0.26215459   0.02253895
8516.00   0.31779165   0.01995437
8518.00   0.32919399   0.01805536
8520.00   0.30804977   0.01669412
8522.00   0.30478743   0.01596341
8524.00   0.30324830   0.01650986
8526.00   0.30236912   0.01663672
8528.00   0.30174784   0.01638282
8530.00   0.30377777   0.01639963
8532.00   0.30567960   0.01704527
8534.00   0.30891731   0.01805910
8536.00   0.32447343   0.01908492
8538.00   0.36083551   0.02040270
8540.00   0.37556614   0.02138767
8542.00   0.37956551   0.02215097
8544.00   0.37783776   0.02295474
8546.00   0.36578889   0.02408635
8548.00   0.35018448   0.02508329
8550.00   0.34842402   0.02498243
8552.00   0.35106692   0.02406688
8554.00   0.36551738   0.02266045
8556.00   0.40476908   0.01957838
8558.00   0.42462614   0.01732525
8560.00   0.41893944   0.01663451
8562.00   0.40433337   0.01667102
8564.00   0.38704918   0.01661941
8566.00   0.35266823   0.01690256
8568.00   0.36539596   0.01691737
8570.00   0.42954259   0.01674144
8572.00   0.46863024   0.01675955
8574.00   0.49085969   0.01694823
8576.00   0.50378904   0.01717690
8578.00   0.50021087   0.01732635
8580.00   0.48088491   0.01744789
8582.00   0.48753998   0.01795544
8584.00   0.52521794   0.01884379
8586.00   0.53139739   0.01957006
8588.00   0.51567653   0.02040207
8590.00   0.48956732   0.02096223
8592.00   0.44964306   0.02111608
8594.00   0.40843897   0.02104255
8596.00   0.41692828   0.02094797
8598.00   0.48600218   0.02079963
8600.00   0.50171413   0.02037923
8602.00   0.48813547   0.01944730
8604.00   0.47436042   0.01880496
8606.00   0.45504834   0.01858752
8608.00   0.43833114   0.01870248
8610.00   0.45782265   0.01918702
8612.00   0.51935527   0.01997015
8614.00   0.53549607   0.02110895
8616.00   0.52168715   0.02265788
8618.00   0.51277834   0.02417233
8620.00   0.50440826   0.02575653
8622.00   0.49882959   0.02723772
8624.00   0.51010753   0.02848532
8626.00   0.53951450   0.02965865
8628.00   0.53965774   0.03023167
8630.00   0.51916698   0.03043121
8632.00   0.49823180   0.03021010
8634.00   0.45813286   0.02943705
8636.00   0.44010830   0.02840335
8638.00   0.47785565   0.02714137
8640.00   0.54795963   0.02559638
8642.00   0.57389119   0.02491834
8644.00   0.57668920   0.02476981
8646.00   0.57853360   0.02515111
8648.00   0.56470154   0.02627487
8650.00   0.55350873   0.02746926
8652.00   0.54987861   0.02871091
8654.00   0.54898626   0.02990729
8656.00   0.55863310   0.03038381
8658.00   0.58855426   0.03027206
8660.00   0.60506178   0.03022498
8662.00   0.61584496   0.02999255
8664.00   0.62433559   0.02970841
8666.00   0.63738769   0.02918340
8668.00   0.64969614   0.02879903
8670.00   0.65695322   0.02954746
8672.00   0.66806972   0.03185949
8674.00   0.64672509   0.03129695
8676.00   0.57385089   0.02780477
8678.00   0.54238327   0.02517640
8680.00   0.55880754   0.02369297
8682.00   0.58420473   0.02274582
8684.00   0.59558599   0.02201570
8686.00   0.60676010   0.02167686
8688.00   0.58353703   0.02193495
8690.00   0.49694358   0.02362824
8692.00   0.47589017   0.02382113
8694.00   0.52122129   0.02242197
8696.00   0.56847638   0.02084512
8698.00   0.58181138   0.02005586
8700.00   0.58185814   0.01962025
8702.00   0.59612048   0.01938834
8704.00   0.62008631   0.01968360
8706.00   0.63503063   0.01965097
8708.00   0.65343133   0.01951733
8710.00   0.65777373   0.01928196
8712.00   0.63287604   0.01886415
8714.00   0.59754997   0.01837740
8716.00   0.59231740   0.01813489
8718.00   0.60893306   0.01795974
8720.00   0.61333275   0.01810192
8722.00   0.61339194   0.01875488
8724.00   0.61717659   0.01911206
8726.00   0.62342724   0.01885553
8728.00   0.63242102   0.01863863
8730.00   0.64998505   0.01952352
8732.00   0.68087521   0.02143558
8734.00   0.68626156   0.02166825
8736.00   0.66384429   0.02028545
8738.00   0.65812999   0.01986194
8740.00   0.67261028   0.02064918
8742.00   0.68737504   0.02140581
8744.00   0.69222498   0.02129939
8746.00   0.69209069   0.02073819
8748.00   0.67109644   0.02092063
8750.00   0.60537207   0.01965334
8752.00   0.59179957   0.02267406
8754.00   0.62336345   0.02805908
8756.00   0.65446623   0.03388029
8758.00   0.67575561   0.04043823
8760.00   0.69244546   0.04679554
8762.00   0.67941345   0.05002775
8764.00   0.62298116   0.05177055
8766.00   0.61240767   0.05245402
8768.00   0.62727615   0.05143456
8770.00   0.64577106   0.05036632
8772.00   0.70386022   0.04909319
8774.00   0.75253078   0.04798438
8776.00   0.66483542   0.04894386
8778.00   0.43098032   0.05288331
8780.00   0.34979329   0.05181177
8782.00   0.32165098   0.04620722
8784.00   0.36465414   0.04096278
8786.00   0.53250207   0.03543444
8788.00   0.70966169   0.03025878
8790.00   0.76593581   0.02857393
8792.00   0.74964869   0.03055502
8794.00   0.75285164   0.02946467
8796.00   0.74564016   0.02635127
8798.00   0.72768191   0.02430781
8800.00   0.69036955   0.02316581
8802.00   0.65121564   0.02249523
8804.00   0.61702845   0.02225044
8806.00   0.58605330   0.02246212
8808.00   0.59491132   0.02202602
8810.00   0.65154636   0.02068265
8812.00   0.68671826   0.02049251
8814.00   0.72699982   0.01929030
8816.00   0.74834603   0.02154553
8818.00   0.74980447   0.02702361
8820.00   0.73037276   0.03397962
8822.00   0.66681483   0.04263684
8824.00   0.51771632   0.05417427
8826.00   0.48728670   0.05947377
8828.00   0.53829253   0.06302562
8830.00   0.59815557   0.06386705
8832.00   0.69469115   0.06153478
8834.00   0.77878240   0.05701487
8836.00   0.74500352   0.05146845
8838.00   0.60254055   0.04260412
8840.00   0.57054755   0.03710084
8842.00   0.61349331   0.03491963
8844.00   0.62434331   0.03273103
8846.00   0.61135536   0.03131523
8848.00   0.59015360   0.03040503
8850.00   0.55921459   0.02944199
8852.00   0.51787043   0.02869779
8854.00   0.53439358   0.02780645
8856.00   0.62032157   0.02624760
8858.00   0.66166210   0.02610147
8860.00   0.66800371   0.02682107
8862.00   0.68239766   0.02871560
8864.00   0.73113728   0.03256071
8866.00   0.79346347   0.03693110
8868.00   0.81192034   0.03746321
8870.00   0.80098456   0.03484780
8872.00   0.78294864   0.03297639
8874.00   0.73544997   0.02865652
8876.00   0.70266619   0.02732160
8878.00   0.70224407   0.03004027
8880.00   0.70871392   0.03563507
8882.00   0.68715641   0.04432016
8884.00   0.65812381   0.05690672
8886.00   0.60522950   0.06070515
8888.00   0.45153881   0.06125363
8890.00   0.43868315   0.05834002
8892.00   0.66090803   0.04794031
8894.00   0.88956070   0.03423635
8896.00   0.87302238   0.03030006
8898.00   0.69224069   0.03485205
8900.00   0.61215347   0.03788395
8902.00   0.52729937   0.04527218
8904.00   0.49777962   0.04712936
8906.00   0.53042771   0.04356127
8908.00   0.57727370   0.03950956
8910.00   0.63209599   0.03808874
8912.00   0.70239180   0.03802664
8914.00   0.67428967   0.04183526
8916.00   0.55654223   0.05091463
8918.00   0.45030168   0.05458240
8920.00   0.27805228   0.05683184
8922.00   0.17169630   0.05628915
8924.00   0.19843242   0.05093995
8926.00   0.30127958   0.04155861
8928.00   0.37843152   0.03520927
8930.00   0.49894476   0.02901679
8932.00   0.55052727   0.02608319
8934.00   0.53189918   0.02825544
8936.00   0.53968577   0.03085649
8938.00   0.60846943   0.03369859
8940.00   0.68997845   0.03643109
8942.00   0.71551663   0.03799553
8944.00   0.70660302   0.03921083
8946.00   0.68557808   0.03900242
8948.00   0.60886566   0.03500045
8950.00   0.58941911   0.03527405
8952.00   0.64249054   0.04081952
8954.00   0.70079449   0.04666892
8956.00   0.71849248   0.05063301
8958.00   0.71860021   0.05439697
8960.00   0.69559410   0.05413460
8962.00   0.62257589   0.04990755
8964.00   0.59424458   0.04538394
8966.00   0.59537323   0.03802397
8968.00   0.60069680   0.03035551
8970.00   0.61403954   0.02576275
8972.00   0.63513616   0.02383014
8974.00   0.63418004   0.02208784
8976.00   0.60622260   0.02166439
8978.00   0.60363807   0.02307280
8980.00   0.61794533   0.02652465
8982.00   0.63005793   0.03003394
8984.00   0.64054528   0.03359407
8986.00   0.64559422   0.03680611
8988.00   0.61866356   0.03823318
8990.00   0.54355884   0.03816707
8992.00   0.51726052   0.03868145
8994.00   0.50804462   0.03848404
8996.00   0.52449821   0.03953907
8998.00   0.57671963   0.04269772
9000.00   0.64208983   0.04570592
9002.00   0.68449612   0.04632364
9004.00   0.72111464   0.04575047
9006.00   0.72713009   0.04331588
9008.00   0.70162478   0.03702207
9010.00   0.67267460   0.03183173
9012.00   0.62415972   0.02745579
9014.00   0.58433454   0.02414614
9016.00   0.58516097   0.02308524
9018.00   0.61408195   0.02433418
9020.00   0.61387783   0.02417266
9022.00   0.60087302   0.02384846
9024.00   0.58571902   0.02343652
9026.00   0.55674630   0.02229191
9028.00   0.53416730   0.02193685
9030.00   0.52869059   0.02328005
9032.00   0.53384206   0.02547149
9034.00   0.54642174   0.02714163
9036.00   0.58439231   0.02910188
9038.00   0.58603942   0.03027408
9040.00   0.55128853   0.03056394
9042.00   0.53306162   0.03133460
9044.00   0.53581709   0.03306030
9046.00   0.54971991   0.03497383
9048.00   0.58189318   0.03612492
9050.00   0.64669290   0.03737460
9052.00   0.66027379   0.03662244
9054.00   0.63188201   0.03341539
9056.00   0.61325851   0.03054142
9058.00   0.60498394   0.02768852
9060.00   0.59379710   0.02527450
9062.00   0.56681116   0.02474070
9064.00   0.52269942   0.02604356
9066.00   0.48787697   0.02586801
9068.00   0.44342090   0.02514603
9070.00   0.42429814   0.02431732
9072.00   0.42779279   0.02295496
9074.00   0.44456953   0.02180802
9076.00   0.46951209   0.02154292
9078.00   0.50158149   0.02188929
9080.00   0.51506278   0.02222695
9082.00   0.51971066   0.02263217
9084.00   0.51524635   0.02349772
9086.00   0.47796370   0.02505159
9088.00   0.46642630   0.02628327
9090.00   0.50726205   0.02683898
9092.00   0.57653901   0.02718891
9094.00   0.64256886   0.02808472
9096.00   0.74475306   0.02903423
9098.00   0.78221014   0.03063413
9100.00   0.78214443   0.03372808
9102.00   0.75314942   0.03510745
9104.00   0.67801511   0.03434261
9106.00   0.58913596   0.03236972
9108.00   0.54374565   0.02991363
9110.00   0.52064599   0.02561962
9112.00   0.50775717   0.02325989
9114.00   0.52456911   0.02254610
9116.00   0.52304907   0.02199471
9118.00   0.49652609   0.02179190
9120.00   0.47153768   0.02183213
9122.00   0.47778212   0.02191179
9124.00   0.51050085   0.02217898
9126.00   0.50589533   0.02229049
9128.00   0.46010238   0.02240710
9130.00   0.45067900   0.02236483
9132.00   0.47883418   0.02216674
9134.00   0.50761344   0.02191232
9136.00   0.52118379   0.02160760
9138.00   0.52830446   0.02126957
9140.00   0.52275425   0.02122194
9142.00   0.49842039   0.02123343
9144.00   0.48356690   0.02170052
9146.00   0.46524528   0.02252184
9148.00   0.45726316   0.02358338
9150.00   0.47005606   0.02506397
9152.00   0.48945294   0.02656203
9154.00   0.48355357   0.02718193
9156.00   0.45398991   0.02716847
9158.00   0.43641008   0.02719328
9160.00   0.41145560   0.02712242
9162.00   0.40657139   0.02675884
9164.00   0.42584379   0.02594573
9166.00   0.45261057   0.02494412
9168.00   0.46739143   0.02406033
9170.00   0.47840461   0.02308817
9172.00   0.48244748   0.02255590
9174.00   0.47668085   0.02263076
9176.00   0.47318651   0.02236158
9178.00   0.46153165   0.02160956
9180.00   0.46217690   0.02097003
9182.00   0.50448693   0.02102318
9184.00   0.58165278   0.02155553
9186.00   0.59297064   0.02164838
9188.00   0.54872605   0.02147536
9190.00   0.52466042   0.02148346
9192.00   0.49760817   0.02158099
9194.00   0.48479718   0.02175814
9196.00   0.50479235   0.02206679
9198.00   0.54287581   0.02244170
9200.00   0.55234167   0.02265242
9202.00   0.54895344   0.02277615
9204.00   0.54059108   0.02289224
9206.00   0.52237016   0.02280759
9208.00   0.49867943   0.02297874
9210.00   0.46636213   0.02349211
9212.00   0.43953262   0.02425481
9214.00   0.44124596   0.02523424
9216.00   0.46902356   0.02660793
9218.00   0.48857370   0.02735815
9220.00   0.52379693   0.02779751
9222.00   0.53364912   0.02805100
9224.00   0.51363966   0.02828827
9226.00   0.48567246   0.02819274
9228.00   0.47085708   0.02723809
9230.00   0.46360867   0.02536809
9232.00   0.45195006   0.02438972
9234.00   0.43881679   0.02403737
9236.00   0.42509149   0.02347955
9238.00   0.40637423   0.02258164
9240.00   0.39772061   0.02195357
9242.00   0.41112818   0.02205968
9244.00   0.43987402   0.02269065
9246.00   0.45204121   0.02340145
9248.00   0.46188615   0.02446981
9250.00   0.45819823   0.02537275
9252.00   0.42938203   0.02674317
9254.00   0.41807741   0.02723497
9256.00   0.44552973   0.02622157
9258.00   0.48739220   0.02444724
9260.00   0.49229643   0.02361616
9262.00   0.46953233   0.02319165
9264.00   0.45565337   0.02286573
9266.00   0.43270145   0.02283717
9268.00   0.42113712   0.02284572
9270.00   0.42522453   0.02283151
9272.00   0.43631250   0.02293137
9274.00   0.44414617   0.02330929
9276.00   0.45530356   0.02399478
9278.00   0.46110557   0.02444732
9280.00   0.46882163   0.02485283
9282.00   0.46446532   0.02515377
9284.00   0.43723089   0.02486244
9286.00   0.41162494   0.02517497
9288.00   0.42133975   0.02749348
9290.00   0.45891237   0.03114179
9292.00   0.46618722   0.03255888
9294.00   0.44973058   0.03114136
9296.00   0.45004562   0.03330595
9298.00   0.47595289   0.03561254
9300.00   0.47838414   0.04206625
9302.00   0.44177023   0.05264063
9304.00   0.37920389   0.06467473
9306.00   0.29979832   0.07761337
9308.00   0.19321393   0.09486510
9310.00   0.08929566   0.10334310
9312.00   -0.10483728   0.09822734
9314.00   -0.16835419   0.10719290
9316.00   0.01624499   0.14308593
9318.00   0.30464161   0.17787867
9320.00   0.43300333   0.17988344
9322.00   0.50192091   0.15640033
9324.00   0.53022383   0.13870214
9326.00   0.47302932   0.10725398
9328.00   0.44282215   0.08018913
9330.00   0.46135682   0.07004649
9332.00   0.47541140   0.07108769
9334.00   0.44809149   0.06967587
9336.00   0.40376455   0.07222706
9338.00   0.33000772   0.07211230
9340.00   0.15230336   0.07268634
9342.00   0.11198907   0.07035076
9344.00   0.24154427   0.06303362
9346.00   0.37991853   0.05547906
9348.00   0.42195189   0.05265808
9350.00   0.42089830   0.05305960
9352.00   0.41344191   0.05152311
9354.00   0.36338580   0.05009213
9356.00   0.34649214   0.04764810
9358.00   0.36102687   0.04322360
9360.00   0.37044953   0.03983495
9362.00   0.35153151   0.03644970
9364.00   0.32462668   0.03597885
9366.00   0.32205287   0.05026926
9368.00   0.28789981   0.06732350
9370.00   0.37698808   0.08769634
9372.00   0.61694838   0.11508131
9374.00   0.79919589   0.13178308
9376.00   0.93557832   0.14139934
9378.00   0.99646693   0.14486928
9380.00   0.84235477   0.13678714
9382.00   0.43639328   0.11244392
9384.00   0.26873939   0.09413652
9386.00   0.20371994   0.07034341
9388.00   0.18545936   0.04948887
9390.00   0.24635733   0.04057968
9392.00   0.32971577   0.04017541
9394.00   0.36700150   0.03983445
9396.00   0.38728300   0.04420090
9398.00   0.41628514   0.04733325
9400.00   0.45422205   0.05335711
9402.00   0.47128463   0.05476148
9404.00   0.47301826   0.05159834
9406.00   0.46939038   0.04801907
9408.00   0.45605272   0.04590875
9410.00   0.43165889   0.04426097
9412.00   0.42197371   0.04572946
9414.00   0.42642100   0.04961368
9416.00   0.41931641   0.05427488
9418.00   0.38909936   0.06161316
9420.00   0.38058067   0.06653674
9422.00   0.41358031   0.06844293
9424.00   0.46447058   0.06839219
9426.00   0.50676380   0.06590031
9428.00   0.56393185   0.05655931
9430.00   0.60696985   0.05781503
9432.00   0.68343325   0.06198031
9434.00   0.67785551   0.07445109
9436.00   0.58502439   0.09849779
9438.00   0.41536221   0.11754676
9440.00   0.14976006   0.11970460
9442.00   -0.28367800   0.11150603
9444.00   -0.36271408   0.10221213
9446.00   -0.12127243   0.07984771
9448.00   0.03373154   0.06356331
9450.00   0.15148461   0.05653189
9452.00   0.22236669   0.05751309
9454.00   0.19722069   0.06674119
9456.00   0.08923172   0.08202291
9458.00   0.11173483   0.08742168
9460.00   0.25891585   0.09080483
9462.00   0.31931067   0.08866850
9464.00   0.32033880   0.07702394
9466.00   0.29259729   0.06563686
9468.00   0.25409456   0.06048370
9470.00   0.20781709   0.06013052
9472.00   0.16646498   0.06875163
9474.00   0.11029763   0.08926798
9476.00   0.07951541   0.09596617
9478.00   0.06611316   0.09794487
9480.00   0.06468005   0.09614709
9482.00   0.08386301   0.08902535
9484.00   0.12471908   0.07761032
9486.00   0.14473779   0.06704215
9488.00   0.15232030   0.05178999
9490.00   0.14247821   0.04518923
9492.00   0.08523463   0.04896814
9494.00   0.07497291   0.05411953
9496.00   0.11906929   0.06095782
9498.00   0.20566930   0.06809361
9500.00   0.33524592   0.07495111
9502.00   0.52380960   0.08267193
9504.00   0.59929109   0.08389000
9506.00   0.59902678   0.08055280
9508.00   0.58777398   0.07537101
9510.00   0.51298529   0.06285466
9512.00   0.45311972   0.05043297
9514.00   0.49577603   0.05069381
9516.00   0.59816045   0.05891747
9518.00   0.58333023   0.06015626
9520.00   0.45745169   0.05913233
9522.00   0.40440776   0.05812906
9524.00   0.39476364   0.05641868
9526.00   0.37549697   0.05399062
9528.00   0.31474891   0.05014737
9530.00   0.24857654   0.04543465
9532.00   0.27896171   0.04350839
9534.00   0.45230450   0.04394866
9536.00   0.44249801   0.04466216
9538.00   0.25155243   0.04733270
9540.00   0.15586881   0.04867819
9542.00   0.20699314   0.04633302
9544.00   0.31099025   0.04510183
9546.00   0.38261428   0.05300674
9548.00   0.48832095   0.06682789
9550.00   0.48227561   0.07179112
9552.00   0.34193525   0.07252740
9554.00   0.26814276   0.07351662
9556.00   0.24709245   0.07378890
9558.00   0.29075806   0.07411850
9560.00   0.42358667   0.07558897
9562.00   0.63495521   0.07776356
9564.00   0.80264369   0.08265437
9566.00   1.04100034   0.09345596
9568.00   1.11805090   0.09604967
9570.00   1.03381070   0.09251308
9572.00   0.90673012   0.08624284
9574.00   0.76436508   0.07740434
9576.00   0.58820570   0.06482686
9578.00   0.49477988   0.05582609
9580.00   0.46993929   0.04915061
9582.00   0.42622320   0.04374989
9584.00   0.39453182   0.04195092
9586.00   0.35049392   0.04100896
9588.00   0.27816044   0.04046273
9590.00   0.20479734   0.04063736
9592.00   0.18712265   0.04085077
9594.00   0.21212543   0.04171407
9596.00   0.24529488   0.04190198
9598.00   0.32226853   0.04062527
9600.00   0.36897922   0.04135000
9602.00   0.38645740   0.04498148
9604.00   0.37723179   0.04901657
9606.00   0.33046575   0.05138144
9608.00   0.23365556   0.05309464
9610.00   0.19149417   0.05437864
9612.00   0.17389829   0.05436147
9614.00   0.17274120   0.05571829
9616.00   0.19811679   0.05898674
9618.00   0.22155839   0.06177603
9620.00   0.21086473   0.06248964
9622.00   0.17644266   0.06181968
9624.00   0.16599238   0.05996751
9626.00   0.16677460   0.05587189
9628.00   0.16669266   0.05223257
9630.00   0.17174978   0.04754157
9632.00   0.18587438   0.04366200
9634.00   0.20393837   0.04211366
9636.00   0.22835917   0.04203953
9638.00   0.24925930   0.04137615
9640.00   0.26221088   0.04095422
9642.00   0.28535518   0.04066217
9644.00   0.32469454   0.04048287
9646.00   0.35427213   0.04056483
9648.00   0.36533441   0.04077952
9650.00   0.36475055   0.04124231
9652.00   0.36173132   0.04227384
9654.00   0.36203426   0.04363713
9656.00   0.32405309   0.04591774
9658.00   0.24240095   0.04894051
9660.00   0.17264141   0.05212579
9662.00   0.07726743   0.05544491
9664.00   0.02044397   0.05920145
9666.00   0.11244327   0.06400540
9668.00   0.33256021   0.07008853
9670.00   0.39975929   0.07192625
9672.00   0.37354553   0.06999640
9674.00   0.36320245   0.06940102
9676.00   0.32076249   0.06922857
9678.00   0.29304674   0.06982325
9680.00   0.34382162   0.07234515
9682.00   0.44261983   0.07606032
9684.00   0.44599679   0.07599570
9686.00   0.36262517   0.07229131
9688.00   0.33067214   0.07022442
9690.00   0.30263136   0.06752151
9692.00   0.29884830   0.06668883
9694.00   0.34490888   0.06887881
9696.00   0.41818781   0.07281684
9698.00   0.45819314   0.07731962
9700.00   0.50850026   0.08533773
9702.00   0.47504999   0.08678666
9704.00   0.35114142   0.08352460
9706.00   0.24225600   0.07967014
9708.00   0.11998444   0.07374720
9710.00   0.02385733   0.06801586
9712.00   0.05885541   0.06959498
9714.00   0.21059389   0.07723727
9716.00   0.30198637   0.08144870
9718.00   0.44051039   0.08712162
9720.00   0.47295293   0.08871794
9722.00   0.34737735   0.08589593
9724.00   0.20952254   0.08126459
9726.00   0.18479936   0.07631504
9728.00   0.22042310   0.06964701
9730.00   0.25737049   0.06704119
9732.00   0.39232835   0.06824568
9734.00   0.37588921   0.06911221
9736.00   0.17647473   0.07126603
9738.00   0.01032935   0.07287988
9740.00   -0.01307501   0.07299354
9742.00   0.03296781   0.07219072
9744.00   0.07815523   0.07020603
9746.00   0.19813927   0.06595490
9748.00   0.22827648   0.06281592
9750.00   0.15521606   0.06025512
9752.00   0.13380917   0.05749099
9754.00   0.21734308   0.05355742
9756.00   0.33485014   0.04931799
9758.00   0.40613942   0.04786362
9760.00   0.49381103   0.04963950
9762.00   0.48521036   0.04895818
9764.00   0.37186748   0.04609119
9766.00   0.27680702   0.04512728
9768.00   0.19345710   0.04650910
9770.00   0.13142929   0.04940051
9772.00   0.12500332   0.05390258
9774.00   0.16177578   0.06127088
9776.00   0.19308580   0.06109215
9778.00   0.26349784   0.05075549
9780.00   0.28851829   0.04811178
9782.00   0.24751452   0.05276065
9784.00   0.20542677   0.06180471
9786.00   0.20958226   0.07476319
9788.00   0.23042738   0.08965983
9790.00   0.22095084   0.09623669
9792.00   0.16793744   0.09924901
9794.00   0.16982991   0.10001656
9796.00   0.21251950   0.09742672
9798.00   0.28299794   0.09393011
9800.00   0.39020964   0.08990355
9802.00   0.49561927   0.08502128
9804.00   0.44085138   0.08171297
9806.00   0.17230234   0.07793281
9808.00   0.10845448   0.07878878
9810.00   0.16719596   0.08699473
9812.00   0.22427888   0.09009278
9814.00   0.29655505   0.08514042
9816.00   0.37485217   0.07633051
9818.00   0.35839307   0.07086522
9820.00   0.24242017   0.06597564
9822.00   0.23452762   0.06339938
9824.00   0.32716466   0.06490285
9826.00   0.34609315   0.06450663
9828.00   0.27243918   0.06156246
9830.00   0.19387652   0.05829100
9832.00   0.16884454   0.05681222
9834.00   0.15747724   0.05626087
9836.00   0.19756267   0.05675644
9838.00   0.33662003   0.05771774
9840.00   0.38863812   0.06079231
9842.00   0.36047541   0.06480207
9844.00   0.32259749   0.07077327
9846.00   0.29326795   0.08081793
9848.00   0.25385461   0.09195881
9850.00   0.22643196   0.09375173
9852.00   0.18259809   0.08822261
9854.00   0.19520390   0.08357455
9856.00   0.28095885   0.07424154
9858.00   0.33791128   0.06690248
9860.00   0.32678662   0.06408611
9862.00   0.29106447   0.06581995
9864.00   0.30109944   0.07543538
9866.00   0.40261352   0.08840939
9868.00   0.31459004   0.10595122
9870.00   -0.08941079   0.13413199
9872.00   -0.20586421   0.14747976
9874.00   0.19052939   0.14636595
9876.00   0.69533783   0.13745682
9878.00   0.74850062   0.12482993
9880.00   0.50754528   0.10008696
9882.00   0.35710560   0.08685197
9884.00   0.10350066   0.08342182
9886.00   -0.02943930   0.08209954
9888.00   -0.04807571   0.08398401
9890.00   -0.00200272   0.08885178
9892.00   0.08239893   0.09730863
9894.00   0.21698797   0.10894005
9896.00   0.31265248   0.11022674
9898.00   0.43884479   0.10237764
9900.00   0.47152981   0.09752911
9902.00   0.40992525   0.09137042
9904.00   0.31987198   0.08849578
9906.00   0.19136659   0.09046851
9908.00   0.04644713   0.09672983
9910.00   0.12325194   0.11307612
9912.00   0.56004101   0.14373147
9914.00   0.59204401   0.15426895
9916.00   0.25338721   0.15714673
9918.00   0.03323694   0.15288546
9920.00   0.08415367   0.13793292
9922.00   0.23214561   0.11585028
9924.00   0.28108989   0.10298634
9926.00   0.31596144   0.09604836
9928.00   0.30229799   0.09004290
9930.00   0.22254027   0.08667287
9932.00   0.15827319   0.08805638
9934.00   0.13469316   0.09140203
9936.00   0.10122855   0.10135693
9938.00   -0.02214094   0.12214702
9940.00   -0.23074229   0.14862541
9942.00   -0.30632018   0.16708960
9944.00   -0.36649880   0.18884345
9946.00   -0.26690064   0.19764924
9948.00   0.08794224   0.19420711
9950.00   0.43712853   0.18782640
9952.00   0.58247139   0.18222258
9954.00   0.58948174   0.17470927
9956.00   0.45930885   0.17395127
9958.00   0.02991059   0.17774215
9960.00   -0.15034859   0.18371592
9962.00   -0.15388678   0.19917227
9964.00   -0.14361960   0.20691228
9966.00   -0.23248553   0.19792361
9968.00   -0.33748180   0.17760760
9970.00   -0.24930535   0.16081371
9972.00   0.05071512   0.13658235
9974.00   0.20143252   0.12121540
9976.00   0.33924797   0.11561479
9978.00   0.38607517   0.11144665
9980.00   0.28788480   0.10783775
9982.00   0.14038179   0.10522034
9984.00   0.08379512   0.10153660
9986.00   0.07231458   0.09761060
9988.00   0.04791313   0.09453768
9990.00   0.01920263   0.09081478
9992.00   0.01302478   0.09004467
9994.00   0.01863569   0.09298230
9996.00   0.06263070   0.09736079
9998.00   0.20898228   0.10098590
10000.00   0.45197307   0.10451595
10002.00   0.41424430   0.11324056
10004.00   0.02684702   0.12264466
10006.00   -0.08261939   0.13793535
10008.00   0.10375937   0.15742877
10010.00   0.22724638   0.17832093
10012.00   0.01890637   0.20393598
10014.00   -0.36198750   0.22917949
10016.00   -0.32452908   0.22857825
10018.00   0.09582430   0.19884530
10020.00   0.32411083   0.18263659
10022.00   0.56571485   0.16747803
10024.00   0.68842694   0.15664420
10026.00   0.59679174   0.15445526
10028.00   0.41578021   0.15614287
10030.00   0.39534805   0.14987911
10032.00   0.48150892   0.13683748
10034.00   0.49721979   0.12981810
10036.00   0.49795127   0.12660963
10038.00   0.47390573   0.12361022
10040.00   0.43629000   0.12131368
10042.00   0.38772087   0.11967437
10044.00   0.31933465   0.11782494
10046.00   0.21877374   0.11622507
10048.00   0.22415123   0.11556364
10050.00   0.38502733   0.11456637
10052.00   0.40879139   0.11637632
10054.00   0.26919908   0.12166923
10056.00   0.11551603   0.12761777
10058.00   0.06271154   0.13242549
10060.00   0.06669467   0.13677299
10062.00   0.04387572   0.14350497
10064.00   0.01726459   0.15618881
10066.00   -0.00675888   0.15953008
10068.00   -0.03949998   0.15166811
10070.00   -0.01912406   0.14583012
10072.00   0.09144075   0.14936052
10074.00   0.26231623   0.15699184
10076.00   0.33683311   0.16418626
10078.00   0.34124425   0.17433780
10080.00   0.36630979   0.18117863
10082.00   0.38583793   0.18880852
10084.00   0.40590174   0.19130789
10086.00   0.41645259   0.18669059
10088.00   0.44035474   0.17722371
10090.00   0.55085692   0.16686618
10092.00   0.81909853   0.15047952
10094.00   0.75876516   0.14412795
10096.00   0.39606084   0.14418291
10098.00   0.10746485   0.14937059
10100.00   -0.17171145   0.16406033
10102.00   -0.37804395   0.17704405
10104.00   -0.35551381   0.17810026
10106.00   -0.13258627   0.17188234
10108.00   -0.01996848   0.16865614
10110.00   0.05718666   0.16325521
10112.00   0.18196179   0.16062884
10114.00   0.37443355   0.15981307
10116.00   0.54818532   0.16301181
10118.00   0.67943949   0.17073868
10120.00   0.78774029   0.18273439
10122.00   0.74761459   0.19895932
10124.00   0.50048831   0.22955602
10126.00   0.38293169   0.23594029
10128.00   0.25927460   0.22529793
10130.00   0.26045725   0.21036864
10132.00   0.50659299   0.19157868
10134.00   0.83067673   0.16908962
10136.00   0.83640629   0.15935315
10138.00   0.55970794   0.15990892
10140.00   0.47286755   0.16353591
10142.00   0.40059985   0.17500169
10144.00   0.43874440   0.18557005
10146.00   0.66469960   0.19628138
10148.00   0.89842610   0.20495469
10150.00   0.91136652   0.20683298
10152.00   0.78350413   0.20284670
10154.00   0.70757392   0.20200236
10156.00   0.63870409   0.19947098
10158.00   0.52520105   0.20109110
10160.00   0.28064238   0.20467413
10162.00   0.07295713   0.21399376
10164.00   0.09935386   0.23329785
10166.00   0.28355759   0.25962907
10168.00   0.63163529   0.27385967
10170.00   1.48647401   0.28667425
10172.00   1.73562920   0.28864733
10174.00   1.39089066   0.27854372
10176.00   1.00081959   0.26541042
10178.00   0.76402453   0.25207827
10180.00   0.59052859   0.23706491
10182.00   0.63841329   0.23081392
10184.00   1.07945383   0.23232238
10186.00   1.10063499   0.23476295
10188.00   0.78620685   0.24431846
10190.00   0.59386887   0.24869520
10192.00   0.66828492   0.24382235
10194.00   0.86552131   0.23456428
10196.00   0.93177074   0.22838292
10198.00   0.97513077   0.21832732
10200.00   0.87367633   0.22214256
10202.00   0.65354262   0.23724089
10204.00   0.35532818   0.25330855
10206.00   -0.08548009   0.27320577
10208.00   -0.53499979   0.29072009
10210.00   -0.86606461   0.29901982
10212.00   -1.20072135   0.30330663
10214.00   -1.17609483   0.29770607
10216.00   -0.78808507   0.27569738
10218.00   -0.40872359   0.26050369
10220.00   0.12520680   0.24642665
10222.00   0.56909299   0.24129125
10224.00   0.66653302   0.25613328
10226.00   0.56357823   0.28443341
10228.00   0.65992069   0.29865786
10230.00   0.85443982   0.31661221
10232.00   1.00582606   0.31406822
10234.00   1.30095252   0.28696337
10236.00   1.36671035   0.25807127
10238.00   0.98820378   0.23773506
10240.00   0.42241788   0.22177422
10242.00   0.20450349   0.21456302
10244.00   0.19876604   0.22316088
10246.00   0.12294559   0.21937855
10248.00   0.00328001   0.20678684
10250.00   0.00707570   0.19784672
10252.00   0.18511067   0.19630078
10254.00   0.48542725   0.19828393
10256.00   0.87940282   0.19931959
10258.00   1.56614333   0.20177663
10260.00   1.57011026   0.20155936
10262.00   0.86060095   0.19619176
10264.00   0.45086381   0.19712969
10266.00   0.34402099   0.20289182
10268.00   0.33732709   0.21368418
10270.00   0.34416552   0.23018056
10272.00   0.41643185   0.24994427
10274.00   0.41238890   0.27291891
10276.00   0.25194104   0.29775085
10278.00   0.33247939   0.32548204
10280.00   0.86815077   0.35692183
10282.00   1.19861442   0.38757467
10284.00   0.79359490   0.41806047
10286.00   -0.05692232   0.44722915
10288.00   -0.49043095   0.45595809
10290.00   -1.03309007   0.44950083
10292.00   -0.94076267   0.43797812
10294.00   -0.04608141   0.41113456
10296.00   0.68237090   0.38487646
10298.00   0.94947934   0.36639544
10300.00   1.00019756   0.35093732
10302.00   0.98607075   0.33307460
10304.00   0.81153527   0.31164878
10306.00   0.64084232   0.29878530
10308.00   0.46134676   0.29429878
10310.00   0.15983969   0.29110218
10312.00   -0.44480355   0.29177442
10314.00   -0.97819790   0.29186989
10316.00   -0.85772172   0.28052901
10318.00   -0.19277320   0.25518902
10320.00   0.19950703   0.25265629
10322.00   0.75739083   0.27140988
10324.00   0.93384193   0.28154677
10326.00   0.59165078   0.28781079
10328.00   0.18596292   0.28878989
10330.00   0.10137774   0.27866809
10332.00   0.19270048   0.25777033
10334.00   0.50228201   0.25863207
10336.00   1.43608132   0.27704413
10338.00   1.62524071   0.29054229
10340.00   0.99616072   0.30512950
10342.00   0.43863562   0.31882724
10344.00   0.42763861   0.33106514
10346.00   0.69573145   0.34111006
10348.00   0.97785771   0.34123972
10350.00   1.76966542   0.33040993
10352.00   1.68575925   0.32192790
10354.00   0.70923328   0.30809581
10356.00   -0.04824460   0.29980400
10358.00   -0.29772608   0.29893117
10360.00   -0.33681388   0.30521875
10362.00   -0.36654747   0.31784890
10364.00   -0.20125797   0.32375671
10366.00   -0.15306455   0.36774841
10368.00   -0.20337511   0.44904682
10370.00   -0.15343143   0.49978338
10372.00   0.08452159   0.53430132
10374.00   0.33152479   0.54878430
10376.00   0.53045332   0.51596082
10378.00   0.79317805   0.42022384
10380.00   0.81466773   0.36649486
10382.00   0.52216125   0.33042572
10384.00   0.43759179   0.30706872
10386.00   0.59218369   0.30149382
10388.00   0.70204422   0.31153703
10390.00   0.56963108   0.33521467
10392.00   0.26987804   0.37009319
10394.00   -0.03594181   0.38875407
10396.00   -0.62174663   0.41006154
10398.00   -0.76207501   0.40849419
10400.00   -0.43379743   0.37565442
10402.00   -0.14483242   0.34676044
10404.00   -0.16198555   0.33878017
10406.00   -0.25624966   0.34209479
10408.00   -0.00935701   0.35238352
10410.00   0.28960741   0.37539552
10412.00   1.11866143   0.39239874
10414.00   2.89820457   0.41073335
10416.00   4.03910232   0.42570370
10418.00   4.26986110   0.44115368
10420.00   3.97393203   0.45000764
10422.00   3.38057899   0.43751777
10424.00   2.11557853   0.40242034
10426.00   1.73033690   0.37626476
10428.00   2.16449714   0.34307214
10430.00   2.13276082   0.31960728
10432.00   1.49952388   0.31176400
10434.00   0.75927758   0.30870016
10436.00   0.32677785   0.30113492
10438.00   -0.01398153   0.29350180
10440.00   0.05662644   0.29116649
10442.00   0.83770236   0.28654112
10444.00   1.05997608   0.29839831
10446.00   0.79670224   0.33326541
10448.00   0.38334185   0.35886660
10450.00   -0.16205552   0.36272009
10452.00   -0.83726522   0.35619723
10454.00   -0.68475270   0.34957359
10456.00   0.50175746   0.33164744
10458.00   0.90409651   0.32509487
10460.00   0.84209082   0.32683511
10462.00   0.84798445   0.33192460
10464.00   1.06620123   0.34196968
10466.00   1.31456444   0.35481118
10468.00   1.26705662   0.35868431
10470.00   0.89045305   0.36006579
10472.00   0.76854226   0.35022565
10474.00   0.75278291   0.32304557
10476.00   0.76289049   0.29970173
10478.00   0.86946082   0.28352920
10480.00   0.95941684   0.27132144
10482.00   0.76825368   0.26241348
10484.00   0.26707225   0.25807125
10486.00   0.22818226   0.25521638
10488.00   0.55149680   0.25317722
10490.00   0.80089489   0.25789055
10492.00   1.10470790   0.27235582
10494.00   1.25475580   0.28429147
10496.00   1.00379041   0.28692174
10498.00   0.43714432   0.28475200
10500.00   0.17253124   0.28349952
10502.00   0.01573810   0.27801349
10504.00   -0.06964387   0.27844648
10506.00   -0.07403385   0.28595462
10508.00   -0.05196524   0.29062619
10510.00   0.03080253   0.28651232
10512.00   0.16710392   0.27984879
10514.00   0.16104861   0.28804344
10516.00   -0.01370032   0.31234343
10518.00   -0.03731311   0.32105951
10520.00   -0.02276710   0.32240705
10522.00   0.09332361   0.32224167
10524.00   0.39808464   0.32090620
10526.00   0.77112359   0.31875356
10528.00   0.95791054   0.31549589
10530.00   1.12208849   0.30966848
10532.00   1.00184828   0.30537501
10534.00   0.35942945   0.30021038
10536.00   0.13083164   0.29777414
10538.00   0.59980924   0.29951235
10540.00   1.07564321   0.30246724
10542.00   0.78861287   0.30326859
10544.00   -0.06931990   0.30307380
10546.00   -0.20607310   0.30457422
10548.00   0.11913633   0.30745303
10550.00   0.40161115   0.30991859
10552.00   0.84247494   0.31244426
10554.00   1.12226065   0.31451221
10556.00   0.91743991   0.31507124
10558.00   0.34848717   0.31440029
10560.00   0.23069637   0.31652489
10562.00   0.39096474   0.32114100
10564.00   0.50799807   0.32468611
10566.00   0.68828072   0.32812158
10568.00   0.78945056   0.33100360
10570.00   0.74812913   0.33335692
10572.00   0.58845381   0.33508772
10574.00   0.40748436   0.33544602
10576.00   0.06263821   0.33042390
10578.00   0.04568881   0.33500599
10580.00   0.33391787   0.35213335
10582.00   0.55734740   0.36021501
10584.00   0.71529654   0.35340441
10586.00   0.81184769   0.34026714
10588.00   0.74897668   0.33250152
10590.00   0.51888154   0.32492122
10592.00   0.36185531   0.32030715
10594.00   0.15010364   0.31985583
10596.00   0.04568850   0.31787713
10598.00   0.03057274   0.31320079
10600.00   0.08979242   0.30925693
10602.00   0.28538601   0.30952705
10604.00   0.63909924   0.31291643
10606.00   0.69160163   0.31249877
10608.00   0.50359237   0.30943494
10610.00   0.36857758   0.30745163
10612.00   0.13479379   0.30520185
10614.00   0.00222224   0.30389399
10616.00   0.20428612   0.30494717
10618.00   0.63591786   0.30770244
10620.00   0.75998349   0.30860542
10622.00   0.71211725   0.30845157
10624.00   0.65171963   0.30859735
10626.00   0.52846527   0.30752104
10628.00   0.37463423   0.30871199
10630.00   0.15920029   0.31401174
10632.00   -0.02768157   0.32112950
10634.00   0.03452581   0.32579385
10636.00   0.39590505   0.32990897
10638.00   0.46819860   0.33310515
10640.00   0.32477234   0.33465361
10642.00   0.27373850   0.33703292
10644.00   0.38317127   0.34108454
10646.00   0.50713393   0.34480102
10648.00   0.52499316   0.34673540
10650.00   0.50365627   0.34815903
10652.00   0.46644276   0.34865045
10654.00   0.42106270   0.34900443
10656.00   0.31442217   0.34680670
10658.00   0.04059328   0.34163392
10660.00   -0.15515363   0.33570073
10662.00   -0.01358138   0.33099943
10664.00   0.33781910   0.32673600
10666.00   0.53104621   0.32067291
10668.00   0.71486327   0.31359872
10670.00   0.84317708   0.30509323
10672.00   0.89617651   0.29406444
10674.00   0.84826110   0.28283601
10676.00   0.64502352   0.27201443
10678.00   0.35666328   0.26139748
10680.00   0.45754205   0.25475152
10682.00   1.05316204   0.25437128
10684.00   1.21043637   0.24895676
10686.00   1.10491760   0.23942623
10688.00   0.98204942   0.23164378
10690.00   0.89103994   0.22770281
10692.00   0.75050500   0.22485227
10694.00   0.53430083   0.21975209
10696.00   0.18943680   0.21275794
10698.00   0.11020486   0.20884814
10700.00   0.27562769   0.20672642
10702.00   0.37136656   0.20602402
10704.00   0.42257046   0.20787357
10706.00   0.44621732   0.20988477
10708.00   0.37758289   0.20899076
10710.00   0.20055142   0.20602418
10712.00   0.23061169   0.20451289
10714.00   0.46965542   0.20345414
10716.00   0.58731192   0.20248816
10718.00   0.63554524   0.20099357
10720.00   0.64542502   0.20049722
10722.00   0.54566256   0.20248079
10724.00   0.35230084   0.20603169
10726.00   0.43598998   0.20682741
10728.00   0.89659011   0.20942182
10730.00   0.97961846   0.20386665
10732.00   0.72093117   0.18551776
10734.00   0.57364304   0.17038169
10736.00   0.67328780   0.16755852
10738.00   0.89241129   0.17140923
10740.00   1.07937117   0.17318390
10742.00   1.41120267   0.17857551
10744.00   1.37934804   0.17794687
10746.00   0.91998714   0.17286872
10748.00   0.66285669   0.16676610
10750.00   0.76866488   0.15973013
10752.00   0.94614448   0.15234831
10754.00   0.79027241   0.14580171
10756.00   0.33577968   0.13867547
10758.00   0.27606976   0.13526423
10760.00   0.50839807   0.13538012
10762.00   0.68113264   0.13650203
10764.00   0.85092254   0.13997639
10766.00   0.98356153   0.14308149
10768.00   0.98203103   0.14258282
10770.00   0.85995677   0.13880523
10772.00   0.81132796   0.13603613
10774.00   0.80642769   0.13298292
10776.00   0.74308340   0.12981441
10778.00   0.58876790   0.12482081
10780.00   0.46689592   0.12071688
10782.00   0.41755807   0.11888944
10784.00   0.40818836   0.11836638
10786.00   0.48579833   0.11909469
10788.00   0.69668016   0.12320342
10790.00   0.83118027   0.12348018
10792.00   0.98440102   0.12047199
10794.00   1.05735585   0.11820475
10796.00   1.01419330   0.11899647
10798.00   0.87578058   0.12084519
10800.00   0.69532084   0.11771302
10802.00   0.37227737   0.10997205
10804.00   0.32014327   0.10268959
10806.00   0.55103502   0.09160831
10808.00   0.65219201   0.08328601
10810.00   0.55542822   0.08050959
10812.00   0.41874708   0.08027130
10814.00   0.41010754   0.07867319
10816.00   0.47771381   0.07733662
10818.00   0.52828957   0.07774297
10820.00   0.65540546   0.08047645
10822.00   0.65589571   0.08202466
10824.00   0.53232270   0.08229764
10826.00   0.36434275   0.08291345
10828.00   0.14835525   0.08490112
10830.00   -0.11460913   0.08782190
10832.00   -0.06701226   0.09256107
10834.00   0.34655158   0.10175822
10836.00   0.52911679   0.10464973
10838.00   0.62439608   0.10335988
10840.00   0.67458300   0.10021398
10842.00   0.68543339   0.09461460
10844.00   0.65696770   0.08680278
10846.00   0.51710857   0.08388273
10848.00   0.14594962   0.08590175
10850.00   0.03354495   0.08643935
10852.00   0.10287559   0.08844189
10854.00   0.17514126   0.08813298
10856.00   0.18759078   0.08289444
10858.00   0.22107811   0.07890691
10860.00   0.41853734   0.08806168
10862.00   0.85514565   0.10920618
10864.00   0.94806224   0.10817047
10866.00   0.78772539   0.08585428
10868.00   0.63002071   0.06907033
10870.00   0.45532483   0.06197809
10872.00   0.32067639   0.05918359
10874.00   0.30387774   0.05749357
10876.00   0.30387774   0.05749357
