# File created by shivutils (I.Shivvers)
# wl(A)   flm    er(optional)
3438.00   0.69928983   0.05808148
3440.00   0.65038493   0.05643409
3442.00   0.67442364   0.05779386
3444.00   0.69878851   0.05795319
3446.00   0.93903465   0.05919006
3448.00   0.75329131   0.05842644
3450.00   0.69729886   0.06209868
3452.00   0.75260877   0.06254219
3454.00   0.67956486   0.06177958
3456.00   0.62950229   0.06208858
3458.00   0.74215193   0.06259523
3460.00   0.69178925   0.06195846
3462.00   0.59713332   0.06061169
3464.00   0.94292955   0.06333025
3466.00   0.77172860   0.06154787
3468.00   0.78567540   0.06228558
3470.00   0.66326968   0.06185265
3472.00   0.73483514   0.06210229
3474.00   0.70235036   0.06187278
3476.00   0.74599029   0.06176726
3478.00   0.83918370   0.06392693
3480.00   0.75215907   0.06675354
3482.00   0.81273927   0.06585467
3484.00   0.81493962   0.06610824
3486.00   0.75465081   0.06578239
3488.00   0.70748967   0.06474431
3490.00   0.75693822   0.06378525
3492.00   0.84420613   0.06346081
3494.00   0.79500092   0.06311841
3496.00   0.76104351   0.06283951
3498.00   0.83573042   0.06261349
3500.00   0.72580304   0.06239875
3502.00   0.84751498   0.06309945
3504.00   0.93227833   0.06442559
3506.00   0.88594404   0.06306446
3508.00   0.71235857   0.06284523
3510.00   0.82266785   0.06447577
3512.00   0.73874859   0.06301719
3514.00   0.65754688   0.06207460
3516.00   0.77010259   0.06271800
3518.00   0.69876192   0.06091480
3520.00   0.68913366   0.06077175
3522.00   0.82877597   0.06176423
3524.00   0.71409034   0.05946417
3526.00   0.78593293   0.06020214
3528.00   0.76448478   0.06008166
3530.00   0.74862200   0.05988452
3532.00   0.61273448   0.05884869
3534.00   0.64685082   0.05847160
3536.00   0.72907054   0.05965637
3538.00   0.72384416   0.06070597
3540.00   0.69871901   0.06216288
3542.00   0.73938855   0.06350301
3544.00   0.82940896   0.06440156
3546.00   0.81032213   0.06463871
3548.00   0.74856532   0.06327745
3550.00   0.73179390   0.06092980
3552.00   0.79691174   0.06180936
3554.00   0.87904386   0.06257816
3556.00   0.87211261   0.06244493
3558.00   0.78837833   0.06125229
3560.00   0.89996258   0.06131306
3562.00   0.79320481   0.05920953
3564.00   0.81063685   0.05854982
3566.00   0.80166546   0.05820638
3568.00   0.88294860   0.05861526
3570.00   1.00157594   0.05882176
3572.00   0.90828450   0.05804006
3574.00   0.88613428   0.05762275
3576.00   0.94120252   0.05780137
3578.00   0.85125734   0.05590893
3580.00   0.86786858   0.05515488
3582.00   0.90736008   0.05468213
3584.00   0.87845981   0.05474764
3586.00   0.90533682   0.05335179
3588.00   0.91252003   0.05490198
3590.00   0.93831039   0.05481523
3592.00   0.85552254   0.05375037
3594.00   0.76042445   0.05252412
3596.00   0.94779424   0.05323022
3598.00   0.71801825   0.05081211
3600.00   0.79745742   0.05112747
3602.00   0.89247918   0.05150377
3604.00   0.81328788   0.05071970
3606.00   0.88498766   0.05068928
3608.00   0.91430299   0.05062040
3610.00   0.83910153   0.05019100
3612.00   0.87675496   0.05159214
3614.00   0.90267935   0.05277058
3616.00   0.85760057   0.05244516
3618.00   0.89996580   0.05161255
3620.00   0.82373965   0.05017310
3622.00   0.81184775   0.04967203
3624.00   0.75368125   0.04939844
3626.00   0.90103051   0.04934851
3628.00   0.83171742   0.04904174
3630.00   0.87664371   0.05041673
3632.00   0.82865107   0.05093248
3634.00   0.87637462   0.04951878
3636.00   0.95290007   0.04973579
3638.00   0.80595830   0.04910725
3640.00   0.78755622   0.04932937
3642.00   0.80753976   0.04925884
3644.00   0.94960619   0.05128849
3646.00   1.01500899   0.05179507
3648.00   0.94227972   0.05978967
3650.00   0.73371590   0.06652269
3652.00   0.86570664   0.06342211
3654.00   0.87857377   0.05860724
3656.00   0.83738672   0.05473516
3658.00   0.79861450   0.04959364
3660.00   0.82971053   0.04875018
3662.00   0.79566653   0.05207998
3664.00   0.69299716   0.05178414
3666.00   0.78045525   0.04616878
3668.00   0.79533165   0.04386453
3670.00   0.75792451   0.04395065
3672.00   0.74495839   0.04306064
3674.00   0.75679385   0.04264841
3676.00   0.87741711   0.04208508
3678.00   0.80415336   0.04104191
3680.00   0.76531655   0.04135261
3682.00   0.81245041   0.04061820
3684.00   0.84445973   0.04068236
3686.00   0.91982846   0.04132373
3688.00   0.80440078   0.04005658
3690.00   0.80658616   0.03999952
3692.00   0.76242899   0.04027458
3694.00   0.72630480   0.03955064
3696.00   0.82906946   0.03974703
3698.00   0.83897648   0.04091433
3700.00   0.78698484   0.04040409
3702.00   0.77333505   0.04024405
3704.00   0.83146039   0.04026137
3706.00   0.83316900   0.04026145
3708.00   0.79595101   0.03932530
3710.00   0.76702071   0.03877790
3712.00   0.78570047   0.03880243
3714.00   0.80629499   0.03883187
3716.00   0.80224773   0.03869226
3718.00   0.81124959   0.03828743
3720.00   0.86568911   0.03864951
3722.00   0.85517526   0.03842362
3724.00   0.78705881   0.03780512
3726.00   0.87505861   0.03819321
3728.00   0.85292870   0.03834669
3730.00   0.85992260   0.03857122
3732.00   0.90288798   0.03896571
3734.00   0.86339273   0.03842863
3736.00   0.87024517   0.03831224
3738.00   0.87710659   0.03885647
3740.00   0.84636977   0.03913146
3742.00   0.92009497   0.03899545
3744.00   0.93853378   0.03825598
3746.00   0.94658159   0.03810790
3748.00   0.91259033   0.03743892
3750.00   1.03165873   0.03801833
3752.00   1.04237292   0.03806741
3754.00   0.83548545   0.03662931
3756.00   0.88478199   0.03649598
3758.00   0.97768113   0.03713288
3760.00   0.91804463   0.03619104
3762.00   0.91212483   0.03569883
3764.00   0.98409118   0.03606076
3766.00   0.86573166   0.03510588
3768.00   0.95362734   0.03528472
3770.00   0.94800204   0.03647116
3772.00   0.96861370   0.03603459
3774.00   0.88842532   0.03537813
3776.00   0.89625797   0.03531225
3778.00   0.85456082   0.03455752
3780.00   0.76728152   0.03400328
3782.00   0.81979120   0.03402563
3784.00   0.89501618   0.03456663
3786.00   0.92916395   0.03476912
3788.00   0.84938519   0.03368183
3790.00   0.85371023   0.03441178
3792.00   0.79226408   0.03382456
3794.00   0.85021887   0.03374647
3796.00   0.86056986   0.03330509
3798.00   0.79140511   0.03258635
3800.00   0.75800316   0.03237062
3802.00   0.80866830   0.03318214
3804.00   0.79124184   0.03337055
3806.00   0.71200661   0.03232122
3808.00   0.80105430   0.03263687
3810.00   0.82068231   0.03304513
3812.00   0.81733878   0.03210394
3814.00   0.75869194   0.03259781
3816.00   0.76490358   0.03219951
3818.00   0.75375559   0.03212373
3820.00   0.75461357   0.03186192
3822.00   0.66295460   0.03135317
3824.00   0.71626200   0.03107481
3826.00   0.75178710   0.03169788
3828.00   0.71290393   0.03241088
3830.00   0.72028682   0.03240855
3832.00   0.64973781   0.03178463
3834.00   0.65286889   0.03181302
3836.00   0.65650543   0.03130197
3838.00   0.68860196   0.03168025
3840.00   0.71356372   0.03147879
3842.00   0.61743310   0.03063746
3844.00   0.72674899   0.03131557
3846.00   0.69570341   0.03065877
3848.00   0.77331895   0.03096321
3850.00   0.71016747   0.03049897
3852.00   0.68647980   0.03098838
3854.00   0.66017647   0.03285311
3856.00   0.54975314   0.03247997
3858.00   0.66322152   0.03165336
3860.00   0.73499436   0.03015218
3862.00   0.71271003   0.02981158
3864.00   0.67740414   0.02933779
3866.00   0.72302825   0.02942996
3868.00   0.68278989   0.02917998
3870.00   0.66250434   0.02904549
3872.00   0.67466277   0.02917827
3874.00   0.72174612   0.03018017
3876.00   0.72373950   0.02965758
3878.00   0.69685667   0.02891861
3880.00   0.71270347   0.02859295
3882.00   0.65434287   0.02831994
3884.00   0.69691085   0.02889482
3886.00   0.70149467   0.02873655
3888.00   0.69617512   0.02868360
3890.00   0.63165973   0.02817713
3892.00   0.65821421   0.02802163
3894.00   0.70473712   0.02848167
3896.00   0.63311581   0.02837864
3898.00   0.59984204   0.02766575
3900.00   0.63795474   0.02785197
3902.00   0.64765438   0.02831120
3904.00   0.71430356   0.02992902
3906.00   0.69969328   0.03167296
3908.00   0.76813756   0.03341517
3910.00   0.71018787   0.03387643
3912.00   0.76528596   0.03364504
3914.00   0.71768874   0.03241515
3916.00   0.63486603   0.03061361
3918.00   0.77929203   0.03006185
3920.00   0.67602764   0.02887489
3922.00   0.73374608   0.02860466
3924.00   0.72131610   0.02835317
3926.00   0.77522676   0.02803883
3928.00   0.81914253   0.02798661
3930.00   0.81634122   0.02804462
3932.00   0.79567619   0.02896196
3934.00   0.78783796   0.02932699
3936.00   0.79934993   0.02843863
3938.00   0.85391832   0.02883262
3940.00   0.86237188   0.02910869
3942.00   0.77707946   0.02941130
3944.00   0.84743838   0.03015280
3946.00   0.85679864   0.02983038
3948.00   0.80734204   0.02899076
3950.00   0.85668155   0.02905308
3952.00   0.83944505   0.02852589
3954.00   0.88144976   0.02822747
3956.00   0.85327938   0.02813449
3958.00   0.82729562   0.02809877
3960.00   0.87457892   0.02910551
3962.00   0.87975914   0.02914274
3964.00   0.84429040   0.02768411
3966.00   0.85909187   0.02703101
3968.00   0.90365010   0.02706617
3970.00   0.88680900   0.02696261
3972.00   0.90182379   0.02735858
3974.00   0.86770709   0.02755192
3976.00   0.89307012   0.02776842
3978.00   0.90302687   0.02775376
3980.00   0.91584456   0.02800123
3982.00   0.93026712   0.02819220
3984.00   0.89969375   0.02801566
3986.00   0.92862939   0.02778168
3988.00   0.90526287   0.02778643
3990.00   0.90961812   0.02815575
3992.00   0.87158741   0.02770802
3994.00   0.91849821   0.02833329
3996.00   0.91332189   0.02894260
3998.00   0.90122241   0.02900486
4000.00   0.95695691   0.02836690
4002.00   0.90954331   0.02794599
4004.00   0.91322150   0.02740178
4006.00   0.95898947   0.02761361
4008.00   0.87384682   0.02788095
4010.00   0.90720903   0.02784338
4012.00   0.86581741   0.02783400
4014.00   0.96925235   0.02801206
4016.00   0.83728484   0.02735601
4018.00   0.87020319   0.02867247
4020.00   0.88747219   0.03059149
4022.00   0.88285915   0.03154065
4024.00   0.97316067   0.03145737
4026.00   0.94414289   0.02988428
4028.00   1.00722900   0.02891377
4030.00   0.98274271   0.02852139
4032.00   0.96838036   0.02834498
4034.00   1.00333649   0.02826200
4036.00   1.02213987   0.02833038
4038.00   0.93775010   0.02785259
4040.00   0.98203903   0.02806269
4042.00   0.99286829   0.02892809
4044.00   0.98389493   0.03745718
4046.00   0.96294180   0.04727039
4048.00   0.99886612   0.04545672
4050.00   1.03174096   0.03432677
4052.00   0.97273471   0.02941929
4054.00   0.99661759   0.02953233
4056.00   0.97940780   0.02884512
4058.00   0.96604774   0.02774717
4060.00   0.96869877   0.02743263
4062.00   0.95330203   0.02703247
4064.00   1.03554972   0.02752287
4066.00   0.92568195   0.02669853
4068.00   0.89914091   0.02635594
4070.00   0.85730094   0.02602127
4072.00   0.90360451   0.02600688
4074.00   0.94142698   0.02665874
4076.00   0.88605061   0.02864629
4078.00   0.92613419   0.02981345
4080.00   0.89778934   0.02899121
4082.00   0.90449461   0.02786818
4084.00   0.90122253   0.02771016
4086.00   0.91972691   0.02738063
4088.00   0.93914312   0.02693981
4090.00   0.88430700   0.02563596
4092.00   0.90853156   0.02521174
4094.00   0.93867860   0.02540440
4096.00   0.97235573   0.02520074
4098.00   0.90510935   0.02484177
4100.00   0.88078285   0.02436417
4102.00   0.87444972   0.02407289
4104.00   0.92054398   0.02389377
4106.00   0.88130843   0.02387543
4108.00   0.92428714   0.02423495
4110.00   0.91833079   0.02421544
4112.00   0.94724338   0.02453714
4114.00   0.93842000   0.02438213
4116.00   0.90151002   0.02442377
4118.00   0.96832883   0.02445568
4120.00   0.96510514   0.02419857
4122.00   0.85915896   0.02386351
4124.00   0.90502580   0.02410461
4126.00   0.95232952   0.02444879
4128.00   0.91958259   0.02434979
4130.00   1.03666404   0.02497546
4132.00   0.95466858   0.02531452
4134.00   0.89319246   0.02506513
4136.00   0.96265723   0.02500545
4138.00   0.99241757   0.02510832
4140.00   0.94405812   0.02531638
4142.00   0.99271416   0.02516433
4144.00   0.95081995   0.02407209
4146.00   0.97362283   0.02414199
4148.00   0.98482167   0.02412420
4150.00   1.02219843   0.02476850
4152.00   0.95574172   0.02501654
4154.00   1.01881913   0.02520513
4156.00   0.94161429   0.02446355
4158.00   0.99503246   0.02425375
4160.00   0.95611491   0.02403241
4162.00   0.97504713   0.02476402
4164.00   1.05393114   0.02582478
4166.00   1.00742746   0.02601759
4168.00   0.99713492   0.02494257
4170.00   1.01312400   0.02433335
4172.00   0.99058419   0.02392399
4174.00   0.94748782   0.02371538
4176.00   0.92653326   0.02339259
4178.00   1.04281379   0.02403772
4180.00   1.00458543   0.02366670
4182.00   1.00510756   0.02333477
4184.00   0.99520134   0.02314194
4186.00   1.03705459   0.02351508
4188.00   1.03869154   0.02341732
4190.00   0.95924867   0.02305325
4192.00   1.04446214   0.02343119
4194.00   1.03630189   0.02328107
4196.00   1.03536760   0.02291877
4198.00   1.00659918   0.02264398
4200.00   0.95590723   0.02259152
4202.00   1.06476606   0.02302088
4204.00   1.02122855   0.02269331
4206.00   1.04097456   0.02294574
4208.00   0.99282923   0.02298572
4210.00   1.01187580   0.02319545
4212.00   1.04124706   0.02323866
4214.00   1.03023461   0.02301390
4216.00   0.96505013   0.02276162
4218.00   0.98343169   0.02252801
4220.00   0.99786609   0.02273633
4222.00   1.02363561   0.02259575
4224.00   0.97757117   0.02240542
4226.00   0.99477496   0.02241970
4228.00   1.01471506   0.02234786
4230.00   1.02898695   0.02280354
4232.00   1.01256961   0.02290604
4234.00   0.96941068   0.02286161
4236.00   0.97632061   0.02324382
4238.00   0.99445324   0.02305876
4240.00   0.96550493   0.02262209
4242.00   1.00942243   0.02247100
4244.00   0.99963972   0.02324861
4246.00   0.95843061   0.02459796
4248.00   0.98480846   0.02491054
4250.00   0.98798301   0.02317205
4252.00   1.01213971   0.02272361
4254.00   1.06123806   0.02264717
4256.00   1.02113674   0.02262483
4258.00   0.98094165   0.02255639
4260.00   0.99041301   0.02230831
4262.00   0.98944470   0.02208818
4264.00   0.98951149   0.02205511
4266.00   1.01492700   0.02204735
4268.00   0.97812869   0.02203798
4270.00   1.02788834   0.02222976
4272.00   1.02722659   0.02230283
4274.00   1.00184844   0.02205749
4276.00   1.00187918   0.02226642
4278.00   1.00358793   0.02216900
4280.00   0.97879435   0.02237912
4282.00   1.00447204   0.02245035
4284.00   1.03557012   0.02224241
4286.00   1.01101707   0.02209593
4288.00   0.97296946   0.02180528
4290.00   0.94446497   0.02169082
4292.00   1.02098655   0.02197678
4294.00   0.98521910   0.02183490
4296.00   0.97313416   0.02184753
4298.00   0.96456692   0.02177448
4300.00   0.95514744   0.02161884
4302.00   1.01726623   0.02164485
4304.00   0.89964730   0.02136818
4306.00   0.92657267   0.02182409
4308.00   0.94992643   0.02181368
4310.00   0.98735921   0.02207400
4312.00   0.94993871   0.02282682
4314.00   0.94134564   0.02355743
4316.00   0.86844983   0.02274488
4318.00   0.91375338   0.02271909
4320.00   0.94034770   0.02297084
4322.00   0.97382362   0.02318733
4324.00   0.90446545   0.02275182
4326.00   0.89357286   0.02237127
4328.00   0.90469576   0.02190427
4330.00   0.92695880   0.02162536
4332.00   0.97292914   0.02173467
4334.00   0.99714678   0.02185571
4336.00   0.94619814   0.02194769
4338.00   0.95174136   0.02227237
4340.00   0.91490270   0.02224999
4342.00   0.94019772   0.02227144
4344.00   0.95017832   0.02262864
4346.00   0.98286994   0.02335796
4348.00   0.94989855   0.02369524
4350.00   0.91206660   0.02313741
4352.00   0.94203820   0.02283891
4354.00   0.92654969   0.02448937
4356.00   0.99504484   0.03769746
4358.00   0.96669781   0.04669910
4360.00   1.02847338   0.04350528
4362.00   0.92327900   0.03220493
4364.00   0.93516100   0.02520623
4366.00   0.87686370   0.02330337
4368.00   0.86476923   0.02282645
4370.00   0.85345661   0.02246190
4372.00   0.85534757   0.02261029
4374.00   0.85726823   0.02313999
4376.00   0.83097554   0.02286953
4378.00   0.81450056   0.02212681
4380.00   0.77180201   0.02156898
4382.00   0.73302612   0.02103900
4384.00   0.69116912   0.02076722
4386.00   0.74240358   0.02081999
4388.00   0.77846055   0.02082375
4390.00   0.71053357   0.02072847
4392.00   0.70216606   0.02073106
4394.00   0.73194844   0.02065426
4396.00   0.71937943   0.02038897
4398.00   0.71643080   0.02073032
4400.00   0.71425222   0.02103086
4402.00   0.67520118   0.02088701
4404.00   0.69270058   0.02057079
4406.00   0.76800252   0.02076069
4408.00   0.66785657   0.02041918
4410.00   0.67612744   0.02047153
4412.00   0.63912840   0.02040834
4414.00   0.65758543   0.02074702
4416.00   0.69262380   0.02105927
4418.00   0.63829865   0.02056149
4420.00   0.70166940   0.02046469
4422.00   0.69410755   0.02035673
4424.00   0.64735931   0.02027135
4426.00   0.69217529   0.02046394
4428.00   0.63980411   0.02008165
4430.00   0.71824993   0.02028685
4432.00   0.67515022   0.02001554
4434.00   0.73198846   0.02006933
4436.00   0.67252552   0.01987883
4438.00   0.66105964   0.01992884
4440.00   0.72791859   0.02010146
4442.00   0.70571184   0.01994733
4444.00   0.66722988   0.01974960
4446.00   0.70021213   0.01997158
4448.00   0.71566933   0.01989552
4450.00   0.70712295   0.01983755
4452.00   0.68443606   0.01966294
4454.00   0.68836757   0.01957352
4456.00   0.62386459   0.01950531
4458.00   0.72100937   0.01984793
4460.00   0.66478244   0.01978006
4462.00   0.64822252   0.01957813
4464.00   0.68530937   0.01949075
4466.00   0.66396999   0.01939287
4468.00   0.69581701   0.01938255
4470.00   0.68787282   0.01942842
4472.00   0.72079105   0.01948258
4474.00   0.69417350   0.01943592
4476.00   0.67828061   0.01936732
4478.00   0.68012923   0.01940978
4480.00   0.67604348   0.01936619
4482.00   0.69602961   0.01936058
4484.00   0.68269323   0.01942930
4486.00   0.67037038   0.01952880
4488.00   0.68979035   0.01945971
4490.00   0.76456275   0.01976605
4492.00   0.69542576   0.01961835
4494.00   0.66612125   0.01968561
4496.00   0.72728701   0.01975284
4498.00   0.71884678   0.01988465
4500.00   0.70874735   0.01976182
4502.00   0.64531402   0.01935684
4504.00   0.72196566   0.01959675
4506.00   0.72437779   0.01962924
4508.00   0.71066900   0.01954101
4510.00   0.74124761   0.01961899
4512.00   0.76872695   0.01960927
4514.00   0.72397043   0.01964804
4516.00   0.74109262   0.01952634
4518.00   0.79314836   0.01947349
4520.00   0.75932510   0.01935486
4522.00   0.75526233   0.01942914
4524.00   0.74855247   0.01924334
4526.00   0.77097760   0.01935380
4528.00   0.77200533   0.01922615
4530.00   0.80224886   0.01954504
4532.00   0.82166468   0.01952903
4534.00   0.73496687   0.01923266
4536.00   0.78884998   0.01933274
4538.00   0.75717315   0.01915640
4540.00   0.76636825   0.01922091
4542.00   0.81200956   0.01948858
4544.00   0.82596423   0.01966417
4546.00   0.81651115   0.01969307
4548.00   0.79658662   0.01934473
4550.00   0.83706220   0.01949362
4552.00   0.79512821   0.01914238
4554.00   0.80840076   0.01918201
4556.00   0.80254676   0.01920925
4558.00   0.82071337   0.01941986
4560.00   0.85331438   0.01933716
4562.00   0.85311857   0.01926732
4564.00   0.82587738   0.01916934
4566.00   0.86005970   0.01901461
4568.00   0.82993737   0.01886681
4570.00   0.85411941   0.01909480
4572.00   0.84669329   0.01908833
4574.00   0.86127095   0.01910489
4576.00   0.85680678   0.01918279
4578.00   0.82639020   0.01887132
4580.00   0.83648247   0.01878737
4582.00   0.83164776   0.01879708
4584.00   0.81843264   0.01864614
4586.00   0.82634914   0.01864985
4588.00   0.82261394   0.01865042
4590.00   0.82055517   0.01869584
4592.00   0.83655149   0.01873457
4594.00   0.85851679   0.01873087
4596.00   0.84674684   0.01875689
4598.00   0.78788465   0.01842338
4600.00   0.86955020   0.01868335
4602.00   0.81539597   0.01854361
4604.00   0.85373468   0.01847472
4606.00   0.83507239   0.01858472
4608.00   0.78935687   0.01848738
4610.00   0.79206279   0.01840335
4612.00   0.80594050   0.01832780
4614.00   0.81077735   0.01832456
4616.00   0.83899484   0.01826005
4618.00   0.84510986   0.01824992
4620.00   0.87341627   0.01835305
4622.00   0.82759719   0.01816578
4624.00   0.87241650   0.01840305
4626.00   0.82021153   0.01815367
4628.00   0.81558817   0.01826171
4630.00   0.88033037   0.01841331
4632.00   0.85287258   0.01827924
4634.00   0.81363217   0.01815847
4636.00   0.83490652   0.01813704
4638.00   0.86194305   0.01822238
4640.00   0.87350062   0.01829835
4642.00   0.90195325   0.01837459
4644.00   0.94789416   0.01856352
4646.00   0.86189785   0.01825063
4648.00   0.95204600   0.01854891
4650.00   0.95080182   0.01873451
4652.00   0.91867103   0.01866515
4654.00   0.94773390   0.01880367
4656.00   0.94659524   0.01882630
4658.00   0.96386156   0.01912056
4660.00   0.92775775   0.01899389
4662.00   0.92786491   0.01927539
4664.00   0.94190369   0.01974885
4666.00   0.93089625   0.01969153
4668.00   0.93765209   0.01983348
4670.00   0.92533801   0.01996167
4672.00   0.90803198   0.01979464
4674.00   0.91935742   0.01974701
4676.00   0.89959413   0.01930965
4678.00   0.94600132   0.01927597
4680.00   0.93308676   0.01901244
4682.00   0.94650627   0.01892473
4684.00   0.93726018   0.01866921
4686.00   0.96573708   0.01871696
4688.00   0.92757974   0.01854302
4690.00   0.95583257   0.01853814
4692.00   0.90834860   0.01849276
4694.00   0.95420012   0.01850379
4696.00   0.94379561   0.01843602
4698.00   0.91098940   0.01823744
4700.00   0.94747672   0.01837218
4702.00   0.93578227   0.01831530
4704.00   0.94010850   0.01846184
4706.00   0.91948208   0.01836005
4708.00   0.93124359   0.01855445
4710.00   0.90909137   0.01862167
4712.00   0.93947519   0.01865230
4714.00   0.90550612   0.01828129
4716.00   0.93289772   0.01845198
4718.00   0.90162073   0.01822795
4720.00   0.92926592   0.01823017
4722.00   0.91528713   0.01820138
4724.00   0.92468138   0.01832726
4726.00   0.94022899   0.01873939
4728.00   0.90098840   0.01904357
4730.00   0.95574416   0.01940014
4732.00   0.94531705   0.01952000
4734.00   0.94179182   0.01956599
4736.00   0.94492764   0.01983426
4738.00   0.90007782   0.01999480
4740.00   0.93217364   0.02038656
4742.00   0.94007797   0.02085550
4744.00   0.91677309   0.02046842
4746.00   0.93614192   0.01974606
4748.00   0.92941483   0.01873019
4750.00   0.91579491   0.01853786
4752.00   0.90204861   0.01865624
4754.00   0.91274154   0.01870930
4756.00   0.84946519   0.01813629
4758.00   0.88875912   0.01780087
4760.00   0.90894801   0.01767139
4762.00   0.85584176   0.01736496
4764.00   0.88307902   0.01744241
4766.00   0.88032027   0.01725913
4768.00   0.85005363   0.01708582
4770.00   0.84435862   0.01698870
4772.00   0.84644798   0.01701578
4774.00   0.85808748   0.01704541
4776.00   0.82231991   0.01709257
4778.00   0.85200947   0.01746968
4780.00   0.82376929   0.01747802
4782.00   0.85003657   0.01737858
4784.00   0.82739300   0.01691477
4786.00   0.80668121   0.01684991
4788.00   0.77804673   0.01664407
4790.00   0.81418483   0.01683966
4792.00   0.79876376   0.01688881
4794.00   0.77547090   0.01671226
4796.00   0.81132398   0.01678982
4798.00   0.81087747   0.01665746
4800.00   0.77871260   0.01654166
4802.00   0.80427811   0.01661509
4804.00   0.79715228   0.01661223
4806.00   0.79878246   0.01669663
4808.00   0.78158731   0.01671647
4810.00   0.77450855   0.01664010
4812.00   0.80520837   0.01670951
4814.00   0.76678512   0.01664262
4816.00   0.77558498   0.01670801
4818.00   0.80859409   0.01696289
4820.00   0.74278703   0.01689060
4822.00   0.78529821   0.01701991
4824.00   0.79961951   0.01713606
4826.00   0.78051939   0.01702947
4828.00   0.82030837   0.01721736
4830.00   0.82414370   0.01720472
4832.00   0.79112084   0.01730683
4834.00   0.80089991   0.01728484
4836.00   0.81119484   0.01731413
4838.00   0.77526060   0.01741996
4840.00   0.82491366   0.01772087
4842.00   0.84700938   0.01765339
4844.00   0.80258567   0.01731173
4846.00   0.79515251   0.01726440
4848.00   0.81837417   0.01746410
4850.00   0.77860517   0.01723604
4852.00   0.75938980   0.01720048
4854.00   0.80679595   0.01707723
4856.00   0.77471316   0.01704356
4858.00   0.75088126   0.01675409
4860.00   0.74301003   0.01681104
4862.00   0.75987996   0.01695579
4864.00   0.75392486   0.01705985
4866.00   0.76795016   0.01697143
4868.00   0.77345864   0.01716082
4870.00   0.74991477   0.01687870
4872.00   0.72712757   0.01666929
4874.00   0.72985651   0.01666082
4876.00   0.69789940   0.01667185
4878.00   0.71764626   0.01679332
4880.00   0.75457171   0.01704591
4882.00   0.72847685   0.01687999
4884.00   0.71450298   0.01664837
4886.00   0.67387208   0.01649688
4888.00   0.65949482   0.01623729
4890.00   0.73310585   0.01645408
4892.00   0.70323569   0.01639225
4894.00   0.68481399   0.01645372
4896.00   0.75016270   0.01656556
4898.00   0.74356221   0.01642280
4900.00   0.73373624   0.01641187
4902.00   0.72460333   0.01641642
4904.00   0.69229596   0.01626803
4906.00   0.71272213   0.01657897
4908.00   0.71337092   0.01647012
4910.00   0.67836890   0.01634006
4912.00   0.71246433   0.01628861
4914.00   0.72221082   0.01631479
4916.00   0.68984542   0.01636209
4918.00   0.69118763   0.01619683
4920.00   0.68547682   0.01599781
4922.00   0.70069078   0.01611437
4924.00   0.72384813   0.01600018
4926.00   0.67941151   0.01590735
4928.00   0.75551130   0.01593008
4930.00   0.69986297   0.01559148
4932.00   0.73451371   0.01583311
4934.00   0.65807911   0.01568172
4936.00   0.69724107   0.01573969
4938.00   0.69925968   0.01570044
4940.00   0.70155416   0.01574216
4942.00   0.67253265   0.01562655
4944.00   0.66956338   0.01554211
4946.00   0.67496783   0.01541141
4948.00   0.67360489   0.01531220
4950.00   0.64581763   0.01523246
4952.00   0.63116870   0.01543233
4954.00   0.63040279   0.01555965
4956.00   0.60793994   0.01544663
4958.00   0.62187508   0.01522237
4960.00   0.57651128   0.01508297
4962.00   0.58551791   0.01515012
4964.00   0.56613658   0.01509295
4966.00   0.54462039   0.01513854
4968.00   0.57441681   0.01539173
4970.00   0.54850885   0.01554539
4972.00   0.53579591   0.01593321
4974.00   0.53581839   0.01624385
4976.00   0.54251633   0.01671750
4978.00   0.49564417   0.01727554
4980.00   0.51447889   0.01803501
4982.00   0.52225643   0.01856613
4984.00   0.57290915   0.01875210
4986.00   0.50723465   0.01817647
4988.00   0.54930049   0.01765242
4990.00   0.53705329   0.01726928
4992.00   0.49168051   0.01658244
4994.00   0.56060291   0.01634887
4996.00   0.55855780   0.01588239
4998.00   0.53088227   0.01542988
5000.00   0.52044739   0.01509142
5002.00   0.54803819   0.01497707
5004.00   0.53319313   0.01493729
5006.00   0.54936117   0.01481139
5008.00   0.56791087   0.01471398
5010.00   0.56831737   0.01462556
5012.00   0.58065530   0.01470238
5014.00   0.57474760   0.01460004
5016.00   0.54650086   0.01462589
5018.00   0.52083463   0.01460831
5020.00   0.54514335   0.01471317
5022.00   0.55514703   0.01474064
5024.00   0.54981737   0.01462727
5026.00   0.49678892   0.01468776
5028.00   0.50172024   0.01494945
5030.00   0.52595390   0.01501150
5032.00   0.57574793   0.01500372
5034.00   0.59225404   0.01486295
5036.00   0.57175076   0.01453284
5038.00   0.55404764   0.01435968
5040.00   0.56323035   0.01437478
5042.00   0.57393643   0.01436686
5044.00   0.59021196   0.01452152
5046.00   0.57494618   0.01448939
5048.00   0.55542209   0.01449731
5050.00   0.60592601   0.01455306
5052.00   0.58378602   0.01454942
5054.00   0.55622843   0.01450412
5056.00   0.58904642   0.01456458
5058.00   0.60165679   0.01458625
5060.00   0.58450556   0.01452691
5062.00   0.59964161   0.01505772
5064.00   0.56718662   0.01505898
5066.00   0.55564778   0.01516458
5068.00   0.57544836   0.01560799
5070.00   0.59327423   0.01582987
5072.00   0.58386763   0.01560791
5074.00   0.57399702   0.01539256
5076.00   0.60168404   0.01531373
5078.00   0.58631319   0.01551062
5080.00   0.62516968   0.01636358
5082.00   0.59544046   0.01753981
5084.00   0.60389002   0.01852600
5086.00   0.62012301   0.01875604
5088.00   0.54197542   0.01800325
5090.00   0.58050937   0.01693631
5092.00   0.55989145   0.01590743
5094.00   0.56548818   0.01546166
5096.00   0.57898656   0.01557310
5098.00   0.59561292   0.01597403
5100.00   0.57597269   0.01607931
5102.00   0.58034684   0.01591162
5104.00   0.59437179   0.01549278
5106.00   0.55194195   0.01498773
5108.00   0.55074068   0.01479629
5110.00   0.55421746   0.01482177
5112.00   0.55550400   0.01481506
5114.00   0.54076765   0.01494789
5116.00   0.58246638   0.01532673
5118.00   0.56512489   0.01513688
5120.00   0.54803518   0.01477644
5122.00   0.57997383   0.01482995
5124.00   0.59356760   0.01477877
5126.00   0.57666767   0.01473045
5128.00   0.54334649   0.01466801
5130.00   0.59214163   0.01489560
5132.00   0.56476894   0.01482852
5134.00   0.60666941   0.01488315
5136.00   0.56720400   0.01468833
5138.00   0.57755019   0.01478305
5140.00   0.61165666   0.01489447
5142.00   0.59643793   0.01494216
5144.00   0.59267488   0.01490648
5146.00   0.57516769   0.01513220
5148.00   0.59386094   0.01542686
5150.00   0.64074967   0.01585141
5152.00   0.62618560   0.01631565
5154.00   0.60205568   0.01633918
5156.00   0.59826812   0.01623613
5158.00   0.58334661   0.01590101
5160.00   0.61203414   0.01566391
5162.00   0.62528379   0.01542606
5164.00   0.64089172   0.01527419
5166.00   0.59595576   0.01495671
5168.00   0.60436220   0.01498775
5170.00   0.60423029   0.01489311
5172.00   0.58395216   0.01480154
5174.00   0.59638646   0.01498757
5176.00   0.59253626   0.01536828
5178.00   0.58148964   0.01558282
5180.00   0.63734803   0.01563546
5182.00   0.63796148   0.01545463
5184.00   0.61230771   0.01528970
5186.00   0.58429574   0.01515355
5188.00   0.60729825   0.01524568
5190.00   0.60310619   0.01510119
5192.00   0.57989014   0.01506036
5194.00   0.64249491   0.01533970
5196.00   0.62472928   0.01550114
5198.00   0.63405960   0.01574477
5200.00   0.59501610   0.01567448
5202.00   0.61604261   0.01574335
5204.00   0.61403739   0.01551318
5206.00   0.58515879   0.01543928
5208.00   0.62588254   0.01570776
5210.00   0.64260992   0.01589997
5212.00   0.62628674   0.01591568
5214.00   0.61394782   0.01572871
5216.00   0.62777282   0.01570603
5218.00   0.64222594   0.01592009
5220.00   0.62459832   0.01597741
5222.00   0.61975951   0.01596379
5224.00   0.62411529   0.01581950
5226.00   0.64441417   0.01582493
5228.00   0.64645130   0.01588774
5230.00   0.62861840   0.01573149
5232.00   0.61943391   0.01576253
5234.00   0.63895349   0.01591459
5236.00   0.59483169   0.01585619
5238.00   0.61287853   0.01606054
5240.00   0.62014361   0.01596655
5242.00   0.59503000   0.01577065
5244.00   0.64863718   0.01605520
5246.00   0.62807784   0.01596569
5248.00   0.63228541   0.01602262
5250.00   0.60692199   0.01590612
5252.00   0.67820300   0.01620876
5254.00   0.66888833   0.01634594
5256.00   0.64120169   0.01636577
5258.00   0.62789930   0.01643335
5260.00   0.63869921   0.01663488
5262.00   0.63082202   0.01638323
5264.00   0.65814024   0.01640363
5266.00   0.63120582   0.01627530
5268.00   0.65440632   0.01636767
5270.00   0.65220460   0.01636582
5272.00   0.66775797   0.01641451
5274.00   0.68939584   0.01662634
5276.00   0.63616450   0.01653760
5278.00   0.66539038   0.01668838
5280.00   0.64763763   0.01659971
5282.00   0.67089462   0.01666534
5284.00   0.67767411   0.01692488
5286.00   0.67681308   0.01711733
5288.00   0.69086975   0.01698343
5290.00   0.68248808   0.01706763
5292.00   0.67573690   0.01690294
5294.00   0.68529335   0.01695599
5296.00   0.71878804   0.01714863
5298.00   0.68683722   0.01706471
5300.00   0.65039265   0.01703345
5302.00   0.66255028   0.01718185
5304.00   0.69144036   0.01717803
5306.00   0.68372606   0.01715835
5308.00   0.66500327   0.01726762
5310.00   0.67480968   0.01738461
5312.00   0.69323367   0.01750194
5314.00   0.67675491   0.01748876
5316.00   0.67572739   0.01743465
5318.00   0.68373017   0.01747671
5320.00   0.70115425   0.01762237
5322.00   0.73462091   0.01763817
5324.00   0.70172155   0.01761118
5326.00   0.66957564   0.01756064
5328.00   0.67940164   0.01776135
5330.00   0.70749113   0.01800288
5332.00   0.70250067   0.01803312
5334.00   0.69365320   0.01810240
5336.00   0.67688640   0.01816199
5338.00   0.67183740   0.01824264
5340.00   0.73497161   0.01856688
5342.00   0.70007166   0.01866365
5344.00   0.73612896   0.01874737
5346.00   0.69878428   0.01876354
5348.00   0.68869461   0.01940533
5350.00   0.66635693   0.01914048
5352.00   0.71240753   0.01933361
5354.00   0.71528085   0.01959674
5356.00   0.70491891   0.01969152
5358.00   0.69811188   0.01943083
5360.00   0.67024357   0.01909071
5362.00   0.71524384   0.01908057
5364.00   0.68525018   0.01882998
5366.00   0.70500646   0.01876944
5368.00   0.67232438   0.01866006
5370.00   0.63418976   0.01858551
5372.00   0.65904214   0.01862763
5374.00   0.65824039   0.01922434
5376.00   0.65111393   0.01929762
5378.00   0.64887730   0.01922144
5380.00   0.66752915   0.01933694
5382.00   0.65827551   0.01911807
5384.00   0.62468924   0.01892106
5386.00   0.63581228   0.01899182
5388.00   0.61785280   0.01912929
5390.00   0.61782221   0.01946572
5392.00   0.60381447   0.01971193
5394.00   0.64402408   0.01978548
5396.00   0.67304833   0.01985112
5398.00   0.57859191   0.01954762
5400.00   0.53378550   0.01927384
5402.00   0.57739842   0.01963424
5404.00   0.62343033   0.01983978
5406.00   0.63285261   0.02000155
5408.00   0.58026177   0.02010071
5410.00   0.63180839   0.02054052
5412.00   0.60654469   0.02067012
5414.00   0.55676433   0.02093068
5416.00   0.51631052   0.02115488
5418.00   0.63182187   0.02197408
5420.00   0.59911472   0.02196181
5422.00   0.56940992   0.02184057
5424.00   0.58161800   0.02188366
5426.00   0.60133879   0.02210919
5428.00   0.58499513   0.02190738
5430.00   0.67868213   0.02214029
5432.00   0.61366185   0.02197089
5434.00   0.59419223   0.02236565
5436.00   0.57979806   0.02216943
5438.00   0.57066157   0.00837979
5440.00   0.58053762   0.00834145
5442.00   0.58564997   0.00851203
5444.00   0.58844185   0.00876435
5446.00   0.59130684   0.00935951
5448.00   0.59174919   0.00950692
5450.00   0.58969793   0.00894684
5452.00   0.57986093   0.00884573
5454.00   0.56412616   0.00974737
5456.00   0.54892132   0.01089366
5458.00   0.54543957   0.01170741
5460.00   0.55692819   0.01256427
5462.00   0.56536865   0.01262500
5464.00   0.58705482   0.01192125
5466.00   0.58148608   0.01127924
5468.00   0.54500809   0.01028855
5470.00   0.52088971   0.00917470
5472.00   0.53741479   0.00869732
5474.00   0.58128497   0.00877485
5476.00   0.58837810   0.00865045
5478.00   0.56963122   0.00863110
5480.00   0.56052056   0.00852606
5482.00   0.55317879   0.00828725
5484.00   0.54686075   0.00801351
5486.00   0.55005747   0.00796680
5488.00   0.56236035   0.00806492
5490.00   0.56282511   0.00793473
5492.00   0.55373636   0.00762107
5494.00   0.55049828   0.00745216
5496.00   0.55454788   0.00735964
5498.00   0.55512375   0.00727259
5500.00   0.54595453   0.00721586
5502.00   0.53442648   0.00719967
5504.00   0.52630910   0.00717705
5506.00   0.51390597   0.00712145
5508.00   0.51054929   0.00715731
5510.00   0.51733159   0.00726872
5512.00   0.52426443   0.00745030
5514.00   0.53218189   0.00770527
5516.00   0.54472116   0.00787170
5518.00   0.54991895   0.00782969
5520.00   0.54815426   0.00761398
5522.00   0.54694566   0.00753605
5524.00   0.54421666   0.00753186
5526.00   0.53999060   0.00749163
5528.00   0.53333071   0.00739642
5530.00   0.52755198   0.00731366
5532.00   0.52792126   0.00729277
5534.00   0.53322390   0.00725671
5536.00   0.54223475   0.00733648
5538.00   0.56157303   0.00759559
5540.00   0.57225606   0.00775272
5542.00   0.57083002   0.00771703
5544.00   0.56592199   0.00757640
5546.00   0.57201687   0.00760930
5548.00   0.58576870   0.00788360
5550.00   0.58054429   0.00788120
5552.00   0.55620080   0.00759810
5554.00   0.54363254   0.00743459
5556.00   0.53997058   0.00747582
5558.00   0.53928640   0.00747832
5560.00   0.53333914   0.00724170
5562.00   0.52591950   0.00707549
5564.00   0.53202140   0.00742791
5566.00   0.55037200   0.00804598
5568.00   0.55930257   0.00909447
5570.00   0.57088527   0.01070862
5572.00   0.56765187   0.01179954
5574.00   0.54168984   0.01271527
5576.00   0.51246791   0.01341053
5578.00   0.49985792   0.01336886
5580.00   0.49906182   0.01265259
5582.00   0.50400589   0.01177440
5584.00   0.52889881   0.00998933
5586.00   0.53222305   0.00864398
5588.00   0.51748954   0.00797600
5590.00   0.49712288   0.00764227
5592.00   0.48009664   0.00727638
5594.00   0.46487546   0.00711565
5596.00   0.46503854   0.00692457
5598.00   0.48491755   0.00678263
5600.00   0.49345861   0.00663602
5602.00   0.49330090   0.00660676
5604.00   0.49146256   0.00660606
5606.00   0.49413028   0.00656170
5608.00   0.49989605   0.00656261
5610.00   0.50159450   0.00660484
5612.00   0.50181450   0.00674170
5614.00   0.49759518   0.00677679
5616.00   0.48610866   0.00671288
5618.00   0.47810629   0.00658689
5620.00   0.47867800   0.00653593
5622.00   0.48469038   0.00651873
5624.00   0.48797865   0.00641969
5626.00   0.49127296   0.00625739
5628.00   0.49322033   0.00621523
5630.00   0.49546692   0.00624371
5632.00   0.49443360   0.00627679
5634.00   0.48988450   0.00646525
5636.00   0.48545049   0.00674775
5638.00   0.48084979   0.00673994
5640.00   0.47210132   0.00643433
5642.00   0.47059223   0.00630520
5644.00   0.47277935   0.00621010
5646.00   0.48056133   0.00616663
5648.00   0.49515870   0.00618588
5650.00   0.50690329   0.00625673
5652.00   0.51010975   0.00634339
5654.00   0.50712883   0.00644771
5656.00   0.50513136   0.00648059
5658.00   0.49778886   0.00642219
5660.00   0.49979469   0.00645691
5662.00   0.51123348   0.00653780
5664.00   0.52037039   0.00667278
5666.00   0.52126318   0.00685786
5668.00   0.51891157   0.00709710
5670.00   0.52833027   0.00735316
5672.00   0.55081752   0.00762424
5674.00   0.55595946   0.00789394
5676.00   0.54547870   0.00816916
5678.00   0.53903198   0.00847422
5680.00   0.53791904   0.00886434
5682.00   0.54070041   0.00933168
5684.00   0.53812629   0.00959576
5686.00   0.52643186   0.00971956
5688.00   0.51331241   0.00976410
5690.00   0.48895602   0.00979094
5692.00   0.48579112   0.00961184
5694.00   0.50539383   0.00910522
5696.00   0.52961934   0.00852656
5698.00   0.53339261   0.00818230
5700.00   0.51720247   0.00791419
5702.00   0.52489239   0.00762559
5704.00   0.55502123   0.00731910
5706.00   0.57071933   0.00715237
5708.00   0.57263994   0.00708216
5710.00   0.57243538   0.00702564
5712.00   0.56396574   0.00697342
5714.00   0.54268920   0.00694696
5716.00   0.54354495   0.00692016
5718.00   0.56319040   0.00694768
5720.00   0.57544601   0.00689005
5722.00   0.58472362   0.00667643
5724.00   0.59254539   0.00647735
5726.00   0.59906006   0.00647422
5728.00   0.60422206   0.00656697
5730.00   0.60386670   0.00656297
5732.00   0.59973946   0.00644764
5734.00   0.59111023   0.00657799
5736.00   0.57409406   0.00699359
5738.00   0.55953547   0.00730214
5740.00   0.54791906   0.00744057
5742.00   0.53855523   0.00743280
5744.00   0.54187164   0.00721984
5746.00   0.55740896   0.00669627
5748.00   0.56202462   0.00657407
5750.00   0.55753246   0.00679834
5752.00   0.56212491   0.00693385
5754.00   0.57064462   0.00702121
5756.00   0.57924092   0.00702976
5758.00   0.59208962   0.00697360
5760.00   0.60999981   0.00685170
5762.00   0.61996135   0.00696826
5764.00   0.62671643   0.00731042
5766.00   0.63016534   0.00757841
5768.00   0.62639126   0.00780742
5770.00   0.61315084   0.00795905
5772.00   0.59963721   0.00800924
5774.00   0.59202570   0.00789771
5776.00   0.58568516   0.00770467
5778.00   0.57966486   0.00724694
5780.00   0.57343987   0.00713531
5782.00   0.57154393   0.00729414
5784.00   0.57376266   0.00743320
5786.00   0.57889077   0.00755573
5788.00   0.58819473   0.00770893
5790.00   0.60079810   0.00772943
5792.00   0.62584439   0.00759292
5794.00   0.62430865   0.00757287
5796.00   0.58843669   0.00770327
5798.00   0.56901765   0.00778729
5800.00   0.57823175   0.00763894
5802.00   0.59482339   0.00729410
5804.00   0.59845033   0.00707225
5806.00   0.59951144   0.00686226
5808.00   0.59791926   0.00674837
5810.00   0.59375417   0.00675389
5812.00   0.58282912   0.00676855
5814.00   0.56307083   0.00671960
5816.00   0.55180636   0.00665680
5818.00   0.55923963   0.00666427
5820.00   0.57831076   0.00670750
5822.00   0.58985490   0.00685913
5824.00   0.60536173   0.00722011
5826.00   0.61057049   0.00736036
5828.00   0.60232469   0.00732887
5830.00   0.59135175   0.00727123
5832.00   0.58451650   0.00715920
5834.00   0.58012465   0.00694540
5836.00   0.57657650   0.00691290
5838.00   0.57720742   0.00699865
5840.00   0.57096103   0.00710705
5842.00   0.55194527   0.00731589
5844.00   0.54190144   0.00748854
5846.00   0.55619130   0.00752375
5848.00   0.58207110   0.00749157
5850.00   0.58533585   0.00743573
5852.00   0.57027036   0.00724322
5854.00   0.56623805   0.00721728
5856.00   0.57520705   0.00734704
5858.00   0.57710183   0.00753028
5860.00   0.55445936   0.00772103
5862.00   0.52281031   0.00792773
5864.00   0.51552540   0.00806210
5866.00   0.52308494   0.00813486
5868.00   0.52381346   0.00811127
5870.00   0.52800852   0.00799707
5872.00   0.52605793   0.00783253
5874.00   0.50921950   0.00745908
5876.00   0.49135706   0.00720911
5878.00   0.49073929   0.00740781
5880.00   0.50295189   0.00780288
5882.00   0.51305345   0.00898795
5884.00   0.53159565   0.01080526
5886.00   0.53919384   0.01230220
5888.00   0.53955755   0.01387017
5890.00   0.53450224   0.01504227
5892.00   0.52251211   0.01560712
5894.00   0.50967820   0.01571169
5896.00   0.50032690   0.01532595
5898.00   0.49342270   0.01424473
5900.00   0.47837111   0.01311823
5902.00   0.45644066   0.01141317
5904.00   0.44140142   0.00974413
5906.00   0.43925618   0.00852448
5908.00   0.44855395   0.00756449
5910.00   0.45755503   0.00698092
5912.00   0.47324285   0.00714220
5914.00   0.47886242   0.00712581
5916.00   0.47503228   0.00713285
5918.00   0.47395788   0.00716185
5920.00   0.47669168   0.00728728
5922.00   0.48043999   0.00748119
5924.00   0.48470765   0.00752178
5926.00   0.49021880   0.00744211
5928.00   0.49195574   0.00745133
5930.00   0.49209943   0.00755940
5932.00   0.48903233   0.00752886
5934.00   0.47954574   0.00740007
5936.00   0.47188196   0.00726923
5938.00   0.47215310   0.00713102
5940.00   0.47535542   0.00701030
5942.00   0.47366424   0.00701135
5944.00   0.46611167   0.00718369
5946.00   0.46573555   0.00721290
5948.00   0.47026534   0.00718587
5950.00   0.47861330   0.00714517
5952.00   0.48857105   0.00714188
5954.00   0.49775511   0.00724972
5956.00   0.49969119   0.00724037
5958.00   0.49579766   0.00713190
5960.00   0.49139549   0.00699087
5962.00   0.48172982   0.00685705
5964.00   0.47648236   0.00678255
5966.00   0.47629903   0.00669222
5968.00   0.47518513   0.00659242
5970.00   0.47456586   0.00653507
5972.00   0.47270945   0.00651131
5974.00   0.47938448   0.00652383
5976.00   0.49997093   0.00663918
5978.00   0.51212400   0.00662650
5980.00   0.50674716   0.00645255
5982.00   0.49620555   0.00627271
5984.00   0.49336168   0.00627711
5986.00   0.48760648   0.00647427
5988.00   0.48983112   0.00651762
5990.00   0.50213346   0.00651331
5992.00   0.51318887   0.00640303
5994.00   0.51948291   0.00621386
5996.00   0.51937082   0.00606214
5998.00   0.51408115   0.00599334
6000.00   0.50502855   0.00598590
6002.00   0.50517257   0.00603135
6004.00   0.51482242   0.00622876
6006.00   0.51778570   0.00623896
6008.00   0.51785383   0.00611382
6010.00   0.51503336   0.00602785
6012.00   0.50652561   0.00595314
6014.00   0.49426723   0.00582094
6016.00   0.48982607   0.00581904
6018.00   0.48749474   0.00595396
6020.00   0.49120697   0.00604231
6022.00   0.50817047   0.00609965
6024.00   0.51956359   0.00611682
6026.00   0.51860142   0.00608453
6028.00   0.51427278   0.00607360
6030.00   0.50998306   0.00617452
6032.00   0.50118522   0.00637538
6034.00   0.50197050   0.00627382
6036.00   0.51535183   0.00582391
6038.00   0.51966855   0.00559471
6040.00   0.51488143   0.00556292
6042.00   0.50829095   0.00559948
6044.00   0.50290154   0.00566642
6046.00   0.49521089   0.00583673
6048.00   0.49795930   0.00587510
6050.00   0.51277697   0.00581662
6052.00   0.52224347   0.00577287
6054.00   0.52821347   0.00569755
6056.00   0.53205219   0.00564408
6058.00   0.53475410   0.00575602
6060.00   0.53514677   0.00595816
6062.00   0.53242654   0.00594281
6064.00   0.52474335   0.00571454
6066.00   0.52054575   0.00561202
6068.00   0.51510361   0.00555209
6070.00   0.50969407   0.00554891
6072.00   0.50733516   0.00558054
6074.00   0.50687319   0.00565003
6076.00   0.50737011   0.00560434
6078.00   0.50659530   0.00541775
6080.00   0.51218924   0.00532156
6082.00   0.52966604   0.00532764
6084.00   0.54373005   0.00536028
6086.00   0.54546335   0.00536508
6088.00   0.53832176   0.00536851
6090.00   0.52795404   0.00537620
6092.00   0.50937335   0.00535216
6094.00   0.50209527   0.00543781
6096.00   0.50186308   0.00563089
6098.00   0.50357668   0.00581269
6100.00   0.51103668   0.00602357
6102.00   0.51719031   0.00623564
6104.00   0.51551577   0.00627105
6106.00   0.50591397   0.00612325
6108.00   0.50981277   0.00623860
6110.00   0.52412423   0.00659890
6112.00   0.53969678   0.00680870
6114.00   0.55708408   0.00695337
6116.00   0.56797951   0.00695469
6118.00   0.56389934   0.00669108
6120.00   0.54578820   0.00611818
6122.00   0.54084757   0.00586977
6124.00   0.54225519   0.00584496
6126.00   0.54350024   0.00581153
6128.00   0.54718935   0.00575256
6130.00   0.55062670   0.00570113
6132.00   0.55048627   0.00565901
6134.00   0.54767802   0.00557954
6136.00   0.54332641   0.00561929
6138.00   0.53569660   0.00578972
6140.00   0.53038597   0.00585519
6142.00   0.52631283   0.00584710
6144.00   0.52284455   0.00586817
6146.00   0.51915127   0.00585349
6148.00   0.51534367   0.00579373
6150.00   0.51586792   0.00578359
6152.00   0.52300185   0.00579786
6154.00   0.52436981   0.00579947
6156.00   0.52215689   0.00581334
6158.00   0.51667067   0.00580945
6160.00   0.50980675   0.00577415
6162.00   0.50151853   0.00569666
6164.00   0.49402940   0.00557137
6166.00   0.48989640   0.00537644
6168.00   0.49207161   0.00531313
6170.00   0.50281046   0.00539694
6172.00   0.50809830   0.00539182
6174.00   0.51530871   0.00528933
6176.00   0.52064002   0.00517609
6178.00   0.51694664   0.00511199
6180.00   0.50710380   0.00506197
6182.00   0.50274375   0.00501125
6184.00   0.50298378   0.00495197
6186.00   0.49768475   0.00492720
6188.00   0.48508711   0.00492186
6190.00   0.47401087   0.00499367
6192.00   0.47126223   0.00512224
6194.00   0.47272766   0.00523990
6196.00   0.47263467   0.00526970
6198.00   0.47712605   0.00524381
6200.00   0.47096814   0.00516616
6202.00   0.45315063   0.00495345
6204.00   0.43484524   0.00486059
6206.00   0.41906576   0.00493145
6208.00   0.40768638   0.00505857
6210.00   0.40195566   0.00512179
6212.00   0.40152404   0.00517404
6214.00   0.40303735   0.00517817
6216.00   0.41335523   0.00513271
6218.00   0.41464648   0.00509433
6220.00   0.40512623   0.00500593
6222.00   0.39165512   0.00491916
6224.00   0.38020581   0.00493167
6226.00   0.36607097   0.00499962
6228.00   0.36527005   0.00499501
6230.00   0.37932535   0.00487622
6232.00   0.38765541   0.00490268
6234.00   0.39391671   0.00517135
6236.00   0.39612305   0.00543758
6238.00   0.38928175   0.00538355
6240.00   0.37341367   0.00506075
6242.00   0.36499876   0.00491074
6244.00   0.35871141   0.00479446
6246.00   0.35518743   0.00474719
6248.00   0.35504657   0.00474529
6250.00   0.35512863   0.00474054
6252.00   0.35040548   0.00481523
6254.00   0.33941811   0.00501002
6256.00   0.33772910   0.00507628
6258.00   0.34864691   0.00509337
6260.00   0.34333004   0.00505573
6262.00   0.31657884   0.00494337
6264.00   0.29846355   0.00477710
6266.00   0.29557736   0.00464995
6268.00   0.30051847   0.00459121
6270.00   0.30916856   0.00452623
6272.00   0.32590578   0.00443750
6274.00   0.33208643   0.00441489
6276.00   0.33116341   0.00445746
6278.00   0.33094637   0.00452392
6280.00   0.32924633   0.00464582
6282.00   0.32525213   0.00478663
6284.00   0.31809285   0.00474548
6286.00   0.30211474   0.00446211
6288.00   0.29384954   0.00443940
6290.00   0.28985572   0.00449282
6292.00   0.28778210   0.00471812
6294.00   0.28461909   0.00512858
6296.00   0.28156932   0.00565652
6298.00   0.27681947   0.00625245
6300.00   0.26917177   0.00699654
6302.00   0.26543130   0.00704936
6304.00   0.26157871   0.00649074
6306.00   0.26452537   0.00598276
6308.00   0.27584469   0.00536011
6310.00   0.28693853   0.00484290
6312.00   0.29470296   0.00464715
6314.00   0.30210830   0.00466954
6316.00   0.30500706   0.00457128
6318.00   0.30385518   0.00448417
6320.00   0.29914118   0.00439992
6322.00   0.28837210   0.00427576
6324.00   0.28146890   0.00420529
6326.00   0.27725735   0.00422223
6328.00   0.27585439   0.00429638
6330.00   0.28376469   0.00443318
6332.00   0.30222270   0.00476746
6334.00   0.30861470   0.00478517
6336.00   0.30751972   0.00447780
6338.00   0.30636053   0.00418924
6340.00   0.30028602   0.00405983
6342.00   0.29427376   0.00403862
6344.00   0.29690292   0.00406794
6346.00   0.30555214   0.00415412
6348.00   0.31134720   0.00422902
6350.00   0.31864186   0.00431342
6352.00   0.32244790   0.00443579
6354.00   0.32394961   0.00458286
6356.00   0.32592162   0.00466973
6358.00   0.32427055   0.00467169
6360.00   0.31799060   0.00460633
6362.00   0.31409979   0.00462749
6364.00   0.30938765   0.00476868
6366.00   0.30599441   0.00477436
6368.00   0.30450255   0.00455078
6370.00   0.30831534   0.00431691
6372.00   0.31492049   0.00435578
6374.00   0.32536557   0.00450202
6376.00   0.33393545   0.00446870
6378.00   0.34277922   0.00435148
6380.00   0.34820086   0.00432244
6382.00   0.35231441   0.00432797
6384.00   0.35281940   0.00425321
6386.00   0.35102992   0.00414195
6388.00   0.35174674   0.00405185
6390.00   0.34997816   0.00405854
6392.00   0.34147559   0.00414269
6394.00   0.34442931   0.00417025
6396.00   0.36478023   0.00420169
6398.00   0.37128016   0.00420325
6400.00   0.35707243   0.00409676
6402.00   0.34351738   0.00394943
6404.00   0.34844850   0.00392725
6406.00   0.36464873   0.00398456
6408.00   0.37093258   0.00402540
6410.00   0.37131052   0.00408001
6412.00   0.37624514   0.00415075
6414.00   0.38486096   0.00427025
6416.00   0.39170864   0.00435157
6418.00   0.39378276   0.00427518
6420.00   0.39045483   0.00405177
6422.00   0.39216030   0.00399754
6424.00   0.39802942   0.00405423
6426.00   0.40120874   0.00409145
6428.00   0.39928176   0.00415724
6430.00   0.39923134   0.00416547
6432.00   0.40415356   0.00407568
6434.00   0.41029659   0.00395915
6436.00   0.41286950   0.00392788
6438.00   0.41286187   0.00393593
6440.00   0.41432697   0.00396841
6442.00   0.41501027   0.00405526
6444.00   0.41883340   0.00414024
6446.00   0.42707007   0.00419982
6448.00   0.43512200   0.00425096
6450.00   0.43697160   0.00433642
6452.00   0.43389463   0.00443826
6454.00   0.43272321   0.00457962
6456.00   0.42858659   0.00486619
6458.00   0.43069230   0.00495188
6460.00   0.44018875   0.00472749
6462.00   0.45021264   0.00441989
6464.00   0.45688781   0.00440112
6466.00   0.46391810   0.00462212
6468.00   0.46286944   0.00466470
6470.00   0.45160830   0.00466464
6472.00   0.44460787   0.00458669
6474.00   0.43945453   0.00444922
6476.00   0.43940984   0.00429079
6478.00   0.44625309   0.00413896
6480.00   0.45855199   0.00401632
6482.00   0.46475066   0.00395354
6484.00   0.46895051   0.00391750
6486.00   0.46954338   0.00396344
6488.00   0.46634230   0.00414631
6490.00   0.46403757   0.00431520
6492.00   0.46170479   0.00443468
6494.00   0.46076895   0.00451005
6496.00   0.46549773   0.00451200
6498.00   0.47690569   0.00441731
6500.00   0.48083387   0.00445445
6502.00   0.48072536   0.00465274
6504.00   0.47946425   0.00471451
6506.00   0.47377180   0.00454637
6508.00   0.46543808   0.00424098
6510.00   0.46348855   0.00413117
6512.00   0.46643850   0.00417699
6514.00   0.46797147   0.00418750
6516.00   0.47012611   0.00421046
6518.00   0.47192948   0.00422806
6520.00   0.47269945   0.00424264
6522.00   0.47180492   0.00427643
6524.00   0.47293805   0.00436078
6526.00   0.47559397   0.00449575
6528.00   0.48097374   0.00452535
6530.00   0.49280193   0.00448194
6532.00   0.49816842   0.00442001
6534.00   0.49576005   0.00433742
6536.00   0.49151374   0.00426343
6538.00   0.48975028   0.00420203
6540.00   0.48929192   0.00416209
6542.00   0.48561248   0.00418752
6544.00   0.47826542   0.00429610
6546.00   0.47239336   0.00437640
6548.00   0.46641654   0.00443621
6550.00   0.46565437   0.00447745
6552.00   0.47109698   0.00453617
6554.00   0.47824420   0.00458751
6556.00   0.47913980   0.00459220
6558.00   0.47567031   0.00455599
6560.00   0.47148085   0.00452440
6562.00   0.46273503   0.00449987
6564.00   0.46033475   0.00443143
6566.00   0.46256010   0.00429089
6568.00   0.46667954   0.00417134
6570.00   0.47447209   0.00419264
6572.00   0.48841853   0.00432770
6574.00   0.49167196   0.00439229
6576.00   0.48576732   0.00446058
6578.00   0.48112826   0.00448158
6580.00   0.47723837   0.00444138
6582.00   0.47482346   0.00440801
6584.00   0.47338808   0.00438637
6586.00   0.47454055   0.00435676
6588.00   0.47355396   0.00427073
6590.00   0.46935342   0.00400529
6592.00   0.46867302   0.00399623
6594.00   0.47599444   0.00432071
6596.00   0.48162344   0.00456808
6598.00   0.48043276   0.00459713
6600.00   0.47846861   0.00451781
6602.00   0.47647993   0.00437572
6604.00   0.47191523   0.00403909
6606.00   0.46908125   0.00391096
6608.00   0.47103038   0.00397282
6610.00   0.47127186   0.00400961
6612.00   0.46549389   0.00396740
6614.00   0.45876206   0.00389571
6616.00   0.45779578   0.00386682
6618.00   0.46107727   0.00384209
6620.00   0.46068247   0.00388763
6622.00   0.45854194   0.00404809
6624.00   0.45647995   0.00413453
6626.00   0.45387268   0.00411239
6628.00   0.45214228   0.00403529
6630.00   0.45309015   0.00398536
6632.00   0.45612794   0.00394070
6634.00   0.45632085   0.00397386
6636.00   0.45512305   0.00413280
6638.00   0.45290954   0.00417411
6640.00   0.44856369   0.00410158
6642.00   0.44707599   0.00398823
6644.00   0.44857793   0.00390694
6646.00   0.45052670   0.00383190
6648.00   0.45441331   0.00381981
6650.00   0.46283861   0.00388642
6652.00   0.46701196   0.00391884
6654.00   0.46736988   0.00393990
6656.00   0.46649873   0.00395145
6658.00   0.46380211   0.00393163
6660.00   0.45861706   0.00387957
6662.00   0.45542105   0.00385144
6664.00   0.45205890   0.00380748
6666.00   0.45185712   0.00381696
6668.00   0.45586179   0.00390177
6670.00   0.45730567   0.00398413
6672.00   0.45641646   0.00401738
6674.00   0.45545104   0.00405431
6676.00   0.45329352   0.00407622
6678.00   0.45051782   0.00406802
6680.00   0.44719023   0.00402088
6682.00   0.44098099   0.00392904
6684.00   0.43667465   0.00385589
6686.00   0.43853194   0.00379286
6688.00   0.44301328   0.00378399
6690.00   0.44332311   0.00382551
6692.00   0.44241463   0.00389559
6694.00   0.44328418   0.00397235
6696.00   0.44649820   0.00412138
6698.00   0.44580422   0.00417627
6700.00   0.44296260   0.00410578
6702.00   0.44051927   0.00401719
6704.00   0.43966512   0.00398019
6706.00   0.44207491   0.00391753
6708.00   0.44149993   0.00393829
6710.00   0.43945198   0.00408730
6712.00   0.43597533   0.00414190
6714.00   0.43243438   0.00405825
6716.00   0.42882647   0.00394152
6718.00   0.42506930   0.00386877
6720.00   0.42155035   0.00377775
6722.00   0.42280604   0.00373684
6724.00   0.42962077   0.00375453
6726.00   0.43366945   0.00375659
6728.00   0.43836804   0.00372471
6730.00   0.43906233   0.00371174
6732.00   0.43034150   0.00375039
6734.00   0.41540399   0.00381351
6736.00   0.41434319   0.00392450
6738.00   0.42496042   0.00415093
6740.00   0.43038890   0.00426061
6742.00   0.43494695   0.00431192
6744.00   0.43685439   0.00426580
6746.00   0.43474212   0.00409785
6748.00   0.42982483   0.00385931
6750.00   0.42839053   0.00376616
6752.00   0.42939311   0.00376945
6754.00   0.42656037   0.00377927
6756.00   0.41884744   0.00387065
6758.00   0.41590990   0.00389030
6760.00   0.41624619   0.00380287
6762.00   0.41762015   0.00373535
6764.00   0.41917376   0.00378546
6766.00   0.42031690   0.00391854
6768.00   0.42008618   0.00397313
6770.00   0.42005995   0.00403370
6772.00   0.41583957   0.00399298
6774.00   0.40962529   0.00381299
6776.00   0.40405573   0.00369276
6778.00   0.39382397   0.00371378
6780.00   0.38129307   0.00382654
6782.00   0.37144694   0.00407740
6784.00   0.35833614   0.00456649
6786.00   0.35445683   0.00474777
6788.00   0.36274219   0.00473135
6790.00   0.37261686   0.00463982
6792.00   0.37897436   0.00443829
6794.00   0.38312079   0.00413855
6796.00   0.38598222   0.00394019
6798.00   0.38786715   0.00375204
6800.00   0.38829349   0.00366794
6802.00   0.38790238   0.00373491
6804.00   0.38460815   0.00378118
6806.00   0.37544915   0.00378784
6808.00   0.36617693   0.00378195
6810.00   0.36576335   0.00376771
6812.00   0.37024136   0.00377125
6814.00   0.37856457   0.00379576
6816.00   0.39817037   0.00385612
6818.00   0.40787959   0.00386291
6820.00   0.40587477   0.00384728
6822.00   0.39968279   0.00387479
6824.00   0.39542130   0.00395667
6826.00   0.39214289   0.00408817
6828.00   0.39105971   0.00417584
6830.00   0.39370835   0.00426931
6832.00   0.39241843   0.00429462
6834.00   0.38701449   0.00430092
6836.00   0.38267897   0.00428356
6838.00   0.38483845   0.00417052
6840.00   0.39237435   0.00398084
6842.00   0.39803156   0.00384389
6844.00   0.40676862   0.00368910
6846.00   0.40750173   0.00361845
6848.00   0.39982793   0.00365240
6850.00   0.39251941   0.00368615
6852.00   0.38816941   0.00370309
6854.00   0.38674113   0.00372815
6856.00   0.38527532   0.00376679
6858.00   0.38204205   0.00373396
6860.00   0.38294630   0.00392092
6862.00   0.39347266   0.00422348
6864.00   0.39521863   0.00471250
6866.00   0.38046251   0.00541973
6868.00   0.36638057   0.00589058
6870.00   0.36829910   0.00580462
6872.00   0.38023593   0.00526929
6874.00   0.38690494   0.00491913
6876.00   0.39649239   0.00445280
6878.00   0.39900306   0.00414454
6880.00   0.39380766   0.00403389
6882.00   0.38687199   0.00396894
6884.00   0.38300300   0.00388456
6886.00   0.38138641   0.00387325
6888.00   0.38313645   0.00396915
6890.00   0.39297359   0.00426375
6892.00   0.39312159   0.00432438
6894.00   0.38421920   0.00426644
6896.00   0.37416475   0.00420094
6898.00   0.36656281   0.00406861
6900.00   0.35970296   0.00388358
6902.00   0.35660848   0.00379659
6904.00   0.35780782   0.00376628
6906.00   0.35737517   0.00373173
6908.00   0.35628317   0.00370960
6910.00   0.35489118   0.00374204
6912.00   0.35410459   0.00382952
6914.00   0.35472520   0.00390736
6916.00   0.35528383   0.00396550
6918.00   0.35667202   0.00407100
6920.00   0.35547696   0.00408749
6922.00   0.35203210   0.00399832
6924.00   0.34820627   0.00390803
6926.00   0.34383395   0.00385098
6928.00   0.33927621   0.00381255
6930.00   0.33783373   0.00379126
6932.00   0.34285250   0.00379859
6934.00   0.34227857   0.00380901
6936.00   0.33963010   0.00384525
6938.00   0.33295161   0.00385376
6940.00   0.32421061   0.00382593
6942.00   0.31660970   0.00381866
6944.00   0.31196448   0.00388888
6946.00   0.31044848   0.00399946
6948.00   0.31160018   0.00401077
6950.00   0.31914279   0.00395314
6952.00   0.31994478   0.00390204
6954.00   0.31452693   0.00381294
6956.00   0.31010430   0.00371806
6958.00   0.31029750   0.00365479
6960.00   0.31348372   0.00363238
6962.00   0.31434423   0.00363360
6964.00   0.31354944   0.00367917
6966.00   0.31344724   0.00367312
6968.00   0.31510787   0.00360735
6970.00   0.31645769   0.00357934
6972.00   0.31509760   0.00366024
6974.00   0.31285778   0.00382669
6976.00   0.31239808   0.00386706
6978.00   0.31369781   0.00382606
6980.00   0.31375749   0.00378147
6982.00   0.31173556   0.00369225
6984.00   0.31136976   0.00360842
6986.00   0.31607008   0.00359532
6988.00   0.32146740   0.00365612
6990.00   0.32249045   0.00367669
6992.00   0.32107373   0.00367686
6994.00   0.31980407   0.00363750
6996.00   0.31658813   0.00353345
6998.00   0.31563866   0.00346067
7000.00   0.31505041   0.00339793
7002.00   0.31613316   0.00340685
7004.00   0.32190323   0.00352873
7006.00   0.33035855   0.00370850
7008.00   0.32804933   0.00372750
7010.00   0.31414682   0.00360359
7012.00   0.30734311   0.00355143
7014.00   0.30325435   0.00354513
7016.00   0.30447038   0.00356729
7018.00   0.31207614   0.00352494
7020.00   0.32337390   0.00342258
7022.00   0.32805797   0.00348947
7024.00   0.32877792   0.00372736
7026.00   0.32885322   0.00382473
7028.00   0.32765765   0.00383782
7030.00   0.32710536   0.00383131
7032.00   0.32401855   0.00374418
7034.00   0.31721115   0.00359761
7036.00   0.31376506   0.00363145
7038.00   0.31317006   0.00380884
7040.00   0.31209537   0.00381868
7042.00   0.31111307   0.00370126
7044.00   0.31005308   0.00363155
7046.00   0.30855726   0.00355812
7048.00   0.30651507   0.00350275
7050.00   0.30642648   0.00352718
7052.00   0.30808611   0.00361593
7054.00   0.30968764   0.00365991
7056.00   0.31394306   0.00371653
7058.00   0.31473224   0.00373217
7060.00   0.30916914   0.00365823
7062.00   0.30209121   0.00355988
7064.00   0.29947060   0.00353007
7066.00   0.29867442   0.00349962
7068.00   0.29720601   0.00352505
7070.00   0.29540454   0.00363785
7072.00   0.29492716   0.00370542
7074.00   0.29571199   0.00370842
7076.00   0.29720791   0.00369446
7078.00   0.30069546   0.00368301
7080.00   0.30819705   0.00365698
7082.00   0.30847518   0.00363237
7084.00   0.30170015   0.00360360
7086.00   0.29803330   0.00357185
7088.00   0.29666059   0.00352002
7090.00   0.29540612   0.00348730
7092.00   0.29463001   0.00352498
7094.00   0.29588591   0.00361578
7096.00   0.29733732   0.00360782
7098.00   0.29874282   0.00351997
7100.00   0.30047569   0.00348455
7102.00   0.30384120   0.00347253
7104.00   0.30492854   0.00345330
7106.00   0.30496831   0.00346815
7108.00   0.30524497   0.00351684
7110.00   0.30046533   0.00354261
7112.00   0.28907727   0.00357525
7114.00   0.28658545   0.00357246
7116.00   0.29131721   0.00352686
7118.00   0.29375251   0.00349792
7120.00   0.29414509   0.00349196
7122.00   0.29347055   0.00348040
7124.00   0.29379445   0.00346964
7126.00   0.29466195   0.00345352
7128.00   0.29698247   0.00346687
7130.00   0.30305141   0.00351180
7132.00   0.30509108   0.00357528
7134.00   0.30176605   0.00364272
7136.00   0.29629080   0.00366308
7138.00   0.29253307   0.00366905
7140.00   0.29133025   0.00364280
7142.00   0.29199967   0.00363673
7144.00   0.29541044   0.00367592
7146.00   0.29501522   0.00368713
7148.00   0.29043721   0.00361599
7150.00   0.28878562   0.00357996
7152.00   0.29392235   0.00367910
7154.00   0.30171457   0.00380221
7156.00   0.30201785   0.00383160
7158.00   0.29773872   0.00383127
7160.00   0.29191159   0.00377104
7162.00   0.27929464   0.00358057
7164.00   0.27298865   0.00347298
7166.00   0.27552269   0.00348142
7168.00   0.28080548   0.00352445
7170.00   0.28350751   0.00353912
7172.00   0.28871107   0.00355983
7174.00   0.29013748   0.00355955
7176.00   0.28811044   0.00353585
7178.00   0.28622067   0.00352165
7180.00   0.28603373   0.00350483
7182.00   0.28537782   0.00350718
7184.00   0.28515488   0.00354689
7186.00   0.28822754   0.00361083
7188.00   0.28869843   0.00363708
7190.00   0.28698155   0.00364406
7192.00   0.28594041   0.00363298
7194.00   0.28765583   0.00358856
7196.00   0.28671435   0.00357695
7198.00   0.28205395   0.00363002
7200.00   0.27820253   0.00375105
7202.00   0.28105190   0.00377898
7204.00   0.29156868   0.00373355
7206.00   0.29469851   0.00368811
7208.00   0.29350813   0.00364363
7210.00   0.28971091   0.00358792
7212.00   0.28194611   0.00348715
7214.00   0.27613145   0.00343410
7216.00   0.27810454   0.00349181
7218.00   0.28385878   0.00359391
7220.00   0.28442881   0.00364672
7222.00   0.28349097   0.00373161
7224.00   0.28149106   0.00374743
7226.00   0.27556637   0.00355610
7228.00   0.27020259   0.00342934
7230.00   0.26444361   0.00365442
7232.00   0.25305535   0.00408902
7234.00   0.24911956   0.00444726
7236.00   0.24970540   0.00491854
7238.00   0.25347793   0.00519528
7240.00   0.25920089   0.00529869
7242.00   0.26581936   0.00530107
7244.00   0.27284735   0.00531535
7246.00   0.27980199   0.00533666
7248.00   0.28249849   0.00521937
7250.00   0.28195029   0.00494506
7252.00   0.28169712   0.00468599
7254.00   0.27929686   0.00438334
7256.00   0.27558044   0.00409469
7258.00   0.27257079   0.00388853
7260.00   0.26927353   0.00377101
7262.00   0.26833917   0.00367767
7264.00   0.27033347   0.00358010
7266.00   0.27024890   0.00363587
7268.00   0.26868686   0.00380213
7270.00   0.26681146   0.00412145
7272.00   0.26306592   0.00457378
7274.00   0.26067360   0.00503775
7276.00   0.26597998   0.00533602
7278.00   0.28028831   0.00554310
7280.00   0.28110394   0.00550102
7282.00   0.27001721   0.00515441
7284.00   0.26211919   0.00485749
7286.00   0.25596459   0.00448978
7288.00   0.25409387   0.00415426
7290.00   0.26168944   0.00401112
7292.00   0.27928704   0.00402297
7294.00   0.28754884   0.00398220
7296.00   0.29334274   0.00395335
7298.00   0.29398844   0.00395586
7300.00   0.28990549   0.00401319
7302.00   0.28422220   0.00405253
7304.00   0.27632771   0.00403930
7306.00   0.26444656   0.00399240
7308.00   0.25901291   0.00401135
7310.00   0.25771642   0.00403896
7312.00   0.25852134   0.00417829
7314.00   0.26242763   0.00448690
7316.00   0.26506852   0.00467845
7318.00   0.26496483   0.00468402
7320.00   0.26200952   0.00457184
7322.00   0.26000731   0.00442645
7324.00   0.25710557   0.00415692
7326.00   0.25902617   0.00402590
7328.00   0.26620232   0.00398281
7330.00   0.27186048   0.00397979
7332.00   0.27508552   0.00401868
7334.00   0.27709070   0.00413838
7336.00   0.27798964   0.00435843
7338.00   0.27783372   0.00472079
7340.00   0.27509601   0.00485542
7342.00   0.26705797   0.00488881
7344.00   0.26302415   0.00479920
7346.00   0.26532356   0.00455950
7348.00   0.26914971   0.00430583
7350.00   0.27001986   0.00414221
7352.00   0.27107592   0.00401041
7354.00   0.27166742   0.00394654
7356.00   0.27057602   0.00395727
7358.00   0.27191943   0.00400119
7360.00   0.27815731   0.00410939
7362.00   0.27995491   0.00422519
7364.00   0.27283882   0.00429832
7366.00   0.25970963   0.00435252
7368.00   0.25681796   0.00446548
7370.00   0.26247996   0.00467413
7372.00   0.26443447   0.00472552
7374.00   0.26321113   0.00468083
7376.00   0.26082841   0.00454923
7378.00   0.25836441   0.00425247
7380.00   0.25505843   0.00387145
7382.00   0.25600181   0.00369780
7384.00   0.26124897   0.00364037
7386.00   0.26258235   0.00361800
7388.00   0.26070140   0.00369254
7390.00   0.26028538   0.00380258
7392.00   0.25994265   0.00393464
7394.00   0.26159599   0.00408500
7396.00   0.26629417   0.00419218
7398.00   0.27224663   0.00425466
7400.00   0.27420191   0.00429728
7402.00   0.27314143   0.00433785
7404.00   0.27356566   0.00433891
7406.00   0.27214979   0.00423810
7408.00   0.26971757   0.00406780
7410.00   0.27000365   0.00392787
7412.00   0.27298099   0.00379890
7414.00   0.27119187   0.00368358
7416.00   0.26366644   0.00354397
7418.00   0.25995523   0.00349308
7420.00   0.26183957   0.00353975
7422.00   0.26695347   0.00361285
7424.00   0.26965976   0.00372657
7426.00   0.27053465   0.00391221
7428.00   0.26903908   0.00407543
7430.00   0.26412086   0.00432114
7432.00   0.26081702   0.00441202
7434.00   0.25721308   0.00432526
7436.00   0.25680170   0.00416694
7438.00   0.25968690   0.00408145
7440.00   0.26174232   0.00402643
7442.00   0.26161234   0.00399875
7444.00   0.26059391   0.00404242
7446.00   0.26154332   0.00396269
7448.00   0.26476511   0.00370698
7450.00   0.26501928   0.00355737
7452.00   0.26156011   0.00353908
7454.00   0.25719368   0.00358239
7456.00   0.25540100   0.00368665
7458.00   0.25427568   0.00389878
7460.00   0.25615306   0.00398123
7462.00   0.26365115   0.00392718
7464.00   0.26720850   0.00396895
7466.00   0.26511210   0.00420814
7468.00   0.26013660   0.00450719
7470.00   0.25568053   0.00455108
7472.00   0.24905761   0.00430942
7474.00   0.24907015   0.00423222
7476.00   0.25632808   0.00416281
7478.00   0.26065439   0.00422338
7480.00   0.26118244   0.00443584
7482.00   0.26039092   0.00456344
7484.00   0.26321550   0.00443698
7486.00   0.26813509   0.00412064
7488.00   0.26806584   0.00399561
7490.00   0.26408097   0.00399327
7492.00   0.26394354   0.00397160
7494.00   0.26649691   0.00395331
7496.00   0.26542906   0.00388709
7498.00   0.26235288   0.00377431
7500.00   0.25764890   0.00364932
7502.00   0.25205940   0.00359376
7504.00   0.24448346   0.00358316
7506.00   0.24055970   0.00355632
7508.00   0.23856921   0.00350756
7510.00   0.23846456   0.00352503
7512.00   0.24100744   0.00361241
7514.00   0.24433593   0.00370425
7516.00   0.24623375   0.00376839
7518.00   0.24652366   0.00382936
7520.00   0.24463992   0.00399693
7522.00   0.23780852   0.00432648
7524.00   0.23682141   0.00448672
7526.00   0.23969398   0.00451389
7528.00   0.24370287   0.00446747
7530.00   0.24756983   0.00435919
7532.00   0.24951798   0.00415648
7534.00   0.24738052   0.00405245
7536.00   0.23808122   0.00403797
7538.00   0.23708247   0.00395995
7540.00   0.24231607   0.00376500
7542.00   0.24363843   0.00360583
7544.00   0.23879430   0.00361977
7546.00   0.23196490   0.00372818
7548.00   0.23038495   0.00374525
7550.00   0.23452268   0.00371184
7552.00   0.23184036   0.00372639
7554.00   0.22015912   0.00381079
7556.00   0.21269424   0.00384510
7558.00   0.21712995   0.00377072
7560.00   0.22684151   0.00365766
7562.00   0.22421457   0.00361925
7564.00   0.21206038   0.00359784
7566.00   0.20531340   0.00366332
7568.00   0.19933862   0.00383891
7570.00   0.19598398   0.00398335
7572.00   0.19795904   0.00412213
7574.00   0.20329875   0.00423278
7576.00   0.20595808   0.00422193
7578.00   0.20848742   0.00407478
7580.00   0.20568755   0.00396468
7582.00   0.19510314   0.00379912
7584.00   0.18954190   0.00370422
7586.00   0.18995946   0.00367352
7588.00   0.19179490   0.00370117
7590.00   0.18810066   0.00369916
7592.00   0.17936505   0.00365465
7594.00   0.17634244   0.00391101
7596.00   0.17881673   0.00431513
7598.00   0.17566764   0.00485769
7600.00   0.16756067   0.00555123
7602.00   0.16181910   0.00616215
7604.00   0.15841595   0.00677033
7606.00   0.15757143   0.00735364
7608.00   0.16371413   0.00752779
7610.00   0.17979478   0.00748552
7612.00   0.18737016   0.00725471
7614.00   0.19237405   0.00655667
7616.00   0.19090451   0.00584345
7618.00   0.17847663   0.00540517
7620.00   0.15963791   0.00509936
7622.00   0.15059099   0.00489154
7624.00   0.14827520   0.00484757
7626.00   0.14716406   0.00489838
7628.00   0.14837133   0.00514949
7630.00   0.14853238   0.00530573
7632.00   0.15441286   0.00541878
7634.00   0.16335372   0.00547996
7636.00   0.16332603   0.00532275
7638.00   0.15608621   0.00490894
7640.00   0.15702450   0.00470622
7642.00   0.16423707   0.00459353
7644.00   0.16797772   0.00453395
7646.00   0.17064840   0.00458419
7648.00   0.17283313   0.00460853
7650.00   0.17208184   0.00450722
7652.00   0.16861483   0.00435954
7654.00   0.16386571   0.00428030
7656.00   0.15600037   0.00420351
7658.00   0.14961915   0.00418919
7660.00   0.14068431   0.00431327
7662.00   0.13739860   0.00441542
7664.00   0.14809280   0.00441239
7666.00   0.16859850   0.00433631
7668.00   0.17303563   0.00427056
7670.00   0.16601322   0.00419841
7672.00   0.16035520   0.00407091
7674.00   0.15351278   0.00383126
7676.00   0.14992066   0.00367517
7678.00   0.14532975   0.00357914
7680.00   0.13817197   0.00354031
7682.00   0.13629913   0.00361520
7684.00   0.13803437   0.00379363
7686.00   0.14369661   0.00379419
7688.00   0.15730695   0.00361996
7690.00   0.16624419   0.00356668
7692.00   0.16792984   0.00362252
7694.00   0.16689362   0.00376073
7696.00   0.16403717   0.00388292
7698.00   0.15346568   0.00398363
7700.00   0.15014447   0.00399283
7702.00   0.15016138   0.00383073
7704.00   0.15249190   0.00384548
7706.00   0.15867539   0.00394817
7708.00   0.16716450   0.00422002
7710.00   0.16842882   0.00471213
7712.00   0.15928617   0.00534480
7714.00   0.16048795   0.00573438
7716.00   0.16981995   0.00616865
7718.00   0.17829268   0.00620731
7720.00   0.18386418   0.00583301
7722.00   0.18444164   0.00539328
7724.00   0.17974416   0.00497916
7726.00   0.16685636   0.00451533
7728.00   0.16175920   0.00422209
7730.00   0.16232330   0.00408774
7732.00   0.16216687   0.00399361
7734.00   0.16137013   0.00400375
7736.00   0.15993160   0.00403201
7738.00   0.15592889   0.00404150
7740.00   0.15050118   0.00409808
7742.00   0.15009544   0.00426405
7744.00   0.15302555   0.00445619
7746.00   0.15989503   0.00474349
7748.00   0.17791197   0.00522280
7750.00   0.18388400   0.00554243
7752.00   0.17376567   0.00569139
7754.00   0.15971845   0.00571513
7756.00   0.15630358   0.00555052
7758.00   0.16147171   0.00512045
7760.00   0.16210476   0.00480882
7762.00   0.16084611   0.00444114
7764.00   0.16129921   0.00419673
7766.00   0.16560393   0.00409860
7768.00   0.16643732   0.00404085
7770.00   0.16336007   0.00397776
7772.00   0.15918483   0.00396044
7774.00   0.16165168   0.00399670
7776.00   0.17248067   0.00408614
7778.00   0.17620488   0.00420411
7780.00   0.17207428   0.00441945
7782.00   0.16870046   0.00454587
7784.00   0.17000512   0.00448717
7786.00   0.17309821   0.00436010
7788.00   0.17709673   0.00443857
7790.00   0.18295377   0.00462694
7792.00   0.18418443   0.00481197
7794.00   0.18120280   0.00514623
7796.00   0.18269188   0.00533007
7798.00   0.18434703   0.00521559
7800.00   0.18395349   0.00491951
7802.00   0.18521355   0.00469548
7804.00   0.18570792   0.00439370
7806.00   0.18608247   0.00426375
7808.00   0.18506501   0.00426948
7810.00   0.18937146   0.00436246
7812.00   0.19497183   0.00453611
7814.00   0.20196878   0.00474000
7816.00   0.20722325   0.00493890
7818.00   0.20237195   0.00513020
7820.00   0.20790549   0.00530671
7822.00   0.22407754   0.00559049
7824.00   0.23467661   0.00564317
7826.00   0.23773180   0.00538240
7828.00   0.23796577   0.00500756
7830.00   0.22694368   0.00466207
7832.00   0.20067759   0.00426851
7834.00   0.19264359   0.00416816
7836.00   0.19729067   0.00441255
7838.00   0.19871294   0.00448737
7840.00   0.19830852   0.00445578
7842.00   0.19890644   0.00442137
7844.00   0.19811573   0.00443932
7846.00   0.19728133   0.00453513
7848.00   0.20256075   0.00482920
7850.00   0.21382187   0.00533374
7852.00   0.22155376   0.00565431
7854.00   0.22986113   0.00597571
7856.00   0.23393773   0.00611374
7858.00   0.23365413   0.00597475
7860.00   0.23183017   0.00565993
7862.00   0.22680004   0.00545284
7864.00   0.21554189   0.00522717
7866.00   0.20963944   0.00519715
7868.00   0.20665707   0.00542809
7870.00   0.20516805   0.00554050
7872.00   0.20550445   0.00549672
7874.00   0.20693416   0.00535605
7876.00   0.20564606   0.00525669
7878.00   0.20068275   0.00516075
7880.00   0.19847942   0.00515160
7882.00   0.19801100   0.00527232
7884.00   0.19800653   0.00530565
7886.00   0.19629274   0.00523811
7888.00   0.19196999   0.00512592
7890.00   0.18611909   0.00502157
7892.00   0.17656279   0.00488879
7894.00   0.17625914   0.00469704
7896.00   0.18407351   0.00439104
7898.00   0.19121660   0.00417663
7900.00   0.19851629   0.00396514
7902.00   0.20556534   0.00390143
7904.00   0.21040046   0.00405871
7906.00   0.21129152   0.00436205
7908.00   0.21506730   0.00476213
7910.00   0.22194767   0.00533393
7912.00   0.22230996   0.00575353
7914.00   0.21613202   0.00616825
7916.00   0.21225844   0.00640657
7918.00   0.20506778   0.00650847
7920.00   0.19614198   0.00643874
7922.00   0.19775908   0.00612737
7924.00   0.20998973   0.00547009
7926.00   0.21264768   0.00512272
7928.00   0.20610723   0.00495475
7930.00   0.20588525   0.00486379
7932.00   0.21829518   0.00493484
7934.00   0.22971135   0.00497219
7936.00   0.22608279   0.00481991
7938.00   0.21408370   0.00453376
7940.00   0.21210266   0.00434999
7942.00   0.21653841   0.00413229
7944.00   0.21756285   0.00408850
7946.00   0.21954370   0.00424173
7948.00   0.22075348   0.00438719
7950.00   0.21876950   0.00445733
7952.00   0.21508277   0.00452583
7954.00   0.21377053   0.00455798
7956.00   0.21472052   0.00443862
7958.00   0.21355635   0.00460805
7960.00   0.21056546   0.00513854
7962.00   0.20506760   0.00549311
7964.00   0.19976764   0.00554946
7966.00   0.19923352   0.00548079
7968.00   0.20046742   0.00552906
7970.00   0.20354276   0.00572065
7972.00   0.20502120   0.00566133
7974.00   0.20705754   0.00526813
7976.00   0.20777535   0.00492198
7978.00   0.20868209   0.00482335
7980.00   0.21074864   0.00482086
7982.00   0.21024764   0.00476680
7984.00   0.20710464   0.00469185
7986.00   0.20828766   0.00478460
7988.00   0.21226820   0.00504030
7990.00   0.21689282   0.00527791
7992.00   0.22573090   0.00554120
7994.00   0.23334968   0.00572331
7996.00   0.23299837   0.00572923
7998.00   0.22680565   0.00557049
8000.00   0.22848141   0.00540222
8002.00   0.23954630   0.00511105
8004.00   0.24014910   0.00491079
8006.00   0.23139412   0.00467830
8008.00   0.22297983   0.00445098
8010.00   0.21492769   0.00436831
8012.00   0.20161497   0.00438416
8014.00   0.19814149   0.00440070
8016.00   0.20585983   0.00439591
8018.00   0.20908154   0.00459653
8020.00   0.20189145   0.00503787
8022.00   0.19818322   0.00535412
8024.00   0.21257861   0.00556211
8026.00   0.23519486   0.00576711
8028.00   0.23585899   0.00566559
8030.00   0.21659919   0.00515367
8032.00   0.21183087   0.00487518
8034.00   0.22067136   0.00478146
8036.00   0.22370404   0.00468333
8038.00   0.21137058   0.00454791
8040.00   0.19385739   0.00446775
8042.00   0.19060602   0.00433107
8044.00   0.19819251   0.00401996
8046.00   0.20122956   0.00394150
8048.00   0.20471948   0.00408165
8050.00   0.20618325   0.00422776
8052.00   0.20533506   0.00431637
8054.00   0.20630619   0.00436132
8056.00   0.21077174   0.00442892
8058.00   0.21480528   0.00452803
8060.00   0.21464491   0.00456910
8062.00   0.20838690   0.00456654
8064.00   0.20916805   0.00455439
8066.00   0.21349863   0.00456544
8068.00   0.21575315   0.00456390
8070.00   0.21646678   0.00444219
8072.00   0.21758053   0.00417947
8074.00   0.21775115   0.00400756
8076.00   0.21692654   0.00383536
8078.00   0.21591337   0.00376949
8080.00   0.21340173   0.00379683
8082.00   0.21280091   0.00388394
8084.00   0.21746061   0.00402834
8086.00   0.22437601   0.00417965
8088.00   0.22048371   0.00420281
8090.00   0.20551138   0.00407596
8092.00   0.19825391   0.00411143
8094.00   0.19497506   0.00431622
8096.00   0.19339128   0.00447317
8098.00   0.19606913   0.00446767
8100.00   0.20129902   0.00434448
8102.00   0.19960959   0.00427881
8104.00   0.19315024   0.00421388
8106.00   0.19234222   0.00416812
8108.00   0.19467042   0.00416006
8110.00   0.19771030   0.00411550
8112.00   0.20233493   0.00401014
8114.00   0.20691434   0.00391962
8116.00   0.21227031   0.00387557
8118.00   0.21538723   0.00386594
8120.00   0.21242712   0.00383205
8122.00   0.19823927   0.00377239
8124.00   0.19753598   0.00374853
8126.00   0.20599844   0.00375591
8128.00   0.20934435   0.00378940
8130.00   0.20491587   0.00388226
8132.00   0.19701336   0.00403265
8134.00   0.19683418   0.00416320
8136.00   0.20324677   0.00435619
8138.00   0.20607854   0.00442296
8140.00   0.20680737   0.00435693
8142.00   0.20702071   0.00424267
8144.00   0.20439812   0.00412863
8146.00   0.19876847   0.00403547
8148.00   0.19785962   0.00407445
8150.00   0.19877356   0.00423976
8152.00   0.20169369   0.00425772
8154.00   0.21034992   0.00415349
8156.00   0.21538222   0.00410842
8158.00   0.21160859   0.00413400
8160.00   0.20392661   0.00423098
8162.00   0.20175873   0.00425253
8164.00   0.20085704   0.00415982
8166.00   0.20036592   0.00416866
8168.00   0.19938152   0.00425578
8170.00   0.20372041   0.00432153
8172.00   0.21095768   0.00432475
8174.00   0.21606421   0.00437523
8176.00   0.21974287   0.00455022
8178.00   0.22161037   0.00482373
8180.00   0.21841409   0.00512164
8182.00   0.20594572   0.00555613
8184.00   0.20247854   0.00579084
8186.00   0.20664649   0.00585165
8188.00   0.21161895   0.00590884
8190.00   0.21067043   0.00608432
8192.00   0.20484722   0.00631341
8194.00   0.20470235   0.00634428
8196.00   0.20884976   0.00625997
8198.00   0.21054646   0.00608342
8200.00   0.21089936   0.00572176
8202.00   0.21077195   0.00535665
8204.00   0.20752090   0.00507920
8206.00   0.20275034   0.00488445
8208.00   0.20527562   0.00473881
8210.00   0.21325944   0.00466662
8212.00   0.21676273   0.00458187
8214.00   0.21965072   0.00453435
8216.00   0.22078955   0.00444666
8218.00   0.21634453   0.00432971
8220.00   0.21150801   0.00428203
8222.00   0.20672407   0.00430516
8224.00   0.19655409   0.00443117
8226.00   0.19013391   0.00446194
8228.00   0.18403955   0.00448064
8230.00   0.18162236   0.00439099
8232.00   0.18524811   0.00422032
8234.00   0.19211002   0.00405229
8236.00   0.19133149   0.00392684
8238.00   0.18632272   0.00385057
8240.00   0.18605784   0.00383621
8242.00   0.18806192   0.00391928
8244.00   0.18896170   0.00394225
8246.00   0.19543605   0.00395486
8248.00   0.19894283   0.00395810
8250.00   0.19152123   0.00396983
8252.00   0.17877645   0.00403491
8254.00   0.17124756   0.00410832
8256.00   0.16300662   0.00423632
8258.00   0.15960100   0.00424935
8260.00   0.16136553   0.00416372
8262.00   0.16716547   0.00404522
8264.00   0.17679323   0.00390331
8266.00   0.18716171   0.00380155
8268.00   0.18964345   0.00392932
8270.00   0.18692463   0.00420759
8272.00   0.18170965   0.00453929
8274.00   0.17131525   0.00497916
8276.00   0.16160685   0.00539445
8278.00   0.15096693   0.00574164
8280.00   0.14328448   0.00608573
8282.00   0.14244931   0.00649707
8284.00   0.14639489   0.00699516
8286.00   0.15368118   0.00707597
8288.00   0.17493039   0.00673179
8290.00   0.17812390   0.00653247
8292.00   0.16036101   0.00644435
8294.00   0.14365086   0.00646167
8296.00   0.13725876   0.00657400
8298.00   0.13509148   0.00671837
8300.00   0.13641348   0.00658327
8302.00   0.14596063   0.00617416
8304.00   0.14675449   0.00583386
8306.00   0.14348754   0.00538573
8308.00   0.14223839   0.00499407
8310.00   0.13908049   0.00476447
8312.00   0.13256681   0.00458435
8314.00   0.13137152   0.00435234
8316.00   0.13413529   0.00409430
8318.00   0.13589530   0.00392020
8320.00   0.13698971   0.00381236
8322.00   0.14067698   0.00374361
8324.00   0.14479248   0.00371412
8326.00   0.14726052   0.00372654
8328.00   0.15049839   0.00372114
8330.00   0.15490735   0.00363161
8332.00   0.15571836   0.00381607
8334.00   0.15302521   0.00406962
8336.00   0.15168295   0.00462953
8338.00   0.14930160   0.00545745
8340.00   0.14402871   0.00629197
8342.00   0.13978471   0.00703033
8344.00   0.13596281   0.00782111
8346.00   0.12677563   0.00801495
8348.00   0.10823281   0.00776057
8350.00   0.09922327   0.00743680
8352.00   0.09679307   0.00678599
8354.00   0.09897817   0.00599297
8356.00   0.10639278   0.00544804
8358.00   0.11974902   0.00509601
8360.00   0.13031086   0.00493438
8362.00   0.14399456   0.00520686
8364.00   0.15048608   0.00512245
8366.00   0.15078305   0.00475706
8368.00   0.14708047   0.00442631
8370.00   0.14176963   0.00416016
8372.00   0.13391924   0.00392940
8374.00   0.12680425   0.00406798
8376.00   0.11625801   0.00453445
8378.00   0.11730596   0.00489961
8380.00   0.13019840   0.00541631
8382.00   0.14162667   0.00570031
8384.00   0.15106840   0.00555735
8386.00   0.15772036   0.00517116
8388.00   0.15571471   0.00502992
8390.00   0.14707289   0.00490188
8392.00   0.14409296   0.00525568
8394.00   0.14735287   0.00614116
8396.00   0.13830020   0.00672723
8398.00   0.11996217   0.00715922
8400.00   0.10986951   0.00731929
8402.00   0.11093456   0.00698863
8404.00   0.11948866   0.00606477
8406.00   0.12054690   0.00549132
8408.00   0.11639624   0.00488130
8410.00   0.11490341   0.00460689
8412.00   0.11730458   0.00479332
8414.00   0.12588603   0.00507534
8416.00   0.13937291   0.00516275
8418.00   0.15701485   0.00510290
8420.00   0.15731022   0.00522545
8422.00   0.14116841   0.00539708
8424.00   0.13055912   0.00578491
8426.00   0.11582563   0.00638561
8428.00   0.11226037   0.00680379
8430.00   0.13204407   0.00703682
8432.00   0.16239902   0.00711546
8434.00   0.16414385   0.00677754
8436.00   0.14264296   0.00580208
8438.00   0.13568459   0.00511519
8440.00   0.13771441   0.00445787
8442.00   0.13721829   0.00408666
8444.00   0.13344254   0.00423128
8446.00   0.13286541   0.00470021
8448.00   0.12701276   0.00486145
8450.00   0.11341297   0.00485195
8452.00   0.11095322   0.00489882
8454.00   0.12323046   0.00488304
8456.00   0.12257149   0.00506276
8458.00   0.10747848   0.00543958
8460.00   0.09649435   0.00579922
8462.00   0.10130236   0.00605349
8464.00   0.11884425   0.00631632
8466.00   0.13036398   0.00631550
8468.00   0.14589548   0.00609832
8470.00   0.15110129   0.00578299
8472.00   0.14911620   0.00522240
8474.00   0.14584815   0.00461799
8476.00   0.14198580   0.00417718
8478.00   0.13747486   0.00379961
8480.00   0.13575296   0.00361740
8482.00   0.13767627   0.00370971
8484.00   0.13555532   0.00382449
8486.00   0.12806038   0.00398337
8488.00   0.12354761   0.00416513
8490.00   0.12589550   0.00441544
8492.00   0.13013408   0.00465709
8494.00   0.12840112   0.00480267
8496.00   0.12267100   0.00489653
8498.00   0.11719120   0.00504592
8500.00   0.10800010   0.00522474
8502.00   0.10369897   0.00534575
8504.00   0.10676955   0.00547439
8506.00   0.11301500   0.00555529
8508.00   0.11705497   0.00537930
8510.00   0.12277850   0.00490527
8512.00   0.12367817   0.00451872
8514.00   0.11919779   0.00400396
8516.00   0.11532288   0.00366346
8518.00   0.11257140   0.00361442
8520.00   0.11397474   0.00369517
8522.00   0.11939714   0.00368589
8524.00   0.12826096   0.00367695
8526.00   0.13179252   0.00366370
8528.00   0.13322248   0.00358139
8530.00   0.13169755   0.00363422
8532.00   0.12431788   0.00386521
8534.00   0.11946947   0.00408405
8536.00   0.12432196   0.00420221
8538.00   0.13504218   0.00428861
8540.00   0.13927806   0.00438336
8542.00   0.14326768   0.00446951
8544.00   0.14196752   0.00456861
8546.00   0.13073003   0.00471365
8548.00   0.11946493   0.00476712
8550.00   0.11611905   0.00469263
8552.00   0.11706433   0.00452807
8554.00   0.11757491   0.00432508
8556.00   0.12047050   0.00399605
8558.00   0.12186907   0.00376865
8560.00   0.12138038   0.00358970
8562.00   0.12171662   0.00348323
8564.00   0.12420164   0.00348821
8566.00   0.12858074   0.00358614
8568.00   0.13297097   0.00368570
8570.00   0.13762704   0.00382950
8572.00   0.13873982   0.00386433
8574.00   0.13583628   0.00378604
8576.00   0.13547960   0.00376507
8578.00   0.13601099   0.00379784
8580.00   0.13551246   0.00387008
8582.00   0.13688162   0.00397626
8584.00   0.13851705   0.00412652
8586.00   0.13845991   0.00414148
8588.00   0.13534584   0.00396731
8590.00   0.13764124   0.00395915
8592.00   0.14208886   0.00414128
8594.00   0.14545391   0.00435169
8596.00   0.14612444   0.00447069
8598.00   0.14327755   0.00459644
8600.00   0.14167919   0.00457998
8602.00   0.13926671   0.00436313
8604.00   0.13813382   0.00423766
8606.00   0.13924689   0.00420348
8608.00   0.14040133   0.00426450
8610.00   0.13815486   0.00434604
8612.00   0.13349856   0.00450119
8614.00   0.13080062   0.00485836
8616.00   0.12812146   0.00537553
8618.00   0.13061538   0.00582931
8620.00   0.14173953   0.00630425
8622.00   0.14561996   0.00673563
8624.00   0.13758454   0.00718197
8626.00   0.12657160   0.00751355
8628.00   0.13090496   0.00756933
8630.00   0.14985738   0.00742305
8632.00   0.16068760   0.00726316
8634.00   0.17282493   0.00697042
8636.00   0.17605583   0.00669144
8638.00   0.16805372   0.00640660
8640.00   0.15388720   0.00607727
8642.00   0.14566908   0.00575645
8644.00   0.14294734   0.00544091
8646.00   0.14629070   0.00555259
8648.00   0.15739893   0.00611692
8650.00   0.16729205   0.00653032
8652.00   0.18601394   0.00694262
8654.00   0.19650805   0.00717353
8656.00   0.18604505   0.00725515
8658.00   0.16376206   0.00734594
8660.00   0.15457171   0.00732777
8662.00   0.14504801   0.00713544
8664.00   0.14865633   0.00701106
8666.00   0.17628733   0.00699371
8668.00   0.19940238   0.00696709
8670.00   0.19457202   0.00688681
8672.00   0.17070701   0.00673157
8674.00   0.16543570   0.00644882
8676.00   0.16692492   0.00593058
8678.00   0.17160983   0.00568996
8680.00   0.18494881   0.00577971
8682.00   0.19639101   0.00573677
8684.00   0.19697863   0.00543121
8686.00   0.19231049   0.00505879
8688.00   0.19101439   0.00481969
8690.00   0.18618413   0.00459196
8692.00   0.17883964   0.00442929
8694.00   0.16559048   0.00433019
8696.00   0.16051564   0.00431949
8698.00   0.15843305   0.00442696
8700.00   0.16082224   0.00456572
8702.00   0.16684956   0.00457956
8704.00   0.17198743   0.00452218
8706.00   0.17659527   0.00444605
8708.00   0.18280674   0.00430185
8710.00   0.18748078   0.00417199
8712.00   0.18594562   0.00403825
8714.00   0.18245554   0.00398027
8716.00   0.18285090   0.00406057
8718.00   0.18621060   0.00417218
8720.00   0.17827381   0.00426047
8722.00   0.15176623   0.00445886
8724.00   0.14780010   0.00452990
8726.00   0.17044335   0.00431573
8728.00   0.18970762   0.00409582
8730.00   0.19358215   0.00420181
8732.00   0.19263835   0.00445054
8734.00   0.18932453   0.00451166
8736.00   0.17916066   0.00449607
8738.00   0.17668938   0.00445913
8740.00   0.18237363   0.00435363
8742.00   0.18187454   0.00427384
8744.00   0.17732014   0.00419252
8746.00   0.17405320   0.00412963
8748.00   0.17384374   0.00419137
8750.00   0.17601223   0.00431751
8752.00   0.17693902   0.00472510
8754.00   0.17965993   0.00524777
8756.00   0.17873956   0.00596573
8758.00   0.17062654   0.00698092
8760.00   0.16206573   0.00781470
8762.00   0.16062539   0.00825069
8764.00   0.16501619   0.00849511
8766.00   0.17195604   0.00866240
8768.00   0.18763938   0.00867431
8770.00   0.19325660   0.00869412
8772.00   0.19060535   0.00870419
8774.00   0.19470061   0.00862866
8776.00   0.20798814   0.00844485
8778.00   0.21912798   0.00814124
8780.00   0.21402042   0.00767314
8782.00   0.19245930   0.00680646
8784.00   0.18227258   0.00627966
8786.00   0.17530274   0.00613463
8788.00   0.17064053   0.00608312
8790.00   0.16942710   0.00593140
8792.00   0.17111450   0.00570074
8794.00   0.17452393   0.00541039
8796.00   0.18244525   0.00499693
8798.00   0.18616275   0.00470340
8800.00   0.18666197   0.00449054
8802.00   0.18678830   0.00433679
8804.00   0.18620387   0.00422468
8806.00   0.18558567   0.00418732
8808.00   0.18957885   0.00427471
8810.00   0.19940305   0.00447340
8812.00   0.19973984   0.00463366
8814.00   0.19302087   0.00458765
8816.00   0.18524311   0.00498900
8818.00   0.17584245   0.00567380
8820.00   0.16995186   0.00660803
8822.00   0.16586181   0.00780977
8824.00   0.16188161   0.00917364
8826.00   0.16114049   0.00989433
8828.00   0.16475164   0.01049459
8830.00   0.16489536   0.01057729
8832.00   0.16699540   0.01005230
8834.00   0.16842025   0.00932909
8836.00   0.16345967   0.00857753
8838.00   0.15912759   0.00764891
8840.00   0.16064586   0.00692724
8842.00   0.16416507   0.00631201
8844.00   0.17073214   0.00585748
8846.00   0.18970229   0.00567820
8848.00   0.19994712   0.00558667
8850.00   0.19329660   0.00555366
8852.00   0.18116621   0.00555051
8854.00   0.17344164   0.00538210
8856.00   0.16132473   0.00499112
8858.00   0.16122935   0.00494144
8860.00   0.17842124   0.00509129
8862.00   0.18652103   0.00543858
8864.00   0.18134167   0.00611115
8866.00   0.17211986   0.00670215
8868.00   0.16585195   0.00672962
8870.00   0.16009402   0.00635451
8872.00   0.15951446   0.00603202
8874.00   0.16673820   0.00517610
8876.00   0.16767345   0.00504298
8878.00   0.15922642   0.00571736
8880.00   0.15495732   0.00672694
8882.00   0.17065562   0.00791470
8884.00   0.20282858   0.00933918
8886.00   0.21753660   0.00963752
8888.00   0.23049252   0.00919463
8890.00   0.22626071   0.00857925
8892.00   0.19508582   0.00735200
8894.00   0.17038405   0.00623317
8896.00   0.17425154   0.00583847
8898.00   0.19206448   0.00594528
8900.00   0.18733042   0.00616483
8902.00   0.16463263   0.00686298
8904.00   0.15929053   0.00706965
8906.00   0.16548610   0.00688443
8908.00   0.17314366   0.00671057
8910.00   0.18509649   0.00646984
8912.00   0.19457139   0.00628855
8914.00   0.19373094   0.00709551
8916.00   0.18611965   0.00876386
8918.00   0.17797901   0.00936712
8920.00   0.16354296   0.00955996
8922.00   0.15499585   0.00937368
8924.00   0.14580124   0.00858476
8926.00   0.13527216   0.00737456
8928.00   0.13580454   0.00643255
8930.00   0.14249203   0.00549840
8932.00   0.15171775   0.00503711
8934.00   0.16910625   0.00512846
8936.00   0.18341006   0.00545541
8938.00   0.19521662   0.00626199
8940.00   0.19639219   0.00691480
8942.00   0.18170490   0.00701698
8944.00   0.15336941   0.00685863
8946.00   0.14319944   0.00682431
8948.00   0.14449821   0.00660267
8950.00   0.14553494   0.00672422
8952.00   0.14508492   0.00723283
8954.00   0.14533658   0.00781702
8956.00   0.15233245   0.00843268
8958.00   0.16115747   0.00903755
8960.00   0.15328345   0.00915603
8962.00   0.12144378   0.00908689
8964.00   0.11510336   0.00860788
8966.00   0.13511936   0.00715517
8968.00   0.15594499   0.00561347
8970.00   0.16107986   0.00492492
8972.00   0.16174902   0.00487322
8974.00   0.16961508   0.00474411
8976.00   0.18077185   0.00483347
8978.00   0.18496872   0.00500943
8980.00   0.18509083   0.00528348
8982.00   0.18345199   0.00570106
8984.00   0.17787091   0.00631862
8986.00   0.17297402   0.00684163
8988.00   0.17320006   0.00703504
8990.00   0.17480189   0.00699966
8992.00   0.18040676   0.00707941
8994.00   0.19892521   0.00699263
8996.00   0.20293041   0.00725985
8998.00   0.18106770   0.00805246
9000.00   0.15562713   0.00876955
9002.00   0.15493505   0.00889108
9004.00   0.16725891   0.00858483
9006.00   0.16750230   0.00810634
9008.00   0.16238184   0.00704178
9010.00   0.16049614   0.00625180
9012.00   0.15602671   0.00565069
9014.00   0.15206055   0.00523443
9016.00   0.15207027   0.00499974
9018.00   0.15189078   0.00492985
9020.00   0.15090963   0.00481591
9022.00   0.14921688   0.00469829
9024.00   0.15243325   0.00472556
9026.00   0.16199978   0.00492882
9028.00   0.16742483   0.00517744
9030.00   0.16379684   0.00534791
9032.00   0.15438043   0.00541576
9034.00   0.14906224   0.00545324
9036.00   0.14505592   0.00536530
9038.00   0.13898881   0.00551239
9040.00   0.13039522   0.00588357
9042.00   0.12245053   0.00622445
9044.00   0.11756972   0.00647661
9046.00   0.11764024   0.00655557
9048.00   0.11515188   0.00645777
9050.00   0.11009810   0.00619723
9052.00   0.10847552   0.00594975
9054.00   0.10977323   0.00559229
9056.00   0.10958007   0.00527668
9058.00   0.10893347   0.00493826
9060.00   0.11057899   0.00476301
9062.00   0.11620040   0.00490226
9064.00   0.12487137   0.00522223
9066.00   0.12815681   0.00532148
9068.00   0.12738681   0.00536327
9070.00   0.12725393   0.00530367
9072.00   0.12558249   0.00504419
9074.00   0.12841487   0.00490311
9076.00   0.13637374   0.00494043
9078.00   0.14971377   0.00502121
9080.00   0.14905296   0.00509282
9082.00   0.13439192   0.00517883
9084.00   0.11851414   0.00540763
9086.00   0.09536130   0.00584494
9088.00   0.08627984   0.00606077
9090.00   0.09275948   0.00602207
9092.00   0.10997056   0.00586116
9094.00   0.12233946   0.00577440
9096.00   0.13542325   0.00565261
9098.00   0.13741476   0.00573909
9100.00   0.13003425   0.00610002
9102.00   0.12110838   0.00627919
9104.00   0.10584016   0.00632821
9106.00   0.09436002   0.00625614
9108.00   0.09782954   0.00595703
9110.00   0.11499732   0.00541130
9112.00   0.11921611   0.00507940
9114.00   0.11805473   0.00480996
9116.00   0.11349891   0.00463624
9118.00   0.10383458   0.00468383
9120.00   0.09777716   0.00478585
9122.00   0.10113529   0.00484291
9124.00   0.11192873   0.00493927
9126.00   0.11571873   0.00494813
9128.00   0.11625196   0.00485803
9130.00   0.11567496   0.00483223
9132.00   0.11460527   0.00487638
9134.00   0.11407765   0.00490693
9136.00   0.11238886   0.00491737
9138.00   0.11223498   0.00493428
9140.00   0.11663907   0.00491276
9142.00   0.12504177   0.00479959
9144.00   0.12994705   0.00486227
9146.00   0.13620011   0.00510434
9148.00   0.13922843   0.00531222
9150.00   0.13352797   0.00547178
9152.00   0.12559905   0.00561597
9154.00   0.12620198   0.00569769
9156.00   0.12994967   0.00569650
9158.00   0.13080820   0.00572367
9160.00   0.13292685   0.00582337
9162.00   0.13381693   0.00581369
9164.00   0.12502154   0.00556283
9166.00   0.11456773   0.00522378
9168.00   0.11440897   0.00504158
9170.00   0.11709085   0.00485938
9172.00   0.11952274   0.00484058
9174.00   0.12595258   0.00508259
9176.00   0.12911838   0.00516598
9178.00   0.12244861   0.00504354
9180.00   0.11868685   0.00488960
9182.00   0.12571114   0.00479507
9184.00   0.13663284   0.00471465
9186.00   0.13914168   0.00475432
9188.00   0.13597716   0.00494662
9190.00   0.13455280   0.00506248
9192.00   0.13151783   0.00514996
9194.00   0.13047544   0.00513422
9196.00   0.13277190   0.00507787
9198.00   0.13559821   0.00501938
9200.00   0.13362872   0.00496592
9202.00   0.12703562   0.00490006
9204.00   0.12469427   0.00485105
9206.00   0.12651897   0.00474631
9208.00   0.12581094   0.00478624
9210.00   0.11933960   0.00494419
9212.00   0.11440034   0.00520154
9214.00   0.11841018   0.00566780
9216.00   0.12579004   0.00639722
9218.00   0.13077113   0.00661641
9220.00   0.13575108   0.00647793
9222.00   0.14357894   0.00632509
9224.00   0.15193974   0.00614004
9226.00   0.15970489   0.00596946
9228.00   0.16118784   0.00584898
9230.00   0.15520294   0.00579594
9232.00   0.14967421   0.00585499
9234.00   0.13686970   0.00623316
9236.00   0.13516712   0.00614496
9238.00   0.14700334   0.00556553
9240.00   0.15466318   0.00510861
9242.00   0.14612678   0.00512312
9244.00   0.12752887   0.00541956
9246.00   0.12003377   0.00552127
9248.00   0.11720674   0.00564411
9250.00   0.11621010   0.00559659
9252.00   0.12012138   0.00534480
9254.00   0.12179917   0.00510292
9256.00   0.11784831   0.00496087
9258.00   0.11402904   0.00488940
9260.00   0.11789966   0.00496519
9262.00   0.13103357   0.00521785
9264.00   0.13336641   0.00531958
9266.00   0.12421430   0.00536628
9268.00   0.11857145   0.00538498
9270.00   0.12297441   0.00524113
9272.00   0.13309480   0.00510792
9274.00   0.14255321   0.00531089
9276.00   0.15565278   0.00570375
9278.00   0.15321906   0.00591919
9280.00   0.13235657   0.00610463
9282.00   0.12176752   0.00624442
9284.00   0.11634376   0.00624499
9286.00   0.11340679   0.00628616
9288.00   0.12033403   0.00642140
9290.00   0.14056158   0.00651423
9292.00   0.14396738   0.00663030
9294.00   0.13466588   0.00647263
9296.00   0.12921366   0.00696760
9298.00   0.12480121   0.00784535
9300.00   0.11884715   0.00896651
9302.00   0.12297373   0.01022755
9304.00   0.13886352   0.01158583
9306.00   0.14470204   0.01336418
9308.00   0.15463393   0.01568520
9310.00   0.14549965   0.01731382
9312.00   0.09743200   0.01879607
9314.00   0.06337555   0.01947981
9316.00   0.09217558   0.01938905
9318.00   0.15639038   0.01887429
9320.00   0.16267932   0.01837568
9322.00   0.12566829   0.01757768
9324.00   0.12297571   0.01704192
9326.00   0.14841071   0.01687237
9328.00   0.16402955   0.01632798
9330.00   0.16343780   0.01510040
9332.00   0.15228661   0.01370924
9334.00   0.14164971   0.01324604
9336.00   0.12832816   0.01355789
9338.00   0.12964698   0.01343845
9340.00   0.15039423   0.01334571
9342.00   0.15756316   0.01301686
9344.00   0.15017658   0.01223836
9346.00   0.12990881   0.01132001
9348.00   0.11401561   0.01079218
9350.00   0.10570424   0.01063045
9352.00   0.10246554   0.01034720
9354.00   0.10330700   0.01008243
9356.00   0.10824069   0.00984245
9358.00   0.12823528   0.00967031
9360.00   0.14409562   0.00948913
9362.00   0.13571896   0.00910949
9364.00   0.11343182   0.00871150
9366.00   0.11250539   0.01088722
9368.00   0.12887907   0.01417185
9370.00   0.12607649   0.01729526
9372.00   0.11218801   0.02123678
9374.00   0.09980533   0.02375236
9376.00   0.07917503   0.02479403
9378.00   0.05836752   0.02497693
9380.00   0.06347454   0.02384651
9382.00   0.08595488   0.02063089
9384.00   0.10271783   0.01788773
9386.00   0.12696554   0.01444070
9388.00   0.15043481   0.01131449
9390.00   0.16339888   0.00935451
9392.00   0.16766936   0.00848936
9394.00   0.16215785   0.00788020
9396.00   0.14226355   0.00834266
9398.00   0.12950247   0.00869638
9400.00   0.11119983   0.00956087
9402.00   0.10970320   0.00997658
9404.00   0.12338957   0.00995653
9406.00   0.13541665   0.00970878
9408.00   0.14952973   0.00958009
9410.00   0.17603275   0.00955920
9412.00   0.17393187   0.00986156
9414.00   0.13736890   0.01047498
9416.00   0.12560556   0.01103796
9418.00   0.13476519   0.01171160
9420.00   0.13907170   0.01227126
9422.00   0.14316072   0.01271223
9424.00   0.15802290   0.01305918
9426.00   0.15692902   0.01284123
9428.00   0.13432770   0.01158828
9430.00   0.13386411   0.01150154
9432.00   0.16657131   0.01199472
9434.00   0.18504048   0.01338447
9436.00   0.16672090   0.01603379
9438.00   0.13758350   0.01879168
9440.00   0.12856640   0.01976283
9442.00   0.12200820   0.02004527
9444.00   0.13225591   0.01946043
9446.00   0.17127505   0.01708947
9448.00   0.20028517   0.01503861
9450.00   0.21037193   0.01386598
9452.00   0.20182187   0.01330354
9454.00   0.18904659   0.01382347
9456.00   0.16958142   0.01568502
9458.00   0.15331875   0.01630953
9460.00   0.12718840   0.01658304
9462.00   0.11924748   0.01644055
9464.00   0.13433812   0.01544252
9466.00   0.15775685   0.01418156
9468.00   0.17160565   0.01377234
9470.00   0.18255830   0.01385537
9472.00   0.19286446   0.01482869
9474.00   0.22321945   0.01726563
9476.00   0.20399834   0.01828966
9478.00   0.11965368   0.01853469
9480.00   0.04958407   0.01820883
9482.00   0.02974067   0.01703355
9484.00   0.03424461   0.01493713
9486.00   0.05410072   0.01331847
9488.00   0.10982973   0.01141745
9490.00   0.13189257   0.01024954
9492.00   0.13038244   0.00993198
9494.00   0.13243669   0.01030280
9496.00   0.13224110   0.01134659
9498.00   0.13207143   0.01272551
9500.00   0.13912335   0.01407166
9502.00   0.15338390   0.01591257
9504.00   0.14988754   0.01662391
9506.00   0.12730469   0.01675481
9508.00   0.11432037   0.01629108
9510.00   0.10901773   0.01445172
9512.00   0.11128011   0.01183254
9514.00   0.12738965   0.01160369
9516.00   0.16450775   0.01335411
9518.00   0.18271337   0.01395260
9520.00   0.19764433   0.01455616
9522.00   0.19256226   0.01472606
9524.00   0.17491582   0.01421698
9526.00   0.15655875   0.01325925
9528.00   0.13810693   0.01233695
9530.00   0.11921280   0.01136274
9532.00   0.11544941   0.01059539
9534.00   0.12805991   0.00986939
9536.00   0.13598294   0.00947778
9538.00   0.14592532   0.00968176
9540.00   0.14557567   0.00984527
9542.00   0.12620050   0.00966521
9544.00   0.09315281   0.00947949
9546.00   0.09936838   0.01016322
9548.00   0.14505135   0.01164258
9550.00   0.16355957   0.01247298
9552.00   0.16698925   0.01302743
9554.00   0.16045261   0.01342954
9556.00   0.13208675   0.01358552
9558.00   0.08848644   0.01344406
9560.00   0.09084401   0.01379005
9562.00   0.13932277   0.01435668
9564.00   0.16045487   0.01528800
9566.00   0.16118620   0.01708924
9568.00   0.16574837   0.01800883
9570.00   0.19323023   0.01760928
9572.00   0.22327910   0.01616507
9574.00   0.21438446   0.01450849
9576.00   0.16504351   0.01186203
9578.00   0.14682442   0.01033512
9580.00   0.13553680   0.00995115
9582.00   0.14108402   0.00967574
9584.00   0.16984296   0.00958385
9586.00   0.19913892   0.00962701
9588.00   0.20980531   0.00989143
9590.00   0.21158529   0.01043153
9592.00   0.20154055   0.01044280
9594.00   0.17052038   0.00997584
9596.00   0.15352999   0.00977918
9598.00   0.14278777   0.00958424
9600.00   0.13210498   0.00953641
9602.00   0.12599585   0.00996098
9604.00   0.12264830   0.01055111
9606.00   0.11945678   0.01089334
9608.00   0.11862646   0.01128316
9610.00   0.11735064   0.01140882
9612.00   0.10885854   0.01109716
9614.00   0.11114805   0.01087455
9616.00   0.13475267   0.01083596
9618.00   0.16687112   0.01085429
9620.00   0.18626689   0.01126060
9622.00   0.20874809   0.01234782
9624.00   0.21339096   0.01252082
9626.00   0.19608341   0.01201063
9628.00   0.17914024   0.01120155
9630.00   0.16670360   0.01015961
9632.00   0.15527096   0.00917211
9634.00   0.15012828   0.00881779
9636.00   0.14943127   0.00907992
9638.00   0.14927574   0.00915616
9640.00   0.15504968   0.00940017
9642.00   0.15610527   0.00942537
9644.00   0.14591438   0.00936855
9646.00   0.13146936   0.00939381
9648.00   0.12570783   0.00926844
9650.00   0.12561345   0.00893240
9652.00   0.13423727   0.00912150
9654.00   0.16961758   0.00978948
9656.00   0.16767571   0.01023259
9658.00   0.12029280   0.01055011
9660.00   0.07668925   0.01088622
9662.00   0.06353539   0.01118887
9664.00   0.07133179   0.01143316
9666.00   0.09251348   0.01189779
9668.00   0.14577143   0.01268785
9670.00   0.16684091   0.01296221
9672.00   0.16358998   0.01270287
9674.00   0.15127283   0.01251461
9676.00   0.13583874   0.01264353
9678.00   0.11813180   0.01318311
9680.00   0.12659335   0.01371672
9682.00   0.16494941   0.01434760
9684.00   0.17135742   0.01430443
9686.00   0.14739811   0.01359823
9688.00   0.13914128   0.01303325
9690.00   0.14488284   0.01247917
9692.00   0.15211277   0.01225992
9694.00   0.16154188   0.01262536
9696.00   0.17706165   0.01343187
9698.00   0.17575241   0.01372094
9700.00   0.15636280   0.01383599
9702.00   0.14820895   0.01377389
9704.00   0.14367614   0.01340453
9706.00   0.13458222   0.01314647
9708.00   0.13501740   0.01307064
9710.00   0.14237617   0.01300895
9712.00   0.13701633   0.01334940
9714.00   0.11810826   0.01412513
9716.00   0.11750041   0.01472937
9718.00   0.12078107   0.01544812
9720.00   0.12704407   0.01588132
9722.00   0.14950234   0.01576084
9724.00   0.16621326   0.01515021
9726.00   0.16076193   0.01462652
9728.00   0.13460912   0.01393042
9730.00   0.12573313   0.01348466
9732.00   0.12294915   0.01311097
9734.00   0.12637058   0.01287355
9736.00   0.12649038   0.01293491
9738.00   0.11940302   0.01316449
9740.00   0.10891374   0.01326859
9742.00   0.08997234   0.01349339
9744.00   0.08609799   0.01332973
9746.00   0.09821781   0.01276754
9748.00   0.10455967   0.01209453
9750.00   0.10028718   0.01136250
9752.00   0.09304161   0.01074233
9754.00   0.09769475   0.01048689
9756.00   0.11419019   0.01058795
9758.00   0.12451850   0.01062619
9760.00   0.13623151   0.01088436
9762.00   0.14407539   0.01092763
9764.00   0.14290750   0.01061069
9766.00   0.13456212   0.01016952
9768.00   0.13346802   0.00998323
9770.00   0.13302294   0.00985949
9772.00   0.13218483   0.00987615
9774.00   0.12853198   0.01008185
9776.00   0.13343075   0.01029423
9778.00   0.14970236   0.01025923
9780.00   0.16516209   0.01058909
9782.00   0.16139146   0.01130342
9784.00   0.14236531   0.01235171
9786.00   0.13289013   0.01467292
9788.00   0.12276130   0.01825909
9790.00   0.12162856   0.01981596
9792.00   0.13195292   0.02033312
9794.00   0.14151156   0.02050956
9796.00   0.14312935   0.02014591
9798.00   0.13799143   0.01912271
9800.00   0.13928832   0.01833483
9802.00   0.14622933   0.01761300
9804.00   0.14473648   0.01680538
9806.00   0.12929711   0.01573125
9808.00   0.12695050   0.01491045
9810.00   0.14564157   0.01433726
9812.00   0.17256514   0.01383265
9814.00   0.17848045   0.01352357
9816.00   0.16234949   0.01349334
9818.00   0.14748549   0.01329237
9820.00   0.11275028   0.01308257
9822.00   0.10918969   0.01278097
9824.00   0.13865868   0.01234680
9826.00   0.15527376   0.01191656
9828.00   0.14019110   0.01159618
9830.00   0.11099981   0.01138061
9832.00   0.10646934   0.01132379
9834.00   0.11702775   0.01152471
9836.00   0.12892672   0.01156926
9838.00   0.14932503   0.01083249
9840.00   0.16375749   0.01097516
9842.00   0.16090970   0.01315455
9844.00   0.14093354   0.01582900
9846.00   0.11244906   0.01919665
9848.00   0.04609433   0.02533688
9850.00   0.02882181   0.02643161
9852.00   0.07328766   0.02175732
9854.00   0.11520370   0.01651589
9856.00   0.09635710   0.01782743
9858.00   0.04833734   0.02211365
9860.00   0.06227705   0.02138139
9862.00   0.12980062   0.01553559
9864.00   0.13826377   0.01374135
9866.00   0.09523109   0.01567300
9868.00   0.07294032   0.01771280
9870.00   0.07207566   0.01978498
9872.00   0.08437223   0.02139485
9874.00   0.10009357   0.02166544
9876.00   0.13055505   0.02106716
9878.00   0.13129935   0.01998739
9880.00   0.09873735   0.01721833
9882.00   0.08430861   0.01550505
9884.00   0.09600246   0.01502872
9886.00   0.11122242   0.01510360
9888.00   0.12419524   0.01545905
9890.00   0.14843946   0.01638514
9892.00   0.14780121   0.01700679
9894.00   0.12004811   0.01784211
9896.00   0.10943275   0.01802042
9898.00   0.10963482   0.01749407
9900.00   0.11178570   0.01692590
9902.00   0.13494179   0.01656599
9904.00   0.17902178   0.01625582
9906.00   0.19094667   0.01715009
9908.00   0.19097398   0.01934668
9910.00   0.19861527   0.02088428
9912.00   0.21929450   0.02238189
9914.00   0.18950977   0.02310073
9916.00   0.11679048   0.02324802
9918.00   0.04386359   0.02277994
9920.00   0.04104877   0.02191800
9922.00   0.10464628   0.02054832
9924.00   0.11749515   0.01949535
9926.00   0.09979580   0.01835046
9928.00   0.08999835   0.01740537
9930.00   0.08547558   0.01671518
9932.00   0.08243057   0.01648272
9934.00   0.10039732   0.01705528
9936.00   0.13967210   0.01827263
9938.00   0.14349253   0.02028760
9940.00   0.12152960   0.02320613
9942.00   0.10368849   0.02560397
9944.00   0.07628893   0.02824178
9946.00   0.04808662   0.03013270
9948.00   0.02906875   0.03062222
9950.00   0.00747169   0.03025549
9952.00   -0.00640525   0.02985246
9954.00   -0.02801415   0.02854325
9956.00   -0.00972050   0.02824759
9958.00   0.05270554   0.02936476
9960.00   0.12760801   0.02990776
9962.00   0.19016619   0.02907687
9964.00   0.22425681   0.02763421
9966.00   0.22163413   0.02674090
9968.00   0.17481164   0.02590082
9970.00   0.16240454   0.02498413
9972.00   0.17217577   0.02407114
9974.00   0.18148526   0.02342244
9976.00   0.15989957   0.02276214
9978.00   0.09268281   0.02190029
9980.00   0.07725810   0.02095871
9982.00   0.12959215   0.01997838
9984.00   0.13721204   0.01911489
9986.00   0.10704089   0.01817783
9988.00   0.09556673   0.01751547
9990.00   0.10888238   0.01724828
9992.00   0.11511291   0.01731627
9994.00   0.12718536   0.01779177
9996.00   0.14256514   0.01845249
9998.00   0.14067427   0.01929374
10000.00   0.12775669   0.02027140
10002.00   0.11604920   0.02168294
10004.00   0.06495357   0.02251366
10006.00   0.02091617   0.02387960
10008.00   0.03431533   0.02734244
10010.00   0.09179325   0.03192889
10012.00   0.11377186   0.03435632
10014.00   0.11565750   0.03648756
10016.00   0.10796544   0.03657771
10018.00   0.10283365   0.03412974
10020.00   0.12373159   0.03183586
10022.00   0.14345543   0.03057920
10024.00   0.14458068   0.02979933
10026.00   0.12165171   0.02908604
10028.00   0.06315332   0.02870719
10030.00   0.04790645   0.02737904
10032.00   0.06390980   0.02489995
10034.00   0.09053178   0.02292176
10036.00   0.11654918   0.02147872
10038.00   0.12980500   0.02058473
10040.00   0.12563394   0.02032196
10042.00   0.11133705   0.02105671
10044.00   0.09781644   0.02108895
10046.00   0.07708557   0.02083997
10048.00   0.05410342   0.02048171
10050.00   0.03934411   0.01977136
10052.00   0.03936242   0.01938669
10054.00   0.03144993   0.02041426
10056.00   0.00726943   0.02243807
10058.00   0.03471083   0.02363748
10060.00   0.13358014   0.02465025
10062.00   0.17229740   0.02546802
10064.00   0.16089125   0.02633401
10066.00   0.14645280   0.02715023
10068.00   0.13586629   0.02699398
10070.00   0.13084552   0.02564706
10072.00   0.13476658   0.02504182
10074.00   0.14473376   0.02403303
10076.00   0.14248443   0.02470972
10078.00   0.14145708   0.02701767
10080.00   0.15770257   0.02968080
10082.00   0.16989091   0.03234488
10084.00   0.16314846   0.03444884
10086.00   0.14287095   0.03418334
10088.00   0.09535170   0.03175985
10090.00   0.08587352   0.02984047
10092.00   0.12393194   0.02690724
10094.00   0.13708030   0.02483090
10096.00   0.08722197   0.02424700
10098.00   0.02349040   0.02472472
10100.00   0.03654671   0.02634768
10102.00   0.12946367   0.02971926
10104.00   0.14493263   0.03069558
10106.00   0.10647823   0.03016789
10108.00   0.07274381   0.02952605
10110.00   0.04864444   0.02881647
10112.00   0.04813869   0.02862460
10114.00   0.08630837   0.02869323
10116.00   0.15800270   0.02881455
10118.00   0.16341950   0.03006986
10120.00   0.10241198   0.03262884
10122.00   0.08150537   0.03435086
10124.00   0.07727071   0.03634671
10126.00   0.11106859   0.03735550
10128.00   0.19981277   0.03652534
10130.00   0.32573190   0.03460585
10132.00   0.35691071   0.03289281
10134.00   0.32591887   0.03031850
10136.00   0.28356219   0.02867975
10138.00   0.19760268   0.02777037
10140.00   0.11644598   0.02742813
10142.00   0.08726523   0.02810101
10144.00   0.10119910   0.02958954
10146.00   0.08116567   0.03066275
10148.00   0.05305091   0.03166798
10150.00   0.02894041   0.03253568
10152.00   -0.03936513   0.03336468
10154.00   -0.04009606   0.03416872
10156.00   0.10988667   0.03488720
10158.00   0.30827975   0.03553471
10160.00   0.37855880   0.03582607
10162.00   0.36140974   0.03535226
10164.00   0.34443523   0.03644667
10166.00   0.27983376   0.03868244
10168.00   0.24434777   0.04100855
10170.00   0.22412340   0.04375810
10172.00   0.22305127   0.04584135
10174.00   0.21204223   0.04640538
10176.00   0.18430306   0.04564164
10178.00   0.18419086   0.04464299
10180.00   0.20679592   0.04227073
10182.00   0.22335029   0.04108687
10184.00   0.25438987   0.04016449
10186.00   0.27342115   0.04026356
10188.00   0.27330425   0.04215628
10190.00   0.29028301   0.04484013
10192.00   0.28610508   0.04534618
10194.00   0.26368083   0.04435773
10196.00   0.23969071   0.04347781
10198.00   0.22298230   0.04107443
10200.00   0.17210301   0.04098560
10202.00   0.10131836   0.04444169
10204.00   0.04430524   0.04914856
10206.00   0.02298615   0.05201391
10208.00   0.01910028   0.05502187
10210.00   0.03369201   0.05535948
10212.00   0.08179273   0.05272220
10214.00   0.13057861   0.05012708
10216.00   0.18487501   0.04785174
10218.00   0.23449021   0.04609066
10220.00   0.22858556   0.04555386
10222.00   0.17490531   0.04618135
10224.00   0.16825043   0.04657858
10226.00   0.17783973   0.04728131
10228.00   0.19505423   0.04783243
10230.00   0.26887052   0.04896912
10232.00   0.34427810   0.05008990
10234.00   0.33662386   0.04938470
10236.00   0.29523664   0.04723965
10238.00   0.24535926   0.04517574
10240.00   0.13154773   0.04188430
10242.00   0.08369755   0.03941651
10244.00   0.13979983   0.03823018
10246.00   0.20092986   0.03794912
10248.00   0.21677379   0.03799128
10250.00   0.23103468   0.03880957
10252.00   0.19987991   0.03928960
10254.00   0.09966069   0.03982131
10256.00   0.05790497   0.03996185
10258.00   0.06034876   0.03987652
10260.00   0.07737612   0.03967470
10262.00   0.12219823   0.03937804
10264.00   0.17559674   0.03920942
10266.00   0.18578738   0.03958756
10268.00   0.16919745   0.04061485
10270.00   0.15686573   0.04167627
10272.00   0.12057067   0.04216926
10274.00   0.12629171   0.04383554
10276.00   0.14553681   0.04675066
10278.00   0.15659888   0.05104125
10280.00   0.22826779   0.05734636
10282.00   0.35075687   0.06462136
10284.00   0.35673723   0.07084354
10286.00   0.24597911   0.07904134
10288.00   0.20091896   0.08292011
10290.00   0.16394132   0.08171131
10292.00   0.17366770   0.07826968
10294.00   0.27126663   0.07426725
10296.00   0.42282618   0.06734297
10298.00   0.46097305   0.06411721
10300.00   0.41903564   0.06467672
10302.00   0.39408112   0.06335991
10304.00   0.34156168   0.06001776
10306.00   0.29113829   0.05685407
10308.00   0.26654214   0.05477786
10310.00   0.24908327   0.05366477
10312.00   0.23187093   0.05292673
10314.00   0.21698516   0.05301894
10316.00   0.21311154   0.05253872
10318.00   0.21860766   0.05165578
10320.00   0.22535027   0.05124027
10322.00   0.23690061   0.05163850
10324.00   0.26431313   0.05218093
10326.00   0.31866881   0.05187751
10328.00   0.42360984   0.05088429
10330.00   0.44680101   0.05003946
10332.00   0.42677249   0.04867808
10334.00   0.35518488   0.04818198
10336.00   0.18888116   0.04852851
10338.00   0.00423286   0.04971698
10340.00   -0.05012420   0.05146035
10342.00   0.01846230   0.05394118
10344.00   0.05304457   0.05525392
10346.00   0.10482951   0.05605970
10348.00   0.13935182   0.05638610
10350.00   0.20566865   0.05568792
10352.00   0.29239567   0.05558847
10354.00   0.34360307   0.05760916
10356.00   0.37760965   0.06104846
10358.00   0.35595150   0.06103033
10360.00   0.25558510   0.05717161
10362.00   0.18318506   0.05632966
10364.00   0.10908993   0.05694202
10366.00   0.11139841   0.05966699
10368.00   0.21734322   0.06599080
10370.00   0.37837526   0.07336280
10372.00   0.50354655   0.07564745
10374.00   0.69961452   0.07433756
10376.00   0.71358696   0.07410149
10378.00   0.48715861   0.07428777
10380.00   0.31247838   0.07465510
10382.00   0.28683307   0.07307182
10384.00   0.28951113   0.06946702
10386.00   0.29557974   0.06586668
10388.00   0.36087000   0.05992921
10390.00   0.42165034   0.05757205
10392.00   0.51342092   0.05872265
10394.00   0.55234548   0.06065911
10396.00   0.50604728   0.06275894
10398.00   0.40101726   0.06433044
10400.00   0.35455455   0.06493438
10402.00   0.35685121   0.06534852
10404.00   0.35098319   0.06503135
10406.00   0.35748323   0.06276583
10408.00   0.36710247   0.06255490
10410.00   0.36312163   0.06482573
10412.00   0.30772773   0.06763913
10414.00   0.28428452   0.06964988
10416.00   0.30393860   0.07190598
10418.00   0.35884976   0.07344445
10420.00   0.51082022   0.07492338
10422.00   0.54205506   0.07470942
10424.00   0.46845865   0.07376389
10426.00   0.35981172   0.07168479
10428.00   0.20468121   0.06722633
10430.00   0.04003301   0.06123363
10432.00   0.01878562   0.05971308
10434.00   0.10365393   0.06224190
10436.00   0.12435063   0.06334343
10438.00   0.12478561   0.06426293
10440.00   0.17971750   0.06479004
10442.00   0.29064331   0.06526896
10444.00   0.44566442   0.06631666
10446.00   0.48963036   0.06639184
10448.00   0.46382295   0.06507068
10450.00   0.40392577   0.06400662
10452.00   0.24673762   0.06279406
10454.00   0.13296654   0.06187190
10456.00   0.12039241   0.06102293
10458.00   0.21110309   0.06124935
10460.00   0.33925121   0.06235263
10462.00   0.52362733   0.06386523
10464.00   0.56533407   0.06507984
10466.00   0.47275876   0.06679030
10468.00   0.43276699   0.06754131
10470.00   0.43357517   0.06714847
10472.00   0.44618185   0.06623920
10474.00   0.43136914   0.06541573
10476.00   0.35905018   0.06424388
10478.00   0.31684021   0.06270978
10480.00   0.29751068   0.06006537
10482.00   0.29139780   0.05897264
10484.00   0.24180963   0.05913134
10486.00   0.17231883   0.05991563
10488.00   0.13931432   0.06102438
10490.00   0.14231562   0.06260102
10492.00   0.19997262   0.06227142
10494.00   0.35248734   0.05972371
10496.00   0.41777094   0.05874729
10498.00   0.41606742   0.05877933
10500.00   0.37640070   0.05926738
10502.00   0.36226815   0.06106037
10504.00   0.36603549   0.06405751
10506.00   0.37619767   0.06548130
10508.00   0.44521476   0.06606635
10510.00   0.45148650   0.06768369
10512.00   0.39247672   0.07090611
10514.00   0.34289606   0.07170757
10516.00   0.30879894   0.07056551
10518.00   0.28776027   0.06968439
10520.00   0.33537534   0.06928184
10522.00   0.39997324   0.06894545
10524.00   0.41442055   0.06945112
10526.00   0.40424596   0.07151584
10528.00   0.40636478   0.07169129
10530.00   0.31412637   0.07079402
10532.00   0.21537771   0.07013149
10534.00   0.26065496   0.06953600
10536.00   0.41562648   0.06878913
10538.00   0.35089054   0.06789818
10540.00   0.04290003   0.06632419
10542.00   -0.04742077   0.06578253
10544.00   0.04165698   0.06664894
10546.00   0.15190813   0.06766224
10548.00   0.29731688   0.06760499
10550.00   0.50158326   0.06723300
10552.00   0.56190768   0.06778268
10554.00   0.53066041   0.06894326
10556.00   0.46805154   0.06953480
10558.00   0.29500392   0.06972926
10560.00   0.18215486   0.07028668
10562.00   0.22163512   0.07137466
10564.00   0.32881145   0.07254724
10566.00   0.35141855   0.07307365
10568.00   0.35003309   0.07310904
10570.00   0.33701982   0.07444022
10572.00   0.26406576   0.07732931
10574.00   0.25334752   0.07892020
10576.00   0.35805412   0.07918639
10578.00   0.48477916   0.07941820
10580.00   0.49127004   0.08084856
10582.00   0.37355864   0.08303370
10584.00   0.34880108   0.08447763
10586.00   0.37087850   0.08599788
10588.00   0.38922039   0.08676468
10590.00   0.40429978   0.08611760
10592.00   0.40702313   0.08524796
10594.00   0.33251686   0.08531574
10596.00   0.20245237   0.08558027
10598.00   0.20648022   0.08691606
10600.00   0.33012103   0.08987420
10602.00   0.37830091   0.09169038
10604.00   0.40052284   0.09253499
10606.00   0.42320263   0.09302699
10608.00   0.41255112   0.09296596
10610.00   0.33922703   0.09220923
10612.00   0.29975288   0.09349415
10614.00   0.27843966   0.09549502
10616.00   0.29957200   0.09856437
10618.00   0.36120668   0.10412705
10620.00   0.40316908   0.10893114
10622.00   0.41230673   0.11028288
10624.00   0.41124921   0.10966391
10626.00   0.45621966   0.10878817
10628.00   0.55779706   0.10565418
10630.00   0.56978324   0.10410087
10632.00   0.48788215   0.10343475
10634.00   0.44609460   0.10315413
10636.00   0.46531518   0.10328845
10638.00   0.49305491   0.10378347
10640.00   0.51466954   0.10365974
10642.00   0.55117857   0.10304952
10644.00   0.51603942   0.10207546
10646.00   0.35268087   0.10040374
10648.00   0.33552646   0.09919636
10650.00   0.45352966   0.09781335
10652.00   0.57781404   0.09626502
10654.00   0.66939172   0.09547672
10656.00   0.75097740   0.09509716
10658.00   0.73011976   0.09379044
10660.00   0.57429966   0.09217566
10662.00   0.51809537   0.09021556
10664.00   0.55994201   0.08700394
10666.00   0.57277313   0.08328838
10668.00   0.47767459   0.08048065
10670.00   0.32787672   0.07809927
10672.00   0.29673005   0.07592295
10674.00   0.37688671   0.07437302
10676.00   0.38855578   0.07273034
10678.00   0.35153726   0.07091473
10680.00   0.28926293   0.06920150
10682.00   0.25663592   0.06827548
10684.00   0.24583763   0.06773626
10686.00   0.24782632   0.06600776
10688.00   0.32173243   0.06317720
10690.00   0.33476753   0.06116536
10692.00   0.30559725   0.05957555
10694.00   0.26285101   0.05804485
10696.00   0.21187735   0.05663819
10698.00   0.13082479   0.05526573
10700.00   0.11926373   0.05404597
10702.00   0.18490138   0.05322622
10704.00   0.24123795   0.05231832
10706.00   0.33844964   0.05172578
10708.00   0.39845248   0.05048140
10710.00   0.41710274   0.04864521
10712.00   0.39237763   0.04688299
10714.00   0.35818288   0.04547262
10716.00   0.30832568   0.04428225
10718.00   0.28261799   0.04352894
10720.00   0.28360742   0.04346279
10722.00   0.25698312   0.04309646
10724.00   0.17962835   0.04268687
10726.00   0.13599547   0.04189720
10728.00   0.16223465   0.04063966
10730.00   0.21245395   0.03929830
10732.00   0.20049275   0.03795490
10734.00   0.13000865   0.03591445
10736.00   0.12349337   0.03506489
10738.00   0.17311710   0.03596903
10740.00   0.21058605   0.03618144
10742.00   0.24027732   0.03525297
10744.00   0.27844298   0.03436110
10746.00   0.28402650   0.03384231
10748.00   0.25652196   0.03349222
10750.00   0.24411377   0.03284621
10752.00   0.24138362   0.03199472
10754.00   0.22486886   0.03098056
10756.00   0.18407659   0.03000313
10758.00   0.14710856   0.02937184
10760.00   0.13297753   0.02879798
10762.00   0.11039272   0.02820902
10764.00   0.11873256   0.02737509
10766.00   0.15172859   0.02612664
10768.00   0.20421173   0.02515387
10770.00   0.29689789   0.02470913
10772.00   0.35033542   0.02452403
10774.00   0.29353923   0.02390909
10776.00   0.15922710   0.02311586
10778.00   0.11559620   0.02232069
10780.00   0.11986230   0.02107599
10782.00   0.12311750   0.02053139
10784.00   0.14191034   0.02114743
10786.00   0.15432187   0.02150277
10788.00   0.13702376   0.02098890
10790.00   0.11445925   0.02021006
10792.00   0.14811263   0.01959425
10794.00   0.23388835   0.01882927
10796.00   0.27010960   0.01834999
10798.00   0.29521288   0.01802773
10800.00   0.28315217   0.01791123
10802.00   0.20204250   0.01859593
10804.00   0.11118609   0.01956746
10806.00   0.10637793   0.01938052
10808.00   0.15140977   0.01832931
10810.00   0.18071988   0.01787437
10812.00   0.23667277   0.01749690
10814.00   0.26896726   0.01735280
10816.00   0.23297736   0.01776996
10818.00   0.17537093   0.01859180
10820.00   0.17782303   0.01933185
10822.00   0.19906406   0.01991844
10824.00   0.21287364   0.01958595
10826.00   0.23878958   0.01786375
10828.00   0.25650519   0.01712232
10830.00   0.24943127   0.01667606
10832.00   0.23801128   0.01722397
10834.00   0.19151459   0.01890735
10836.00   0.09341542   0.02061332
10838.00   0.11206378   0.02108583
10840.00   0.25574718   0.02115319
10842.00   0.30861793   0.02015734
10844.00   0.29760668   0.01678312
10846.00   0.25301848   0.01419374
10848.00   0.16777433   0.01372396
10850.00   0.07382631   0.01411150
10852.00   0.07633521   0.01372005
10854.00   0.16354308   0.01305809
10856.00   0.19653613   0.01283838
10858.00   0.21594704   0.01292891
10860.00   0.21865900   0.01305246
10862.00   0.18022012   0.01386662
10864.00   0.11580039   0.01492916
10866.00   0.10001822   0.01438469
10868.00   0.10001822   0.01438469
