# File created by shivutils (I.Shivvers)
# wl(A)   flm    er(optional)
3420.00   0.44095090   0.04245840
3422.00   0.46537426   0.04336711
3424.00   0.45318025   0.04357488
3426.00   0.47352478   0.04356174
3428.00   0.46781439   0.04310224
3430.00   0.48822486   0.04452440
3432.00   0.45717844   0.04393552
3434.00   0.46304843   0.04498211
3436.00   0.38967404   0.04324528
3438.00   0.54890442   0.04582075
3440.00   0.52734756   0.04509565
3442.00   0.52871317   0.04564006
3444.00   0.52590406   0.04515435
3446.00   0.56943464   0.04713404
3448.00   0.55458182   0.04820144
3450.00   0.64338273   0.04977662
3452.00   0.55051547   0.04859186
3454.00   0.61112261   0.04872984
3456.00   0.60919672   0.04851112
3458.00   0.64900899   0.04825822
3460.00   0.72092003   0.04972813
3462.00   0.67598647   0.04885815
3464.00   0.67037684   0.04850558
3466.00   0.71322262   0.04970974
3468.00   0.73671317   0.05017880
3470.00   0.67999351   0.04789761
3472.00   0.73099297   0.04901612
3474.00   0.82811797   0.05146988
3476.00   0.77145207   0.05210684
3478.00   0.76426643   0.05343982
3480.00   0.82930481   0.05397176
3482.00   0.83985430   0.05348726
3484.00   0.79975367   0.05218200
3486.00   0.82157534   0.05226651
3488.00   0.93796951   0.05357804
3490.00   0.96261472   0.05364812
3492.00   0.98220545   0.05320651
3494.00   0.91512167   0.05172632
3496.00   0.93884903   0.05157327
3498.00   0.89658654   0.05159813
3500.00   0.92964083   0.05203144
3502.00   0.98898816   0.05225507
3504.00   0.95755607   0.05124416
3506.00   1.03618336   0.05262327
3508.00   1.03368044   0.05316006
3510.00   1.02300310   0.05243685
3512.00   1.05825317   0.05275097
3514.00   1.05351877   0.05272727
3516.00   0.96474832   0.05080312
3518.00   1.02087009   0.05141205
3520.00   1.08917487   0.05171461
3522.00   0.97964072   0.05005730
3524.00   1.04799759   0.05069774
3526.00   1.07658231   0.05112028
3528.00   1.07207429   0.05055128
3530.00   1.03092337   0.05008198
3532.00   1.07827091   0.05047519
3534.00   1.00408340   0.04914687
3536.00   1.06714451   0.05058528
3538.00   0.97408086   0.04979000
3540.00   1.06796372   0.05217490
3542.00   0.95042658   0.05070282
3544.00   1.04148984   0.05172857
3546.00   0.99056065   0.05033337
3548.00   1.05932152   0.05057981
3550.00   0.98324108   0.04986986
3552.00   1.03299117   0.05046866
3554.00   0.94424403   0.04916145
3556.00   1.11601162   0.05109449
3558.00   0.95782691   0.04843847
3560.00   1.00531733   0.04825836
3562.00   0.93486828   0.04641335
3564.00   1.05331731   0.04782792
3566.00   0.98429596   0.04679391
3568.00   0.93454736   0.04559767
3570.00   1.02427387   0.04689903
3572.00   0.99907464   0.04676987
3574.00   0.95647800   0.04558314
3576.00   0.99124908   0.04541757
3578.00   1.02121258   0.04550582
3580.00   1.02330148   0.04489166
3582.00   0.98570037   0.04383187
3584.00   0.97434974   0.04316637
3586.00   1.00786865   0.04389699
3588.00   1.03209078   0.04469409
3590.00   1.10960686   0.04541119
3592.00   1.07397330   0.04431086
3594.00   0.97361135   0.04267503
3596.00   1.02872241   0.04321947
3598.00   1.15205443   0.04462811
3600.00   1.08896983   0.04323503
3602.00   1.03893912   0.04263649
3604.00   1.02483130   0.04183517
3606.00   1.00787234   0.04158627
3608.00   1.00654364   0.04168305
3610.00   1.09207642   0.04339907
3612.00   1.06302571   0.04331042
3614.00   0.98223853   0.04258209
3616.00   1.06062436   0.04279765
3618.00   1.05232298   0.04231330
3620.00   1.07936919   0.04243000
3622.00   1.02513099   0.04194710
3624.00   1.09028399   0.04221466
3626.00   1.11403346   0.04247242
3628.00   1.10006821   0.04291372
3630.00   1.14084446   0.04369895
3632.00   1.07053268   0.04255125
3634.00   1.15163720   0.04287631
3636.00   1.09496915   0.04201860
3638.00   1.09771442   0.04221557
3640.00   1.10977638   0.04322128
3642.00   1.12778616   0.04390796
3644.00   1.13497746   0.04398880
3646.00   1.03489506   0.04737885
3648.00   1.08016765   0.05341437
3650.00   1.16595542   0.05316289
3652.00   1.07527733   0.04869043
3654.00   1.08599746   0.04656028
3656.00   1.03214598   0.04228880
3658.00   1.05891907   0.04134578
3660.00   1.13870931   0.04454026
3662.00   0.96335959   0.04283283
3664.00   1.04500818   0.04079787
3666.00   0.97579050   0.03730635
3668.00   1.04444993   0.03753780
3670.00   0.97810578   0.03652138
3672.00   0.96412539   0.03617236
3674.00   1.03986573   0.03657211
3676.00   1.00001180   0.03588503
3678.00   1.04437721   0.03616295
3680.00   1.03980720   0.03594764
3682.00   1.04487932   0.03557695
3684.00   1.03234112   0.03544339
3686.00   1.01238513   0.03509261
3688.00   1.02815735   0.03524372
3690.00   0.97747648   0.03478565
3692.00   1.00294185   0.03500972
3694.00   0.93174118   0.03384789
3696.00   1.02112150   0.03480067
3698.00   1.06426477   0.03585292
3700.00   1.11768651   0.03635943
3702.00   0.98287094   0.03472698
3704.00   1.03404677   0.03493016
3706.00   0.97688234   0.03413515
3708.00   1.04085779   0.03459678
3710.00   1.08933210   0.03514647
3712.00   1.00546801   0.03412308
3714.00   1.02725422   0.03420356
3716.00   1.04250526   0.03417914
3718.00   0.99360693   0.03362869
3720.00   0.99951357   0.03312109
3722.00   1.04971945   0.03386907
3724.00   1.04685497   0.03398160
3726.00   1.06081080   0.03417623
3728.00   1.06702626   0.03423428
3730.00   1.08027768   0.03434229
3732.00   1.06551945   0.03407889
3734.00   1.02621102   0.03357364
3736.00   0.99731654   0.03372421
3738.00   1.04385662   0.03438696
3740.00   1.11763453   0.03512084
3742.00   1.15505731   0.03482521
3744.00   1.15803361   0.03448044
3746.00   1.18928754   0.03433222
3748.00   1.04569256   0.03290157
3750.00   1.17386901   0.03417486
3752.00   1.17868781   0.03434276
3754.00   1.10273468   0.03362170
3756.00   1.16958797   0.03376419
3758.00   1.16691256   0.03363290
3760.00   1.10913038   0.03288828
3762.00   1.10813892   0.03266762
3764.00   1.10926580   0.03255048
3766.00   1.05677509   0.03176989
3768.00   1.12455678   0.03261333
3770.00   1.09653628   0.03240955
3772.00   1.03961384   0.03183224
3774.00   0.96731585   0.03082473
3776.00   1.02509582   0.03120504
3778.00   0.82893121   0.02889139
3780.00   0.85471439   0.02910108
3782.00   0.75850618   0.02805806
3784.00   0.85594308   0.02910863
3786.00   1.04489422   0.03173440
3788.00   1.06002700   0.03242365
3790.00   0.79794401   0.02898637
3792.00   0.52899170   0.02489554
3794.00   0.52007145   0.02436966
3796.00   0.50911349   0.02371818
3798.00   0.44775724   0.02288445
3800.00   0.46128851   0.02355375
3802.00   0.38217315   0.02241862
3804.00   0.41634810   0.02248400
3806.00   0.39528465   0.02189101
3808.00   0.37639338   0.02166305
3810.00   0.36297235   0.02185081
3812.00   0.36176333   0.02180804
3814.00   0.36978179   0.02206259
3816.00   0.34175417   0.02122202
3818.00   0.34029761   0.02103907
3820.00   0.34705630   0.02118761
3822.00   0.28558758   0.02017795
3824.00   0.27096212   0.01985465
3826.00   0.29694882   0.02085197
3828.00   0.28570056   0.02126482
3830.00   0.30359074   0.02163391
3832.00   0.30702031   0.02106387
3834.00   0.28480169   0.02054176
3836.00   0.31078649   0.02081218
3838.00   0.27832073   0.02035929
3840.00   0.26655412   0.02011118
3842.00   0.27967972   0.02033018
3844.00   0.29837543   0.02020377
3846.00   0.33232716   0.02038205
3848.00   0.30642685   0.01988950
3850.00   0.32011181   0.01997767
3852.00   0.32439551   0.01984762
3854.00   0.28274578   0.01913981
3856.00   0.31135291   0.01937601
3858.00   0.33716640   0.01968999
3860.00   0.32717949   0.01975410
3862.00   0.32148302   0.01980568
3864.00   0.31054404   0.01939945
3866.00   0.34540465   0.01981650
3868.00   0.34066036   0.01938487
3870.00   0.36715913   0.01993866
3872.00   0.37811911   0.02079034
3874.00   0.34646118   0.02054446
3876.00   0.38001338   0.02027249
3878.00   0.34595138   0.01955405
3880.00   0.33479354   0.01913167
3882.00   0.39472848   0.01996041
3884.00   0.39958856   0.02001316
3886.00   0.40536678   0.01996708
3888.00   0.40379620   0.01985220
3890.00   0.42449671   0.02013474
3892.00   0.40873560   0.02009660
3894.00   0.44119743   0.02071090
3896.00   0.42434090   0.02061407
3898.00   0.44645277   0.02068847
3900.00   0.43620667   0.02067173
3902.00   0.49998078   0.02188029
3904.00   0.53072584   0.02350677
3906.00   0.53628218   0.02499933
3908.00   0.57713789   0.02579217
3910.00   0.50215530   0.02518518
3912.00   0.58894467   0.02547045
3914.00   0.55157411   0.02369338
3916.00   0.57040274   0.02304853
3918.00   0.60493308   0.02285818
3920.00   0.62115663   0.02265856
3922.00   0.65335780   0.02281963
3924.00   0.67404091   0.02294209
3926.00   0.71193665   0.02301602
3928.00   0.74674630   0.02330309
3930.00   0.72520596   0.02345262
3932.00   0.73223740   0.02377436
3934.00   0.74736208   0.02361912
3936.00   0.83743519   0.02386008
3938.00   0.85128635   0.02423641
3940.00   0.82425833   0.02428932
3942.00   0.89623857   0.02549738
3944.00   0.92794520   0.02573085
3946.00   0.95064557   0.02527603
3948.00   0.92082173   0.02481401
3950.00   1.01750731   0.02549240
3952.00   1.01384974   0.02544497
3954.00   1.06698787   0.02572428
3956.00   1.11790919   0.02609394
3958.00   1.16471052   0.02695019
3960.00   1.16325116   0.02737756
3962.00   1.16706884   0.02704678
3964.00   1.19713271   0.02646426
3966.00   1.20821822   0.02641685
3968.00   1.26576984   0.02673274
3970.00   1.30765557   0.02721245
3972.00   1.32773137   0.02754546
3974.00   1.40771914   0.02813179
3976.00   1.37277687   0.02774053
3978.00   1.41102672   0.02810079
3980.00   1.45670688   0.02833987
3982.00   1.44097686   0.02811872
3984.00   1.48669100   0.02833679
3986.00   1.53113651   0.02872188
3988.00   1.50444865   0.02859658
3990.00   1.58059025   0.02907928
3992.00   1.56698918   0.02889995
3994.00   1.52605081   0.02907022
3996.00   1.52223265   0.02931311
3998.00   1.58832657   0.02932698
4000.00   1.53874123   0.02849265
4002.00   1.57187784   0.02867549
4004.00   1.56330073   0.02858253
4006.00   1.58291793   0.02882582
4008.00   1.61153495   0.02918863
4010.00   1.62107849   0.02922744
4012.00   1.57309055   0.02883412
4014.00   1.58581185   0.02868809
4016.00   1.52346194   0.02863618
4018.00   1.61904705   0.03044773
4020.00   1.62052822   0.03126174
4022.00   1.55217409   0.03089088
4024.00   1.61766708   0.03066509
4026.00   1.63490510   0.02977648
4028.00   1.60929358   0.02916474
4030.00   1.53592336   0.02863485
4032.00   1.61559463   0.02884890
4034.00   1.60982919   0.02861485
4036.00   1.58962357   0.02844606
4038.00   1.56246567   0.02807643
4040.00   1.55415952   0.02817754
4042.00   1.56535661   0.03031248
4044.00   1.42860138   0.03800831
4046.00   1.56167030   0.04122021
4048.00   1.62586546   0.03543236
4050.00   1.55032325   0.02915585
4052.00   1.58314168   0.02894825
4054.00   1.57053542   0.02886898
4056.00   1.55199397   0.02808501
4058.00   1.59913754   0.02789261
4060.00   1.56064141   0.02749552
4062.00   1.60180843   0.02772838
4064.00   1.57628608   0.02758693
4066.00   1.61622989   0.02772679
4068.00   1.55021727   0.02727405
4070.00   1.58239079   0.02720462
4072.00   1.56210220   0.02696413
4074.00   1.56241941   0.02775722
4076.00   1.46828306   0.02850816
4078.00   1.57735419   0.02921881
4080.00   1.53648150   0.02812487
4082.00   1.45911252   0.02731844
4084.00   1.47475123   0.02716929
4086.00   1.50455201   0.02703031
4088.00   1.42174768   0.02594424
4090.00   1.41441751   0.02533466
4092.00   1.45373929   0.02562422
4094.00   1.42750049   0.02535965
4096.00   1.42101645   0.02523257
4098.00   1.40897787   0.02522310
4100.00   1.39980567   0.02494958
4102.00   1.32786703   0.02428157
4104.00   1.34138596   0.02431909
4106.00   1.31634986   0.02418736
4108.00   1.29461408   0.02406556
4110.00   1.26540232   0.02369706
4112.00   1.26017487   0.02366032
4114.00   1.30076361   0.02391617
4116.00   1.25787210   0.02352464
4118.00   1.20915806   0.02310041
4120.00   1.22985256   0.02305869
4122.00   1.20443225   0.02294447
4124.00   1.18599844   0.02281393
4126.00   1.17357290   0.02273621
4128.00   1.14426863   0.02260145
4130.00   1.17753804   0.02301525
4132.00   1.18476307   0.02334731
4134.00   1.18618727   0.02315860
4136.00   1.14642477   0.02264017
4138.00   1.12657821   0.02272441
4140.00   1.12325203   0.02266262
4142.00   1.12179029   0.02215646
4144.00   1.12152767   0.02187510
4146.00   1.07954955   0.02149525
4148.00   1.09203887   0.02176794
4150.00   1.06068516   0.02194137
4152.00   1.08173215   0.02236562
4154.00   1.06080258   0.02170592
4156.00   1.05021191   0.02132545
4158.00   1.07087839   0.02140685
4160.00   1.07167077   0.02150006
4162.00   1.04699075   0.02187080
4164.00   1.04190075   0.02232284
4166.00   1.05908942   0.02209592
4168.00   1.04923880   0.02131214
4170.00   1.01621222   0.02080229
4172.00   1.03828740   0.02081158
4174.00   1.00722730   0.02042742
4176.00   1.01724768   0.02059357
4178.00   0.99724030   0.02054688
4180.00   0.97531641   0.02018287
4182.00   0.97973371   0.01996991
4184.00   0.99868560   0.02007211
4186.00   1.00893676   0.02014765
4188.00   1.01122439   0.02014848
4190.00   1.01074588   0.02009598
4192.00   0.99612403   0.02007103
4194.00   1.04809797   0.02029289
4196.00   1.02961409   0.02001477
4198.00   1.00183308   0.01980516
4200.00   1.03800499   0.02002817
4202.00   1.03903794   0.02011573
4204.00   1.05027366   0.02019146
4206.00   1.05422950   0.02032062
4208.00   1.08216608   0.02067701
4210.00   1.09261167   0.02077601
4212.00   1.08296335   0.02059358
4214.00   1.05899858   0.02031239
4216.00   1.03462243   0.02018712
4218.00   1.07428861   0.02037686
4220.00   1.08584929   0.02035173
4222.00   1.07345808   0.02023585
4224.00   1.10204852   0.02036309
4226.00   1.07543039   0.02017473
4228.00   1.07439649   0.02021007
4230.00   1.08288419   0.02044686
4232.00   1.14217329   0.02091486
4234.00   1.08483744   0.02053069
4236.00   1.09354627   0.02072711
4238.00   1.09730840   0.02077243
4240.00   1.12040877   0.02050594
4242.00   1.12439835   0.02044646
4244.00   1.14940381   0.02177126
4246.00   1.13482904   0.02241824
4248.00   1.12524140   0.02160032
4250.00   1.14191532   0.02062395
4252.00   1.11900413   0.02034122
4254.00   1.16622508   0.02063489
4256.00   1.12270999   0.02044485
4258.00   1.13946712   0.02046064
4260.00   1.15521288   0.02035984
4262.00   1.10063660   0.01997440
4264.00   1.13771200   0.02015037
4266.00   1.11127269   0.01991067
4268.00   1.10104728   0.01985296
4270.00   1.07956338   0.01977199
4272.00   1.11462498   0.01996331
4274.00   1.11091459   0.01998086
4276.00   1.09982193   0.01997039
4278.00   1.15087807   0.02029797
4280.00   1.10901499   0.02006591
4282.00   1.10213280   0.02000357
4284.00   1.08054090   0.01979753
4286.00   1.10138988   0.01980390
4288.00   1.06849372   0.01957831
4290.00   1.11044872   0.01985034
4292.00   1.09567320   0.01980399
4294.00   1.13384557   0.02005721
4296.00   1.07559824   0.01960857
4298.00   1.11425734   0.01975778
4300.00   1.08358169   0.01946754
4302.00   1.12958193   0.01980087
4304.00   1.09268177   0.01967698
4306.00   1.09289300   0.01966802
4308.00   1.09537721   0.01966039
4310.00   1.09259152   0.01985229
4312.00   1.13129354   0.02088427
4314.00   1.13983810   0.02120153
4316.00   1.11034298   0.02037377
4318.00   1.13139927   0.02058707
4320.00   1.13030374   0.02084722
4322.00   1.09227312   0.02043219
4324.00   1.16111279   0.02064794
4326.00   1.13163114   0.02027317
4328.00   1.14704323   0.02001421
4330.00   1.12078440   0.01975707
4332.00   1.14044750   0.01985229
4334.00   1.13295281   0.01985395
4336.00   1.13673329   0.02003518
4338.00   1.10614812   0.01998769
4340.00   1.10058188   0.02000692
4342.00   1.12133765   0.02007104
4344.00   1.13029277   0.02047176
4346.00   1.14808214   0.02107005
4348.00   1.15007639   0.02106568
4350.00   1.13643861   0.02056787
4352.00   1.15696049   0.02060200
4354.00   1.15691805   0.02356328
4356.00   1.12182200   0.03406976
4358.00   1.12007880   0.03787019
4360.00   1.18768167   0.03138653
4362.00   1.16946089   0.02337620
4364.00   1.16310096   0.02136958
4366.00   1.15173972   0.02082964
4368.00   1.15134501   0.02065714
4370.00   1.18319893   0.02077042
4372.00   1.09852779   0.02058699
4374.00   1.16375387   0.02116308
4376.00   1.17471349   0.02081892
4378.00   1.15087736   0.02027486
4380.00   1.16085052   0.02013179
4382.00   1.14358473   0.01993319
4384.00   1.12789845   0.01975347
4386.00   1.12749243   0.01964230
4388.00   1.10952759   0.01960192
4390.00   1.10924709   0.01966891
4392.00   1.14529955   0.01985599
4394.00   1.06160140   0.01922658
4396.00   1.07091093   0.01932750
4398.00   1.12305093   0.01991469
4400.00   1.06497610   0.01980435
4402.00   1.06893718   0.01959481
4404.00   1.06823373   0.01931737
4406.00   1.01692355   0.01899121
4408.00   1.05430937   0.01931874
4410.00   1.07943738   0.01944849
4412.00   1.03321230   0.01927765
4414.00   0.96478885   0.01907053
4416.00   0.92285979   0.01880368
4418.00   0.95111352   0.01862356
4420.00   0.93350554   0.01836472
4422.00   0.84194076   0.01824787
4424.00   0.83758682   0.01826385
4426.00   0.88215220   0.01796864
4428.00   0.84152114   0.01769806
4430.00   0.82734418   0.01763366
4432.00   0.83243644   0.01763790
4434.00   0.81010526   0.01742011
4436.00   0.83382732   0.01753419
4438.00   0.78969598   0.01733451
4440.00   0.77841854   0.01717942
4442.00   0.76404655   0.01703984
4444.00   0.75409716   0.01694442
4446.00   0.74605191   0.01690186
4448.00   0.72448236   0.01666154
4450.00   0.73161668   0.01669750
4452.00   0.73060608   0.01661313
4454.00   0.70045364   0.01638574
4456.00   0.71627688   0.01647836
4458.00   0.69267327   0.01630890
4460.00   0.68891782   0.01633427
4462.00   0.69127297   0.01638867
4464.00   0.66942513   0.01615600
4466.00   0.66980487   0.01611377
4468.00   0.66828609   0.01604219
4470.00   0.67230278   0.01604399
4472.00   0.65591103   0.01598389
4474.00   0.66078228   0.01600183
4476.00   0.67681992   0.01608048
4478.00   0.68586731   0.01617060
4480.00   0.68182099   0.01610856
4482.00   0.68956232   0.01621573
4484.00   0.66582572   0.01612016
4486.00   0.70124555   0.01630530
4488.00   0.69496208   0.01616855
4490.00   0.70816737   0.01629874
4492.00   0.70922536   0.01643887
4494.00   0.69761378   0.01642192
4496.00   0.69092965   0.01635276
4498.00   0.70830101   0.01652231
4500.00   0.71152115   0.01639198
4502.00   0.72859490   0.01647611
4504.00   0.67802107   0.01607834
4506.00   0.71513987   0.01626279
4508.00   0.71425813   0.01623262
4510.00   0.76198465   0.01646427
4512.00   0.74905610   0.01635324
4514.00   0.72628129   0.01618969
4516.00   0.76719368   0.01639393
4518.00   0.77845508   0.01643900
4520.00   0.76994991   0.01639276
4522.00   0.78279769   0.01645497
4524.00   0.78909278   0.01641751
4526.00   0.79584742   0.01639175
4528.00   0.80156910   0.01644074
4530.00   0.80772400   0.01649826
4532.00   0.84606969   0.01676053
4534.00   0.82936585   0.01663424
4536.00   0.83107787   0.01668653
4538.00   0.86483699   0.01687803
4540.00   0.85662854   0.01677079
4542.00   0.87725264   0.01704204
4544.00   0.88822323   0.01712208
4546.00   0.89330745   0.01703787
4548.00   0.91274053   0.01705630
4550.00   0.93072319   0.01700400
4552.00   0.90312266   0.01685602
4554.00   0.89545482   0.01679596
4556.00   0.94017160   0.01712997
4558.00   0.94755089   0.01718569
4560.00   0.95074314   0.01708576
4562.00   1.01312888   0.01736415
4564.00   0.97536546   0.01706984
4566.00   1.04985285   0.01748951
4568.00   1.05872118   0.01755929
4570.00   1.03422308   0.01742823
4572.00   1.04004538   0.01754842
4574.00   1.05584133   0.01765794
4576.00   1.08084798   0.01773411
4578.00   1.08213723   0.01766030
4580.00   1.11016333   0.01772824
4582.00   1.09313297   0.01761087
4584.00   1.08915651   0.01750681
4586.00   1.14323890   0.01778552
4588.00   1.13813114   0.01783375
4590.00   1.17031097   0.01796172
4592.00   1.16656053   0.01798022
4594.00   1.16828012   0.01800067
4596.00   1.20190215   0.01812359
4598.00   1.18694091   0.01799684
4600.00   1.21417618   0.01809094
4602.00   1.21738517   0.01810920
4604.00   1.19952857   0.01806289
4606.00   1.23972666   0.01824796
4608.00   1.26497412   0.01839617
4610.00   1.24522698   0.01830004
4612.00   1.28288233   0.01841123
4614.00   1.26356137   0.01825510
4616.00   1.27101111   0.01823668
4618.00   1.29615247   0.01835741
4620.00   1.25006247   0.01809765
4622.00   1.28716695   0.01829455
4624.00   1.26376426   0.01817878
4626.00   1.31270444   0.01842645
4628.00   1.30705845   0.01839634
4630.00   1.34232485   0.01851692
4632.00   1.34459817   0.01856604
4634.00   1.32845926   0.01848086
4636.00   1.33827960   0.01849298
4638.00   1.31958902   0.01838231
4640.00   1.28460026   0.01818107
4642.00   1.32356250   0.01840862
4644.00   1.34430707   0.01846326
4646.00   1.35091388   0.01850357
4648.00   1.36653590   0.01863515
4650.00   1.34115958   0.01851372
4652.00   1.36165214   0.01866617
4654.00   1.33274662   0.01851307
4656.00   1.37781584   0.01876386
4658.00   1.30053365   0.01844995
4660.00   1.35658836   0.01882980
4662.00   1.34611690   0.01886373
4664.00   1.35266602   0.01901600
4666.00   1.33479393   0.01907178
4668.00   1.34621191   0.01928787
4670.00   1.29859984   0.01905578
4672.00   1.33840048   0.01918012
4674.00   1.34594524   0.01905694
4676.00   1.34021235   0.01880876
4678.00   1.32503486   0.01861472
4680.00   1.32329297   0.01849552
4682.00   1.32219756   0.01840897
4684.00   1.35875666   0.01852999
4686.00   1.33274019   0.01830997
4688.00   1.30927551   0.01820016
4690.00   1.34948814   0.01832860
4692.00   1.33179903   0.01821231
4694.00   1.36800086   0.01835543
4696.00   1.36304796   0.01833095
4698.00   1.34936619   0.01816822
4700.00   1.34794891   0.01812032
4702.00   1.33316565   0.01807612
4704.00   1.37438083   0.01831164
4706.00   1.34699202   0.01824887
4708.00   1.33600688   0.01828967
4710.00   1.36211562   0.01840258
4712.00   1.34642518   0.01827339
4714.00   1.30630934   0.01798682
4716.00   1.34148729   0.01806620
4718.00   1.33344066   0.01797613
4720.00   1.31667149   0.01793181
4722.00   1.28967798   0.01778517
4724.00   1.33059180   0.01794652
4726.00   1.33915627   0.01825239
4728.00   1.30346060   0.01844097
4730.00   1.28755701   0.01837985
4732.00   1.31975412   0.01851773
4734.00   1.32579315   0.01868952
4736.00   1.31968486   0.01881615
4738.00   1.29357624   0.01881907
4740.00   1.33049142   0.01921771
4742.00   1.30181158   0.01932433
4744.00   1.29570007   0.01898636
4746.00   1.27894342   0.01823289
4748.00   1.26006150   0.01770585
4750.00   1.27331519   0.01781041
4752.00   1.30081761   0.01808922
4754.00   1.30318344   0.01798078
4756.00   1.28220606   0.01759261
4758.00   1.30064213   0.01748922
4760.00   1.29149556   0.01730997
4762.00   1.26125121   0.01712205
4764.00   1.26436341   0.01710292
4766.00   1.25730252   0.01700485
4768.00   1.26317823   0.01698173
4770.00   1.27720463   0.01707264
4772.00   1.26700413   0.01698166
4774.00   1.24072969   0.01686057
4776.00   1.23118317   0.01688187
4778.00   1.22702301   0.01712999
4780.00   1.18685424   0.01688543
4782.00   1.15541041   0.01647892
4784.00   1.15676224   0.01631561
4786.00   1.19609714   0.01647625
4788.00   1.16804826   0.01634490
4790.00   1.17537189   0.01641097
4792.00   1.15294576   0.01633554
4794.00   1.15556955   0.01621410
4796.00   1.13315952   0.01603586
4798.00   1.10694933   0.01583437
4800.00   1.09565067   0.01574898
4802.00   1.03861582   0.01541777
4804.00   1.05446899   0.01552892
4806.00   1.02659535   0.01540016
4808.00   1.03604031   0.01542088
4810.00   0.99436235   0.01520175
4812.00   0.94238192   0.01487219
4814.00   0.93525887   0.01482535
4816.00   0.91647446   0.01475685
4818.00   0.91549927   0.01475855
4820.00   0.88967311   0.01463464
4822.00   0.84332120   0.01441407
4824.00   0.81969649   0.01427906
4826.00   0.81436801   0.01432087
4828.00   0.81368709   0.01426993
4830.00   0.77267623   0.01398770
4832.00   0.77510881   0.01408434
4834.00   0.72897273   0.01375593
4836.00   0.73299932   0.01369978
4838.00   0.70082527   0.01373208
4840.00   0.71868068   0.01389142
4842.00   0.69079900   0.01356761
4844.00   0.66395754   0.01321921
4846.00   0.69691634   0.01348168
4848.00   0.68114382   0.01341791
4850.00   0.68098086   0.01340245
4852.00   0.69653976   0.01349575
4854.00   0.66179371   0.01317414
4856.00   0.65468985   0.01303719
4858.00   0.65803266   0.01304708
4860.00   0.64052558   0.01298743
4862.00   0.64439398   0.01307574
4864.00   0.65241402   0.01312831
4866.00   0.64701062   0.01305002
4868.00   0.63154352   0.01293514
4870.00   0.63856709   0.01295795
4872.00   0.65057343   0.01302714
4874.00   0.63677472   0.01318929
4876.00   0.60349447   0.01292700
4878.00   0.65009671   0.01317611
4880.00   0.64656138   0.01307991
4882.00   0.63391900   0.01295744
4884.00   0.63785022   0.01293624
4886.00   0.61987925   0.01270872
4888.00   0.62996119   0.01276074
4890.00   0.62809116   0.01273396
4892.00   0.62743616   0.01277565
4894.00   0.61436528   0.01273902
4896.00   0.63112736   0.01276011
4898.00   0.62272954   0.01265129
4900.00   0.59117335   0.01237728
4902.00   0.59804922   0.01244359
4904.00   0.61064106   0.01250958
4906.00   0.61674458   0.01258405
4908.00   0.60188025   0.01258177
4910.00   0.59845829   0.01255684
4912.00   0.59095001   0.01242231
4914.00   0.58439350   0.01243328
4916.00   0.57927144   0.01241051
4918.00   0.57027578   0.01229650
4920.00   0.57685554   0.01228177
4922.00   0.57081097   0.01228245
4924.00   0.56572771   0.01216314
4926.00   0.55494541   0.01198927
4928.00   0.56380689   0.01195044
4930.00   0.54231280   0.01181778
4932.00   0.57117385   0.01201216
4934.00   0.54748666   0.01193056
4936.00   0.54788977   0.01194392
4938.00   0.62732142   0.01264519
4940.00   0.69731361   0.01325044
4942.00   0.66852707   0.01296165
4944.00   0.57626688   0.01213250
4946.00   0.57392359   0.01205146
4948.00   0.55743784   0.01193574
4950.00   0.56219441   0.01201556
4952.00   0.56593889   0.01223511
4954.00   0.56587178   0.01231769
4956.00   0.58710450   0.01234907
4958.00   0.57268953   0.01218310
4960.00   0.59094667   0.01230875
4962.00   0.59506780   0.01239696
4964.00   0.60577756   0.01257141
4966.00   0.61045265   0.01265659
4968.00   0.59458822   0.01265673
4970.00   0.63406527   0.01308338
4972.00   0.64566690   0.01340886
4974.00   0.63826662   0.01367467
4976.00   0.62015659   0.01389173
4978.00   0.67950058   0.01470654
4980.00   0.66074884   0.01510815
4982.00   0.69923413   0.01556791
4984.00   0.69252723   0.01553107
4986.00   0.69231838   0.01520273
4988.00   0.75195897   0.01514046
4990.00   0.72874916   0.01464904
4992.00   0.74227226   0.01446094
4994.00   0.73391366   0.01410750
4996.00   0.73859274   0.01379121
4998.00   0.74878085   0.01359283
5000.00   0.77922165   0.01366101
5002.00   0.79911292   0.01368886
5004.00   0.77917832   0.01350607
5006.00   0.79383177   0.01357703
5008.00   0.82399952   0.01366137
5010.00   0.82745910   0.01367661
5012.00   0.84338343   0.01370627
5014.00   0.86285222   0.01382967
5016.00   0.87511826   0.01394029
5018.00   0.89619958   0.01414914
5020.00   0.89822918   0.01422413
5022.00   0.90653795   0.01422632
5024.00   0.91068977   0.01415556
5026.00   0.92209011   0.01414269
5028.00   0.91619384   0.01417278
5030.00   0.92084581   0.01431600
5032.00   0.90380937   0.01425681
5034.00   0.92615384   0.01420633
5036.00   0.91446817   0.01404150
5038.00   0.90035123   0.01393851
5040.00   0.92725229   0.01411839
5042.00   0.91778189   0.01407787
5044.00   0.90182436   0.01401136
5046.00   0.86415380   0.01382668
5048.00   0.84714752   0.01369126
5050.00   0.81931841   0.01351767
5052.00   0.84462738   0.01359817
5054.00   0.82426804   0.01352805
5056.00   0.84019238   0.01363279
5058.00   0.78505844   0.01330951
5060.00   0.79068494   0.01335535
5062.00   0.76960021   0.01339802
5064.00   0.75258005   0.01349682
5066.00   0.76570874   0.01364532
5068.00   0.73240733   0.01371743
5070.00   0.69568479   0.01362734
5072.00   0.70187712   0.01342237
5074.00   0.69969398   0.01324985
5076.00   0.71676451   0.01328989
5078.00   0.67305815   0.01310568
5080.00   0.67787004   0.01386033
5082.00   0.67527717   0.01471427
5084.00   0.66297823   0.01525575
5086.00   0.73996520   0.01573054
5088.00   0.77083564   0.01538414
5090.00   0.74824411   0.01441902
5092.00   0.68460089   0.01341543
5094.00   0.63519859   0.01283794
5096.00   0.61865991   0.01293246
5098.00   0.63935286   0.01334929
5100.00   0.63625550   0.01338912
5102.00   0.64301938   0.01316771
5104.00   0.63125175   0.01276469
5106.00   0.62068963   0.01252885
5108.00   0.60899115   0.01241946
5110.00   0.62157732   0.01250424
5112.00   0.60128790   0.01244177
5114.00   0.64814413   0.01285136
5116.00   0.60291511   0.01263395
5118.00   0.64108914   0.01276727
5120.00   0.64731717   0.01269597
5122.00   0.61549062   0.01241583
5124.00   0.64294595   0.01256202
5126.00   0.66099924   0.01266754
5128.00   0.65746403   0.01263584
5130.00   0.66658223   0.01276409
5132.00   0.66610265   0.01279937
5134.00   0.65097225   0.01271765
5136.00   0.64692289   0.01269972
5138.00   0.68992907   0.01299500
5140.00   0.67832452   0.01292266
5142.00   0.70202821   0.01314242
5144.00   0.69364077   0.01312843
5146.00   0.73460943   0.01351677
5148.00   0.69612271   0.01351735
5150.00   0.74823427   0.01408659
5152.00   0.72749865   0.01421477
5154.00   0.77438933   0.01465353
5156.00   0.74753028   0.01431621
5158.00   0.74653107   0.01407189
5160.00   0.77648354   0.01406933
5162.00   0.74870807   0.01372425
5164.00   0.75914735   0.01369393
5166.00   0.78349692   0.01377176
5168.00   0.81571436   0.01394305
5170.00   0.79328513   0.01383032
5172.00   0.81043041   0.01389750
5174.00   0.85217720   0.01424137
5176.00   0.80097288   0.01398221
5178.00   0.82688057   0.01416260
5180.00   0.83209759   0.01416940
5182.00   0.85694778   0.01426380
5184.00   0.84008288   0.01422150
5186.00   0.84800875   0.01432114
5188.00   0.85553271   0.01445006
5190.00   0.88846576   0.01467075
5192.00   0.85315824   0.01444954
5194.00   0.85987943   0.01450577
5196.00   0.84181035   0.01450870
5198.00   0.85600936   0.01468815
5200.00   0.85005164   0.01471837
5202.00   0.88005954   0.01494165
5204.00   0.88798815   0.01488500
5206.00   0.85978687   0.01465320
5208.00   0.88930011   0.01500146
5210.00   0.87030375   0.01501058
5212.00   0.85399777   0.01494605
5214.00   0.84812492   0.01482524
5216.00   0.86747527   0.01489931
5218.00   0.81965405   0.01471502
5220.00   0.84788769   0.01503904
5222.00   0.85324067   0.01499087
5224.00   0.86641443   0.01498215
5226.00   0.86925811   0.01495572
5228.00   0.87621677   0.01500140
5230.00   0.86240983   0.01505460
5232.00   0.87677562   0.01515099
5234.00   0.83656383   0.01488095
5236.00   0.83591473   0.01490405
5238.00   0.81536025   0.01484879
5240.00   0.82692587   0.01499770
5242.00   0.83800936   0.01502120
5244.00   0.86341316   0.01512271
5246.00   0.88725084   0.01527962
5248.00   0.86135709   0.01514184
5250.00   0.84810203   0.01509512
5252.00   0.84494656   0.01502207
5254.00   0.86377102   0.01527405
5256.00   0.84372735   0.01528585
5258.00   0.83934200   0.01542762
5260.00   0.87398744   0.01556711
5262.00   0.92063802   0.01578844
5264.00   0.87896627   0.01544375
5266.00   0.88231748   0.01543365
5268.00   0.89373267   0.01552020
5270.00   0.88226724   0.01545012
5272.00   0.92640078   0.01582685
5274.00   0.92941868   0.01589828
5276.00   0.89362049   0.01574726
5278.00   0.92704463   0.01600838
5280.00   0.93568575   0.01603729
5282.00   0.91879743   0.01599128
5284.00   0.91118968   0.01609245
5286.00   0.94470948   0.01635079
5288.00   0.96157014   0.01646260
5290.00   0.93570679   0.01625047
5292.00   0.93562436   0.01626453
5294.00   0.98304367   0.01662691
5296.00   0.99244416   0.01673969
5298.00   0.97876132   0.01673906
5300.00   0.98137218   0.01683041
5302.00   0.97706068   0.01687749
5304.00   0.99357289   0.01697681
5306.00   1.01409328   0.01710229
5308.00   0.98465896   0.01697237
5310.00   1.01783288   0.01723292
5312.00   1.01774836   0.01733323
5314.00   1.01906645   0.01736238
5316.00   1.02474999   0.01742719
5318.00   1.03752029   0.01754051
5320.00   1.01122785   0.01740219
5322.00   1.00599718   0.01740424
5324.00   1.04405963   0.01770567
5326.00   1.08838892   0.01808995
5328.00   1.06817961   0.01801262
5330.00   1.06449533   0.01805477
5332.00   1.07301652   0.01818357
5334.00   1.09883296   0.01838627
5336.00   1.09801018   0.01843154
5338.00   1.05415142   0.01824867
5340.00   1.08547175   0.01859100
5342.00   1.13750470   0.01906860
5344.00   1.09186697   0.01877300
5346.00   1.11113334   0.01891273
5348.00   1.12490964   0.01931648
5350.00   1.14036763   0.01954499
5352.00   1.10054564   0.01921140
5354.00   1.14129901   0.01964443
5356.00   1.09825480   0.01954029
5358.00   1.09226024   0.01937277
5360.00   1.13236356   0.01946492
5362.00   1.11198223   0.01918304
5364.00   1.12415540   0.01927469
5366.00   1.13691175   0.01938051
5368.00   1.11106610   0.01922129
5370.00   1.10348034   0.01921202
5372.00   1.13535118   0.01953398
5374.00   1.15088236   0.01988591
5376.00   1.16094863   0.02011326
5378.00   1.12803721   0.01990604
5380.00   1.12511921   0.01984009
5382.00   1.10820389   0.01980671
5384.00   1.17278528   0.02023110
5386.00   1.13526988   0.02000779
5388.00   1.18178248   0.02049739
5390.00   1.14389896   0.02049039
5392.00   1.15754771   0.02076494
5394.00   1.14474285   0.02065356
5396.00   1.16116190   0.02070983
5398.00   1.15647948   0.02079853
5400.00   1.13279378   0.02066636
5402.00   1.16047823   0.02096430
5404.00   1.15624022   0.02103877
5406.00   1.13583064   0.02095871
5408.00   1.12086248   0.02093618
5410.00   1.14745831   0.00862863
5412.00   1.12958050   0.00908951
5414.00   1.12002492   0.00937229
5416.00   1.12168181   0.00951234
5418.00   1.12650335   0.00953164
5420.00   1.12817883   0.00932130
5422.00   1.13047743   0.00883483
5424.00   1.12563455   0.00866348
5426.00   1.10929155   0.00858515
5428.00   1.10283315   0.00873068
5430.00   1.10915816   0.00935245
5432.00   1.11393464   0.00975893
5434.00   1.10590470   0.00940197
5436.00   1.09032917   0.00848776
5438.00   1.08400738   0.00820424
5440.00   1.07972705   0.00833845
5442.00   1.08220685   0.00838149
5444.00   1.09678459   0.00825001
5446.00   1.10670280   0.00847380
5448.00   1.10540080   0.00933665
5450.00   1.09732735   0.01044619
5452.00   1.08439863   0.01115664
5454.00   1.05768418   0.01205068
5456.00   1.04644108   0.01207869
5458.00   1.04257035   0.01110513
5460.00   1.04435980   0.01037540
5462.00   1.05367804   0.01034294
5464.00   1.06711853   0.01048134
5466.00   1.07781124   0.01008899
5468.00   1.09185243   0.00917144
5470.00   1.09276569   0.00886809
5472.00   1.08177102   0.00908112
5474.00   1.07056093   0.00916303
5476.00   1.05630255   0.00917548
5478.00   1.04327440   0.00908971
5480.00   1.03897631   0.00871968
5482.00   1.04200506   0.00800235
5484.00   1.03463781   0.00795302
5486.00   1.01961803   0.00866809
5488.00   1.00663102   0.00882698
5490.00   0.99014699   0.00852506
5492.00   0.97951847   0.00811065
5494.00   0.98211819   0.00769655
5496.00   0.99402398   0.00721244
5498.00   1.00582719   0.00728417
5500.00   1.03069198   0.00803859
5502.00   1.03596842   0.00830397
5504.00   1.02318168   0.00839138
5506.00   1.01025772   0.00833240
5508.00   1.00301981   0.00801695
5510.00   0.99709171   0.00756831
5512.00   0.99002564   0.00755719
5514.00   0.97678763   0.00792134
5516.00   0.97987241   0.00811232
5518.00   1.00369525   0.00843903
5520.00   1.01643348   0.00849377
5522.00   1.01203549   0.00811589
5524.00   1.00039983   0.00755879
5526.00   0.99004185   0.00725095
5528.00   0.97410786   0.00703037
5530.00   0.97100753   0.00692822
5532.00   0.97900385   0.00690429
5534.00   0.98579061   0.00707349
5536.00   0.99466300   0.00757741
5538.00   1.00095379   0.00802365
5540.00   0.99767882   0.00806744
5542.00   0.98677939   0.00784829
5544.00   0.98325890   0.00782704
5546.00   0.98519266   0.00794568
5548.00   0.98281670   0.00790271
5550.00   0.97639775   0.00772059
5552.00   0.96990275   0.00747612
5554.00   0.96418345   0.00715971
5556.00   0.95899689   0.00677337
5558.00   0.96127427   0.00662762
5560.00   0.97387105   0.00667062
5562.00   0.97907585   0.00675859
5564.00   0.98378313   0.00688079
5566.00   0.98235881   0.00715770
5568.00   0.96789807   0.00767095
5570.00   0.94955647   0.00826225
5572.00   0.95195103   0.00864805
5574.00   0.97349358   0.00895668
5576.00   0.98267740   0.00919267
5578.00   0.98980504   0.00939830
5580.00   0.99279684   0.00947362
5582.00   0.99047017   0.00944093
5584.00   0.98514283   0.00926293
5586.00   0.98038095   0.00880929
5588.00   0.97591317   0.00795830
5590.00   0.96421939   0.00748068
5592.00   0.93995333   0.00722193
5594.00   0.92682022   0.00703050
5596.00   0.92379278   0.00700639
5598.00   0.92678779   0.00698828
5600.00   0.93588728   0.00679175
5602.00   0.95219541   0.00647622
5604.00   0.95652622   0.00634419
5606.00   0.95450944   0.00615943
5608.00   0.94884712   0.00638087
5610.00   0.93557620   0.00721147
5612.00   0.92326999   0.00775237
5614.00   0.91556627   0.00764414
5616.00   0.91045576   0.00716650
5618.00   0.91003144   0.00682965
5620.00   0.91614163   0.00616102
5622.00   0.92001587   0.00610287
5624.00   0.92822307   0.00675751
5626.00   0.92966872   0.00711395
5628.00   0.91825515   0.00693585
5630.00   0.90211517   0.00653347
5632.00   0.89718980   0.00632674
5634.00   0.90127093   0.00614276
5636.00   0.89696079   0.00605349
5638.00   0.88567036   0.00609107
5640.00   0.87893617   0.00611150
5642.00   0.87809676   0.00610966
5644.00   0.87962574   0.00610647
5646.00   0.88101017   0.00610844
5648.00   0.88416231   0.00611450
5650.00   0.88314766   0.00611231
5652.00   0.87727606   0.00606557
5654.00   0.87462622   0.00609903
5656.00   0.87735820   0.00617857
5658.00   0.87775010   0.00633762
5660.00   0.86892366   0.00667606
5662.00   0.85386252   0.00713943
5664.00   0.84577847   0.00713233
5666.00   0.83934897   0.00658449
5668.00   0.83719903   0.00639147
5670.00   0.84112167   0.00643089
5672.00   0.84492832   0.00653036
5674.00   0.84658301   0.00663302
5676.00   0.84718746   0.00677191
5678.00   0.84470439   0.00693801
5680.00   0.83324105   0.00699084
5682.00   0.83597738   0.00741767
5684.00   0.85303026   0.00811240
5686.00   0.86489695   0.00881165
5688.00   0.86896884   0.00978630
5690.00   0.86769426   0.01052872
5692.00   0.85896230   0.00997972
5694.00   0.84066808   0.00774284
5696.00   0.82683814   0.00675995
5698.00   0.80907202   0.00665602
5700.00   0.79936409   0.00658207
5702.00   0.80124861   0.00657696
5704.00   0.80574173   0.00668410
5706.00   0.80259299   0.00688322
5708.00   0.79444736   0.00723723
5710.00   0.79741281   0.00719594
5712.00   0.81580961   0.00678524
5714.00   0.81957221   0.00646837
5716.00   0.80825329   0.00608798
5718.00   0.79475421   0.00584416
5720.00   0.78705251   0.00595925
5722.00   0.78103524   0.00631778
5724.00   0.77096438   0.00655316
5726.00   0.75473183   0.00697215
5728.00   0.74582368   0.00698268
5730.00   0.74065351   0.00656893
5732.00   0.73983753   0.00614345
5734.00   0.74575019   0.00585506
5736.00   0.75549310   0.00562732
5738.00   0.75870979   0.00554034
5740.00   0.76053619   0.00566726
5742.00   0.75619644   0.00566155
5744.00   0.74353456   0.00559931
5746.00   0.73271203   0.00555893
5748.00   0.72464126   0.00555841
5750.00   0.71823043   0.00557061
5752.00   0.71473211   0.00556635
5754.00   0.71568543   0.00555468
5756.00   0.71030837   0.00555022
5758.00   0.69992328   0.00550928
5760.00   0.69075364   0.00554951
5762.00   0.68191630   0.00569711
5764.00   0.67414850   0.00586464
5766.00   0.66984987   0.00597407
5768.00   0.66904795   0.00605577
5770.00   0.65967691   0.00618978
5772.00   0.64225733   0.00650573
5774.00   0.62781972   0.00650040
5776.00   0.61150324   0.00595040
5778.00   0.60022241   0.00559785
5780.00   0.60052162   0.00613474
5782.00   0.60843784   0.00705427
5784.00   0.60752976   0.00714241
5786.00   0.60160863   0.00658764
5788.00   0.59724337   0.00630779
5790.00   0.59282380   0.00605999
5792.00   0.58798283   0.00585738
5794.00   0.58163768   0.00572910
5796.00   0.57528889   0.00564935
5798.00   0.57369381   0.00553528
5800.00   0.57757354   0.00540010
5802.00   0.57694429   0.00531431
5804.00   0.57235974   0.00526752
5806.00   0.57092762   0.00523455
5808.00   0.57307768   0.00519277
5810.00   0.57800972   0.00518585
5812.00   0.58668625   0.00526540
5814.00   0.60094273   0.00537123
5816.00   0.60755718   0.00570500
5818.00   0.61044282   0.00653230
5820.00   0.61049402   0.00672778
5822.00   0.60530961   0.00615781
5824.00   0.60005873   0.00543571
5826.00   0.59971887   0.00523894
5828.00   0.60215902   0.00533218
5830.00   0.60413957   0.00535244
5832.00   0.60853136   0.00547315
5834.00   0.60961378   0.00552628
5836.00   0.60386133   0.00553152
5838.00   0.60307455   0.00552919
5840.00   0.61616111   0.00552309
5842.00   0.63686544   0.00551518
5844.00   0.64440143   0.00558274
5846.00   0.64259416   0.00569557
5848.00   0.64356071   0.00585334
5850.00   0.64162475   0.00617062
5852.00   0.64292800   0.00631869
5854.00   0.65011263   0.00615801
5856.00   0.66002274   0.00586446
5858.00   0.66724962   0.00579852
5860.00   0.67307132   0.00586671
5862.00   0.68093413   0.00590165
5864.00   0.69027066   0.00595287
5866.00   0.69965613   0.00602405
5868.00   0.71020269   0.00613348
5870.00   0.71976864   0.00624190
5872.00   0.72458041   0.00630215
5874.00   0.72496277   0.00634339
5876.00   0.72962523   0.00631400
5878.00   0.73479354   0.00593707
5880.00   0.74346119   0.00611429
5882.00   0.75764787   0.00674938
5884.00   0.77174580   0.00761460
5886.00   0.77965230   0.00868862
5888.00   0.78365839   0.00991298
5890.00   0.80075705   0.01058775
5892.00   0.83258325   0.01118864
5894.00   0.85507023   0.01125285
5896.00   0.87775093   0.01063310
5898.00   0.89003813   0.00996930
5900.00   0.88066643   0.00963238
5902.00   0.85970914   0.00939467
5904.00   0.86465079   0.00889175
5906.00   0.89248174   0.00805270
5908.00   0.90679884   0.00743103
5910.00   0.91820592   0.00680911
5912.00   0.92715478   0.00640259
5914.00   0.93160552   0.00641217
5916.00   0.93502724   0.00660956
5918.00   0.94616151   0.00653575
5920.00   0.96625727   0.00629296
5922.00   0.97357494   0.00622889
5924.00   0.97009337   0.00628702
5926.00   0.96987802   0.00632575
5928.00   0.97343767   0.00635085
5930.00   0.97814798   0.00636677
5932.00   0.98377943   0.00634823
5934.00   0.99230832   0.00628513
5936.00   0.98867309   0.00634583
5938.00   0.96868795   0.00658434
5940.00   0.96075773   0.00665119
5942.00   0.96295494   0.00651546
5944.00   0.96922976   0.00638794
5946.00   0.97827566   0.00644020
5948.00   0.99093968   0.00658786
5950.00   0.99430561   0.00655355
5952.00   0.98906720   0.00630342
5954.00   0.98757213   0.00625622
5956.00   0.98703349   0.00642138
5958.00   0.98689365   0.00651333
5960.00   0.98677135   0.00640748
5962.00   0.98708624   0.00620412
5964.00   0.98945105   0.00608413
5966.00   0.99802732   0.00595393
5968.00   0.99551642   0.00591760
5970.00   0.98186684   0.00600784
5972.00   0.97179568   0.00604944
5974.00   0.96660936   0.00596323
5976.00   0.96502382   0.00587822
5978.00   0.96996683   0.00602865
5980.00   0.98512208   0.00643752
5982.00   0.98570400   0.00644777
5984.00   0.97262204   0.00602239
5986.00   0.96642488   0.00589131
5988.00   0.96977824   0.00607578
5990.00   0.97342348   0.00642360
5992.00   0.96844488   0.00694012
5994.00   0.95747602   0.00767257
5996.00   0.95435166   0.00769043
5998.00   0.95819652   0.00702587
6000.00   0.95734662   0.00657167
6002.00   0.95054030   0.00612900
6004.00   0.94593132   0.00582905
6006.00   0.95134264   0.00585592
6008.00   0.96221799   0.00611906
6010.00   0.95434320   0.00626090
6012.00   0.92225510   0.00645916
6014.00   0.91218776   0.00653899
6016.00   0.91806197   0.00654408
6018.00   0.92396516   0.00648966
6020.00   0.92733932   0.00633200
6022.00   0.92882866   0.00612684
6024.00   0.91924208   0.00610782
6026.00   0.89273137   0.00635425
6028.00   0.88536447   0.00622768
6030.00   0.89335120   0.00571313
6032.00   0.89635938   0.00533955
6034.00   0.89034456   0.00524109
6036.00   0.88250130   0.00525644
6038.00   0.88065845   0.00523451
6040.00   0.88326287   0.00525108
6042.00   0.88079482   0.00523104
6044.00   0.87253600   0.00516334
6046.00   0.86982739   0.00515303
6048.00   0.87521780   0.00520487
6050.00   0.88040471   0.00528351
6052.00   0.87866306   0.00538863
6054.00   0.87319648   0.00553630
6056.00   0.86317229   0.00548940
6058.00   0.84058052   0.00518125
6060.00   0.83191669   0.00506322
6062.00   0.83636385   0.00513213
6064.00   0.84280264   0.00519251
6066.00   0.84793210   0.00512091
6068.00   0.85311961   0.00499581
6070.00   0.84698695   0.00505997
6072.00   0.82616693   0.00526402
6074.00   0.81550354   0.00546606
6076.00   0.80756325   0.00585163
6078.00   0.80380887   0.00600526
6080.00   0.80725503   0.00575126
6082.00   0.81358767   0.00528608
6084.00   0.81121999   0.00505686
6086.00   0.80074024   0.00491491
6088.00   0.79818839   0.00483581
6090.00   0.80188131   0.00487530
6092.00   0.80248433   0.00490920
6094.00   0.79832232   0.00493161
6096.00   0.79302120   0.00495876
6098.00   0.79043317   0.00499306
6100.00   0.78961223   0.00503609
6102.00   0.78613895   0.00506987
6104.00   0.78022242   0.00509683
6106.00   0.77557719   0.00512760
6108.00   0.77088797   0.00508424
6110.00   0.76808012   0.00514265
6112.00   0.76993066   0.00550272
6114.00   0.77555060   0.00605151
6116.00   0.77576160   0.00622228
6118.00   0.77306485   0.00617112
6120.00   0.76942962   0.00610075
6122.00   0.76137716   0.00588726
6124.00   0.75667375   0.00572256
6126.00   0.76163143   0.00578466
6128.00   0.77117693   0.00593354
6130.00   0.76824623   0.00570549
6132.00   0.75157791   0.00490720
6134.00   0.74632561   0.00460853
6136.00   0.74822932   0.00461191
6138.00   0.74865389   0.00474361
6140.00   0.74506408   0.00504514
6142.00   0.74049830   0.00539056
6144.00   0.73850149   0.00548410
6146.00   0.73696190   0.00543934
6148.00   0.73914963   0.00533205
6150.00   0.74849880   0.00499985
6152.00   0.75192577   0.00482352
6154.00   0.74713987   0.00489141
6156.00   0.74005616   0.00501889
6158.00   0.73612261   0.00503303
6160.00   0.73261660   0.00500586
6162.00   0.73224902   0.00496928
6164.00   0.73445034   0.00489927
6166.00   0.73825395   0.00483608
6168.00   0.74617714   0.00476538
6170.00   0.75263065   0.00470665
6172.00   0.75271392   0.00468348
6174.00   0.74873102   0.00468610
6176.00   0.74819827   0.00465589
6178.00   0.74709964   0.00453141
6180.00   0.75011998   0.00457799
6182.00   0.76149619   0.00482049
6184.00   0.76732129   0.00501262
6186.00   0.75929928   0.00508737
6188.00   0.74459934   0.00509441
6190.00   0.74040395   0.00500146
6192.00   0.74133539   0.00471101
6194.00   0.74405134   0.00458616
6196.00   0.75409126   0.00455480
6198.00   0.75871170   0.00453634
6200.00   0.75369573   0.00446669
6202.00   0.74532086   0.00445090
6204.00   0.74235761   0.00470564
6206.00   0.74188954   0.00526557
6208.00   0.74100882   0.00536620
6210.00   0.73949987   0.00513712
6212.00   0.74071556   0.00496455
6214.00   0.74897033   0.00478538
6216.00   0.75456721   0.00468373
6218.00   0.74511647   0.00486115
6220.00   0.72345579   0.00527909
6222.00   0.71455085   0.00528681
6224.00   0.71247965   0.00485635
6226.00   0.71004695   0.00475642
6228.00   0.70837414   0.00505523
6230.00   0.70774597   0.00528517
6232.00   0.70846045   0.00517853
6234.00   0.71034497   0.00487657
6236.00   0.71074915   0.00472272
6238.00   0.71073514   0.00458120
6240.00   0.70984650   0.00452169
6242.00   0.70887226   0.00456196
6244.00   0.70602989   0.00461708
6246.00   0.69976205   0.00462309
6248.00   0.69181728   0.00465036
6250.00   0.68713647   0.00489138
6252.00   0.68534696   0.00546753
6254.00   0.68084782   0.00554507
6256.00   0.67210054   0.00516953
6258.00   0.66828954   0.00496790
6260.00   0.67349297   0.00516724
6262.00   0.68050754   0.00540194
6264.00   0.67930400   0.00521004
6266.00   0.67499048   0.00460359
6268.00   0.66203845   0.00438100
6270.00   0.63186109   0.00433865
6272.00   0.61570001   0.00442615
6274.00   0.61668229   0.00480365
6276.00   0.62126577   0.00508915
6278.00   0.61889994   0.00491233
6280.00   0.61436200   0.00436125
6282.00   0.60880959   0.00416312
6284.00   0.59867734   0.00406819
6286.00   0.59409410   0.00418451
6288.00   0.59673029   0.00465816
6290.00   0.59761417   0.00500356
6292.00   0.59162182   0.00497838
6294.00   0.58174670   0.00475463
6296.00   0.57203180   0.00473976
6298.00   0.55674714   0.00489573
6300.00   0.55025125   0.00487255
6302.00   0.55108422   0.00469922
6304.00   0.55263478   0.00454636
6306.00   0.55349648   0.00443540
6308.00   0.55462015   0.00437354
6310.00   0.55529368   0.00450093
6312.00   0.55871546   0.00494370
6314.00   0.55298197   0.00491746
6316.00   0.53441423   0.00446838
6318.00   0.52411669   0.00412137
6320.00   0.52600932   0.00395402
6322.00   0.53211182   0.00387985
6324.00   0.53480625   0.00387588
6326.00   0.53831190   0.00397926
6328.00   0.53625339   0.00403049
6330.00   0.52594930   0.00413213
6332.00   0.52184808   0.00412642
6334.00   0.52412194   0.00396722
6336.00   0.52841783   0.00379374
6338.00   0.53248221   0.00373589
6340.00   0.53766340   0.00374139
6342.00   0.53931546   0.00374227
6344.00   0.53589565   0.00377074
6346.00   0.53742492   0.00379688
6348.00   0.54593647   0.00381909
6350.00   0.55089140   0.00385721
6352.00   0.54530185   0.00393909
6354.00   0.53421581   0.00403831
6356.00   0.53182209   0.00403830
6358.00   0.53117430   0.00390587
6360.00   0.53849983   0.00389578
6362.00   0.55679601   0.00395931
6364.00   0.57289714   0.00402909
6366.00   0.58745581   0.00412924
6368.00   0.59755647   0.00421089
6370.00   0.58834130   0.00411718
6372.00   0.55232263   0.00379151
6374.00   0.54776353   0.00370586
6376.00   0.56442076   0.00378788
6378.00   0.57976961   0.00385226
6380.00   0.59541440   0.00389667
6382.00   0.60979009   0.00394136
6384.00   0.61711985   0.00399317
6386.00   0.61928862   0.00406414
6388.00   0.62062454   0.00404490
6390.00   0.61606520   0.00391479
6392.00   0.61696380   0.00384337
6394.00   0.62295002   0.00377568
6396.00   0.63107812   0.00378911
6398.00   0.64002264   0.00395500
6400.00   0.65052074   0.00422461
6402.00   0.66010165   0.00451144
6404.00   0.67240423   0.00508118
6406.00   0.67832828   0.00512564
6408.00   0.67692232   0.00457248
6410.00   0.67608929   0.00407164
6412.00   0.67962354   0.00402868
6414.00   0.68469095   0.00421927
6416.00   0.68672973   0.00438768
6418.00   0.68663579   0.00480608
6420.00   0.68711299   0.00480921
6422.00   0.68566859   0.00442956
6424.00   0.68701845   0.00411658
6426.00   0.69453043   0.00398758
6428.00   0.70290112   0.00394419
6430.00   0.70177734   0.00393271
6432.00   0.69135606   0.00398632
6434.00   0.69039607   0.00405329
6436.00   0.69444656   0.00420608
6438.00   0.69938916   0.00427034
6440.00   0.70681232   0.00422917
6442.00   0.71392274   0.00414819
6444.00   0.71681356   0.00407858
6446.00   0.71691638   0.00398810
6448.00   0.71681434   0.00395316
6450.00   0.71504134   0.00396751
6452.00   0.71354324   0.00397639
6454.00   0.71144152   0.00398774
6456.00   0.71007067   0.00400420
6458.00   0.71042907   0.00402820
6460.00   0.71199882   0.00405837
6462.00   0.71422279   0.00407383
6464.00   0.71923983   0.00408238
6466.00   0.72064257   0.00408266
6468.00   0.72107780   0.00407231
6470.00   0.71778631   0.00405845
6472.00   0.70667601   0.00400853
6474.00   0.69250637   0.00396597
6476.00   0.69107181   0.00411032
6478.00   0.69933867   0.00448657
6480.00   0.70673710   0.00461953
6482.00   0.72145021   0.00469209
6484.00   0.72927296   0.00462791
6486.00   0.72608435   0.00430224
6488.00   0.71863210   0.00389045
6490.00   0.71524471   0.00382294
6492.00   0.71175498   0.00402277
6494.00   0.71233368   0.00409276
6496.00   0.71948493   0.00418932
6498.00   0.72171569   0.00421903
6500.00   0.71759403   0.00415367
6502.00   0.71247071   0.00407416
6504.00   0.71097183   0.00406009
6506.00   0.71127748   0.00407893
6508.00   0.71016532   0.00409863
6510.00   0.71022516   0.00416318
6512.00   0.70662880   0.00416588
6514.00   0.69627303   0.00411157
6516.00   0.68899786   0.00403642
6518.00   0.69215482   0.00389697
6520.00   0.70136499   0.00372184
6522.00   0.70277113   0.00394785
6524.00   0.69929624   0.00465807
6526.00   0.69745815   0.00489491
6528.00   0.69550264   0.00487416
6530.00   0.69346732   0.00482395
6532.00   0.69205689   0.00478676
6534.00   0.69027632   0.00474028
6536.00   0.68482476   0.00476392
6538.00   0.67355973   0.00496329
6540.00   0.66997361   0.00479480
6542.00   0.67410487   0.00412183
6544.00   0.67406809   0.00367154
6546.00   0.66662025   0.00365782
6548.00   0.65796757   0.00386393
6550.00   0.65607268   0.00412624
6552.00   0.65953130   0.00456665
6554.00   0.65697944   0.00469879
6556.00   0.65239972   0.00469074
6558.00   0.64468044   0.00456740
6560.00   0.63148057   0.00421287
6562.00   0.61835200   0.00382630
6564.00   0.61012220   0.00363682
6566.00   0.60451829   0.00355848
6568.00   0.60136300   0.00369001
6570.00   0.60306513   0.00419723
6572.00   0.60208303   0.00436272
6574.00   0.60067004   0.00424148
6576.00   0.59707725   0.00413508
6578.00   0.58954430   0.00418721
6580.00   0.57936168   0.00431303
6582.00   0.57141560   0.00448644
6584.00   0.56173623   0.00492338
6586.00   0.55779862   0.00489794
6588.00   0.56004524   0.00436691
6590.00   0.56147707   0.00396291
6592.00   0.56019515   0.00399578
6594.00   0.55810642   0.00419020
6596.00   0.55676877   0.00417714
6598.00   0.55493879   0.00410100
6600.00   0.55536598   0.00395307
6602.00   0.55672914   0.00353910
6604.00   0.56042379   0.00338919
6606.00   0.56728345   0.00362360
6608.00   0.57556289   0.00399914
6610.00   0.58381885   0.00436772
6612.00   0.59430653   0.00486109
6614.00   0.59579432   0.00490069
6616.00   0.58881944   0.00453671
6618.00   0.58289778   0.00422692
6620.00   0.57475829   0.00385652
6622.00   0.56896853   0.00353237
6624.00   0.57054520   0.00343513
6626.00   0.57737035   0.00351577
6628.00   0.58066016   0.00351938
6630.00   0.58384615   0.00355241
6632.00   0.58550155   0.00355094
6634.00   0.58400232   0.00344168
6636.00   0.58434546   0.00344936
6638.00   0.59046632   0.00370526
6640.00   0.59900701   0.00407260
6642.00   0.59913480   0.00431744
6644.00   0.58920366   0.00467643
6646.00   0.58844572   0.00466403
6648.00   0.59189636   0.00424900
6650.00   0.59753692   0.00389209
6652.00   0.60688859   0.00372050
6654.00   0.61716342   0.00364418
6656.00   0.62026548   0.00362305
6658.00   0.61253560   0.00362189
6660.00   0.62589580   0.00388574
6662.00   0.64637065   0.00429705
6664.00   0.68602860   0.00482826
6666.00   0.76167375   0.00557665
6668.00   0.83695424   0.00622745
6670.00   0.87140453   0.00656917
6672.00   0.88551861   0.00680772
6674.00   0.85708684   0.00651896
6676.00   0.75975698   0.00524118
6678.00   0.69853276   0.00449144
6680.00   0.65792769   0.00447936
6682.00   0.63511384   0.00461382
6684.00   0.63624382   0.00451939
6686.00   0.65853006   0.00438256
6688.00   0.67147452   0.00442425
6690.00   0.69169390   0.00471720
6692.00   0.69923061   0.00476007
6694.00   0.69542491   0.00464739
6696.00   0.68952334   0.00446003
6698.00   0.68368024   0.00416048
6700.00   0.67697060   0.00377972
6702.00   0.67385298   0.00364500
6704.00   0.67231101   0.00375444
6706.00   0.67368525   0.00376391
6708.00   0.67810738   0.00378164
6710.00   0.68407512   0.00379306
6712.00   0.69314641   0.00378443
6714.00   0.70243680   0.00377943
6716.00   0.70560825   0.00382587
6718.00   0.70353699   0.00393265
6720.00   0.70482975   0.00394786
6722.00   0.70776808   0.00389519
6724.00   0.70941192   0.00384873
6726.00   0.70938122   0.00379551
6728.00   0.70901024   0.00375045
6730.00   0.70906013   0.00373606
6732.00   0.70878488   0.00374080
6734.00   0.71223092   0.00378368
6736.00   0.72091085   0.00388561
6738.00   0.72581440   0.00395535
6740.00   0.72798479   0.00403028
6742.00   0.72883463   0.00406193
6744.00   0.72901160   0.00399524
6746.00   0.72815651   0.00385977
6748.00   0.72563684   0.00383954
6750.00   0.71890962   0.00390840
6752.00   0.71714729   0.00394414
6754.00   0.71976787   0.00400488
6756.00   0.72192001   0.00402089
6758.00   0.72182316   0.00394025
6760.00   0.72107244   0.00381937
6762.00   0.72168690   0.00381608
6764.00   0.72290057   0.00392652
6766.00   0.72473562   0.00393808
6768.00   0.72872955   0.00389889
6770.00   0.73045963   0.00385634
6772.00   0.72921813   0.00379542
6774.00   0.72626543   0.00374464
6776.00   0.72237056   0.00377480
6778.00   0.71617138   0.00388930
6780.00   0.71365905   0.00389530
6782.00   0.71556973   0.00371841
6784.00   0.71389353   0.00377137
6786.00   0.70609540   0.00417634
6788.00   0.69971430   0.00450987
6790.00   0.70215875   0.00446614
6792.00   0.71079695   0.00417236
6794.00   0.71437860   0.00400253
6796.00   0.71750414   0.00377429
6798.00   0.71749985   0.00367021
6800.00   0.71354002   0.00372454
6802.00   0.70902342   0.00378368
6804.00   0.70563024   0.00376191
6806.00   0.70239562   0.00371241
6808.00   0.69911265   0.00373033
6810.00   0.69829559   0.00365998
6812.00   0.69176078   0.00390567
6814.00   0.67246836   0.00445440
6816.00   0.66573268   0.00489014
6818.00   0.68194437   0.00513813
6820.00   0.70935690   0.00533000
6822.00   0.72969604   0.00560385
6824.00   0.75956845   0.00598237
6826.00   0.75886410   0.00612539
6828.00   0.72533792   0.00622241
6830.00   0.70113015   0.00606742
6832.00   0.68676281   0.00539958
6834.00   0.67956996   0.00459040
6836.00   0.68523002   0.00452501
6838.00   0.70638454   0.00507532
6840.00   0.71004003   0.00505367
6842.00   0.70282704   0.00473053
6844.00   0.69692713   0.00443135
6846.00   0.68984604   0.00398461
6848.00   0.68369186   0.00366123
6850.00   0.68155956   0.00387176
6852.00   0.68225104   0.00442803
6854.00   0.67942989   0.00454310
6856.00   0.67234457   0.00436849
6858.00   0.67037886   0.00435602
6860.00   0.67519742   0.00443899
6862.00   0.67729235   0.00453463
6864.00   0.67251223   0.00459633
6866.00   0.66346127   0.00466139
6868.00   0.65132982   0.00483614
6870.00   0.62955987   0.00532486
6872.00   0.61891443   0.00526858
6874.00   0.61500394   0.00459695
6876.00   0.61305088   0.00412171
6878.00   0.61164069   0.00424306
6880.00   0.61249465   0.00456671
6882.00   0.61850506   0.00459239
6884.00   0.63393706   0.00444034
6886.00   0.63432157   0.00448018
6888.00   0.61964124   0.00465917
6890.00   0.61222434   0.00478611
6892.00   0.61366022   0.00492072
6894.00   0.61852527   0.00496730
6896.00   0.62381321   0.00473977
6898.00   0.63211232   0.00420419
6900.00   0.63360023   0.00396376
6902.00   0.63159376   0.00375575
6904.00   0.62570220   0.00388233
6906.00   0.61186206   0.00455463
6908.00   0.59980530   0.00502928
6910.00   0.59714603   0.00489614
6912.00   0.60017139   0.00436487
6914.00   0.60215819   0.00409781
6916.00   0.60870141   0.00383923
6918.00   0.60906333   0.00372506
6920.00   0.60290223   0.00382791
6922.00   0.59777111   0.00390968
6924.00   0.59683478   0.00383781
6926.00   0.59774172   0.00372700
6928.00   0.59779418   0.00386711
6930.00   0.59921324   0.00434488
6932.00   0.59759814   0.00439950
6934.00   0.59399474   0.00406031
6936.00   0.58914936   0.00390755
6938.00   0.58176464   0.00416954
6940.00   0.57417840   0.00450559
6942.00   0.57140821   0.00451721
6944.00   0.57187438   0.00432281
6946.00   0.57344890   0.00417342
6948.00   0.57914084   0.00392597
6950.00   0.58194900   0.00375369
6952.00   0.58182734   0.00368950
6954.00   0.57996678   0.00366178
6956.00   0.57647836   0.00360036
6958.00   0.57074171   0.00352850
6960.00   0.56809747   0.00351979
6962.00   0.56925017   0.00348568
6964.00   0.56644386   0.00363013
6966.00   0.55927968   0.00407281
6968.00   0.55198121   0.00436725
6970.00   0.54650944   0.00426309
6972.00   0.54184437   0.00390148
6974.00   0.54059792   0.00372217
6976.00   0.54330707   0.00355866
6978.00   0.54518276   0.00348000
6980.00   0.54881150   0.00351296
6982.00   0.55058593   0.00355690
6984.00   0.54885554   0.00359315
6986.00   0.54513818   0.00362775
6988.00   0.54183984   0.00360190
6990.00   0.53531021   0.00341275
6992.00   0.53602850   0.00353129
6994.00   0.54496640   0.00399511
6996.00   0.55035430   0.00422115
6998.00   0.55038261   0.00409370
7000.00   0.54801774   0.00387535
7002.00   0.54523653   0.00395654
7004.00   0.54022276   0.00427499
7006.00   0.53854090   0.00425722
7008.00   0.53814840   0.00396530
7010.00   0.53990430   0.00374688
7012.00   0.54605848   0.00358069
7014.00   0.55145985   0.00346090
7016.00   0.55045521   0.00342902
7018.00   0.54496914   0.00348249
7020.00   0.54342592   0.00347896
7022.00   0.54397738   0.00346009
7024.00   0.54356575   0.00344414
7026.00   0.54273081   0.00340817
7028.00   0.54160553   0.00340020
7030.00   0.53963947   0.00345994
7032.00   0.53727359   0.00355948
7034.00   0.53814656   0.00360821
7036.00   0.54223210   0.00362916
7038.00   0.54531014   0.00365698
7040.00   0.55000740   0.00360879
7042.00   0.55234343   0.00368354
7044.00   0.54993665   0.00403041
7046.00   0.54563844   0.00441149
7048.00   0.54557014   0.00439275
7050.00   0.54825795   0.00401650
7052.00   0.55018324   0.00381027
7054.00   0.55130076   0.00354961
7056.00   0.55484128   0.00342542
7058.00   0.56234795   0.00352717
7060.00   0.57075071   0.00369852
7062.00   0.57609576   0.00376194
7064.00   0.58015227   0.00379939
7066.00   0.58223355   0.00378602
7068.00   0.57972252   0.00366443
7070.00   0.58131117   0.00363247
7072.00   0.58865333   0.00372244
7074.00   0.59556985   0.00380749
7076.00   0.59649950   0.00378942
7078.00   0.59360939   0.00370989
7080.00   0.59578538   0.00367332
7082.00   0.59932864   0.00361123
7084.00   0.60648888   0.00363195
7086.00   0.62007278   0.00375172
7088.00   0.63174856   0.00386456
7090.00   0.63774234   0.00393466
7092.00   0.64031380   0.00398366
7094.00   0.63978601   0.00398100
7096.00   0.63608187   0.00376881
7098.00   0.62906885   0.00391675
7100.00   0.61392045   0.00448614
7102.00   0.60400671   0.00476135
7104.00   0.60174429   0.00457633
7106.00   0.60510898   0.00417086
7108.00   0.61574817   0.00393294
7110.00   0.63882512   0.00368061
7112.00   0.64871383   0.00358364
7114.00   0.65104771   0.00368369
7116.00   0.65244776   0.00374234
7118.00   0.65377837   0.00375574
7120.00   0.65276653   0.00375421
7122.00   0.64621401   0.00373812
7124.00   0.63307613   0.00369862
7126.00   0.63097072   0.00369731
7128.00   0.63735312   0.00372949
7130.00   0.64242834   0.00374799
7132.00   0.64840752   0.00375805
7134.00   0.65343946   0.00376372
7136.00   0.65468276   0.00376115
7138.00   0.65330189   0.00375110
7140.00   0.65790850   0.00377210
7142.00   0.67076075   0.00384192
7144.00   0.67488569   0.00385814
7146.00   0.67165452   0.00382848
7148.00   0.66773534   0.00379567
7150.00   0.66535097   0.00376679
7152.00   0.66316992   0.00374189
7154.00   0.66207862   0.00376689
7156.00   0.66406488   0.00375733
7158.00   0.66099751   0.00394653
7160.00   0.65301472   0.00441805
7162.00   0.64647883   0.00466813
7164.00   0.64141589   0.00460950
7166.00   0.63840163   0.00441040
7168.00   0.64137310   0.00426864
7170.00   0.65180570   0.00406102
7172.00   0.65503943   0.00398929
7174.00   0.65622121   0.00405348
7176.00   0.65361840   0.00408474
7178.00   0.64513582   0.00408066
7180.00   0.63543147   0.00407079
7182.00   0.62927294   0.00406807
7184.00   0.62403572   0.00406471
7186.00   0.62416959   0.00407865
7188.00   0.63174152   0.00412403
7190.00   0.63568515   0.00413742
7192.00   0.63829833   0.00410629
7194.00   0.63849664   0.00408661
7196.00   0.63421321   0.00412881
7198.00   0.62651557   0.00420569
7200.00   0.62286788   0.00419353
7202.00   0.62141162   0.00411401
7204.00   0.61972767   0.00403547
7206.00   0.61896670   0.00391742
7208.00   0.61769325   0.00381680
7210.00   0.61599982   0.00376148
7212.00   0.61346823   0.00373124
7214.00   0.60714960   0.00369488
7216.00   0.59501612   0.00365282
7218.00   0.58874297   0.00364787
7220.00   0.58584219   0.00368080
7222.00   0.58342630   0.00371329
7224.00   0.58118033   0.00372016
7226.00   0.57953674   0.00374574
7228.00   0.57878816   0.00386398
7230.00   0.57991141   0.00406123
7232.00   0.57705891   0.00421048
7234.00   0.56740212   0.00430458
7236.00   0.56501478   0.00448933
7238.00   0.57258862   0.00483708
7240.00   0.58146304   0.00512583
7242.00   0.58439201   0.00517935
7244.00   0.58483183   0.00508531
7246.00   0.58125907   0.00493628
7248.00   0.57064736   0.00460033
7250.00   0.56421483   0.00435444
7252.00   0.56142414   0.00410757
7254.00   0.55841458   0.00397882
7256.00   0.55182999   0.00411698
7258.00   0.54379773   0.00441798
7260.00   0.54470074   0.00446484
7262.00   0.55281746   0.00436046
7264.00   0.56168908   0.00427439
7266.00   0.57786685   0.00405965
7268.00   0.58840019   0.00398033
7270.00   0.58801937   0.00417985
7272.00   0.58199513   0.00448923
7274.00   0.57837361   0.00463966
7276.00   0.57232660   0.00475148
7278.00   0.57095063   0.00479014
7280.00   0.57613236   0.00476233
7282.00   0.57623625   0.00468596
7284.00   0.56756163   0.00452307
7286.00   0.55724788   0.00433558
7288.00   0.55425107   0.00424598
7290.00   0.55529666   0.00422486
7292.00   0.55765247   0.00417624
7294.00   0.56454492   0.00414146
7296.00   0.56878299   0.00408829
7298.00   0.57095397   0.00392872
7300.00   0.57159382   0.00386609
7302.00   0.57032210   0.00414225
7304.00   0.56709635   0.00463487
7306.00   0.56536400   0.00479621
7308.00   0.56284297   0.00480539
7310.00   0.56313998   0.00476010
7312.00   0.56799674   0.00457145
7314.00   0.57114315   0.00440022
7316.00   0.56887883   0.00433740
7318.00   0.56363726   0.00433626
7320.00   0.56034315   0.00438804
7322.00   0.55444330   0.00448359
7324.00   0.55532891   0.00465409
7326.00   0.56289297   0.00502860
7328.00   0.57012033   0.00519851
7330.00   0.57565176   0.00502709
7332.00   0.58057147   0.00468526
7334.00   0.58437777   0.00448708
7336.00   0.58735454   0.00427135
7338.00   0.58911514   0.00423669
7340.00   0.59104568   0.00446980
7342.00   0.58944345   0.00455057
7344.00   0.58277941   0.00443692
7346.00   0.57434046   0.00424648
7348.00   0.56791461   0.00407205
7350.00   0.56165564   0.00383973
7352.00   0.55713499   0.00375891
7354.00   0.55359262   0.00382377
7356.00   0.55181116   0.00387021
7358.00   0.55294424   0.00392357
7360.00   0.55406410   0.00397718
7362.00   0.55269414   0.00400975
7364.00   0.54996020   0.00402946
7366.00   0.54835451   0.00410922
7368.00   0.54511344   0.00429543
7370.00   0.54645491   0.00434679
7372.00   0.55317736   0.00431033
7374.00   0.55960244   0.00421449
7376.00   0.56391221   0.00402847
7378.00   0.56704092   0.00377581
7380.00   0.56672907   0.00367449
7382.00   0.56134635   0.00369618
7384.00   0.55936700   0.00370115
7386.00   0.56026697   0.00373724
7388.00   0.55852789   0.00378619
7390.00   0.55157012   0.00384012
7392.00   0.54313219   0.00390920
7394.00   0.53922653   0.00401526
7396.00   0.53613091   0.00418360
7398.00   0.54016489   0.00424126
7400.00   0.55684674   0.00423377
7402.00   0.56402582   0.00419610
7404.00   0.55906695   0.00411749
7406.00   0.55009294   0.00401248
7408.00   0.54327154   0.00388408
7410.00   0.53472805   0.00369318
7412.00   0.53401750   0.00372217
7414.00   0.54275990   0.00394799
7416.00   0.54613340   0.00414121
7418.00   0.54592466   0.00444053
7420.00   0.54353148   0.00459737
7422.00   0.53785384   0.00437194
7424.00   0.52933931   0.00384258
7426.00   0.52934098   0.00377915
7428.00   0.53597635   0.00405347
7430.00   0.54253590   0.00426963
7432.00   0.55476671   0.00462264
7434.00   0.56191146   0.00483053
7436.00   0.55840164   0.00478952
7438.00   0.54908669   0.00460067
7440.00   0.54345912   0.00442368
7442.00   0.53874630   0.00413147
7444.00   0.53222996   0.00393819
7446.00   0.52169544   0.00378990
7448.00   0.51569307   0.00368241
7450.00   0.51654965   0.00360959
7452.00   0.52064973   0.00359054
7454.00   0.52378362   0.00366914
7456.00   0.52855676   0.00388210
7458.00   0.53028971   0.00391926
7460.00   0.53004152   0.00374743
7462.00   0.52904087   0.00376891
7464.00   0.52619988   0.00400973
7466.00   0.52365053   0.00431372
7468.00   0.52369583   0.00464094
7470.00   0.52524918   0.00505900
7472.00   0.52874464   0.00495466
7474.00   0.53965968   0.00409244
7476.00   0.54020637   0.00373410
7478.00   0.52929151   0.00389945
7480.00   0.51746452   0.00419523
7482.00   0.50992805   0.00451182
7484.00   0.50391942   0.00488015
7486.00   0.50201839   0.00488354
7488.00   0.50677150   0.00455719
7490.00   0.50671935   0.00428330
7492.00   0.50270897   0.00380719
7494.00   0.50051910   0.00348545
7496.00   0.50310463   0.00356957
7498.00   0.50736600   0.00384972
7500.00   0.50682628   0.00395829
7502.00   0.50194889   0.00407804
7504.00   0.50046456   0.00405594
7506.00   0.49939060   0.00378017
7508.00   0.50057393   0.00369357
7510.00   0.50564587   0.00396266
7512.00   0.51155013   0.00427343
7514.00   0.51319450   0.00426991
7516.00   0.51109254   0.00401113
7518.00   0.51443118   0.00405611
7520.00   0.52407157   0.00434368
7522.00   0.52852947   0.00450067
7524.00   0.52787793   0.00457410
7526.00   0.52470440   0.00457419
7528.00   0.52019101   0.00446785
7530.00   0.51355278   0.00425329
7532.00   0.50796270   0.00406202
7534.00   0.50070131   0.00378012
7536.00   0.49707231   0.00361475
7538.00   0.49747491   0.00357836
7540.00   0.49823868   0.00357215
7542.00   0.49767533   0.00355060
7544.00   0.49673989   0.00353937
7546.00   0.49525821   0.00352897
7548.00   0.49298573   0.00351766
7550.00   0.49095130   0.00352281
7552.00   0.48906758   0.00354665
7554.00   0.48679015   0.00356963
7556.00   0.48226759   0.00354837
7558.00   0.47825792   0.00354663
7560.00   0.48250362   0.00373339
7562.00   0.49638149   0.00409385
7564.00   0.50161105   0.00432145
7566.00   0.50383586   0.00461857
7568.00   0.50289953   0.00469511
7570.00   0.49688631   0.00443545
7572.00   0.48959115   0.00407268
7574.00   0.48629665   0.00398514
7576.00   0.48451510   0.00408654
7578.00   0.48588789   0.00400475
7580.00   0.49363345   0.00375081
7582.00   0.49622098   0.00363744
7584.00   0.49610284   0.00364758
7586.00   0.49110675   0.00375009
7588.00   0.47520095   0.00388461
7590.00   0.44978717   0.00405344
7592.00   0.44785428   0.00463442
7594.00   0.46775657   0.00555040
7596.00   0.47857159   0.00623126
7598.00   0.48759636   0.00690915
7600.00   0.49364194   0.00742167
7602.00   0.49580210   0.00780564
7604.00   0.49461845   0.00804401
7606.00   0.48996526   0.00771930
7608.00   0.47586676   0.00645588
7610.00   0.47277346   0.00570978
7612.00   0.48103556   0.00508994
7614.00   0.48299247   0.00466716
7616.00   0.46977124   0.00441343
7618.00   0.45383710   0.00450059
7620.00   0.45858076   0.00529551
7622.00   0.48464015   0.00689167
7624.00   0.48731211   0.00709778
7626.00   0.47214139   0.00629043
7628.00   0.46353543   0.00568576
7630.00   0.46352896   0.00539867
7632.00   0.46548587   0.00522311
7634.00   0.46439227   0.00505773
7636.00   0.46228299   0.00493786
7638.00   0.46031725   0.00499635
7640.00   0.45920908   0.00539810
7642.00   0.45555907   0.00547343
7644.00   0.44473764   0.00522999
7646.00   0.43892190   0.00489916
7648.00   0.44972181   0.00461287
7650.00   0.47176141   0.00429619
7652.00   0.47822589   0.00412966
7654.00   0.47383302   0.00411257
7656.00   0.47335237   0.00410324
7658.00   0.47404552   0.00419272
7660.00   0.47383118   0.00423333
7662.00   0.47194827   0.00415221
7664.00   0.46897465   0.00400550
7666.00   0.46559870   0.00390298
7668.00   0.45967779   0.00375621
7670.00   0.45800188   0.00374044
7672.00   0.46147442   0.00390195
7674.00   0.46186593   0.00396637
7676.00   0.45705384   0.00386330
7678.00   0.45011574   0.00369731
7680.00   0.44435516   0.00361155
7682.00   0.43713218   0.00354958
7684.00   0.43502751   0.00352259
7686.00   0.43905395   0.00355382
7688.00   0.44003400   0.00356680
7690.00   0.43698069   0.00348716
7692.00   0.43346986   0.00348633
7694.00   0.43267620   0.00379523
7696.00   0.43350357   0.00432475
7698.00   0.43282944   0.00444493
7700.00   0.42881304   0.00421493
7702.00   0.43050012   0.00419472
7704.00   0.43904051   0.00435249
7706.00   0.44781291   0.00452597
7708.00   0.45436171   0.00464537
7710.00   0.45990896   0.00475051
7712.00   0.45536074   0.00483579
7714.00   0.43354279   0.00493454
7716.00   0.42870185   0.00494809
7718.00   0.43922323   0.00491591
7720.00   0.44599372   0.00480181
7722.00   0.44170877   0.00453176
7724.00   0.43272698   0.00416925
7726.00   0.42738029   0.00401077
7728.00   0.42284289   0.00405514
7730.00   0.41797715   0.00395753
7732.00   0.41101843   0.00363113
7734.00   0.40798011   0.00360553
7736.00   0.41306558   0.00413801
7738.00   0.41863978   0.00468232
7740.00   0.41187838   0.00466262
7742.00   0.39386445   0.00418251
7744.00   0.38783744   0.00411990
7746.00   0.38944110   0.00429304
7748.00   0.38960940   0.00443886
7750.00   0.38937056   0.00457949
7752.00   0.38844877   0.00472405
7754.00   0.38466513   0.00487325
7756.00   0.37802693   0.00503543
7758.00   0.38097233   0.00509767
7760.00   0.39489588   0.00518189
7762.00   0.40211728   0.00503130
7764.00   0.40391761   0.00450443
7766.00   0.40568838   0.00396813
7768.00   0.41045082   0.00371156
7770.00   0.41635653   0.00363089
7772.00   0.41937044   0.00365924
7774.00   0.42107677   0.00392875
7776.00   0.42096227   0.00406561
7778.00   0.42046353   0.00422511
7780.00   0.41607612   0.00427578
7782.00   0.40462604   0.00409980
7784.00   0.39026457   0.00384065
7786.00   0.38292190   0.00392160
7788.00   0.37746468   0.00429029
7790.00   0.37939361   0.00445941
7792.00   0.39337584   0.00465000
7794.00   0.40104491   0.00467692
7796.00   0.39740491   0.00445239
7798.00   0.39265063   0.00413604
7800.00   0.39941233   0.00398009
7802.00   0.41478863   0.00389503
7804.00   0.42357871   0.00385690
7806.00   0.43426919   0.00390657
7808.00   0.43575290   0.00395020
7810.00   0.42338273   0.00397236
7812.00   0.41088054   0.00403425
7814.00   0.40991384   0.00418753
7816.00   0.41536945   0.00440344
7818.00   0.41816449   0.00458681
7820.00   0.42378691   0.00488905
7822.00   0.42443627   0.00492637
7824.00   0.41886115   0.00470581
7826.00   0.41449162   0.00442010
7828.00   0.41444534   0.00412213
7830.00   0.41689816   0.00378207
7832.00   0.42232016   0.00363653
7834.00   0.43487808   0.00366688
7836.00   0.43991771   0.00372484
7838.00   0.43986851   0.00391524
7840.00   0.43976510   0.00405351
7842.00   0.43935063   0.00399033
7844.00   0.43972901   0.00395583
7846.00   0.44639921   0.00445402
7848.00   0.46190971   0.00540460
7850.00   0.46544638   0.00576760
7852.00   0.46181360   0.00596039
7854.00   0.45573437   0.00592874
7856.00   0.44531250   0.00553725
7858.00   0.43402073   0.00501307
7860.00   0.42703533   0.00474978
7862.00   0.42207080   0.00463623
7864.00   0.41949606   0.00446436
7866.00   0.42306957   0.00419532
7868.00   0.42075297   0.00416521
7870.00   0.41121385   0.00445583
7872.00   0.40170664   0.00474859
7874.00   0.39597967   0.00487825
7876.00   0.39193681   0.00494359
7878.00   0.39745983   0.00486995
7880.00   0.41924065   0.00446485
7882.00   0.42664030   0.00441234
7884.00   0.42318094   0.00466001
7886.00   0.41829026   0.00493725
7888.00   0.41438764   0.00523088
7890.00   0.41037852   0.00550879
7892.00   0.41088519   0.00542389
7894.00   0.41660193   0.00494036
7896.00   0.41910413   0.00457931
7898.00   0.41822708   0.00401677
7900.00   0.42143434   0.00367560
7902.00   0.43214217   0.00375414
7904.00   0.44515526   0.00406267
7906.00   0.45197400   0.00438019
7908.00   0.45514408   0.00483183
7910.00   0.45872271   0.00511115
7912.00   0.46416664   0.00537322
7914.00   0.46337703   0.00549688
7916.00   0.45398277   0.00549434
7918.00   0.44213828   0.00537726
7920.00   0.43301347   0.00509862
7922.00   0.42307088   0.00458931
7924.00   0.42328402   0.00435441
7926.00   0.43554032   0.00433591
7928.00   0.44260490   0.00428844
7930.00   0.44648162   0.00428125
7932.00   0.44932139   0.00425038
7934.00   0.45213762   0.00412537
7936.00   0.45439944   0.00393610
7938.00   0.45415857   0.00383273
7940.00   0.44959754   0.00375341
7942.00   0.44894320   0.00374561
7944.00   0.45244589   0.00384696
7946.00   0.45397475   0.00392647
7948.00   0.45052612   0.00391902
7950.00   0.44487837   0.00388893
7952.00   0.44249094   0.00397089
7954.00   0.44214013   0.00409763
7956.00   0.44078448   0.00431211
7958.00   0.43918291   0.00471373
7960.00   0.43777540   0.00493641
7962.00   0.43652794   0.00491922
7964.00   0.43552306   0.00480621
7966.00   0.43521538   0.00476844
7968.00   0.43617180   0.00474995
7970.00   0.43435282   0.00467882
7972.00   0.42741966   0.00454478
7974.00   0.42626530   0.00444000
7976.00   0.43358073   0.00437165
7978.00   0.44128379   0.00431023
7980.00   0.44102532   0.00421756
7982.00   0.43536618   0.00409382
7984.00   0.43866527   0.00411943
7986.00   0.45205602   0.00427049
7988.00   0.45677742   0.00442489
7990.00   0.45409808   0.00467191
7992.00   0.44962892   0.00483649
7994.00   0.44579524   0.00482519
7996.00   0.44129339   0.00469742
7998.00   0.43722776   0.00452034
8000.00   0.43170691   0.00414404
8002.00   0.42973638   0.00393854
8004.00   0.43179306   0.00384369
8006.00   0.43297240   0.00380039
8008.00   0.43093324   0.00379167
8010.00   0.42821372   0.00383357
8012.00   0.42976379   0.00393396
8014.00   0.43562934   0.00408398
8016.00   0.43808919   0.00428255
8018.00   0.44195703   0.00461971
8020.00   0.44011721   0.00480741
8022.00   0.42878082   0.00478961
8024.00   0.41528291   0.00471269
8026.00   0.40964648   0.00477485
8028.00   0.40784931   0.00496730
8030.00   0.40893635   0.00482706
8032.00   0.41556945   0.00428295
8034.00   0.42054796   0.00390401
8036.00   0.42496705   0.00370767
8038.00   0.42824250   0.00360424
8040.00   0.42898136   0.00355096
8042.00   0.42760178   0.00357609
8044.00   0.42797321   0.00365051
8046.00   0.42867330   0.00383963
8048.00   0.43008775   0.00394771
8050.00   0.43243405   0.00395245
8052.00   0.43496087   0.00402474
8054.00   0.43817702   0.00430807
8056.00   0.44147596   0.00466326
8058.00   0.43961117   0.00467170
8060.00   0.43203723   0.00427843
8062.00   0.42692587   0.00419398
8064.00   0.42272052   0.00436905
8066.00   0.41729382   0.00440586
8068.00   0.40716755   0.00410672
8070.00   0.39753005   0.00369124
8072.00   0.40160382   0.00372963
8074.00   0.42130226   0.00420951
8076.00   0.42621025   0.00424163
8078.00   0.42251745   0.00397596
8080.00   0.41943014   0.00378712
8082.00   0.41663772   0.00366062
8084.00   0.41417867   0.00362882
8086.00   0.41389510   0.00383899
8088.00   0.41570038   0.00428525
8090.00   0.41469437   0.00435967
8092.00   0.40932432   0.00417342
8094.00   0.40928191   0.00403792
8096.00   0.41766611   0.00390163
8098.00   0.42413437   0.00378560
8100.00   0.42041418   0.00373831
8102.00   0.41029248   0.00374321
8104.00   0.40202078   0.00370038
8106.00   0.38884655   0.00362218
8108.00   0.38356817   0.00357671
8110.00   0.38472483   0.00351318
8112.00   0.38856739   0.00352483
8114.00   0.39440060   0.00364822
8116.00   0.40233368   0.00385063
8118.00   0.40877759   0.00411994
8120.00   0.42063725   0.00457819
8122.00   0.41850820   0.00475323
8124.00   0.40013492   0.00482597
8126.00   0.38778940   0.00475044
8128.00   0.38726482   0.00441227
8130.00   0.39117074   0.00394464
8132.00   0.39136648   0.00376233
8134.00   0.39088169   0.00377788
8136.00   0.39060149   0.00379001
8138.00   0.39065656   0.00385043
8140.00   0.38984507   0.00398870
8142.00   0.38761133   0.00430207
8144.00   0.38526365   0.00455249
8146.00   0.38388816   0.00447850
8148.00   0.38251719   0.00414022
8150.00   0.38521761   0.00398051
8152.00   0.39540324   0.00384557
8154.00   0.39823097   0.00378583
8156.00   0.39295274   0.00384066
8158.00   0.38707364   0.00390522
8160.00   0.38458669   0.00390684
8162.00   0.38340589   0.00388307
8164.00   0.38648012   0.00389540
8166.00   0.39701048   0.00392788
8168.00   0.40112287   0.00396231
8170.00   0.40085405   0.00397143
8172.00   0.39982450   0.00403804
8174.00   0.39879256   0.00420466
8176.00   0.39746323   0.00442063
8178.00   0.39768317   0.00459451
8180.00   0.39924890   0.00479650
8182.00   0.40039217   0.00489954
8184.00   0.40205777   0.00473528
8186.00   0.40307209   0.00490473
8188.00   0.40346214   0.00567087
8190.00   0.40310681   0.00642180
8192.00   0.40165320   0.00650939
8194.00   0.40013447   0.00617816
8196.00   0.39392492   0.00581338
8198.00   0.38238829   0.00501051
8200.00   0.37179866   0.00443587
8202.00   0.36024514   0.00424790
8204.00   0.35072315   0.00420362
8206.00   0.34723371   0.00407621
8208.00   0.34829244   0.00396378
8210.00   0.35043854   0.00393294
8212.00   0.35843775   0.00403714
8214.00   0.36082351   0.00404470
8216.00   0.35591537   0.00382891
8218.00   0.35294574   0.00380113
8220.00   0.35886669   0.00427329
8222.00   0.36963102   0.00496187
8224.00   0.37120768   0.00532690
8226.00   0.36776149   0.00580644
8228.00   0.36182711   0.00572171
8230.00   0.34832776   0.00491362
8232.00   0.33905372   0.00412125
8234.00   0.34010366   0.00375591
8236.00   0.34505945   0.00362759
8238.00   0.34084779   0.00354529
8240.00   0.32996604   0.00369728
8242.00   0.32197607   0.00368202
8244.00   0.31262651   0.00358672
8246.00   0.30581126   0.00350668
8248.00   0.30257761   0.00344373
8250.00   0.30098042   0.00339837
8252.00   0.29883486   0.00339905
8254.00   0.29744145   0.00345197
8256.00   0.29449359   0.00345460
8258.00   0.29136643   0.00343318
8260.00   0.28610530   0.00340713
8262.00   0.27723494   0.00337420
8264.00   0.26853102   0.00333412
8266.00   0.26321858   0.00325533
8268.00   0.25975195   0.00312570
8270.00   0.25855261   0.00328596
8272.00   0.26201329   0.00369663
8274.00   0.26201695   0.00401219
8276.00   0.25964892   0.00429620
8278.00   0.25631186   0.00458175
8280.00   0.25269109   0.00485625
8282.00   0.24834536   0.00513420
8284.00   0.24229187   0.00552912
8286.00   0.23344952   0.00615874
8288.00   0.22662494   0.00641788
8290.00   0.21767192   0.00644998
8292.00   0.21420668   0.00642572
8294.00   0.22003426   0.00643241
8296.00   0.23050417   0.00636062
8298.00   0.23713244   0.00596057
8300.00   0.24544998   0.00503345
8302.00   0.24589050   0.00447733
8304.00   0.23657234   0.00413203
8306.00   0.23149291   0.00385910
8308.00   0.23289165   0.00369606
8310.00   0.23568936   0.00362436
8312.00   0.23459569   0.00356600
8314.00   0.23063704   0.00355884
8316.00   0.23193003   0.00359588
8318.00   0.23958051   0.00373828
8320.00   0.24214374   0.00379778
8322.00   0.23907426   0.00381726
8324.00   0.23511469   0.00376253
8326.00   0.23303302   0.00353431
8328.00   0.23134485   0.00312227
8330.00   0.23302911   0.00308933
8332.00   0.23742369   0.00325704
8334.00   0.24339512   0.00361582
8336.00   0.25540796   0.00414686
8338.00   0.26268798   0.00471677
8340.00   0.25906837   0.00537091
8342.00   0.24905485   0.00601611
8344.00   0.24193461   0.00624440
8346.00   0.22997257   0.00621725
8348.00   0.22805582   0.00607558
8350.00   0.23877768   0.00557911
8352.00   0.24278904   0.00521435
8354.00   0.23278521   0.00526328
8356.00   0.21852495   0.00539155
8358.00   0.21532530   0.00499470
8360.00   0.22017527   0.00391478
8362.00   0.21931927   0.00341512
8364.00   0.21646631   0.00344762
8366.00   0.21322995   0.00341339
8368.00   0.20881167   0.00327057
8370.00   0.20469344   0.00316439
8372.00   0.20326282   0.00318548
8374.00   0.20407522   0.00327055
8376.00   0.20244940   0.00359769
8378.00   0.19788995   0.00436198
8380.00   0.19669154   0.00457996
8382.00   0.19889523   0.00428691
8384.00   0.20209955   0.00388950
8386.00   0.20517112   0.00364304
8388.00   0.20872228   0.00342432
8390.00   0.21071543   0.00359293
8392.00   0.21084656   0.00415352
8394.00   0.21241054   0.00454043
8396.00   0.21689743   0.00500985
8398.00   0.21835080   0.00527484
8400.00   0.21232516   0.00520907
8402.00   0.20309077   0.00494596
8404.00   0.20305897   0.00478849
8406.00   0.21255176   0.00461798
8408.00   0.21390420   0.00445699
8410.00   0.21205421   0.00429592
8412.00   0.20794268   0.00414427
8414.00   0.19990455   0.00399915
8416.00   0.19095393   0.00386932
8418.00   0.18745475   0.00375399
8420.00   0.18748090   0.00354738
8422.00   0.18787697   0.00379000
8424.00   0.19135375   0.00445874
8426.00   0.19275545   0.00491195
8428.00   0.19086395   0.00531240
8430.00   0.18913130   0.00553062
8432.00   0.19133152   0.00534117
8434.00   0.19649793   0.00476067
8436.00   0.19759946   0.00432343
8438.00   0.19514783   0.00369830
8440.00   0.19483835   0.00331025
8442.00   0.19425879   0.00309806
8444.00   0.19683240   0.00323142
8446.00   0.20730975   0.00393552
8448.00   0.22295807   0.00485400
8450.00   0.22546181   0.00495882
8452.00   0.21464096   0.00436247
8454.00   0.21228945   0.00412645
8456.00   0.21264359   0.00393861
8458.00   0.21606056   0.00395908
8460.00   0.22515272   0.00434853
8462.00   0.23646627   0.00485392
8464.00   0.23847792   0.00499024
8466.00   0.23339525   0.00498175
8468.00   0.22934927   0.00478394
8470.00   0.22282729   0.00415270
8472.00   0.21685608   0.00368440
8474.00   0.21083573   0.00362268
8476.00   0.20596531   0.00370345
8478.00   0.20525475   0.00359530
8480.00   0.20834164   0.00339146
8482.00   0.21032965   0.00329227
8484.00   0.21287556   0.00321888
8486.00   0.21565488   0.00323660
8488.00   0.21873790   0.00337702
8490.00   0.22204158   0.00354456
8492.00   0.22608083   0.00366021
8494.00   0.23113066   0.00375894
8496.00   0.23069280   0.00389669
8498.00   0.22226824   0.00409313
8500.00   0.22075689   0.00421572
8502.00   0.22508758   0.00432562
8504.00   0.23064475   0.00434965
8506.00   0.23625097   0.00422357
8508.00   0.24233818   0.00397936
8510.00   0.24318968   0.00377069
8512.00   0.23594974   0.00336327
8514.00   0.23696409   0.00334187
8516.00   0.24515860   0.00378599
8518.00   0.25125802   0.00403850
8520.00   0.25179803   0.00391625
8522.00   0.25044012   0.00364748
8524.00   0.25280377   0.00363221
8526.00   0.25885507   0.00379537
8528.00   0.25987849   0.00383502
8530.00   0.25757638   0.00387806
8532.00   0.25471705   0.00382797
8534.00   0.24938558   0.00358486
8536.00   0.24524918   0.00331949
8538.00   0.24862422   0.00334775
8540.00   0.25785455   0.00359490
8542.00   0.26655433   0.00371612
8544.00   0.28001624   0.00385220
8546.00   0.28827387   0.00391694
8548.00   0.29187045   0.00390384
8550.00   0.29240888   0.00386040
8552.00   0.28917524   0.00381651
8554.00   0.28180787   0.00375519
8556.00   0.28356203   0.00371203
8558.00   0.29388189   0.00366701
8560.00   0.30008739   0.00364710
8562.00   0.30628297   0.00365800
8564.00   0.30900228   0.00367150
8566.00   0.30476072   0.00368336
8568.00   0.29637280   0.00369291
8570.00   0.29425272   0.00365437
8572.00   0.29539594   0.00354188
8574.00   0.29726362   0.00349343
8576.00   0.30208394   0.00345922
8578.00   0.30575997   0.00346976
8580.00   0.30703789   0.00354673
8582.00   0.30740088   0.00365528
8584.00   0.30860284   0.00373584
8586.00   0.30931199   0.00383867
8588.00   0.31241643   0.00384617
8590.00   0.31666782   0.00368062
8592.00   0.32311806   0.00367815
8594.00   0.33435431   0.00391618
8596.00   0.34500894   0.00418738
8598.00   0.34789646   0.00433287
8600.00   0.34529963   0.00446024
8602.00   0.34334037   0.00435891
8604.00   0.33642644   0.00385691
8606.00   0.33576578   0.00363443
8608.00   0.34345347   0.00372996
8610.00   0.35068244   0.00390116
8612.00   0.35135776   0.00401485
8614.00   0.34847590   0.00413744
8616.00   0.34442192   0.00427107
8618.00   0.33739313   0.00441930
8620.00   0.33060357   0.00456324
8622.00   0.32092923   0.00470597
8624.00   0.31451419   0.00485086
8626.00   0.31508222   0.00501707
8628.00   0.31949648   0.00518105
8630.00   0.32023454   0.00524906
8632.00   0.31605837   0.00522562
8634.00   0.32111910   0.00523164
8636.00   0.33565110   0.00520173
8638.00   0.34721646   0.00521843
8640.00   0.35476568   0.00535722
8642.00   0.35897425   0.00548999
8644.00   0.35616276   0.00536458
8646.00   0.34271997   0.00490065
8648.00   0.34341216   0.00491622
8650.00   0.35887361   0.00518512
8652.00   0.36421233   0.00560783
8654.00   0.35446703   0.00644490
8656.00   0.34374717   0.00703254
8658.00   0.34683555   0.00669770
8660.00   0.35954061   0.00548791
8662.00   0.36039463   0.00502929
8664.00   0.35258010   0.00507166
8666.00   0.34824139   0.00503723
8668.00   0.34426713   0.00506548
8670.00   0.34319708   0.00506378
8672.00   0.34822434   0.00493073
8674.00   0.35765538   0.00471202
8676.00   0.36257574   0.00457779
8678.00   0.36346954   0.00447071
8680.00   0.36897436   0.00439760
8682.00   0.37963411   0.00438141
8684.00   0.38823718   0.00436363
8686.00   0.39165941   0.00432203
8688.00   0.39265561   0.00427383
8690.00   0.39566782   0.00423468
8692.00   0.39931059   0.00417927
8694.00   0.40256014   0.00418151
8696.00   0.40821218   0.00425564
8698.00   0.40919521   0.00429747
8700.00   0.40259638   0.00429396
8702.00   0.39345661   0.00426650
8704.00   0.38891172   0.00421913
8706.00   0.38595453   0.00411976
8708.00   0.38511801   0.00412777
8710.00   0.38660020   0.00422798
8712.00   0.38929591   0.00431270
8714.00   0.39446491   0.00443001
8716.00   0.39957088   0.00449688
8718.00   0.40173030   0.00439250
8720.00   0.40199009   0.00413036
8722.00   0.40355849   0.00409900
8724.00   0.40473571   0.00424639
8726.00   0.40753594   0.00433961
8728.00   0.41094989   0.00436392
8730.00   0.41652307   0.00446760
8732.00   0.42717692   0.00480657
8734.00   0.44087133   0.00523929
8736.00   0.44386643   0.00520714
8738.00   0.43873984   0.00467213
8740.00   0.43308049   0.00440652
8742.00   0.42014503   0.00420648
8744.00   0.41257176   0.00410562
8746.00   0.41692024   0.00407054
8748.00   0.42585197   0.00416801
8750.00   0.42470506   0.00461058
8752.00   0.41774258   0.00545726
8754.00   0.41024005   0.00579857
8756.00   0.39617810   0.00583643
8758.00   0.38829643   0.00596480
8760.00   0.38994318   0.00626362
8762.00   0.39452967   0.00655182
8764.00   0.39403206   0.00664074
8766.00   0.39062288   0.00657265
8768.00   0.39149457   0.00663469
8770.00   0.39326042   0.00680283
8772.00   0.39925832   0.00686532
8774.00   0.41334045   0.00685805
8776.00   0.42590240   0.00676125
8778.00   0.42640093   0.00648231
8780.00   0.41836435   0.00600520
8782.00   0.42609826   0.00591478
8784.00   0.45334268   0.00629481
8786.00   0.46173003   0.00628861
8788.00   0.45500442   0.00595467
8790.00   0.44405660   0.00557727
8792.00   0.43138641   0.00529485
8794.00   0.41623536   0.00503462
8796.00   0.41021469   0.00481057
8798.00   0.41131291   0.00462999
8800.00   0.41226861   0.00447766
8802.00   0.41635275   0.00434650
8804.00   0.42030567   0.00428350
8806.00   0.42426589   0.00433442
8808.00   0.42753002   0.00443608
8810.00   0.42648849   0.00444203
8812.00   0.42013925   0.00429950
8814.00   0.41891757   0.00448508
8816.00   0.42160451   0.00477073
8818.00   0.42238531   0.00530229
8820.00   0.41998932   0.00612014
8822.00   0.41736588   0.00693539
8824.00   0.41896343   0.00754944
8826.00   0.42583761   0.00812802
8828.00   0.41710755   0.00842386
8830.00   0.38724971   0.00859785
8832.00   0.37422529   0.00850695
8834.00   0.37558961   0.00807084
8836.00   0.38460141   0.00746837
8838.00   0.40193459   0.00678821
8840.00   0.42839840   0.00591094
8842.00   0.43115300   0.00535168
8844.00   0.41050604   0.00491349
8846.00   0.40193477   0.00493508
8848.00   0.39695853   0.00564024
8850.00   0.39648947   0.00618597
8852.00   0.40297502   0.00638999
8854.00   0.41403252   0.00641435
8856.00   0.42035270   0.00610121
8858.00   0.42716840   0.00493846
8860.00   0.42808729   0.00463073
8862.00   0.42125875   0.00507058
8864.00   0.41711459   0.00539645
8866.00   0.41882887   0.00552838
8868.00   0.42211112   0.00557415
8870.00   0.42098725   0.00545658
8872.00   0.41556156   0.00506376
8874.00   0.41653857   0.00501890
8876.00   0.42203805   0.00508963
8878.00   0.42777219   0.00540704
8880.00   0.43585476   0.00602682
8882.00   0.44239712   0.00667817
8884.00   0.44197404   0.00719560
8886.00   0.43645337   0.00772711
8888.00   0.43025869   0.00783055
8890.00   0.42202196   0.00763618
8892.00   0.41149873   0.00725176
8894.00   0.39406821   0.00632826
8896.00   0.38087320   0.00545474
8898.00   0.38175932   0.00537362
8900.00   0.39177254   0.00581102
8902.00   0.39095914   0.00594489
8904.00   0.38501188   0.00604697
8906.00   0.37793812   0.00616684
8908.00   0.36236352   0.00628028
8910.00   0.35506526   0.00641764
8912.00   0.36640117   0.00656938
8914.00   0.38646170   0.00675054
8916.00   0.39123723   0.00705311
8918.00   0.38616014   0.00764289
8920.00   0.38405856   0.00772646
8922.00   0.38106534   0.00751938
8924.00   0.37724608   0.00711944
8926.00   0.37071836   0.00633416
8928.00   0.36488220   0.00534607
8930.00   0.36611572   0.00486324
8932.00   0.37191290   0.00477973
8934.00   0.38188225   0.00480812
8936.00   0.40407911   0.00515168
8938.00   0.41465819   0.00545526
8940.00   0.41118419   0.00576258
8942.00   0.40337521   0.00604761
8944.00   0.39835656   0.00626033
8946.00   0.39226162   0.00642884
8948.00   0.39166611   0.00658491
8950.00   0.39771122   0.00661990
8952.00   0.39988127   0.00685258
8954.00   0.40004966   0.00735441
8956.00   0.39836141   0.00775001
8958.00   0.39399475   0.00791165
8960.00   0.38748965   0.00792775
8962.00   0.38313603   0.00756921
8964.00   0.37915614   0.00644723
8966.00   0.37644655   0.00585576
8968.00   0.37513146   0.00568689
8970.00   0.37424278   0.00555695
8972.00   0.37275371   0.00533007
8974.00   0.37194872   0.00511919
8976.00   0.37562096   0.00502844
8978.00   0.38657191   0.00496303
8980.00   0.38811615   0.00517036
8982.00   0.38462940   0.00570870
8984.00   0.37805822   0.00609620
8986.00   0.36409318   0.00636969
8988.00   0.35093245   0.00652392
8990.00   0.35429633   0.00640270
8992.00   0.37418139   0.00589710
8994.00   0.37241670   0.00595974
8996.00   0.34969765   0.00644520
8998.00   0.34085345   0.00683544
9000.00   0.34761781   0.00734196
9002.00   0.35750675   0.00763111
9004.00   0.36233687   0.00733175
9006.00   0.36629120   0.00651608
9008.00   0.36464730   0.00600235
9010.00   0.35616577   0.00547962
9012.00   0.34989718   0.00510993
9014.00   0.34090757   0.00494045
9016.00   0.33693820   0.00487412
9018.00   0.34575117   0.00489547
9020.00   0.36165103   0.00500343
9022.00   0.36062655   0.00498194
9024.00   0.34432015   0.00485786
9026.00   0.33601162   0.00479709
9028.00   0.32772580   0.00473980
9030.00   0.32333836   0.00472435
9032.00   0.32590178   0.00474393
9034.00   0.33131504   0.00481523
9036.00   0.33000064   0.00501032
9038.00   0.32041177   0.00538510
9040.00   0.32474697   0.00552397
9042.00   0.34331211   0.00549032
9044.00   0.35541487   0.00550757
9046.00   0.36149380   0.00562010
9048.00   0.36169299   0.00572556
9050.00   0.35100091   0.00572370
9052.00   0.32756332   0.00565665
9054.00   0.31814337   0.00553311
9056.00   0.31537306   0.00527689
9058.00   0.31542546   0.00509266
9060.00   0.32148653   0.00495707
9062.00   0.32738194   0.00487693
9064.00   0.32804567   0.00489406
9066.00   0.32594731   0.00499795
9068.00   0.32127640   0.00497593
9070.00   0.31177315   0.00476520
9072.00   0.30455396   0.00480033
9074.00   0.29572803   0.00512194
9076.00   0.29119104   0.00535473
9078.00   0.29459852   0.00532073
9080.00   0.30319443   0.00516544
9082.00   0.31067693   0.00521794
9084.00   0.32387665   0.00547291
9086.00   0.32725826   0.00552895
9088.00   0.32382214   0.00544613
9090.00   0.31797624   0.00539643
9092.00   0.30749816   0.00541034
9094.00   0.29662040   0.00545955
9096.00   0.29721573   0.00555578
9098.00   0.30790231   0.00574792
9100.00   0.31354970   0.00577632
9102.00   0.32244968   0.00572286
9104.00   0.32394543   0.00558853
9106.00   0.31444010   0.00531500
9108.00   0.30252218   0.00499552
9110.00   0.29729041   0.00476005
9112.00   0.29476574   0.00453938
9114.00   0.29495794   0.00449705
9116.00   0.30029464   0.00468875
9118.00   0.30319047   0.00479194
9120.00   0.30446950   0.00483711
9122.00   0.30498207   0.00487893
9124.00   0.30473107   0.00493225
9126.00   0.30368164   0.00498820
9128.00   0.30393836   0.00511310
9130.00   0.30619460   0.00539045
9132.00   0.30579954   0.00545552
9134.00   0.30345294   0.00537991
9136.00   0.30026293   0.00522041
9138.00   0.29535779   0.00491345
9140.00   0.29002056   0.00451720
9142.00   0.29067653   0.00446416
9144.00   0.29768205   0.00466910
9146.00   0.30116349   0.00491235
9148.00   0.30585217   0.00538141
9150.00   0.30673018   0.00566871
9152.00   0.30069607   0.00573944
9154.00   0.29287493   0.00568662
9156.00   0.29201639   0.00554589
9158.00   0.29573134   0.00520973
9160.00   0.29831985   0.00509537
9162.00   0.30453518   0.00514610
9164.00   0.30548990   0.00516925
9166.00   0.29712343   0.00517754
9168.00   0.28963831   0.00517650
9170.00   0.29474330   0.00515171
9172.00   0.30923602   0.00510865
9174.00   0.31287831   0.00505424
9176.00   0.31136575   0.00499193
9178.00   0.30778620   0.00490128
9180.00   0.29929700   0.00474177
9182.00   0.29147980   0.00461422
9184.00   0.28789270   0.00458854
9186.00   0.28661838   0.00463087
9188.00   0.28651083   0.00471321
9190.00   0.28976467   0.00490226
9192.00   0.29043746   0.00499679
9194.00   0.28979430   0.00497393
9196.00   0.28857005   0.00504290
9198.00   0.28601816   0.00537979
9200.00   0.28329495   0.00574810
9202.00   0.28496635   0.00560293
9204.00   0.29194880   0.00479967
9206.00   0.29409149   0.00456725
9208.00   0.29141930   0.00467813
9210.00   0.29261941   0.00484788
9212.00   0.29994351   0.00509733
9214.00   0.30938339   0.00536264
9216.00   0.31661755   0.00550378
9218.00   0.32482648   0.00559854
9220.00   0.32609022   0.00558479
9222.00   0.32130072   0.00537894
9224.00   0.31536037   0.00529051
9226.00   0.30383179   0.00525457
9228.00   0.29544759   0.00535541
9230.00   0.30114809   0.00579359
9232.00   0.31776941   0.00649543
9234.00   0.32041940   0.00642890
9236.00   0.31213516   0.00551036
9238.00   0.30977520   0.00503861
9240.00   0.31152990   0.00493537
9242.00   0.31360695   0.00494365
9244.00   0.31374493   0.00496339
9246.00   0.31340763   0.00504769
9248.00   0.31705865   0.00512820
9250.00   0.32998335   0.00528957
9252.00   0.32917419   0.00532488
9254.00   0.31795001   0.00510729
9256.00   0.30454525   0.00514013
9258.00   0.28916237   0.00569564
9260.00   0.27284935   0.00635364
9262.00   0.26267743   0.00650407
9264.00   0.25271958   0.00637883
9266.00   0.25630552   0.00615828
9268.00   0.27768132   0.00554624
9270.00   0.29273489   0.00514734
9272.00   0.29974467   0.00511614
9274.00   0.30284205   0.00524571
9276.00   0.30288824   0.00534663
9278.00   0.29752728   0.00551195
9280.00   0.29954973   0.00563270
9282.00   0.30586112   0.00573097
9284.00   0.31337607   0.00584908
9286.00   0.32400736   0.00596266
9288.00   0.33427081   0.00611260
9290.00   0.34102550   0.00634243
9292.00   0.34573698   0.00662805
9294.00   0.34941167   0.00686205
9296.00   0.35135341   0.00678198
9298.00   0.35271028   0.00735727
9300.00   0.35582983   0.00822437
9302.00   0.35410550   0.00942734
9304.00   0.34276733   0.01092373
9306.00   0.32548046   0.01256937
9308.00   0.31338146   0.01425773
9310.00   0.30062580   0.01646389
9312.00   0.29338852   0.01759569
9314.00   0.28791714   0.01825313
9316.00   0.28957501   0.01855254
9318.00   0.30469379   0.01852495
9320.00   0.32365465   0.01815484
9322.00   0.32469165   0.01737152
9324.00   0.30950832   0.01580439
9326.00   0.30857265   0.01486664
9328.00   0.31117892   0.01417957
9330.00   0.32116872   0.01375978
9332.00   0.34458441   0.01366848
9334.00   0.36872861   0.01384057
9336.00   0.37753123   0.01430986
9338.00   0.37718281   0.01527091
9340.00   0.37347195   0.01490989
9342.00   0.35981023   0.01311448
9344.00   0.35084236   0.01172828
9346.00   0.34376314   0.01041708
9348.00   0.34003776   0.00949439
9350.00   0.34378383   0.00966374
9352.00   0.35341889   0.01066260
9354.00   0.34901288   0.01059497
9356.00   0.32555637   0.00962710
9358.00   0.32175720   0.00931117
9360.00   0.33659461   0.00915312
9362.00   0.34900439   0.00958207
9364.00   0.34746912   0.01007052
9366.00   0.34162903   0.01120351
9368.00   0.35346314   0.01524599
9370.00   0.38928711   0.02095381
9372.00   0.39799041   0.02441904
9374.00   0.40062505   0.02866522
9376.00   0.38083702   0.03017017
9378.00   0.31833515   0.02804421
9380.00   0.24697663   0.02373663
9382.00   0.23333800   0.02004290
9384.00   0.26375446   0.01466845
9386.00   0.27494466   0.01059098
9388.00   0.29192510   0.00886566
9390.00   0.29897258   0.00746758
9392.00   0.29052931   0.00709610
9394.00   0.28072634   0.00754002
9396.00   0.28532568   0.00798327
9398.00   0.29966640   0.00881449
9400.00   0.30218360   0.00919770
9402.00   0.29563040   0.00947461
9404.00   0.29362786   0.00954236
9406.00   0.28894728   0.00894350
9408.00   0.29342297   0.00882607
9410.00   0.32093102   0.01012834
9412.00   0.36400023   0.01202272
9414.00   0.37735271   0.01301066
9416.00   0.37435180   0.01398538
9418.00   0.36293906   0.01417928
9420.00   0.33014587   0.01342030
9422.00   0.30496126   0.01274868
9424.00   0.30107492   0.01272539
9426.00   0.30592263   0.01288086
9428.00   0.29676992   0.01231391
9430.00   0.27760053   0.01027351
9432.00   0.26544914   0.01053782
9434.00   0.24761027   0.01209126
9436.00   0.24565060   0.01421394
9438.00   0.27009657   0.01767661
9440.00   0.30243206   0.02036463
9442.00   0.31492159   0.01964787
9444.00   0.31697723   0.01548770
9446.00   0.31899410   0.01326039
9448.00   0.31429026   0.01098141
9450.00   0.31314051   0.01026709
9452.00   0.31253594   0.01183094
9454.00   0.31694502   0.01401770
9456.00   0.33666915   0.01618294
9458.00   0.37164852   0.01877851
9460.00   0.36707610   0.01861591
9462.00   0.31714648   0.01530052
9464.00   0.29836679   0.01322962
9466.00   0.30592790   0.01182203
9468.00   0.31552237   0.01121476
9470.00   0.31316388   0.01177247
9472.00   0.30722454   0.01320916
9474.00   0.31655428   0.01459488
9476.00   0.34930059   0.01708914
9478.00   0.35603169   0.01758735
9480.00   0.33972052   0.01675831
9482.00   0.32847005   0.01543352
9484.00   0.33309439   0.01333363
9486.00   0.34255201   0.01050308
9488.00   0.34015793   0.00930247
9490.00   0.33230844   0.00962279
9492.00   0.31881204   0.01031523
9494.00   0.28791937   0.01230032
9496.00   0.27372268   0.01338951
9498.00   0.28369310   0.01364014
9500.00   0.30291528   0.01343826
9502.00   0.31659395   0.01287124
9504.00   0.33455324   0.01166538
9506.00   0.33443749   0.01080462
9508.00   0.31583023   0.00975333
9510.00   0.30184171   0.00923041
9512.00   0.29069853   0.00948264
9514.00   0.28018621   0.00994030
9516.00   0.26712158   0.01021019
9518.00   0.25140524   0.01049279
9520.00   0.26006547   0.01061160
9522.00   0.29802591   0.01063468
9524.00   0.32010710   0.01055351
9526.00   0.33609366   0.01018372
9528.00   0.34537479   0.00998204
9530.00   0.34410435   0.01032400
9532.00   0.33561146   0.01091035
9534.00   0.33693939   0.01089408
9536.00   0.34733501   0.01031983
9538.00   0.34869498   0.01006833
9540.00   0.33812609   0.00976736
9542.00   0.33783734   0.00976497
9544.00   0.36201823   0.01024274
9546.00   0.39123514   0.01091746
9548.00   0.38510743   0.01136502
9550.00   0.34805948   0.01183168
9552.00   0.32920697   0.01201813
9554.00   0.30938742   0.01189321
9556.00   0.30049777   0.01185868
9558.00   0.30955577   0.01177631
9560.00   0.32155168   0.01189877
9562.00   0.31699923   0.01274649
9564.00   0.30151278   0.01426271
9566.00   0.29469645   0.01447605
9568.00   0.29178402   0.01370250
9570.00   0.28791723   0.01310009
9572.00   0.28019300   0.01249606
9574.00   0.27699167   0.01190948
9576.00   0.28728223   0.01145755
9578.00   0.30745661   0.01110606
9580.00   0.31201321   0.01062633
9582.00   0.30734932   0.00979987
9584.00   0.30101117   0.00955475
9586.00   0.28533244   0.00996448
9588.00   0.27561203   0.01036472
9590.00   0.28129637   0.01054661
9592.00   0.29471672   0.01064824
9594.00   0.29726306   0.01060399
9596.00   0.29116428   0.01038504
9598.00   0.29235432   0.01016842
9600.00   0.29767609   0.00979816
9602.00   0.30275193   0.00954593
9604.00   0.30932444   0.00956071
9606.00   0.31396499   0.00963822
9608.00   0.30630323   0.00937620
9610.00   0.28217983   0.00856232
9612.00   0.28097814   0.00886420
9614.00   0.30494225   0.01028100
9616.00   0.31105867   0.01102411
9618.00   0.28991267   0.01112805
9620.00   0.26683483   0.01102686
9622.00   0.26910022   0.01105042
9624.00   0.28915575   0.01111021
9626.00   0.28866962   0.01071152
9628.00   0.27221918   0.00958619
9630.00   0.26476333   0.00888370
9632.00   0.25814295   0.00836038
9634.00   0.26209345   0.00834029
9636.00   0.29117811   0.00935167
9638.00   0.33814067   0.01090203
9640.00   0.34659293   0.01099285
9642.00   0.31786332   0.00980481
9644.00   0.31190798   0.00920638
9646.00   0.32149518   0.00877031
9648.00   0.32647374   0.00849880
9650.00   0.31822985   0.00846346
9652.00   0.30409640   0.00860175
9654.00   0.29589090   0.00867536
9656.00   0.28737208   0.00870582
9658.00   0.28539917   0.00893678
9660.00   0.28664485   0.00931803
9662.00   0.29470676   0.00974167
9664.00   0.31438702   0.01031607
9666.00   0.33719435   0.01081988
9668.00   0.34876704   0.01085507
9670.00   0.35638922   0.01049287
9672.00   0.35235634   0.01028447
9674.00   0.33074099   0.00991842
9676.00   0.31666383   0.00980393
9678.00   0.30581704   0.00988594
9680.00   0.30280745   0.01021835
9682.00   0.31842360   0.01101718
9684.00   0.35170004   0.01223284
9686.00   0.36025739   0.01236138
9688.00   0.36163154   0.01122681
9690.00   0.34474140   0.01108578
9692.00   0.29311690   0.01192727
9694.00   0.25219935   0.01274914
9696.00   0.25188959   0.01324868
9698.00   0.27511916   0.01361228
9700.00   0.28929308   0.01321932
9702.00   0.31595150   0.01155031
9704.00   0.32159293   0.01077744
9706.00   0.30402976   0.01054172
9708.00   0.29298967   0.01053612
9710.00   0.30080879   0.01072231
9712.00   0.31524047   0.01108896
9714.00   0.31647390   0.01143242
9716.00   0.31274867   0.01189813
9718.00   0.30111432   0.01218923
9720.00   0.27266786   0.01252513
9722.00   0.25556812   0.01256069
9724.00   0.25543800   0.01216637
9726.00   0.26166025   0.01156534
9728.00   0.26304123   0.01105076
9730.00   0.26352897   0.01037507
9732.00   0.26724467   0.01025203
9734.00   0.27565813   0.01061122
9736.00   0.28029567   0.01102769
9738.00   0.28346378   0.01173065
9740.00   0.28210649   0.01226571
9742.00   0.26987246   0.01224803
9744.00   0.24770714   0.01186393
9746.00   0.24576813   0.01129174
9748.00   0.26179844   0.00994395
9750.00   0.27056348   0.00928401
9752.00   0.27831361   0.00937152
9754.00   0.28235188   0.00957629
9756.00   0.27878994   0.00967444
9758.00   0.27057320   0.00977772
9760.00   0.27090535   0.00956257
9762.00   0.27870753   0.00887371
9764.00   0.28174561   0.00854528
9766.00   0.28596720   0.00830864
9768.00   0.28457528   0.00831456
9770.00   0.27124196   0.00864455
9772.00   0.25475860   0.00916534
9774.00   0.25539142   0.00968361
9776.00   0.26772085   0.01045516
9778.00   0.28154114   0.01064791
9780.00   0.30969948   0.01005524
9782.00   0.32385349   0.01010415
9784.00   0.32046017   0.01098789
9786.00   0.30806932   0.01211235
9788.00   0.29214486   0.01312413
9790.00   0.26646763   0.01429682
9792.00   0.25741339   0.01475637
9794.00   0.26161993   0.01481285
9796.00   0.26326403   0.01458376
9798.00   0.26755825   0.01383804
9800.00   0.26738653   0.01299292
9802.00   0.25230631   0.01245520
9804.00   0.22593790   0.01205760
9806.00   0.22427228   0.01173223
9808.00   0.24685441   0.01158517
9810.00   0.25543344   0.01139090
9812.00   0.25589496   0.01120068
9814.00   0.25514957   0.01101455
9816.00   0.25553975   0.01079224
9818.00   0.25563499   0.01057504
9820.00   0.25554278   0.01058281
9822.00   0.24899410   0.01098631
9824.00   0.25735730   0.01092743
9826.00   0.28632054   0.01050239
9828.00   0.30258226   0.01012623
9830.00   0.29490530   0.00988283
9832.00   0.27818838   0.00970498
9834.00   0.27328831   0.00958393
9836.00   0.27138141   0.00941360
9838.00   0.27530953   0.00971609
9840.00   0.29158670   0.01031891
9842.00   0.29835206   0.01112809
9844.00   0.29345644   0.01245322
9846.00   0.28378060   0.01350771
9848.00   0.27374089   0.01348640
9850.00   0.25958109   0.01264543
9852.00   0.25589937   0.01218767
9854.00   0.26401085   0.01173906
9856.00   0.26495317   0.01123746
9858.00   0.25571465   0.01033097
9860.00   0.25053111   0.00984223
9862.00   0.26158273   0.01033868
9864.00   0.28301322   0.01146210
9866.00   0.28842500   0.01357123
9868.00   0.28871363   0.01742245
9870.00   0.27802324   0.01866397
9872.00   0.24534802   0.01833278
9874.00   0.22319140   0.01762372
9876.00   0.22817419   0.01684863
9878.00   0.24613363   0.01578567
9880.00   0.24937761   0.01473650
9882.00   0.24391814   0.01316180
9884.00   0.24507888   0.01249289
9886.00   0.25337869   0.01218815
9888.00   0.25445145   0.01289842
9890.00   0.23911849   0.01532224
9892.00   0.22268167   0.01760601
9894.00   0.23324619   0.01754378
9896.00   0.27197626   0.01560821
9898.00   0.27537200   0.01454213
9900.00   0.24237713   0.01312775
9902.00   0.23576564   0.01244462
9904.00   0.26666087   0.01266622
9906.00   0.30042109   0.01346105
9908.00   0.30495113   0.01464186
9910.00   0.29272974   0.01625893
9912.00   0.28367326   0.01732966
9914.00   0.27176782   0.01863933
9916.00   0.25524855   0.01892935
9918.00   0.22614928   0.01810596
9920.00   0.20463815   0.01700422
9922.00   0.20500380   0.01608559
9924.00   0.21932383   0.01509844
9926.00   0.22970992   0.01443241
9928.00   0.24525310   0.01404578
9930.00   0.25658262   0.01377406
9932.00   0.27324757   0.01334155
9934.00   0.27630115   0.01363900
9936.00   0.25118324   0.01488070
9938.00   0.21448179   0.01667910
9940.00   0.20908684   0.01883137
9942.00   0.22737680   0.02190690
9944.00   0.23640046   0.02331198
9946.00   0.24459265   0.02372464
9948.00   0.25629646   0.02415149
9950.00   0.27850261   0.02479963
9952.00   0.29818442   0.02529217
9954.00   0.29254434   0.02520321
9956.00   0.26416385   0.02458445
9958.00   0.25174239   0.02414200
9960.00   0.24095492   0.02372833
9962.00   0.23805213   0.02309793
9964.00   0.24799523   0.02217055
9966.00   0.25830546   0.02111511
9968.00   0.25594345   0.02003772
9970.00   0.24545743   0.01882685
9972.00   0.24706481   0.01808780
9974.00   0.25520602   0.01784344
9976.00   0.26604772   0.01755415
9978.00   0.28703648   0.01745149
9980.00   0.30151185   0.01724232
9982.00   0.29966646   0.01656372
9984.00   0.28741762   0.01563151
9986.00   0.27306712   0.01576171
9988.00   0.24225007   0.01734174
9990.00   0.23320684   0.01746149
9992.00   0.24070166   0.01642295
9994.00   0.25016949   0.01561535
9996.00   0.26314795   0.01548542
9998.00   0.27492419   0.01570145
10000.00   0.26270568   0.01604114
10002.00   0.21620542   0.01610916
10004.00   0.21452749   0.01778745
10006.00   0.26031387   0.02070755
10008.00   0.27578157   0.02320023
10010.00   0.23948242   0.02575058
10012.00   0.19628569   0.02773578
10014.00   0.20033048   0.02814832
10016.00   0.23626517   0.02735491
10018.00   0.25544569   0.02663855
10020.00   0.28664610   0.02524654
10022.00   0.28937915   0.02407848
10024.00   0.25038376   0.02304172
10026.00   0.21190125   0.02213905
10028.00   0.20827192   0.02152312
10030.00   0.22402515   0.02119070
10032.00   0.23599425   0.02037505
10034.00   0.26513147   0.01891116
10036.00   0.26908240   0.01801714
10038.00   0.24407764   0.01744161
10040.00   0.22328086   0.01731850
10042.00   0.22413379   0.01789704
10044.00   0.23454387   0.01890687
10046.00   0.23308453   0.01935350
10048.00   0.21872875   0.01980346
10050.00   0.22116616   0.01963799
10052.00   0.23803456   0.01839866
10054.00   0.25180346   0.01778160
10056.00   0.26132482   0.01847286
10058.00   0.26619771   0.01962736
10060.00   0.25773096   0.02019323
10062.00   0.23584458   0.02063589
10064.00   0.21621054   0.02083347
10066.00   0.18018940   0.02072105
10068.00   0.16840915   0.02062861
10070.00   0.19296417   0.02036296
10072.00   0.22531232   0.02028928
10074.00   0.23558927   0.02092431
10076.00   0.23778981   0.02201526
10078.00   0.22409183   0.02337945
10080.00   0.16799077   0.02578119
10082.00   0.15984379   0.02677281
10084.00   0.20871253   0.02662025
10086.00   0.26124245   0.02588550
10088.00   0.28472072   0.02465780
10090.00   0.29582930   0.02274513
10092.00   0.28676149   0.02166283
10094.00   0.24331185   0.02043891
10096.00   0.22067533   0.02081719
10098.00   0.21034920   0.02342532
10100.00   0.20042282   0.02520995
10102.00   0.18233667   0.02525278
10104.00   0.16422324   0.02442882
10106.00   0.17137611   0.02372377
10108.00   0.21192631   0.02249036
10110.00   0.22373644   0.02161624
10112.00   0.22384720   0.02029216
10114.00   0.21637402   0.02009727
10116.00   0.19671540   0.02152942
10118.00   0.17326440   0.02369576
10120.00   0.16527556   0.02580916
10122.00   0.16955774   0.02870901
10124.00   0.16389689   0.02944878
10126.00   0.14460960   0.02867019
10128.00   0.14337961   0.02766765
10130.00   0.16564149   0.02607213
10132.00   0.19502288   0.02431948
10134.00   0.22167772   0.02313704
10136.00   0.25636727   0.02217350
10138.00   0.24052262   0.02234142
10140.00   0.15172639   0.02418967
10142.00   0.12115929   0.02496813
10144.00   0.14198722   0.02491978
10146.00   0.17620580   0.02476550
10148.00   0.21095020   0.02484309
10150.00   0.25277194   0.02497438
10152.00   0.25621948   0.02527971
10154.00   0.22094059   0.02607386
10156.00   0.20044489   0.02615467
10158.00   0.17536464   0.02527731
10160.00   0.16087279   0.02490441
10162.00   0.16065280   0.02548485
10164.00   0.17291513   0.02669025
10166.00   0.20508504   0.02860269
10168.00   0.27988946   0.03178703
10170.00   0.30058390   0.03332306
10172.00   0.28472239   0.03436374
10174.00   0.26525030   0.03458977
10176.00   0.23579989   0.03361404
10178.00   0.20933674   0.03210391
10180.00   0.22194675   0.03127867
10182.00   0.27812374   0.03062994
10184.00   0.27237841   0.03037206
10186.00   0.21449403   0.03055828
10188.00   0.17560059   0.03086265
10190.00   0.14186646   0.03158580
10192.00   0.12864569   0.03211525
10194.00   0.16669384   0.03173362
10196.00   0.25074083   0.03063625
10198.00   0.27447101   0.03026051
10200.00   0.25041434   0.02953941
10202.00   0.25139883   0.03039300
10204.00   0.27407110   0.03318737
10206.00   0.29201049   0.03565408
10208.00   0.28956991   0.03699857
10210.00   0.27622262   0.03780471
10212.00   0.27423215   0.03772363
10214.00   0.26344433   0.03631621
10216.00   0.28485522   0.03544883
10218.00   0.36590278   0.03444382
10220.00   0.40245724   0.03376556
10222.00   0.35161176   0.03371499
10224.00   0.25869662   0.03397127
10226.00   0.19567372   0.03385661
10228.00   0.11425981   0.03365343
10230.00   0.09924808   0.03325614
10232.00   0.14719118   0.03216517
10234.00   0.19348699   0.03188705
10236.00   0.25169209   0.03308789
10238.00   0.29663771   0.03442410
10240.00   0.26996469   0.03420385
10242.00   0.17518522   0.03273869
10244.00   0.14210384   0.03251725
10246.00   0.12847991   0.03346692
10248.00   0.13665862   0.03341860
10250.00   0.19097562   0.03215364
10252.00   0.23552772   0.03068687
10254.00   0.21622871   0.02989324
10256.00   0.15507843   0.02942396
10258.00   0.11863108   0.02880384
10260.00   0.05333369   0.02724949
10262.00   0.05935958   0.02780422
10264.00   0.15127769   0.03018893
10266.00   0.23838891   0.03304308
10268.00   0.26998106   0.03598452
10270.00   0.28026670   0.03910423
10272.00   0.33558649   0.04182298
10274.00   0.44002756   0.04286801
10276.00   0.49931371   0.04738780
10278.00   0.56042349   0.05547655
10280.00   0.56907147   0.06073974
10282.00   0.49227616   0.06257685
10284.00   0.37511888   0.06268661
10286.00   0.30524731   0.06219444
10288.00   0.24406083   0.06034752
10290.00   0.21150799   0.05839073
10292.00   0.20371099   0.05563945
10294.00   0.21404773   0.05270961
10296.00   0.25761107   0.04930655
10298.00   0.30434045   0.04583817
10300.00   0.30910024   0.04298910
10302.00   0.28231534   0.04021880
10304.00   0.28860146   0.04019264
10306.00   0.32924911   0.04454247
10308.00   0.33549702   0.04556339
10310.00   0.30897906   0.04359305
10312.00   0.26890960   0.04065662
10314.00   0.21570000   0.03768994
10316.00   0.14635615   0.03395414
10318.00   0.14937380   0.03275579
10320.00   0.23224267   0.03436122
10322.00   0.27197164   0.03504012
10324.00   0.29394826   0.03598608
10326.00   0.30607921   0.03636138
10328.00   0.31628317   0.03519996
10330.00   0.31635949   0.03336132
10332.00   0.27182117   0.03446773
10334.00   0.14496580   0.03876410
10336.00   0.11197617   0.04012172
10338.00   0.13507086   0.04002502
10340.00   0.17372502   0.03988938
10342.00   0.23454055   0.03988738
10344.00   0.30211601   0.03986475
10346.00   0.33063596   0.04002538
10348.00   0.34418374   0.04054807
10350.00   0.31447992   0.04018039
10352.00   0.20671231   0.03896860
10354.00   0.15046135   0.03785899
10356.00   0.15123786   0.03651839
10358.00   0.18021791   0.03552555
10360.00   0.22799067   0.03562175
10362.00   0.31127968   0.03633056
10364.00   0.32188725   0.03896666
10366.00   0.26302254   0.04409491
10368.00   0.23573026   0.04733717
10370.00   0.24266692   0.05022771
10372.00   0.23740663   0.05153574
10374.00   0.17612122   0.04989196
10376.00   0.08112745   0.04582306
10378.00   0.08753757   0.04338205
10380.00   0.18605898   0.03995793
10382.00   0.25291955   0.03976236
10384.00   0.34852538   0.04418072
10386.00   0.39507389   0.04669259
10388.00   0.33521503   0.04482384
10390.00   0.22754911   0.04084505
10392.00   0.22872445   0.03988237
10394.00   0.31327400   0.04099261
10396.00   0.35931489   0.04116643
10398.00   0.41941068   0.04186710
10400.00   0.44823238   0.04151098
10402.00   0.43721348   0.03859031
10404.00   0.39951879   0.03543170
10406.00   0.34078890   0.03727681
10408.00   0.23315147   0.04313155
10410.00   0.21206936   0.04520404
10412.00   0.28204307   0.04602645
10414.00   0.30119029   0.04621657
10416.00   0.25791988   0.04552105
10418.00   0.20490184   0.04437597
10420.00   0.18126471   0.04331134
10422.00   0.16812204   0.04208794
10424.00   0.17642742   0.04048294
10426.00   0.23495534   0.03823838
10428.00   0.24086571   0.03619774
10430.00   0.17940931   0.03379515
10432.00   0.13388941   0.03204709
10434.00   0.15770833   0.03195166
10436.00   0.21995525   0.03302269
10438.00   0.25327927   0.03359676
10440.00   0.26651722   0.03344233
10442.00   0.30920246   0.03524672
10444.00   0.40500987   0.03975084
10446.00   0.45495585   0.04227742
10448.00   0.41708735   0.04166935
10450.00   0.33376229   0.03934647
10452.00   0.27343524   0.03711431
10454.00   0.18652040   0.03267806
10456.00   0.16703553   0.03175301
10458.00   0.22911599   0.03439999
10460.00   0.25007668   0.03602601
10462.00   0.20294635   0.03626262
10464.00   0.13924402   0.03612469
10466.00   0.11403916   0.03633071
10468.00   0.10195594   0.03669000
10470.00   0.11778878   0.03655172
10472.00   0.19436920   0.03601526
10474.00   0.21721545   0.03539189
10476.00   0.16035846   0.03437714
10478.00   0.11132430   0.03354653
10480.00   0.15356174   0.03363316
10482.00   0.25702104   0.03440091
10484.00   0.27997577   0.03434515
10486.00   0.24257611   0.03375502
10488.00   0.23298325   0.03331821
10490.00   0.23911041   0.03280176
10492.00   0.24562642   0.03243490
10494.00   0.24504618   0.03226057
10496.00   0.24230984   0.03228994
10498.00   0.24844687   0.03305771
10500.00   0.27070385   0.03502305
10502.00   0.27143449   0.03581745
10504.00   0.25028846   0.03549390
10506.00   0.23735896   0.03587616
10508.00   0.24187550   0.03793135
10510.00   0.25399181   0.04023407
10512.00   0.26151526   0.04036248
10514.00   0.26189134   0.03846509
10516.00   0.28620037   0.03815167
10518.00   0.35718864   0.03861719
10520.00   0.38066900   0.03903070
10522.00   0.33025137   0.03958247
10524.00   0.26393598   0.03993997
10526.00   0.24872798   0.03935645
10528.00   0.26161656   0.03773375
10530.00   0.26449874   0.03771512
10532.00   0.28432751   0.03945034
10534.00   0.27578402   0.03985269
10536.00   0.22091556   0.03873627
10538.00   0.17560844   0.03753551
10540.00   0.18707792   0.03741754
10542.00   0.23444885   0.03788113
10544.00   0.25953281   0.03774417
10546.00   0.27095836   0.03697595
10548.00   0.30504280   0.03697228
10550.00   0.38123411   0.03785847
10552.00   0.42859000   0.03849156
10554.00   0.40280578   0.03829954
10556.00   0.33884802   0.03771741
10558.00   0.32576540   0.03762431
10560.00   0.34180304   0.03753019
10562.00   0.35042417   0.03802934
10564.00   0.37303624   0.03937037
10566.00   0.38022345   0.04029831
10568.00   0.35863107   0.04060837
10570.00   0.32732135   0.04057283
10572.00   0.31737876   0.04027843
10574.00   0.31332585   0.03940219
10576.00   0.33017844   0.03925025
10578.00   0.38927326   0.03974960
10580.00   0.41370511   0.03993411
10582.00   0.38899159   0.03959389
10584.00   0.35404390   0.03928034
10586.00   0.35051283   0.03939908
10588.00   0.36779541   0.03953236
10590.00   0.34374204   0.04157151
10592.00   0.26608399   0.04733120
10594.00   0.23649938   0.04840396
10596.00   0.24631007   0.04414087
10598.00   0.27781206   0.03938121
10600.00   0.33565089   0.03855851
10602.00   0.41867027   0.03983672
10604.00   0.42850137   0.03967651
10606.00   0.35902306   0.03900399
10608.00   0.34182626   0.03877762
10610.00   0.35801223   0.03895214
10612.00   0.37305135   0.03904666
10614.00   0.37762687   0.03883504
10616.00   0.37703308   0.03850687
10618.00   0.36244029   0.03841855
10620.00   0.31416738   0.03844204
10622.00   0.31589302   0.03856882
10624.00   0.36729982   0.03909710
10626.00   0.39870641   0.03918775
10628.00   0.40215203   0.03866550
10630.00   0.38707927   0.03777322
10632.00   0.34725487   0.03670107
10634.00   0.26705879   0.03509517
10636.00   0.23937801   0.03420623
10638.00   0.22783816   0.03354008
10640.00   0.25418425   0.03352720
10642.00   0.34162340   0.03458941
10644.00   0.43632966   0.03570337
10646.00   0.48598331   0.03591270
10648.00   0.51672572   0.03565487
10650.00   0.50369507   0.03512934
10652.00   0.41507575   0.03380716
10654.00   0.37742913   0.03307240
10656.00   0.38526386   0.03300700
10658.00   0.39647666   0.03287894
10660.00   0.39192533   0.03222003
10662.00   0.38171855   0.03126723
10664.00   0.35401741   0.03054014
10666.00   0.27219996   0.02973801
10668.00   0.27151796   0.02927374
10670.00   0.36523807   0.02932539
10672.00   0.42362559   0.02917479
10674.00   0.38493466   0.02837522
10676.00   0.31117955   0.02737573
10678.00   0.32278565   0.02736445
10680.00   0.42107344   0.02858433
10682.00   0.42460269   0.02838621
10684.00   0.34651878   0.02703115
10686.00   0.30621141   0.02598418
10688.00   0.33123186   0.02552551
10690.00   0.37176707   0.02526054
10692.00   0.37150165   0.02487281
10694.00   0.35080072   0.02455281
10696.00   0.32605532   0.02395409
10698.00   0.26736569   0.02278770
10700.00   0.24976021   0.02219748
10702.00   0.28823745   0.02245020
10704.00   0.33174494   0.02277243
10706.00   0.33596128   0.02250001
10708.00   0.31923684   0.02189088
10710.00   0.31352091   0.02152399
10712.00   0.30731678   0.02129770
10714.00   0.30320632   0.02093083
10716.00   0.29267800   0.02008279
10718.00   0.29568642   0.01972114
10720.00   0.32929677   0.02066549
10722.00   0.38176340   0.02226684
10724.00   0.40819427   0.02269505
10726.00   0.44471869   0.02255139
10728.00   0.42377341   0.02218776
10730.00   0.32444307   0.02113141
10732.00   0.25459716   0.02031666
10734.00   0.24617672   0.02026445
10736.00   0.26804414   0.02042015
10738.00   0.29265818   0.01963544
10740.00   0.35160783   0.01722079
10742.00   0.35708132   0.01751520
10744.00   0.31695750   0.02028175
10746.00   0.28629526   0.02202865
10748.00   0.26749507   0.02318791
10750.00   0.25372535   0.02356504
10752.00   0.24368791   0.02200210
10754.00   0.23486422   0.01776133
10756.00   0.24728370   0.01595709
10758.00   0.28625059   0.01612250
10760.00   0.31567934   0.01602890
10762.00   0.34657213   0.01598353
10764.00   0.36436787   0.01596823
10766.00   0.34622517   0.01580747
10768.00   0.29923585   0.01557315
10770.00   0.30586889   0.01548735
10772.00   0.37712440   0.01528285
10774.00   0.38696221   0.01558648
10776.00   0.33989841   0.01681441
10778.00   0.29499000   0.01745015
10780.00   0.27636555   0.01672198
10782.00   0.26919696   0.01513255
10784.00   0.27044424   0.01413803
10786.00   0.28319609   0.01309205
10788.00   0.30071270   0.01250653
10790.00   0.34680015   0.01258313
10792.00   0.36118838   0.01254054
10794.00   0.30994248   0.01192990
10796.00   0.24118951   0.01135186
10798.00   0.24760664   0.01216517
10800.00   0.32040957   0.01444440
10802.00   0.33505416   0.01466950
10804.00   0.31460601   0.01323748
10806.00   0.30446270   0.01238747
10808.00   0.30880320   0.01249853
10810.00   0.31468958   0.01281586
10812.00   0.31082225   0.01264639
10814.00   0.29967180   0.01210828
10816.00   0.29992726   0.01254274
10818.00   0.31400287   0.01415041
10820.00   0.31548038   0.01471368
10822.00   0.30803964   0.01437188
10824.00   0.29245284   0.01379860
10826.00   0.26270333   0.01340718
10828.00   0.22089867   0.01298964
10830.00   0.21113352   0.01245100
