# File created by shivutils (I.Shivvers)
# wl(A)   flm    er(optional)
3440.00   0.26848385   0.06607590
3442.00   0.30984437   0.06657325
3444.00   0.27826375   0.06836835
3446.00   0.31669754   0.07058750
3448.00   0.29941007   0.07194892
3450.00   0.28142181   0.07476787
3452.00   0.34564435   0.07758996
3454.00   0.43313435   0.08037568
3456.00   0.27434134   0.07651608
3458.00   0.35039371   0.07772860
3460.00   0.44548744   0.07783341
3462.00   0.19364104   0.07427309
3464.00   0.14830467   0.07372396
3466.00   0.32541174   0.07685128
3468.00   0.19983432   0.07436186
3470.00   0.34046453   0.07740407
3472.00   0.29269406   0.07496229
3474.00   0.24249963   0.07498018
3476.00   0.26460168   0.07760072
3478.00   0.24876963   0.08280685
3480.00   0.22461781   0.08569223
3482.00   0.38356015   0.08644393
3484.00   0.36649227   0.08578680
3486.00   0.35557020   0.08532032
3488.00   0.25803304   0.08193701
3490.00   0.50886685   0.08428998
3492.00   0.38525036   0.08249802
3494.00   0.53309029   0.08422861
3496.00   0.28543925   0.07893294
3498.00   0.46590015   0.08036666
3500.00   0.37743011   0.08059629
3502.00   0.39251795   0.07840459
3504.00   0.39335206   0.08053512
3506.00   0.39964715   0.08029931
3508.00   0.44359738   0.07939722
3510.00   0.40103376   0.08061865
3512.00   0.45735592   0.07959832
3514.00   0.44527423   0.07795906
3516.00   0.37244469   0.07831606
3518.00   0.15872206   0.07454324
3520.00   0.42524165   0.07707103
3522.00   0.22291821   0.07459613
3524.00   0.51150012   0.07736742
3526.00   0.36119768   0.07552407
3528.00   0.45180175   0.07596675
3530.00   0.27179632   0.07436651
3532.00   0.35842696   0.07522765
3534.00   0.38289550   0.07503723
3536.00   0.35712567   0.07568797
3538.00   0.39341599   0.07596476
3540.00   0.40175894   0.07703543
3542.00   0.46827000   0.08153787
3544.00   0.25876191   0.08001585
3546.00   0.41761708   0.08135419
3548.00   0.41550049   0.07907624
3550.00   0.12702031   0.07561616
3552.00   0.41705957   0.08083490
3554.00   0.38748085   0.07879376
3556.00   0.26301640   0.07542417
3558.00   0.34323123   0.07640810
3560.00   0.32727209   0.07456005
3562.00   0.22915256   0.07112720
3564.00   0.29428297   0.07080356
3566.00   0.31383690   0.07153746
3568.00   0.47197115   0.07349607
3570.00   0.39417085   0.07196955
3572.00   0.40962508   0.07076899
3574.00   0.34911686   0.07105440
3576.00   0.47966984   0.06976790
3578.00   0.36364982   0.06747608
3580.00   0.39234456   0.06797376
3582.00   0.36174929   0.06659418
3584.00   0.41475260   0.06509487
3586.00   0.38343781   0.06413329
3588.00   0.38768694   0.06488679
3590.00   0.27931169   0.06328477
3592.00   0.36831054   0.06428753
3594.00   0.42245626   0.06251857
3596.00   0.38731965   0.06204645
3598.00   0.42743471   0.06313343
3600.00   0.41367468   0.06345753
3602.00   0.31784403   0.06063462
3604.00   0.51253599   0.06233587
3606.00   0.37206158   0.05912602
3608.00   0.50511807   0.06085745
3610.00   0.35070917   0.05850228
3612.00   0.39133167   0.06001228
3614.00   0.39350471   0.06263817
3616.00   0.36713257   0.06134447
3618.00   0.40210241   0.06039699
3620.00   0.40271732   0.06038617
3622.00   0.39583975   0.05837131
3624.00   0.46280578   0.06057525
3626.00   0.42281568   0.05911382
3628.00   0.36215037   0.05912187
3630.00   0.42682439   0.06134157
3632.00   0.37397569   0.05999680
3634.00   0.36544788   0.05973095
3636.00   0.35972846   0.06032495
3638.00   0.48270658   0.05961528
3640.00   0.48831108   0.05993766
3642.00   0.39892164   0.06029810
3644.00   0.39961827   0.06065252
3646.00   0.35143375   0.06147942
3648.00   0.41740060   0.07517122
3650.00   0.53784716   0.08745513
3652.00   0.41032901   0.08107998
3654.00   0.46744603   0.07394624
3656.00   0.47331399   0.06841729
3658.00   0.42388028   0.06179950
3660.00   0.40324393   0.06061630
3662.00   0.55804443   0.06812734
3664.00   0.47134852   0.06701076
3666.00   0.51122874   0.05841415
3668.00   0.38326505   0.05225250
3670.00   0.45973030   0.05336017
3672.00   0.38059467   0.05146579
3674.00   0.39740661   0.05127558
3676.00   0.36396882   0.05013635
3678.00   0.45471072   0.05044516
3680.00   0.57510209   0.05202334
3682.00   0.46241370   0.05010476
3684.00   0.46469179   0.04919700
3686.00   0.50493294   0.05017606
3688.00   0.39439711   0.04824877
3690.00   0.56179309   0.05113595
3692.00   0.62072891   0.05154525
3694.00   0.52401239   0.04969762
3696.00   0.51998800   0.04986680
3698.00   0.49787691   0.04960693
3700.00   0.43317711   0.04927374
3702.00   0.60699546   0.05204857
3704.00   0.54120797   0.04985585
3706.00   0.40461040   0.04753790
3708.00   0.50842130   0.04796429
3710.00   0.44257689   0.04763290
3712.00   0.41431776   0.04685175
3714.00   0.48450837   0.04718045
3716.00   0.45704347   0.04655923
3718.00   0.43877137   0.04700317
3720.00   0.52354699   0.04634294
3722.00   0.51870894   0.04646428
3724.00   0.50181264   0.04667332
3726.00   0.42601165   0.04623665
3728.00   0.57205808   0.04814834
3730.00   0.51319236   0.04694534
3732.00   0.43083939   0.04613420
3734.00   0.51365083   0.04667459
3736.00   0.45161000   0.04626821
3738.00   0.52317685   0.04749101
3740.00   0.51961166   0.04855151
3742.00   0.56089133   0.04808549
3744.00   0.46029410   0.04612266
3746.00   0.58888441   0.04659220
3748.00   0.58633435   0.04678212
3750.00   0.54275924   0.04517286
3752.00   0.53722757   0.04607123
3754.00   0.66921091   0.04816739
3756.00   0.52477813   0.04585491
3758.00   0.58652020   0.04570539
3760.00   0.51104939   0.04460027
3762.00   0.58035082   0.04486081
3764.00   0.62487257   0.04529297
3766.00   0.55598170   0.04489717
3768.00   0.53360033   0.04232625
3770.00   0.58718193   0.04383389
3772.00   0.58249366   0.04492831
3774.00   0.58941829   0.04421554
3776.00   0.46452683   0.04219497
3778.00   0.48430228   0.04275781
3780.00   0.56168962   0.04340805
3782.00   0.58206284   0.04330450
3784.00   0.52326000   0.04227666
3786.00   0.56237787   0.04221387
3788.00   0.59343272   0.04242999
3790.00   0.56860739   0.04305492
3792.00   0.52359349   0.04274435
3794.00   0.52148330   0.04156223
3796.00   0.48898393   0.04089416
3798.00   0.45977283   0.03983452
3800.00   0.53143573   0.04082482
3802.00   0.54341501   0.04135101
3804.00   0.52093470   0.04178270
3806.00   0.47414485   0.04006682
3808.00   0.61727822   0.04113320
3810.00   0.57487518   0.04134395
3812.00   0.53176486   0.04138852
3814.00   0.60276747   0.04157684
3816.00   0.56537312   0.04131649
3818.00   0.62872797   0.04211712
3820.00   0.50445199   0.04026323
3822.00   0.60522777   0.04179716
3824.00   0.60925996   0.04122569
3826.00   0.61534548   0.04163123
3828.00   0.58040065   0.04227312
3830.00   0.54840577   0.04320243
3832.00   0.63625604   0.04353902
3834.00   0.65662414   0.04328244
3836.00   0.72971064   0.04311747
3838.00   0.67656058   0.04247130
3840.00   0.71186209   0.04314493
3842.00   0.70255089   0.04287832
3844.00   0.64958918   0.04197177
3846.00   0.67507076   0.04187247
3848.00   0.61363143   0.04046750
3850.00   0.69761205   0.04091868
3852.00   0.72878140   0.04239517
3854.00   0.56934756   0.04260810
3856.00   0.67316657   0.04431062
3858.00   0.67442524   0.04239496
3860.00   0.67466760   0.04003538
3862.00   0.58488601   0.03874912
3864.00   0.64209211   0.03915478
3866.00   0.64446348   0.03883312
3868.00   0.63654643   0.03865454
3870.00   0.66142577   0.03887585
3872.00   0.62244743   0.03852287
3874.00   0.59552908   0.03941465
3876.00   0.67515391   0.04000724
3878.00   0.59514880   0.03779863
3880.00   0.62757808   0.03704320
3882.00   0.53803837   0.03660312
3884.00   0.50400019   0.03617389
3886.00   0.59541142   0.03700913
3888.00   0.63057524   0.03773806
3890.00   0.52617884   0.03601881
3892.00   0.57638156   0.03727493
3894.00   0.55618054   0.03699737
3896.00   0.56212771   0.03719521
3898.00   0.54627931   0.03617913
3900.00   0.63895357   0.03759263
3902.00   0.60700577   0.03779442
3904.00   0.64428836   0.03925845
3906.00   0.62127084   0.04176047
3908.00   0.71813583   0.04410031
3910.00   0.61507493   0.04371411
3912.00   0.66222990   0.04425802
3914.00   0.67159486   0.04261923
3916.00   0.62208486   0.03989732
3918.00   0.63828456   0.03912282
3920.00   0.63359642   0.03825311
3922.00   0.53777999   0.03625856
3924.00   0.69347095   0.03740288
3926.00   0.66881287   0.03677861
3928.00   0.61291277   0.03586807
3930.00   0.63076872   0.03617742
3932.00   0.62353748   0.03736174
3934.00   0.69362330   0.03800325
3936.00   0.67213672   0.03654472
3938.00   0.60975450   0.03607655
3940.00   0.63356328   0.03682768
3942.00   0.67089200   0.03820007
3944.00   0.76139301   0.03933484
3946.00   0.57928234   0.03705129
3948.00   0.70305985   0.03800983
3950.00   0.67385322   0.03714968
3952.00   0.73501623   0.03756818
3954.00   0.71712571   0.03679685
3956.00   0.63316631   0.03595331
3958.00   0.69225144   0.03664836
3960.00   0.76376992   0.03805072
3962.00   0.65612012   0.03716598
3964.00   0.67566031   0.03510666
3966.00   0.64161634   0.03441843
3968.00   0.71948373   0.03487415
3970.00   0.61599320   0.03377612
3972.00   0.71966022   0.03535037
3974.00   0.66236937   0.03540245
3976.00   0.63010371   0.03522385
3978.00   0.64881229   0.03530549
3980.00   0.70962894   0.03625251
3982.00   0.74540460   0.03664481
3984.00   0.74425143   0.03638639
3986.00   0.74856985   0.03608653
3988.00   0.74300581   0.03644776
3990.00   0.74015671   0.03603971
3992.00   0.80337477   0.03660730
3994.00   0.75129455   0.03632213
3996.00   0.67693973   0.03664207
3998.00   0.71912563   0.03758972
4000.00   0.69723034   0.03622855
4002.00   0.74621838   0.03616777
4004.00   0.73224723   0.03546870
4006.00   0.67382061   0.03511629
4008.00   0.74459308   0.03630790
4010.00   0.69731301   0.03605771
4012.00   0.69342756   0.03565295
4014.00   0.69134092   0.03544074
4016.00   0.65711439   0.03483966
4018.00   0.69943506   0.03697234
4020.00   0.72455186   0.03940195
4022.00   0.82540756   0.04156012
4024.00   0.72244292   0.03998579
4026.00   0.78925949   0.03872353
4028.00   0.76590502   0.03737863
4030.00   0.76347506   0.03704090
4032.00   0.80595803   0.03742814
4034.00   0.85764945   0.03740046
4036.00   0.83299881   0.03696067
4038.00   0.89277500   0.03745914
4040.00   0.90009087   0.03776062
4042.00   0.94260889   0.03945133
4044.00   0.86892402   0.05034449
4046.00   0.94718444   0.06300466
4048.00   0.90896595   0.05997575
4050.00   0.92893392   0.04603795
4052.00   1.00725019   0.04059020
4054.00   0.96204984   0.03958672
4056.00   0.99902993   0.03957478
4058.00   0.95473576   0.03825456
4060.00   0.93060577   0.03721179
4062.00   1.01107168   0.03739151
4064.00   0.93220216   0.03671805
4066.00   0.83432251   0.03584767
4068.00   0.90495610   0.03615262
4070.00   0.94967026   0.03651561
4072.00   1.05078042   0.03699972
4074.00   1.05763829   0.03757305
4076.00   0.99957490   0.04019118
4078.00   1.02772129   0.04152486
4080.00   1.04531586   0.04042932
4082.00   0.97839314   0.03884725
4084.00   0.93541414   0.03811783
4086.00   0.97946125   0.03823515
4088.00   0.97253847   0.03746155
4090.00   0.97218579   0.03642477
4092.00   0.98696953   0.03597163
4094.00   0.93134779   0.03542944
4096.00   0.92320263   0.03495076
4098.00   0.96613342   0.03521114
4100.00   0.88573575   0.03414771
4102.00   0.95636904   0.03428549
4104.00   0.87058860   0.03322748
4106.00   0.90294892   0.03360819
4108.00   0.87763935   0.03377211
4110.00   0.87605983   0.03376270
4112.00   0.90927976   0.03390354
4114.00   0.91490942   0.03435815
4116.00   0.93602848   0.03434453
4118.00   0.93505043   0.03407057
4120.00   0.86871004   0.03326134
4122.00   0.92845482   0.03384253
4124.00   0.89702308   0.03383894
4126.00   0.94573772   0.03383143
4128.00   0.95240760   0.03434408
4130.00   1.02080715   0.03505483
4132.00   0.86374635   0.03432410
4134.00   0.91003066   0.03449592
4136.00   0.93086982   0.03419057
4138.00   0.95699918   0.03491465
4140.00   0.86357605   0.03397632
4142.00   0.85211897   0.03318246
4144.00   0.91569597   0.03313549
4146.00   0.78020447   0.03153180
4148.00   0.82783431   0.03204833
4150.00   0.89462298   0.03325072
4152.00   0.84241062   0.03333319
4154.00   0.84998530   0.03329777
4156.00   0.83505887   0.03248002
4158.00   0.75959176   0.03166643
4160.00   0.81967890   0.03222686
4162.00   0.80630487   0.03244172
4164.00   0.84249353   0.03365860
4166.00   0.77718961   0.03360771
4168.00   0.78453737   0.03214050
4170.00   0.83350658   0.03206951
4172.00   0.84708041   0.03192556
4174.00   0.79697335   0.03110495
4176.00   0.70489687   0.03044943
4178.00   0.79426926   0.03123899
4180.00   0.84172994   0.03144936
4182.00   0.78381938   0.03054199
4184.00   0.79475135   0.03065377
4186.00   0.79271519   0.03060720
4188.00   0.81594366   0.03077940
4190.00   0.77676219   0.03043985
4192.00   0.81411386   0.03082064
4194.00   0.74017948   0.03028781
4196.00   0.71811664   0.03002964
4198.00   0.78719467   0.03022873
4200.00   0.78404701   0.03002178
4202.00   0.72432888   0.02946112
4204.00   0.76954514   0.02986659
4206.00   0.77813119   0.03026767
4208.00   0.72153091   0.03000631
4210.00   0.77017874   0.03059704
4212.00   0.80201793   0.03075013
4214.00   0.78791606   0.03039692
4216.00   0.77727652   0.03020813
4218.00   0.71727872   0.02974896
4220.00   0.78445184   0.03016764
4222.00   0.75617087   0.02956304
4224.00   0.73823941   0.02941296
4226.00   0.77408332   0.02982578
4228.00   0.70390582   0.02905889
4230.00   0.78547847   0.02990314
4232.00   0.73936212   0.02977103
4234.00   0.78206509   0.02999668
4236.00   0.69986868   0.02955476
4238.00   0.77189749   0.03020377
4240.00   0.70617342   0.02917415
4242.00   0.75347620   0.02900150
4244.00   0.73828489   0.03015449
4246.00   0.73107880   0.03219211
4248.00   0.67257041   0.03148897
4250.00   0.76284403   0.03045216
4252.00   0.77753580   0.02946971
4254.00   0.77717584   0.02951529
4256.00   0.80467784   0.02944965
4258.00   0.73635751   0.02906469
4260.00   0.79161423   0.02922752
4262.00   0.79085869   0.02906375
4264.00   0.74380922   0.02869626
4266.00   0.80177951   0.02907577
4268.00   0.84849656   0.02956383
4270.00   0.75370157   0.02870337
4272.00   0.81190658   0.02910841
4274.00   0.77554452   0.02899435
4276.00   0.79895169   0.02928738
4278.00   0.87064356   0.02979537
4280.00   0.75251454   0.02889193
4282.00   0.77491301   0.02913314
4284.00   0.80577666   0.02945279
4286.00   0.77429420   0.02877224
4288.00   0.83679688   0.02943296
4290.00   0.82555169   0.02921515
4292.00   0.79665864   0.02899940
4294.00   0.84330636   0.02939826
4296.00   0.73188871   0.02858070
4298.00   0.77008581   0.02875147
4300.00   0.82387275   0.02899911
4302.00   0.75202733   0.02853741
4304.00   0.75247860   0.02855002
4306.00   0.73864436   0.02881335
4308.00   0.73199159   0.02867920
4310.00   0.83488512   0.02967236
4312.00   0.82260507   0.03065643
4314.00   0.83512026   0.03148255
4316.00   0.79912585   0.03068252
4318.00   0.81901795   0.03081372
4320.00   0.75482750   0.03063176
4322.00   0.69992089   0.03013367
4324.00   0.72757941   0.02997903
4326.00   0.81175250   0.03026887
4328.00   0.77274406   0.02931405
4330.00   0.77131301   0.02906344
4332.00   0.77545995   0.02906519
4334.00   0.80815798   0.02922034
4336.00   0.77645862   0.02916460
4338.00   0.80324721   0.02997876
4340.00   0.77428192   0.02981937
4342.00   0.79194707   0.02980724
4344.00   0.81019211   0.03038291
4346.00   0.75332612   0.03090541
4348.00   0.78753412   0.03100370
4350.00   0.78753543   0.03104607
4352.00   0.86131865   0.03113551
4354.00   0.86390609   0.03374124
4356.00   0.92838979   0.05065671
4358.00   0.82457280   0.06058966
4360.00   0.82716489   0.05619214
4362.00   0.89681727   0.04369929
4364.00   0.79635882   0.03428337
4366.00   0.83714676   0.03202362
4368.00   0.86978436   0.03140689
4370.00   0.86189544   0.03106915
4372.00   0.81326342   0.03113146
4374.00   0.85425144   0.03201154
4376.00   0.85722202   0.03158965
4378.00   0.81877023   0.03047770
4380.00   0.79994929   0.02995360
4382.00   0.83744752   0.02984525
4384.00   0.78645813   0.02930384
4386.00   0.85545748   0.02975374
4388.00   0.82320595   0.02927428
4390.00   0.85763562   0.02973051
4392.00   0.82904851   0.02957453
4394.00   0.81764996   0.02923825
4396.00   0.80665958   0.02893105
4398.00   0.87554520   0.02996988
4400.00   0.84536487   0.03000608
4402.00   0.76859510   0.02965379
4404.00   0.78276563   0.02933053
4406.00   0.77506697   0.02914894
4408.00   0.79570198   0.02929668
4410.00   0.79551321   0.02942882
4412.00   0.83115178   0.02971823
4414.00   0.81704551   0.02985498
4416.00   0.80330050   0.02967080
4418.00   0.77282399   0.02934867
4420.00   0.75373691   0.02884996
4422.00   0.82144499   0.02941092
4424.00   0.76024449   0.02863642
4426.00   0.80130821   0.02895906
4428.00   0.75992000   0.02861818
4430.00   0.78920007   0.02898813
4432.00   0.84682876   0.02915112
4434.00   0.74876082   0.02835261
4436.00   0.79849780   0.02861766
4438.00   0.81123990   0.02845407
4440.00   0.74260998   0.02810317
4442.00   0.79342431   0.02842714
4444.00   0.76175606   0.02795679
4446.00   0.75303239   0.02786675
4448.00   0.74280471   0.02790529
4450.00   0.77680522   0.02798474
4452.00   0.75396895   0.02782328
4454.00   0.78739125   0.02785568
4456.00   0.64591885   0.02714940
4458.00   0.69495255   0.02730793
4460.00   0.77316278   0.02791834
4462.00   0.70365292   0.02733984
4464.00   0.66834956   0.02714469
4466.00   0.72689873   0.02762271
4468.00   0.67452908   0.02677389
4470.00   0.66919792   0.02687190
4472.00   0.69301164   0.02705706
4474.00   0.73566037   0.02715993
4476.00   0.75804514   0.02749093
4478.00   0.73104894   0.02729412
4480.00   0.71380025   0.02708281
4482.00   0.74190015   0.02720751
4484.00   0.69838846   0.02703252
4486.00   0.69533670   0.02704042
4488.00   0.67524469   0.02692027
4490.00   0.63674676   0.02682291
4492.00   0.66730642   0.02711175
4494.00   0.67708486   0.02707794
4496.00   0.71132326   0.02751630
4498.00   0.64005709   0.02680911
4500.00   0.73421139   0.02746762
4502.00   0.71666598   0.02724292
4504.00   0.70653647   0.02716248
4506.00   0.74566597   0.02752295
4508.00   0.71880227   0.02720770
4510.00   0.77884042   0.02754244
4512.00   0.67004359   0.02680030
4514.00   0.73181373   0.02711029
4516.00   0.59336168   0.02619097
4518.00   0.66156232   0.02658987
4520.00   0.66146529   0.02647446
4522.00   0.72731030   0.02686227
4524.00   0.69975609   0.02671549
4526.00   0.65830916   0.02629283
4528.00   0.67549676   0.02649703
4530.00   0.67989802   0.02638325
4532.00   0.67125636   0.02615260
4534.00   0.64512193   0.02598396
4536.00   0.64967817   0.02585336
4538.00   0.67475325   0.02615819
4540.00   0.65038151   0.02598874
4542.00   0.66320568   0.02621494
4544.00   0.63609535   0.02611104
4546.00   0.61936164   0.02570554
4548.00   0.69148868   0.02605605
4550.00   0.67268974   0.02589142
4552.00   0.63415706   0.02551195
4554.00   0.60822588   0.02516700
4556.00   0.64837807   0.02553303
4558.00   0.63904458   0.02552004
4560.00   0.65973449   0.02552841
4562.00   0.61958003   0.02518898
4564.00   0.64370310   0.02494268
4566.00   0.63967282   0.02496403
4568.00   0.58368832   0.02441474
4570.00   0.59856445   0.02455555
4572.00   0.61820406   0.02485456
4574.00   0.60053223   0.02468668
4576.00   0.66593856   0.02520468
4578.00   0.64605689   0.02488246
4580.00   0.63751096   0.02465839
4582.00   0.59557575   0.02437160
4584.00   0.55319434   0.02370681
4586.00   0.58360308   0.02402875
4588.00   0.63848543   0.02431844
4590.00   0.67214549   0.02465382
4592.00   0.65814978   0.02460416
4594.00   0.61275476   0.02415713
4596.00   0.66911536   0.02480488
4598.00   0.64588118   0.02460451
4600.00   0.64584428   0.02445879
4602.00   0.60338575   0.02402079
4604.00   0.63864011   0.02422148
4606.00   0.65608776   0.02447361
4608.00   0.63851333   0.02441785
4610.00   0.65585917   0.02454009
4612.00   0.62980479   0.02421483
4614.00   0.66135079   0.02424010
4616.00   0.66976261   0.02431122
4618.00   0.64518464   0.02409550
4620.00   0.66572183   0.02429694
4622.00   0.65641558   0.02418236
4624.00   0.66474062   0.02429042
4626.00   0.68872052   0.02450985
4628.00   0.68298382   0.02441333
4630.00   0.68160844   0.02446271
4632.00   0.71919674   0.02475306
4634.00   0.80914825   0.02527533
4636.00   0.75518543   0.02484271
4638.00   0.74021775   0.02467571
4640.00   0.79759645   0.02524509
4642.00   0.77420133   0.02500480
4644.00   0.82533866   0.02548556
4646.00   0.77453309   0.02511193
4648.00   0.80390912   0.02531408
4650.00   0.86034113   0.02576206
4652.00   0.84980613   0.02563712
4654.00   0.87694997   0.02595616
4656.00   0.84319192   0.02591238
4658.00   0.82081658   0.02593855
4660.00   0.87696576   0.02654970
4662.00   0.92234129   0.02702232
4664.00   0.88085568   0.02707955
4666.00   0.87885207   0.02721470
4668.00   0.94303262   0.02794609
4670.00   0.92920148   0.02782053
4672.00   0.98692697   0.02807101
4674.00   0.96111917   0.02780307
4676.00   0.99931258   0.02767722
4678.00   1.01624906   0.02754202
4680.00   1.03726006   0.02754700
4682.00   1.00067461   0.02717383
4684.00   1.01532936   0.02702468
4686.00   1.02463865   0.02711553
4688.00   1.02018011   0.02683188
4690.00   1.07315838   0.02734114
4692.00   1.10764813   0.02743719
4694.00   1.08033919   0.02722427
4696.00   1.15108526   0.02754280
4698.00   1.09740138   0.02709867
4700.00   1.07888007   0.02698517
4702.00   1.08955050   0.02710535
4704.00   1.15263927   0.02754256
4706.00   1.14535916   0.02778214
4708.00   1.16297269   0.02783449
4710.00   1.19414401   0.02789140
4712.00   1.12905633   0.02759076
4714.00   1.17295194   0.02788509
4716.00   1.18246806   0.02789543
4718.00   1.17843437   0.02778834
4720.00   1.22538555   0.02808299
4722.00   1.17684877   0.02762797
4724.00   1.18551934   0.02764181
4726.00   1.24510825   0.02836625
4728.00   1.21382940   0.02865044
4730.00   1.18759584   0.02879732
4732.00   1.20060682   0.02882677
4734.00   1.25894356   0.02926615
4736.00   1.24923730   0.02946073
4738.00   1.24594307   0.02965461
4740.00   1.24777591   0.03011712
4742.00   1.27204978   0.03038765
4744.00   1.25073409   0.03020168
4746.00   1.28804922   0.02966711
4748.00   1.28775191   0.02894139
4750.00   1.30843914   0.02897609
4752.00   1.28572118   0.02882971
4754.00   1.32503998   0.02890406
4756.00   1.35636973   0.02882136
4758.00   1.28047574   0.02804064
4760.00   1.28032613   0.02790039
4762.00   1.29122901   0.02784222
4764.00   1.29503703   0.02780714
4766.00   1.28831077   0.02751192
4768.00   1.24665701   0.02735519
4770.00   1.21409130   0.02703461
4772.00   1.21283329   0.02686661
4774.00   1.20413327   0.02675778
4776.00   1.16177225   0.02684703
4778.00   1.14439452   0.02706569
4780.00   1.16370440   0.02717891
4782.00   1.11032832   0.02661499
4784.00   1.12887323   0.02653846
4786.00   1.12975156   0.02631827
4788.00   1.11401892   0.02737240
4790.00   1.12672305   0.02788207
4792.00   1.07505417   0.02614589
4794.00   1.07311785   0.02590010
4796.00   1.04083586   0.02552760
4798.00   1.05284476   0.02553203
4800.00   1.10654497   0.02591022
4802.00   1.10542846   0.02593398
4804.00   1.04207695   0.02530951
4806.00   1.03761542   0.02543151
4808.00   0.98074126   0.02503957
4810.00   1.04071259   0.02546828
4812.00   1.02097881   0.02535848
4814.00   1.06467927   0.02548072
4816.00   0.95392698   0.02481115
4818.00   0.99004447   0.02518648
4820.00   0.98346823   0.02515379
4822.00   0.97099018   0.02499308
4824.00   0.97865403   0.02513604
4826.00   0.94769222   0.02500472
4828.00   0.96903938   0.02506111
4830.00   0.94683123   0.02501167
4832.00   0.91530722   0.02475559
4834.00   0.86701125   0.02472861
4836.00   0.86272091   0.02454245
4838.00   0.86196119   0.02464352
4840.00   0.88719964   0.02472224
4842.00   0.88497472   0.02462340
4844.00   0.92390096   0.02498729
4846.00   0.91761625   0.02494814
4848.00   0.89332777   0.02457277
4850.00   0.89363748   0.02450778
4852.00   0.90866512   0.02459181
4854.00   0.81382352   0.02387180
4856.00   0.82742274   0.02378586
4858.00   0.87056255   0.02400741
4860.00   0.83766782   0.02384706
4862.00   0.78515887   0.02348936
4864.00   0.81087780   0.02358282
4866.00   0.74324954   0.02338606
4868.00   0.75220996   0.02322547
4870.00   0.74927652   0.02317034
4872.00   0.75504071   0.02326391
4874.00   0.76910031   0.02325180
4876.00   0.76023132   0.02341684
4878.00   0.71684146   0.02310747
4880.00   0.76508886   0.02333453
4882.00   0.72329938   0.02315799
4884.00   0.76188308   0.02332479
4886.00   0.71715134   0.02264609
4888.00   0.74957383   0.02291599
4890.00   0.72648847   0.02281016
4892.00   0.73727793   0.02295258
4894.00   0.70388108   0.02264590
4896.00   0.72730362   0.02278474
4898.00   0.71011388   0.02264343
4900.00   0.77355295   0.02299899
4902.00   0.73801917   0.02267023
4904.00   0.73527527   0.02276020
4906.00   0.73995620   0.02287531
4908.00   0.70393074   0.02266311
4910.00   0.67808658   0.02251337
4912.00   0.72807640   0.02296952
4914.00   0.74934286   0.02313319
4916.00   0.69831103   0.02273892
4918.00   0.78060973   0.02316405
4920.00   0.73194414   0.02280137
4922.00   0.74610472   0.02284388
4924.00   0.79141808   0.02316848
4926.00   0.78101993   0.02287674
4928.00   0.79186428   0.02298507
4930.00   0.74941170   0.02255479
4932.00   0.78644979   0.02296797
4934.00   0.79692793   0.02296157
4936.00   0.80239236   0.02321183
4938.00   0.80315810   0.02321591
4940.00   0.79498285   0.02319994
4942.00   0.80412763   0.02327174
4944.00   0.82226509   0.02316486
4946.00   0.85581720   0.02330569
4948.00   0.85724717   0.02333792
4950.00   0.82224840   0.02308453
4952.00   0.83594012   0.02356877
4954.00   0.78693688   0.02335079
4956.00   0.79236823   0.02331428
4958.00   0.74523753   0.02288677
4960.00   0.76114118   0.02306127
4962.00   0.77450854   0.02312291
4964.00   0.78139019   0.02319211
4966.00   0.74752033   0.02305887
4968.00   0.71167403   0.02298664
4970.00   0.70229262   0.02321721
4972.00   0.74560767   0.02377956
4974.00   0.72621995   0.02424772
4976.00   0.71487504   0.02466691
4978.00   0.73611087   0.02538236
4980.00   0.75308621   0.02630081
4982.00   0.77172148   0.02675967
4984.00   0.77755982   0.02690306
4986.00   0.73603177   0.02625837
4988.00   0.72165018   0.02565976
4990.00   0.70269901   0.02510533
4992.00   0.77152151   0.02484445
4994.00   0.76347458   0.02420220
4996.00   0.74312055   0.02356110
4998.00   0.76216453   0.02334414
5000.00   0.77399981   0.02312883
5002.00   0.75289494   0.02297515
5004.00   0.75633812   0.02264623
5006.00   0.77455556   0.02274924
5008.00   0.74529773   0.02232846
5010.00   0.71231484   0.02208767
5012.00   0.76877749   0.02240055
5014.00   0.81905192   0.02281709
5016.00   0.78877962   0.02257585
5018.00   0.76154679   0.02265566
5020.00   0.85031414   0.02323924
5022.00   0.83612818   0.02301605
5024.00   0.78661537   0.02262984
5026.00   0.85566992   0.02345294
5028.00   0.80137116   0.02339134
5030.00   0.77837777   0.02331259
5032.00   0.75907749   0.02289855
5034.00   0.82399493   0.02306360
5036.00   0.82249808   0.02282035
5038.00   0.87073904   0.02315408
5040.00   0.84927338   0.02280111
5042.00   0.80389208   0.02267280
5044.00   0.82495242   0.02285917
5046.00   0.83547169   0.02295375
5048.00   0.85134703   0.02305594
5050.00   0.81106412   0.02273727
5052.00   0.89333642   0.02330431
5054.00   0.89817244   0.02340542
5056.00   0.87910271   0.02317041
5058.00   0.88259369   0.02323819
5060.00   0.89074969   0.02332478
5062.00   0.86168581   0.02336516
5064.00   0.86039680   0.02357318
5066.00   0.85162491   0.02380777
5068.00   0.87705618   0.02428403
5070.00   0.84296250   0.02424313
5072.00   0.87736106   0.02413891
5074.00   0.92965961   0.02438074
5076.00   0.83904988   0.02357311
5078.00   0.82994795   0.02384201
5080.00   0.85715044   0.02489026
5082.00   0.86572534   0.02607355
5084.00   0.86641401   0.02696231
5086.00   0.88182545   0.02723909
5088.00   0.91692436   0.02677988
5090.00   0.87617725   0.02573297
5092.00   0.86828887   0.02475597
5094.00   0.84619838   0.02407299
5096.00   0.86341381   0.02414327
5098.00   0.84543204   0.02445898
5100.00   0.81874329   0.02433212
5102.00   0.84788072   0.02431333
5104.00   0.85664946   0.02392484
5106.00   0.88116467   0.02368660
5108.00   0.82641089   0.02329056
5110.00   0.80776697   0.02313858
5112.00   0.81160605   0.02323046
5114.00   0.79170501   0.02320175
5116.00   0.85140252   0.02361799
5118.00   0.79467160   0.02308935
5120.00   0.76433998   0.02272711
5122.00   0.74339682   0.02245174
5124.00   0.75115126   0.02236549
5126.00   0.77010274   0.02260933
5128.00   0.76579779   0.02249855
5130.00   0.81792903   0.02288068
5132.00   0.77706283   0.02276134
5134.00   0.68270344   0.02221281
5136.00   0.74214542   0.02241198
5138.00   0.78514987   0.02277002
5140.00   0.77147621   0.02257801
5142.00   0.73653489   0.02239181
5144.00   0.74751085   0.02259059
5146.00   0.76280200   0.02279939
5148.00   0.71609873   0.02273076
5150.00   0.70485896   0.02301405
5152.00   0.73951316   0.02369809
5154.00   0.71194375   0.02374768
5156.00   0.65882450   0.02321730
5158.00   0.70216203   0.02325461
5160.00   0.72349608   0.02304056
5162.00   0.70913267   0.02278207
5164.00   0.74316704   0.02273873
5166.00   0.69625628   0.02224233
5168.00   0.71226853   0.02243933
5170.00   0.71184880   0.02231624
5172.00   0.69949949   0.02215206
5174.00   0.69428247   0.02218734
5176.00   0.73826414   0.02283043
5178.00   0.81174982   0.02349415
5180.00   0.78146064   0.02331958
5182.00   0.69157058   0.02265378
5184.00   0.69445437   0.02260593
5186.00   0.67228043   0.02244952
5188.00   0.68215239   0.02259107
5190.00   0.69324815   0.02274637
5192.00   0.72598225   0.02278899
5194.00   0.69337279   0.02270697
5196.00   0.71215612   0.02307604
5198.00   0.70116109   0.02290324
5200.00   0.68745393   0.02289421
5202.00   0.68777859   0.02311636
5204.00   0.65702665   0.02273421
5206.00   0.67705762   0.02292433
5208.00   0.69956732   0.02317828
5210.00   0.67560172   0.02333361
5212.00   0.67870867   0.02317183
5214.00   0.67603034   0.02296131
5216.00   0.67764521   0.02295211
5218.00   0.66843259   0.02317879
5220.00   0.64842540   0.02310301
5222.00   0.61246914   0.02273711
5224.00   0.63654774   0.02281263
5226.00   0.64756793   0.02277870
5228.00   0.66132456   0.02293403
5230.00   0.63958192   0.02280892
5232.00   0.68347031   0.02315789
5234.00   0.61949319   0.02269016
5236.00   0.68493402   0.02331281
5238.00   0.66408676   0.02324478
5240.00   0.65637475   0.02324378
5242.00   0.65518665   0.02324841
5244.00   0.69087076   0.02338828
5246.00   0.68498331   0.02334551
5248.00   0.61430883   0.02274144
5250.00   0.58982003   0.02254680
5252.00   0.63066083   0.02294195
5254.00   0.62780750   0.02318823
5256.00   0.61246443   0.02318111
5258.00   0.63955367   0.02365646
5260.00   0.71752024   0.02427152
5262.00   0.63625902   0.02328720
5264.00   0.65440720   0.02352470
5266.00   0.59281480   0.02292011
5268.00   0.62373388   0.02317812
5270.00   0.67365009   0.02341256
5272.00   0.62583572   0.02340036
5274.00   0.64835542   0.02347845
5276.00   0.65013754   0.02372377
5278.00   0.66164839   0.02370151
5280.00   0.64714986   0.02351226
5282.00   0.66556466   0.02380056
5284.00   0.68104166   0.02426726
5286.00   0.74037027   0.02466564
5288.00   0.65984529   0.02400419
5290.00   0.60807979   0.02389152
5292.00   0.62115419   0.02380782
5294.00   0.64734524   0.02398576
5296.00   0.67050141   0.02426568
5298.00   0.66550952   0.02444396
5300.00   0.71129519   0.02486712
5302.00   0.68933612   0.02457839
5304.00   0.70821857   0.02486816
5306.00   0.70169419   0.02485072
5308.00   0.71726954   0.02515553
5310.00   0.77032429   0.02554206
5312.00   0.68777984   0.02500349
5314.00   0.69556892   0.02504748
5316.00   0.67160714   0.02492435
5318.00   0.66871172   0.02492429
5320.00   0.71570235   0.02541024
5322.00   0.75438923   0.02578998
5324.00   0.73878115   0.02588225
5326.00   0.69299287   0.02560381
5328.00   0.73208153   0.02574963
5330.00   0.78567570   0.02621033
5332.00   0.76206672   0.02639684
5334.00   0.74652869   0.02639499
5336.00   0.76334780   0.02653980
5338.00   0.79037595   0.02693273
5340.00   0.79077101   0.02712312
5342.00   0.79445279   0.02743280
5344.00   0.77494633   0.02691303
5346.00   0.78038275   0.02731500
5348.00   0.82574362   0.02781848
5350.00   0.79993325   0.02803556
5352.00   0.86456025   0.02859101
5354.00   0.80334836   0.02836461
5356.00   0.81884694   0.02884476
5358.00   0.82763880   0.02865271
5360.00   0.78227639   0.02792439
5362.00   0.79735661   0.02799545
5364.00   0.83810622   0.02831391
5366.00   0.85604948   0.02837847
5368.00   0.82052594   0.02801243
5370.00   0.86713171   0.02836195
5372.00   0.86360860   0.02874825
5374.00   0.90284300   0.02930612
5376.00   0.90727043   0.02951395
5378.00   0.84684885   0.02916761
5380.00   0.86422259   0.02944050
5382.00   0.85747492   0.02930609
5384.00   0.91703206   0.02988541
5386.00   0.90989023   0.02972084
5388.00   0.89189243   0.02963798
5390.00   0.87477994   0.03008798
5392.00   0.96643728   0.03094951
5394.00   0.89070314   0.03075906
5396.00   0.95033813   0.03106119
5398.00   0.93073392   0.03113265
5400.00   0.94107246   0.03141224
5402.00   0.96590662   0.03174238
5404.00   0.97588360   0.03159679
5406.00   0.94163388   0.03141964
5408.00   0.94288492   0.03198830
5410.00   0.99848723   0.03263029
5412.00   0.99822313   0.03321367
5414.00   1.01964557   0.03369334
5416.00   1.02328062   0.03397067
5418.00   1.01407230   0.03450140
5420.00   1.00862062   0.03439751
5422.00   1.03846717   0.03489243
5424.00   1.01729715   0.03460468
5426.00   0.94875288   0.03412276
5428.00   1.06687999   0.03520758
5430.00   1.07882988   0.03534612
5432.00   1.02186716   0.03461025
5434.00   0.99608737   0.03439533
5436.00   1.05370760   0.03522940
5438.00   1.01534188   0.03504989
5440.00   0.96656418   0.03486008
5442.00   1.07436633   0.03585922
5444.00   1.00884223   0.03531778
5446.00   1.07761562   0.03610296
5448.00   1.03887713   0.01386045
5450.00   1.06569219   0.01359703
5452.00   1.05920136   0.01427795
5454.00   1.03001618   0.01565761
5456.00   0.99826777   0.01680827
5458.00   0.93058980   0.01856375
5460.00   0.91151917   0.01918767
5462.00   0.94647473   0.01876534
5464.00   0.98452282   0.01809104
5466.00   0.99798274   0.01761512
5468.00   1.00193000   0.01708898
5470.00   1.00219059   0.01633381
5472.00   0.99672478   0.01477152
5474.00   0.98551661   0.01439553
5476.00   0.96006024   0.01541131
5478.00   0.94305986   0.01602283
5480.00   0.94334400   0.01560312
5482.00   0.95288277   0.01476111
5484.00   0.96097219   0.01455686
5486.00   0.97574615   0.01478165
5488.00   0.98130012   0.01477460
5490.00   0.98017150   0.01486237
5492.00   0.97884685   0.01468205
5494.00   0.97597617   0.01398836
5496.00   0.97421908   0.01316874
5498.00   0.98079306   0.01293268
5500.00   0.99699098   0.01308138
5502.00   0.99879843   0.01328107
5504.00   0.98627162   0.01336962
5506.00   0.98229241   0.01412529
5508.00   0.98997867   0.01597269
5510.00   0.99727249   0.01744768
5512.00   0.99191588   0.01748849
5514.00   0.97730839   0.01658150
5516.00   0.98210102   0.01608697
5518.00   1.00092220   0.01555473
5520.00   1.02041388   0.01495128
5522.00   1.05506098   0.01411613
5524.00   1.07541060   0.01342429
5526.00   1.05419028   0.01310585
5528.00   1.00944459   0.01307683
5530.00   1.01767433   0.01343714
5532.00   1.07620025   0.01472975
5534.00   1.10343111   0.01489520
5536.00   1.12775683   0.01391808
5538.00   1.13264728   0.01340345
5540.00   1.10242379   0.01391181
5542.00   1.05725741   0.01493304
5544.00   1.04693186   0.01614483
5546.00   1.05134583   0.01828412
5548.00   1.07510221   0.01851451
5550.00   1.14284003   0.01685632
5552.00   1.17940354   0.01590057
5554.00   1.16436327   0.01644891
5556.00   1.13815343   0.01715221
5558.00   1.15091848   0.01645689
5560.00   1.18997276   0.01439995
5562.00   1.20490706   0.01401601
5564.00   1.20814264   0.01487656
5566.00   1.21087408   0.01558532
5568.00   1.20282733   0.01594479
5570.00   1.20424533   0.01677445
5572.00   1.24566412   0.01878545
5574.00   1.32022130   0.02146115
5576.00   1.30838907   0.02281068
5578.00   1.19919038   0.02390545
5580.00   1.15705907   0.02405355
5582.00   1.15730977   0.02335986
5584.00   1.17609274   0.02193488
5586.00   1.21356583   0.01922816
5588.00   1.26671255   0.01505412
5590.00   1.28254128   0.01292396
5592.00   1.26355493   0.01322318
5594.00   1.26510024   0.01286731
5596.00   1.28079426   0.01293778
5598.00   1.28527427   0.01298756
5600.00   1.26547873   0.01289304
5602.00   1.23786986   0.01277420
5604.00   1.23483026   0.01272664
5606.00   1.25218773   0.01273639
5608.00   1.25463414   0.01270929
5610.00   1.24784124   0.01266562
5612.00   1.24679077   0.01263011
5614.00   1.25495112   0.01259442
5616.00   1.26470590   0.01257408
5618.00   1.26743639   0.01260414
5620.00   1.26576519   0.01269033
5622.00   1.26660466   0.01269379
5624.00   1.26974785   0.01251426
5626.00   1.26898956   0.01259805
5628.00   1.26569104   0.01302729
5630.00   1.25859928   0.01345336
5632.00   1.24440050   0.01369473
5634.00   1.22386301   0.01386813
5636.00   1.21481776   0.01358136
5638.00   1.21298659   0.01245939
5640.00   1.21263301   0.01203067
5642.00   1.21802247   0.01225779
5644.00   1.22149789   0.01249840
5646.00   1.21871507   0.01245533
5648.00   1.21271968   0.01233380
5650.00   1.20915961   0.01244710
5652.00   1.20113647   0.01273662
5654.00   1.20508981   0.01300108
5656.00   1.22834456   0.01348234
5658.00   1.23740423   0.01366632
5660.00   1.21960676   0.01321214
5662.00   1.19121444   0.01260038
5664.00   1.17733359   0.01296029
5666.00   1.16897559   0.01423889
5668.00   1.16248465   0.01451237
5670.00   1.15937972   0.01418014
5672.00   1.15851104   0.01391963
5674.00   1.16266632   0.01364145
5676.00   1.16626525   0.01347642
5678.00   1.16216838   0.01366786
5680.00   1.15393209   0.01403622
5682.00   1.13810599   0.01502977
5684.00   1.10780811   0.01725630
5686.00   1.08785892   0.01798435
5688.00   1.07397878   0.01729887
5690.00   1.06771076   0.01625254
5692.00   1.07662928   0.01552468
5694.00   1.09830201   0.01476822
5696.00   1.08816731   0.01435507
5698.00   1.02989113   0.01448517
5700.00   1.02636933   0.01419488
5702.00   1.07526267   0.01348721
5704.00   1.12102485   0.01286960
5706.00   1.14286101   0.01255951
5708.00   1.15408909   0.01245708
5710.00   1.15634036   0.01263207
5712.00   1.13638365   0.01332199
5714.00   1.13829982   0.01356186
5716.00   1.15509331   0.01342348
5718.00   1.16981363   0.01354124
5720.00   1.18604326   0.01423130
5722.00   1.19592357   0.01496757
5724.00   1.17356873   0.01495475
5726.00   1.11299360   0.01439093
5728.00   1.09084797   0.01387969
5730.00   1.08733320   0.01303703
5732.00   1.09055901   0.01236268
5734.00   1.10339761   0.01181269
5736.00   1.12131011   0.01148827
5738.00   1.13832104   0.01161156
5740.00   1.15848053   0.01213019
5742.00   1.17012155   0.01263989
5744.00   1.17888379   0.01369054
5746.00   1.17904580   0.01390819
5748.00   1.16776347   0.01320469
5750.00   1.15398049   0.01234128
5752.00   1.14287376   0.01183169
5754.00   1.13172615   0.01143743
5756.00   1.12509823   0.01138258
5758.00   1.12737477   0.01174990
5760.00   1.11900783   0.01203755
5762.00   1.09579778   0.01249417
5764.00   1.08116066   0.01277475
5766.00   1.08841515   0.01262586
5768.00   1.10563922   0.01230450
5770.00   1.10528898   0.01259780
5772.00   1.09489942   0.01360163
5774.00   1.08401382   0.01381499
5776.00   1.06039536   0.01359074
5778.00   1.05044949   0.01326394
5780.00   1.06590033   0.01272197
5782.00   1.08801866   0.01216097
5784.00   1.08821726   0.01220357
5786.00   1.07941902   0.01285706
5788.00   1.05435681   0.01285941
5790.00   0.99142098   0.01240597
5792.00   0.96199131   0.01209094
5794.00   0.97634107   0.01189365
5796.00   1.00108731   0.01178463
5798.00   1.00679851   0.01183139
5800.00   1.00587618   0.01204775
5802.00   1.00586998   0.01201614
5804.00   1.00491881   0.01182707
5806.00   1.00105846   0.01162382
5808.00   0.98980087   0.01128926
5810.00   0.98282051   0.01103660
5812.00   0.99120235   0.01106424
5814.00   1.00893152   0.01126954
5816.00   1.00639498   0.01128818
5818.00   0.98947299   0.01121179
5820.00   0.97284079   0.01115923
5822.00   0.94336665   0.01107414
5824.00   0.92591798   0.01102514
5826.00   0.93393958   0.01105048
5828.00   0.95442057   0.01111354
5830.00   0.95999372   0.01113411
5832.00   0.96266931   0.01105176
5834.00   0.95570773   0.01120674
5836.00   0.93034446   0.01147582
5838.00   0.91723502   0.01189297
5840.00   0.92252153   0.01269482
5842.00   0.93630511   0.01339103
5844.00   0.95056725   0.01314618
5846.00   0.97563744   0.01185177
5848.00   0.97366738   0.01179369
5850.00   0.94292587   0.01279236
5852.00   0.92457229   0.01324324
5854.00   0.92126215   0.01308451
5856.00   0.91903335   0.01286728
5858.00   0.90517139   0.01311394
5860.00   0.88301343   0.01366773
5862.00   0.87979156   0.01349076
5864.00   0.89309698   0.01245447
5866.00   0.90190631   0.01197640
5868.00   0.91604304   0.01197733
5870.00   0.92100912   0.01211315
5872.00   0.90149885   0.01225930
5874.00   0.86695069   0.01247533
5876.00   0.86342180   0.01254598
5878.00   0.89222753   0.01155189
5880.00   0.89510459   0.01279326
5882.00   0.88302320   0.01581905
5884.00   0.86801225   0.01818164
5886.00   0.85280675   0.01966713
5888.00   0.83560771   0.02080623
5890.00   0.81734061   0.02177623
5892.00   0.78659970   0.02289598
5894.00   0.78678471   0.02284774
5896.00   0.82440388   0.02177530
5898.00   0.84311068   0.02036440
5900.00   0.83007759   0.01832439
5902.00   0.80894786   0.01589370
5904.00   0.80695480   0.01405311
5906.00   0.81615096   0.01250608
5908.00   0.81745464   0.01154090
5910.00   0.81066650   0.01162048
5912.00   0.81479430   0.01168017
5914.00   0.83637029   0.01193876
5916.00   0.85634232   0.01216082
5918.00   0.85770845   0.01201212
5920.00   0.84770125   0.01160357
5922.00   0.83590746   0.01146336
5924.00   0.81642848   0.01135701
5926.00   0.79786575   0.01148701
5928.00   0.77248347   0.01180773
5930.00   0.75528353   0.01230240
5932.00   0.75652915   0.01314338
5934.00   0.76974589   0.01412212
5936.00   0.77900821   0.01411801
5938.00   0.79817790   0.01316790
5940.00   0.79980183   0.01251006
5942.00   0.78415918   0.01159748
5944.00   0.77101010   0.01093799
5946.00   0.76380748   0.01083564
5948.00   0.76065612   0.01103050
5950.00   0.76786244   0.01102997
5952.00   0.79248494   0.01098879
5954.00   0.79564214   0.01104442
5956.00   0.78728497   0.01125487
5958.00   0.77291864   0.01132691
5960.00   0.74698967   0.01118758
5962.00   0.72017187   0.01098736
5964.00   0.70984143   0.01090653
5966.00   0.70960546   0.01087473
5968.00   0.71380544   0.01087064
5970.00   0.73166758   0.01093768
5972.00   0.74048179   0.01096394
5974.00   0.73941743   0.01097744
5976.00   0.73661727   0.01094587
5978.00   0.73636705   0.01075263
5980.00   0.73597670   0.01039887
5982.00   0.74624813   0.01068386
5984.00   0.76793283   0.01180682
5986.00   0.78688335   0.01213076
5988.00   0.81233549   0.01190195
5990.00   0.82852077   0.01148052
5992.00   0.82578129   0.01087958
5994.00   0.81058687   0.01009458
5996.00   0.79599816   0.00994930
5998.00   0.76408851   0.01056263
6000.00   0.75946343   0.01063274
6002.00   0.78170025   0.01031413
6004.00   0.79699397   0.01021546
6006.00   0.79164636   0.01060791
6008.00   0.78232437   0.01113598
6010.00   0.79717803   0.01124673
6012.00   0.83341610   0.01097114
6014.00   0.85610521   0.01115587
6016.00   0.88228512   0.01192201
6018.00   0.89351046   0.01211062
6020.00   0.88361400   0.01147528
6022.00   0.86603695   0.01056038
6024.00   0.85493779   0.01007986
6026.00   0.84135306   0.00977263
6028.00   0.84523451   0.00959798
6030.00   0.87156367   0.00969670
6032.00   0.88512594   0.00971487
6034.00   0.88510746   0.00959409
6036.00   0.88445646   0.00958114
6038.00   0.89226097   0.00993233
6040.00   0.90442014   0.01052516
6042.00   0.91247720   0.01063778
6044.00   0.91936600   0.01042221
6046.00   0.92490411   0.01022646
6048.00   0.92806017   0.00981144
6050.00   0.93157786   0.00957295
6052.00   0.93777978   0.00984683
6054.00   0.94470328   0.01034888
6056.00   0.94559270   0.01028863
6058.00   0.94435525   0.00967951
6060.00   0.93602884   0.00943599
6062.00   0.91439217   0.00932305
6064.00   0.90070444   0.00927538
6066.00   0.90135688   0.00926855
6068.00   0.90841097   0.00933585
6070.00   0.91254532   0.00955165
6072.00   0.92196053   0.01005648
6074.00   0.91601872   0.01003312
6076.00   0.89139414   0.00948572
6078.00   0.87667733   0.00913088
6080.00   0.87670833   0.00904921
6082.00   0.87879431   0.00905570
6084.00   0.87085521   0.00901777
6086.00   0.85801882   0.00899740
6088.00   0.84121317   0.00896263
6090.00   0.81139576   0.00890321
6092.00   0.79574925   0.00888304
6094.00   0.79741704   0.00890489
6096.00   0.79940736   0.00894014
6098.00   0.78853041   0.00896116
6100.00   0.77094334   0.00897975
6102.00   0.76598537   0.00908033
6104.00   0.76900685   0.00926878
6106.00   0.77351487   0.00942245
6108.00   0.78781044   0.00950719
6110.00   0.79433537   0.00968767
6112.00   0.78416765   0.01002207
6114.00   0.76423281   0.01045407
6116.00   0.74653363   0.01095390
6118.00   0.71732670   0.01200993
6120.00   0.70956725   0.01188739
6122.00   0.72150952   0.01046106
6124.00   0.73065358   0.00934811
6126.00   0.73225331   0.00913075
6128.00   0.73232108   0.00932668
6130.00   0.73632330   0.00948422
6132.00   0.74450272   0.00990217
6134.00   0.74525064   0.00996428
6136.00   0.74016303   0.00963067
6138.00   0.73523533   0.00960361
6140.00   0.72725797   0.01015527
6142.00   0.72217637   0.01059453
6144.00   0.72947443   0.01017446
6146.00   0.74780446   0.00896837
6148.00   0.75284451   0.00860013
6150.00   0.74664712   0.00880051
6152.00   0.74772251   0.00894398
6154.00   0.75863820   0.00917814
6156.00   0.76600182   0.00938821
6158.00   0.75951350   0.00948802
6160.00   0.74437726   0.00952685
6162.00   0.73816645   0.00948005
6164.00   0.73631495   0.00915986
6166.00   0.73382354   0.00920580
6168.00   0.73424566   0.00970319
6170.00   0.73149222   0.00999149
6172.00   0.72087473   0.00983276
6174.00   0.70710903   0.00942206
6176.00   0.70348686   0.00901536
6178.00   0.70744288   0.00829751
6180.00   0.71033823   0.00800157
6182.00   0.71724343   0.00809265
6184.00   0.72114795   0.00814678
6186.00   0.72282636   0.00806351
6188.00   0.72043449   0.00799507
6190.00   0.70721495   0.00813308
6192.00   0.68050563   0.00847880
6194.00   0.66784376   0.00859255
6196.00   0.65954673   0.00862877
6198.00   0.65875596   0.00855552
6200.00   0.67135972   0.00827796
6202.00   0.68415773   0.00798920
6204.00   0.68205667   0.00793696
6206.00   0.67019749   0.00804311
6208.00   0.66496247   0.00805040
6210.00   0.66104454   0.00804669
6212.00   0.65813571   0.00802277
6214.00   0.65649503   0.00790501
6216.00   0.65562564   0.00787528
6218.00   0.65632921   0.00811502
6220.00   0.65809298   0.00850608
6222.00   0.65290070   0.00854435
6224.00   0.63792932   0.00819883
6226.00   0.63179392   0.00817315
6228.00   0.63387644   0.00838240
6230.00   0.63307387   0.00857109
6232.00   0.62540281   0.00869453
6234.00   0.61419451   0.00877407
6236.00   0.60284114   0.00870163
6238.00   0.58686155   0.00843181
6240.00   0.57848895   0.00827780
6242.00   0.57888353   0.00809299
6244.00   0.57423782   0.00803144
6246.00   0.56014431   0.00818894
6248.00   0.54427904   0.00839331
6250.00   0.53693211   0.00838982
6252.00   0.53505039   0.00824809
6254.00   0.53230786   0.00816548
6256.00   0.53185350   0.00805817
6258.00   0.53021032   0.00799054
6260.00   0.52983022   0.00798976
6262.00   0.52605826   0.00798508
6264.00   0.51096374   0.00790340
6266.00   0.48529392   0.00776812
6268.00   0.48264566   0.00767785
6270.00   0.50209391   0.00747491
6272.00   0.51104957   0.00755866
6274.00   0.51778740   0.00807883
6276.00   0.51718861   0.00843745
6278.00   0.50220007   0.00829493
6280.00   0.47739556   0.00785720
6282.00   0.46630347   0.00767388
6284.00   0.45725518   0.00750882
6286.00   0.46145776   0.00752826
6288.00   0.48783076   0.00770017
6290.00   0.50432664   0.00798330
6292.00   0.49779952   0.00843145
6294.00   0.48149550   0.00892715
6296.00   0.47642329   0.00916843
6298.00   0.47232604   0.00929492
6300.00   0.47831967   0.00928397
6302.00   0.49989396   0.00897047
6304.00   0.51330858   0.00884545
6306.00   0.51636624   0.00905050
6308.00   0.51325178   0.00932209
6310.00   0.50476927   0.00939015
6312.00   0.48798835   0.00942958
6314.00   0.47822425   0.00909292
6316.00   0.47095534   0.00801138
6318.00   0.46511251   0.00746728
6320.00   0.45811129   0.00769510
6322.00   0.45600793   0.00805996
6324.00   0.46580917   0.00807552
6326.00   0.48538950   0.00794068
6328.00   0.49808910   0.00817044
6330.00   0.51534855   0.00899806
6332.00   0.51842171   0.00905080
6334.00   0.50480628   0.00828400
6336.00   0.49027219   0.00745749
6338.00   0.48293194   0.00706556
6340.00   0.47793537   0.00688646
6342.00   0.47087100   0.00678295
6344.00   0.45568237   0.00684457
6346.00   0.45795405   0.00696684
6348.00   0.48044604   0.00728973
6350.00   0.49626061   0.00749089
6352.00   0.49595162   0.00745147
6354.00   0.48958734   0.00731990
6356.00   0.49131197   0.00734686
6358.00   0.49841079   0.00740754
6360.00   0.49958515   0.00761731
6362.00   0.49704975   0.00820044
6364.00   0.49439403   0.00836138
6366.00   0.49061704   0.00789816
6368.00   0.48755834   0.00722726
6370.00   0.48906884   0.00695734
6372.00   0.49484468   0.00689435
6374.00   0.49640998   0.00685538
6376.00   0.49247780   0.00695365
6378.00   0.49533722   0.00702877
6380.00   0.50850767   0.00705284
6382.00   0.52042437   0.00713621
6384.00   0.52149248   0.00742792
6386.00   0.51592165   0.00787151
6388.00   0.51142275   0.00782508
6390.00   0.50196928   0.00713009
6392.00   0.49858734   0.00697708
6394.00   0.50182217   0.00740236
6396.00   0.50427616   0.00770205
6398.00   0.50094128   0.00755851
6400.00   0.49553889   0.00718800
6402.00   0.49922633   0.00698860
6404.00   0.51392817   0.00675338
6406.00   0.51958603   0.00671252
6408.00   0.52150697   0.00681265
6410.00   0.52106130   0.00702513
6412.00   0.51666230   0.00748056
6414.00   0.51103741   0.00792817
6416.00   0.51152080   0.00780660
6418.00   0.51461101   0.00704701
6420.00   0.52315807   0.00685075
6422.00   0.54197448   0.00706763
6424.00   0.55440235   0.00712715
6426.00   0.55675977   0.00693187
6428.00   0.55764961   0.00671800
6430.00   0.56672549   0.00674285
6432.00   0.58138740   0.00691126
6434.00   0.59075582   0.00712335
6436.00   0.60073644   0.00763152
6438.00   0.60393107   0.00772366
6440.00   0.59570515   0.00729314
6442.00   0.58924282   0.00681744
6444.00   0.59620929   0.00671314
6446.00   0.61151165   0.00680575
6448.00   0.61701763   0.00688514
6450.00   0.61473584   0.00700917
6452.00   0.61823583   0.00721244
6454.00   0.62620157   0.00763471
6456.00   0.63409686   0.00787057
6458.00   0.64001721   0.00768169
6460.00   0.64525598   0.00725958
6462.00   0.65112126   0.00719965
6464.00   0.65911210   0.00742924
6466.00   0.66243494   0.00747885
6468.00   0.66253299   0.00748997
6470.00   0.66098046   0.00745904
6472.00   0.65720844   0.00736593
6474.00   0.65235007   0.00724128
6476.00   0.64905745   0.00714906
6478.00   0.64306420   0.00700843
6480.00   0.64924556   0.00707876
6482.00   0.67001677   0.00736127
6484.00   0.68463457   0.00759638
6486.00   0.68937927   0.00784037
6488.00   0.69417506   0.00801253
6490.00   0.71033752   0.00794904
6492.00   0.73619294   0.00764837
6494.00   0.74609345   0.00767344
6496.00   0.74371898   0.00798368
6498.00   0.74362004   0.00812800
6500.00   0.74059814   0.00814279
6502.00   0.74163777   0.00812143
6504.00   0.75454485   0.00811309
6506.00   0.77573413   0.00809336
6508.00   0.78613573   0.00803088
6510.00   0.78903818   0.00789439
6512.00   0.79515487   0.00781752
6514.00   0.80255508   0.00779287
6516.00   0.80960757   0.00775978
6518.00   0.81641209   0.00765505
6520.00   0.82257307   0.00754136
6522.00   0.82487833   0.00764510
6524.00   0.82251799   0.00792333
6526.00   0.82259113   0.00820602
6528.00   0.81948465   0.00872599
6530.00   0.82300103   0.00894693
6532.00   0.83780825   0.00868558
6534.00   0.85663396   0.00823481
6536.00   0.86792094   0.00810355
6538.00   0.87711251   0.00816841
6540.00   0.88014489   0.00809592
6542.00   0.87137407   0.00788056
6544.00   0.87138867   0.00784425
6546.00   0.88298768   0.00807799
6548.00   0.89725727   0.00833732
6550.00   0.90692902   0.00840191
6552.00   0.91587490   0.00837083
6554.00   0.91845536   0.00828552
6556.00   0.91371888   0.00803756
6558.00   0.91046351   0.00791370
6560.00   0.90694350   0.00787205
6562.00   0.90380406   0.00790855
6564.00   0.90214431   0.00802733
6566.00   0.90139574   0.00822214
6568.00   0.89866930   0.00850023
6570.00   0.88982117   0.00905276
6572.00   0.89180273   0.00920443
6574.00   0.90473396   0.00906803
6576.00   0.91713428   0.00883010
6578.00   0.92661005   0.00848513
6580.00   0.93404913   0.00805559
6582.00   0.93323898   0.00785556
6584.00   0.92513192   0.00780424
6586.00   0.91475612   0.00782548
6588.00   0.89226168   0.00802579
6590.00   0.88125509   0.00816424
6592.00   0.89018250   0.00811375
6594.00   0.90513259   0.00809803
6596.00   0.90597910   0.00847460
6598.00   0.89769667   0.00911366
6600.00   0.89683342   0.00972551
6602.00   0.89748907   0.01089028
6604.00   0.90176767   0.01108618
6606.00   0.91473991   0.00999019
6608.00   0.92504632   0.00847671
6610.00   0.91801274   0.00772355
6612.00   0.89681405   0.00736380
6614.00   0.89725512   0.00718770
6616.00   0.91577619   0.00751681
6618.00   0.92617959   0.00764726
6620.00   0.93356168   0.00770008
6622.00   0.93706703   0.00770312
6624.00   0.93445992   0.00762906
6626.00   0.92705840   0.00749341
6628.00   0.92187661   0.00746480
6630.00   0.91342038   0.00753678
6632.00   0.91175264   0.00753804
6634.00   0.91638893   0.00747120
6636.00   0.92161876   0.00744834
6638.00   0.92509925   0.00752674
6640.00   0.92902261   0.00764665
6642.00   0.93697965   0.00769275
6644.00   0.94987196   0.00772297
6646.00   0.95900977   0.00768488
6648.00   0.97033769   0.00753908
6650.00   0.97436881   0.00743922
6652.00   0.96765065   0.00741643
6654.00   0.95639771   0.00742089
6656.00   0.94879550   0.00739706
6658.00   0.94102651   0.00734304
6660.00   0.93563008   0.00739642
6662.00   0.92850202   0.00758298
6664.00   0.92963672   0.00768605
6666.00   0.94199133   0.00772574
6668.00   0.95681757   0.00771235
6670.00   0.96680129   0.00759569
6672.00   0.97550249   0.00735745
6674.00   0.98087496   0.00745141
6676.00   0.98141199   0.00794856
6678.00   0.98408902   0.00811002
6680.00   0.99202305   0.00791594
6682.00   0.99414265   0.00780235
6684.00   0.98018658   0.00802225
6686.00   0.95693010   0.00841375
6688.00   0.95485127   0.00876950
6690.00   0.97357100   0.00947674
6692.00   0.97834080   0.00946742
6694.00   0.97977996   0.00872890
6696.00   0.97472543   0.00803374
6698.00   0.95614344   0.00765530
6700.00   0.93376225   0.00743041
6702.00   0.93539482   0.00732181
6704.00   0.95807779   0.00728901
6706.00   0.97109479   0.00759092
6708.00   0.98844361   0.00841001
6710.00   0.99668849   0.00886402
6712.00   0.98963529   0.00889240
6714.00   0.97933584   0.00873917
6716.00   0.98312819   0.00859668
6718.00   0.99770921   0.00834992
6720.00   0.99931264   0.00817928
6722.00   0.99777412   0.00804585
6724.00   0.98620307   0.00789868
6726.00   0.95539337   0.00770584
6728.00   0.92788374   0.00755052
6730.00   0.92559946   0.00753417
6732.00   0.93988818   0.00762872
6734.00   0.94413137   0.00757221
6736.00   0.94807631   0.00723516
6738.00   0.94916308   0.00730854
6740.00   0.94902396   0.00789876
6742.00   0.94488746   0.00832706
6744.00   0.93316472   0.00830379
6746.00   0.91666913   0.00803400
6748.00   0.90922272   0.00778993
6750.00   0.90890062   0.00725609
6752.00   0.90556645   0.00712807
6754.00   0.90155381   0.00740459
6756.00   0.89830112   0.00759193
6758.00   0.89651018   0.00757028
6760.00   0.89530993   0.00746550
6762.00   0.89329129   0.00737437
6764.00   0.89325893   0.00719792
6766.00   0.88565588   0.00719169
6768.00   0.86787683   0.00737577
6770.00   0.85601586   0.00746430
6772.00   0.85456610   0.00742678
6774.00   0.85390347   0.00734255
6776.00   0.84312993   0.00726049
6778.00   0.82686555   0.00711826
6780.00   0.80513012   0.00718439
6782.00   0.77110916   0.00725447
6784.00   0.74574775   0.00767530
6786.00   0.72273594   0.00868423
6788.00   0.71030164   0.00944567
6790.00   0.71888405   0.00944420
6792.00   0.74458933   0.00895891
6794.00   0.76342356   0.00849502
6796.00   0.79338491   0.00752235
6798.00   0.80259728   0.00705227
6800.00   0.79294693   0.00705005
6802.00   0.77738553   0.00723338
6804.00   0.75784087   0.00755465
6806.00   0.73452908   0.00798854
6808.00   0.72650266   0.00814356
6810.00   0.73044044   0.00812559
6812.00   0.73430240   0.00810262
6814.00   0.74230993   0.00802017
6816.00   0.75253624   0.00789082
6818.00   0.76552784   0.00753018
6820.00   0.78013861   0.00722317
6822.00   0.79337043   0.00779523
6824.00   0.81089824   0.00922454
6826.00   0.81269652   0.00962143
6828.00   0.79903901   0.00955399
6830.00   0.78724384   0.00932710
6832.00   0.77710623   0.00879394
6834.00   0.76762569   0.00816522
6836.00   0.75973213   0.00787083
6838.00   0.75236917   0.00780643
6840.00   0.75029612   0.00762097
6842.00   0.75603086   0.00740048
6844.00   0.75699043   0.00722807
6846.00   0.75392610   0.00706898
6848.00   0.74933028   0.00698513
6850.00   0.74372077   0.00705051
6852.00   0.73664659   0.00723265
6854.00   0.73413032   0.00734244
6856.00   0.73359138   0.00718822
6858.00   0.73672372   0.00760402
6860.00   0.74382997   0.00856443
6862.00   0.75312185   0.00940404
6864.00   0.76581526   0.01000617
6866.00   0.78018785   0.01048286
6868.00   0.78577298   0.01065576
6870.00   0.78830838   0.01065552
6872.00   0.78112549   0.01032798
6874.00   0.76081431   0.00940003
6876.00   0.74236661   0.00860075
6878.00   0.72550273   0.00815141
6880.00   0.71230054   0.00790188
6882.00   0.71396625   0.00777768
6884.00   0.73334062   0.00793256
6886.00   0.73628277   0.00784544
6888.00   0.72871846   0.00727569
6890.00   0.72448367   0.00740081
6892.00   0.72435516   0.00863962
6894.00   0.72507060   0.00972895
6896.00   0.72517687   0.00969783
6898.00   0.72645837   0.00890904
6900.00   0.71960890   0.00845890
6902.00   0.70228124   0.00784884
6904.00   0.69129276   0.00750160
6906.00   0.68491268   0.00744743
6908.00   0.68092418   0.00754105
6910.00   0.67882192   0.00773244
6912.00   0.67890102   0.00804096
6914.00   0.67867029   0.00817089
6916.00   0.67610925   0.00808037
6918.00   0.68065840   0.00826095
6920.00   0.69718498   0.00883592
6922.00   0.70700687   0.00912720
6924.00   0.69985777   0.00878663
6926.00   0.68467772   0.00811177
6928.00   0.68115968   0.00797073
6930.00   0.68663144   0.00829232
6932.00   0.68453312   0.00825767
6934.00   0.67815143   0.00804922
6936.00   0.67214358   0.00783304
6938.00   0.67003119   0.00757054
6940.00   0.66597921   0.00734102
6942.00   0.64898735   0.00736158
6944.00   0.61941534   0.00748054
6946.00   0.59744817   0.00801617
6948.00   0.56593060   0.00933286
6950.00   0.55724710   0.00978980
6952.00   0.58003211   0.00931947
6954.00   0.61081326   0.00850529
6956.00   0.62777179   0.00787263
6958.00   0.64131498   0.00711240
6960.00   0.64557147   0.00678219
6962.00   0.63730299   0.00695534
6964.00   0.63277811   0.00700718
6966.00   0.63005579   0.00703679
6968.00   0.62706947   0.00706760
6970.00   0.62269837   0.00709575
6972.00   0.61754310   0.00712323
6974.00   0.61446184   0.00713464
6976.00   0.61227858   0.00713086
6978.00   0.61158890   0.00712698
6980.00   0.61471587   0.00711486
6982.00   0.61512023   0.00710588
6984.00   0.61022496   0.00706854
6986.00   0.60215974   0.00704683
6988.00   0.59334856   0.00722346
6990.00   0.57968199   0.00775375
6992.00   0.57317734   0.00775330
6994.00   0.56821138   0.00719662
6996.00   0.57049304   0.00689909
6998.00   0.58536845   0.00713090
7000.00   0.60335755   0.00748870
7002.00   0.60839015   0.00751628
7004.00   0.60536879   0.00735862
7006.00   0.60297883   0.00726624
7008.00   0.59708011   0.00712991
7010.00   0.59190345   0.00703829
7012.00   0.58562791   0.00703001
7014.00   0.58139616   0.00700796
7016.00   0.58369857   0.00681583
7018.00   0.59145224   0.00644344
7020.00   0.59421259   0.00664878
7022.00   0.59586263   0.00758104
7024.00   0.59506929   0.00784500
7026.00   0.59262931   0.00758590
7028.00   0.58719450   0.00718972
7030.00   0.57628495   0.00679781
7032.00   0.56150419   0.00632446
7034.00   0.55458379   0.00618174
7036.00   0.55152065   0.00638585
7038.00   0.55190992   0.00647490
7040.00   0.55723602   0.00657474
7042.00   0.56381583   0.00667443
7044.00   0.57286865   0.00678610
7046.00   0.58198386   0.00688940
7048.00   0.58020979   0.00689450
7050.00   0.56283605   0.00659665
7052.00   0.56442803   0.00692747
7054.00   0.58469611   0.00799888
7056.00   0.59450513   0.00848037
7058.00   0.58732486   0.00822811
7060.00   0.57505250   0.00766644
7062.00   0.57094932   0.00726049
7064.00   0.57009727   0.00673801
7066.00   0.56931508   0.00652006
7068.00   0.57220268   0.00649895
7070.00   0.57089561   0.00667840
7072.00   0.56392783   0.00716870
7074.00   0.55639160   0.00765700
7076.00   0.55178666   0.00791466
7078.00   0.54798990   0.00807144
7080.00   0.55135506   0.00812955
7082.00   0.56555098   0.00804203
7084.00   0.57207924   0.00796831
7086.00   0.57469279   0.00792559
7088.00   0.57316035   0.00779101
7090.00   0.56610286   0.00744670
7092.00   0.55452293   0.00694476
7094.00   0.54403204   0.00663137
7096.00   0.52892995   0.00636046
7098.00   0.52161890   0.00626659
7100.00   0.51937753   0.00643475
7102.00   0.52034163   0.00655783
7104.00   0.52610111   0.00654750
7106.00   0.53397977   0.00649115
7108.00   0.53498483   0.00647332
7110.00   0.53020287   0.00644409
7112.00   0.52922893   0.00647589
7114.00   0.52869362   0.00661177
7116.00   0.52988756   0.00666055
7118.00   0.53481942   0.00654488
7120.00   0.53956473   0.00641956
7122.00   0.53838545   0.00651890
7124.00   0.53353733   0.00681125
7126.00   0.52595341   0.00685106
7128.00   0.51016229   0.00669230
7130.00   0.50199270   0.00661506
7132.00   0.49883193   0.00660696
7134.00   0.50230092   0.00662463
7136.00   0.51839274   0.00666286
7138.00   0.54633403   0.00673137
7140.00   0.55170858   0.00670315
7142.00   0.54039830   0.00657611
7144.00   0.53079742   0.00649126
7146.00   0.51627719   0.00642887
7148.00   0.50380027   0.00636565
7150.00   0.49757937   0.00627336
7152.00   0.49491262   0.00617474
7154.00   0.49179974   0.00619198
7156.00   0.48913398   0.00632702
7158.00   0.48873743   0.00642362
7160.00   0.49213186   0.00655848
7162.00   0.49373537   0.00664234
7164.00   0.49012935   0.00661958
7166.00   0.48585248   0.00656775
7168.00   0.49044719   0.00664575
7170.00   0.50343198   0.00677470
7172.00   0.51105005   0.00701441
7174.00   0.51986521   0.00752477
7176.00   0.52303904   0.00774358
7178.00   0.51789254   0.00754902
7180.00   0.51015568   0.00725402
7182.00   0.50680959   0.00725810
7184.00   0.50527775   0.00744893
7186.00   0.50284898   0.00745693
7188.00   0.49853262   0.00732109
7190.00   0.49807563   0.00728917
7192.00   0.50160009   0.00738597
7194.00   0.50704002   0.00747817
7196.00   0.51501149   0.00749054
7198.00   0.52596712   0.00746550
7200.00   0.52276361   0.00729440
7202.00   0.50230324   0.00675170
7204.00   0.49349880   0.00664542
7206.00   0.49394172   0.00705070
7208.00   0.49335486   0.00733723
7210.00   0.48769674   0.00721984
7212.00   0.47947413   0.00690839
7214.00   0.46921095   0.00681587
7216.00   0.44612560   0.00674773
7218.00   0.44615766   0.00687360
7220.00   0.47221628   0.00727155
7222.00   0.48695323   0.00755143
7224.00   0.47981462   0.00766065
7226.00   0.46346462   0.00767057
7228.00   0.45164794   0.00756217
7230.00   0.43290299   0.00714540
7232.00   0.43468368   0.00728364
7234.00   0.46197641   0.00768166
7236.00   0.47514269   0.00834983
7238.00   0.46943688   0.00949115
7240.00   0.45825669   0.01048803
7242.00   0.45308033   0.01079215
7244.00   0.44903010   0.01070483
7246.00   0.44533932   0.01041372
7248.00   0.44189981   0.00959752
7250.00   0.43982080   0.00893647
7252.00   0.43940583   0.00833644
7254.00   0.43955460   0.00782232
7256.00   0.44007507   0.00749034
7258.00   0.44118589   0.00733125
7260.00   0.43833223   0.00713062
7262.00   0.43032330   0.00693211
7264.00   0.42613882   0.00684820
7266.00   0.42490533   0.00672473
7268.00   0.42344105   0.00690515
7270.00   0.42041662   0.00757876
7272.00   0.41679153   0.00847040
7274.00   0.41364887   0.00912229
7276.00   0.40693471   0.00998011
7278.00   0.40950179   0.01015643
7280.00   0.42094055   0.00941272
7282.00   0.43173420   0.00923961
7284.00   0.44194427   0.01030600
7286.00   0.45052755   0.01149694
7288.00   0.45157960   0.01151234
7290.00   0.44521362   0.01078604
7292.00   0.44208720   0.00992906
7294.00   0.43880862   0.00795044
7296.00   0.43560424   0.00663784
7298.00   0.43269384   0.00680225
7300.00   0.42958701   0.00739409
7302.00   0.42543873   0.00743209
7304.00   0.42016193   0.00731504
7306.00   0.41763663   0.00741496
7308.00   0.41642243   0.00759784
7310.00   0.41705632   0.00788366
7312.00   0.42018241   0.00838378
7314.00   0.42405444   0.00878216
7316.00   0.42739776   0.00890515
7318.00   0.43086016   0.00886262
7320.00   0.43559563   0.00869393
7322.00   0.44258273   0.00823600
7324.00   0.44729590   0.00793436
7326.00   0.45181453   0.00766216
7328.00   0.45360136   0.00748593
7330.00   0.45016113   0.00742516
7332.00   0.44411266   0.00748172
7334.00   0.44374260   0.00771457
7336.00   0.44981810   0.00804405
7338.00   0.44835392   0.00860669
7340.00   0.44108075   0.00971596
7342.00   0.43491277   0.01021965
7344.00   0.42837268   0.00996158
7346.00   0.42456490   0.00928174
7348.00   0.43265429   0.00849775
7350.00   0.45413625   0.00707386
7352.00   0.46267051   0.00653910
7354.00   0.46514136   0.00690683
7356.00   0.46564621   0.00715331
7358.00   0.46208048   0.00732824
7360.00   0.45827171   0.00751219
7362.00   0.45935908   0.00766060
7364.00   0.46378925   0.00775721
7366.00   0.46420583   0.00815954
7368.00   0.46533158   0.00908171
7370.00   0.45991877   0.00935517
7372.00   0.44529238   0.00908077
7374.00   0.43103299   0.00861101
7376.00   0.42192027   0.00804903
7378.00   0.41545761   0.00729952
7380.00   0.41709498   0.00699677
7382.00   0.43110597   0.00723377
7384.00   0.43706396   0.00713465
7386.00   0.43830210   0.00674714
7388.00   0.43988922   0.00651669
7390.00   0.44344780   0.00662244
7392.00   0.44770336   0.00692827
7394.00   0.45190480   0.00732349
7396.00   0.45929018   0.00793775
7398.00   0.45863664   0.00832889
7400.00   0.44898406   0.00884586
7402.00   0.44268483   0.00892741
7404.00   0.44182298   0.00831732
7406.00   0.44301766   0.00739466
7408.00   0.44340938   0.00692595
7410.00   0.44412100   0.00670227
7412.00   0.44539759   0.00646734
7414.00   0.45047489   0.00635821
7416.00   0.44935250   0.00624528
7418.00   0.43916988   0.00611170
7420.00   0.42825869   0.00602292
7422.00   0.42411390   0.00604203
7424.00   0.42345092   0.00614811
7426.00   0.42442712   0.00625321
7428.00   0.42880374   0.00638428
7430.00   0.43293041   0.00654144
7432.00   0.44003198   0.00675668
7434.00   0.44386655   0.00694359
7436.00   0.43955770   0.00707889
7438.00   0.43004030   0.00717603
7440.00   0.42462987   0.00711374
7442.00   0.41960186   0.00686027
7444.00   0.41641992   0.00664779
7446.00   0.41454291   0.00630906
7448.00   0.41437194   0.00611458
7450.00   0.41718236   0.00619784
7452.00   0.42121613   0.00643513
7454.00   0.42095867   0.00664543
7456.00   0.41518697   0.00703876
7458.00   0.41701472   0.00703471
7460.00   0.42422450   0.00654921
7462.00   0.43176374   0.00632029
7464.00   0.44287911   0.00654358
7466.00   0.45138180   0.00688632
7468.00   0.44480205   0.00701881
7470.00   0.42381513   0.00706183
7472.00   0.41473961   0.00715676
7474.00   0.40852976   0.00729426
7476.00   0.40724963   0.00736473
7478.00   0.41464823   0.00737376
7480.00   0.42183667   0.00733991
7482.00   0.41961953   0.00727122
7484.00   0.41135904   0.00716258
7486.00   0.41036326   0.00701198
7488.00   0.41529101   0.00678041
7490.00   0.41616267   0.00658025
7492.00   0.41172457   0.00632657
7494.00   0.41013399   0.00617679
7496.00   0.41755113   0.00625784
7498.00   0.42979187   0.00648646
7500.00   0.43215352   0.00663469
7502.00   0.42562103   0.00692903
7504.00   0.42443949   0.00688283
7506.00   0.42444104   0.00641656
7508.00   0.42618322   0.00608096
7510.00   0.43103334   0.00607927
7512.00   0.43702403   0.00624969
7514.00   0.43883091   0.00644785
7516.00   0.43700325   0.00673355
7518.00   0.43772364   0.00704324
7520.00   0.43956953   0.00748062
7522.00   0.44119316   0.00777590
7524.00   0.44299638   0.00795027
7526.00   0.44423485   0.00800895
7528.00   0.44339466   0.00789020
7530.00   0.44066963   0.00757408
7532.00   0.43888408   0.00730258
7534.00   0.43652409   0.00691549
7536.00   0.43545827   0.00664613
7538.00   0.43429521   0.00652387
7540.00   0.43567660   0.00645106
7542.00   0.44352779   0.00635049
7544.00   0.45680815   0.00625672
7546.00   0.46030480   0.00622395
7548.00   0.45730993   0.00622840
7550.00   0.45378283   0.00629133
7552.00   0.44548175   0.00645961
7554.00   0.43991950   0.00659553
7556.00   0.44172072   0.00661927
7558.00   0.44770548   0.00659047
7560.00   0.45106891   0.00665083
7562.00   0.45686644   0.00665539
7564.00   0.45629930   0.00691484
7566.00   0.44633731   0.00752841
7568.00   0.44225237   0.00789932
7570.00   0.45009077   0.00788870
7572.00   0.46239266   0.00770377
7574.00   0.46707058   0.00761208
7576.00   0.46740493   0.00752466
7578.00   0.46953905   0.00737408
7580.00   0.47305158   0.00711688
7582.00   0.47365052   0.00692732
7584.00   0.46951869   0.00680469
7586.00   0.46459916   0.00675283
7588.00   0.46522513   0.00679517
7590.00   0.47233164   0.00690386
7592.00   0.46045828   0.00719059
7594.00   0.42761073   0.00731621
7596.00   0.40535152   0.00813908
7598.00   0.38640991   0.00926864
7600.00   0.37749103   0.01083778
7602.00   0.38732436   0.01328235
7604.00   0.41227821   0.01609080
7606.00   0.43503293   0.01636690
7608.00   0.47250077   0.01440597
7610.00   0.48894945   0.01309807
7612.00   0.48967585   0.01171036
7614.00   0.48180440   0.01041682
7616.00   0.46615449   0.00942710
7618.00   0.44300380   0.00872421
7620.00   0.42169178   0.00828302
7622.00   0.39274764   0.00822650
7624.00   0.37700501   0.00841605
7626.00   0.36338785   0.00908215
7628.00   0.36551443   0.00961492
7630.00   0.39683783   0.00993758
7632.00   0.43654847   0.01017214
7634.00   0.44158971   0.01036544
7636.00   0.42340267   0.01052993
7638.00   0.40719146   0.01054873
7640.00   0.37268394   0.01058423
7642.00   0.35667977   0.01026662
7644.00   0.36710444   0.00929511
7646.00   0.38378251   0.00813319
7648.00   0.38703334   0.00762638
7650.00   0.38604450   0.00760928
7652.00   0.37614343   0.00740619
7654.00   0.34779796   0.00723054
7656.00   0.33542937   0.00711785
7658.00   0.33909830   0.00709050
7660.00   0.34623891   0.00709193
7662.00   0.35055950   0.00710443
7664.00   0.35542136   0.00714059
7666.00   0.35271829   0.00702780
7668.00   0.34189677   0.00673925
7670.00   0.33387807   0.00653297
7672.00   0.32460481   0.00633632
7674.00   0.31787747   0.00618606
7676.00   0.31579965   0.00612292
7678.00   0.31667754   0.00611399
7680.00   0.31730515   0.00604456
7682.00   0.31974992   0.00586624
7684.00   0.32085001   0.00589711
7686.00   0.32426378   0.00593634
7688.00   0.32238507   0.00627257
7690.00   0.30894607   0.00719044
7692.00   0.29413196   0.00803950
7694.00   0.29766563   0.00790321
7696.00   0.31786609   0.00680544
7698.00   0.32467046   0.00641035
7700.00   0.32498273   0.00629939
7702.00   0.32614931   0.00633671
7704.00   0.32691789   0.00645458
7706.00   0.32889447   0.00680183
7708.00   0.33566850   0.00753464
7710.00   0.34696916   0.00853934
7712.00   0.35119867   0.00927663
7714.00   0.34912592   0.01020836
7716.00   0.35026851   0.01053957
7718.00   0.35301605   0.01031504
7720.00   0.35742852   0.00986559
7722.00   0.36580768   0.00932633
7724.00   0.37701067   0.00858521
7726.00   0.37635946   0.00801880
7728.00   0.36077601   0.00749683
7730.00   0.35715461   0.00707724
7732.00   0.36193478   0.00671266
7734.00   0.36686864   0.00655998
7736.00   0.36914247   0.00678524
7738.00   0.37084514   0.00720022
7740.00   0.37345719   0.00729897
7742.00   0.37895575   0.00698406
7744.00   0.37801537   0.00734330
7746.00   0.36385360   0.00784541
7748.00   0.36354825   0.00887225
7750.00   0.39162382   0.01088693
7752.00   0.42356879   0.01256314
7754.00   0.41826132   0.01233920
7756.00   0.38080096   0.01035854
7758.00   0.37089661   0.00934918
7760.00   0.37511221   0.00854177
7762.00   0.37750363   0.00788086
7764.00   0.37936899   0.00746587
7766.00   0.38076514   0.00722901
7768.00   0.37826645   0.00702453
7770.00   0.37121543   0.00689245
7772.00   0.38194144   0.00722651
7774.00   0.42100173   0.00833279
7776.00   0.43169701   0.00863937
7778.00   0.41495287   0.00825493
7780.00   0.39336440   0.00774158
7782.00   0.37568879   0.00735807
7784.00   0.35750332   0.00697475
7786.00   0.35870686   0.00710125
7788.00   0.38789272   0.00777771
7790.00   0.39349097   0.00820959
7792.00   0.38579357   0.00875034
7794.00   0.37309828   0.00902670
7796.00   0.35318959   0.00888762
7798.00   0.33056143   0.00849411
7800.00   0.32634398   0.00815162
7802.00   0.33737972   0.00759903
7804.00   0.34530315   0.00735083
7806.00   0.35836414   0.00736089
7808.00   0.36883342   0.00738517
7810.00   0.37841412   0.00726800
7812.00   0.38372955   0.00729264
7814.00   0.37486383   0.00793381
7816.00   0.34771121   0.00911179
7818.00   0.34765980   0.00957378
7820.00   0.37189791   0.00965365
7822.00   0.38549495   0.00976209
7824.00   0.38758865   0.00997845
7826.00   0.38768572   0.01004080
7828.00   0.39224955   0.00967781
7830.00   0.39850286   0.00892519
7832.00   0.40387440   0.00836415
7834.00   0.41393408   0.00762451
7836.00   0.41367337   0.00726803
7838.00   0.39853853   0.00738159
7840.00   0.38694683   0.00760768
7842.00   0.39118066   0.00774290
7844.00   0.40379500   0.00790579
7846.00   0.40586281   0.00827771
7848.00   0.39649376   0.00881685
7850.00   0.40098649   0.00935544
7852.00   0.41859528   0.01013548
7854.00   0.43288347   0.01059325
7856.00   0.43925261   0.01051617
7858.00   0.44156072   0.01018669
7860.00   0.44171318   0.01016112
7862.00   0.43882334   0.01038052
7864.00   0.43354356   0.01024049
7866.00   0.41880614   0.00970003
7868.00   0.41440243   0.00936609
7870.00   0.42704478   0.00940979
7872.00   0.44372430   0.00954682
7874.00   0.44842809   0.00946396
7876.00   0.44871753   0.00928940
7878.00   0.43926418   0.00901943
7880.00   0.40877333   0.00833147
7882.00   0.39687371   0.00816672
7884.00   0.40633950   0.00869362
7886.00   0.42077443   0.00930317
7888.00   0.42836472   0.00963909
7890.00   0.43460584   0.00990995
7892.00   0.44091767   0.00984464
7894.00   0.44838965   0.00943528
7896.00   0.45199788   0.00897383
7898.00   0.45348048   0.00822107
7900.00   0.45106572   0.00753331
7902.00   0.44046253   0.00710306
7904.00   0.42522454   0.00689729
7906.00   0.42633995   0.00731599
7908.00   0.44768402   0.00839456
7910.00   0.45107049   0.00920067
7912.00   0.44171479   0.01019625
7914.00   0.43465909   0.01083792
7916.00   0.43406889   0.01107144
7918.00   0.43587089   0.01102366
7920.00   0.43670955   0.01067096
7922.00   0.43935275   0.00959971
7924.00   0.43758962   0.00940550
7926.00   0.42998719   0.01001112
7928.00   0.42623544   0.01031392
7930.00   0.43080172   0.01036716
7932.00   0.43446204   0.01016474
7934.00   0.42374066   0.00937914
7936.00   0.39952275   0.00768885
7938.00   0.39329836   0.00694345
7940.00   0.40145627   0.00698811
7942.00   0.40401971   0.00704803
7944.00   0.40058866   0.00710945
7946.00   0.39797306   0.00743070
7948.00   0.40130007   0.00828111
7950.00   0.40845653   0.00945666
7952.00   0.41211772   0.00973245
7954.00   0.41516066   0.00932364
7956.00   0.41630852   0.00912586
7958.00   0.41394615   0.00872166
7960.00   0.41288665   0.00868066
7962.00   0.41767871   0.00957050
7964.00   0.42457303   0.01077567
7966.00   0.41906926   0.01071300
7968.00   0.39779907   0.00933754
7970.00   0.38983360   0.00873255
7972.00   0.39030954   0.00837611
7974.00   0.38929081   0.00818560
7976.00   0.38341722   0.00823583
7978.00   0.37677708   0.00840891
7980.00   0.37508181   0.00835823
7982.00   0.37596750   0.00808744
7984.00   0.38004693   0.00817055
7986.00   0.38444346   0.00814413
7988.00   0.39704111   0.00882419
7990.00   0.42448771   0.01050089
7992.00   0.45269257   0.01201812
7994.00   0.46532321   0.01258600
7996.00   0.47146326   0.01280023
7998.00   0.45638892   0.01203846
8000.00   0.40564984   0.00916104
8002.00   0.37876883   0.00718323
8004.00   0.37266690   0.00676444
8006.00   0.37465906   0.00692045
8008.00   0.37966084   0.00689699
8010.00   0.39060286   0.00706523
8012.00   0.39551908   0.00751931
8014.00   0.39878237   0.00824941
8016.00   0.39947158   0.00898168
8018.00   0.39283076   0.01006496
8020.00   0.39165553   0.01069529
8022.00   0.40708303   0.01047838
8024.00   0.42911619   0.00978887
8026.00   0.42383417   0.00971325
8028.00   0.38721725   0.01034191
8030.00   0.37603340   0.01002624
8032.00   0.37898949   0.00876085
8034.00   0.38070980   0.00762982
8036.00   0.37676793   0.00703597
8038.00   0.37294385   0.00673438
8040.00   0.37677342   0.00651981
8042.00   0.38772383   0.00655330
8044.00   0.39439067   0.00659095
8046.00   0.40411517   0.00675800
8048.00   0.40564406   0.00690150
8050.00   0.39234555   0.00693996
8052.00   0.37929556   0.00706434
8054.00   0.38525358   0.00746835
8056.00   0.40535274   0.00803058
8058.00   0.41260982   0.00872333
8060.00   0.41257262   0.01008346
8062.00   0.41538328   0.01032418
8064.00   0.42165473   0.00930990
8066.00   0.42615446   0.00804402
8068.00   0.42605847   0.00744384
8070.00   0.42285073   0.00716607
8072.00   0.41397056   0.00687746
8074.00   0.39327273   0.00677383
8076.00   0.38377690   0.00666282
8078.00   0.38269788   0.00659971
8080.00   0.38282657   0.00657064
8082.00   0.38122243   0.00657056
8084.00   0.38014019   0.00660215
8086.00   0.38257253   0.00665682
8088.00   0.38865158   0.00675255
8090.00   0.39394072   0.00683262
8092.00   0.40158117   0.00689875
8094.00   0.40646929   0.00699340
8096.00   0.40898091   0.00715619
8098.00   0.40804389   0.00731643
8100.00   0.39864659   0.00734790
8102.00   0.37653440   0.00726848
8104.00   0.37272489   0.00725235
8106.00   0.38144118   0.00728851
8108.00   0.39100522   0.00724769
8110.00   0.40596864   0.00708515
8112.00   0.41843614   0.00690888
8114.00   0.41695642   0.00681711
8116.00   0.40472707   0.00674688
8118.00   0.39926836   0.00689955
8120.00   0.39039427   0.00744862
8122.00   0.39203361   0.00759331
8124.00   0.40913787   0.00723063
8126.00   0.42404255   0.00696728
8128.00   0.42371294   0.00728867
8130.00   0.41503227   0.00790551
8132.00   0.41677967   0.00815775
8134.00   0.42863896   0.00833164
8136.00   0.43010101   0.00831037
8138.00   0.42174903   0.00790789
8140.00   0.41570559   0.00768016
8142.00   0.41737837   0.00792284
8144.00   0.42196873   0.00836402
8146.00   0.42102754   0.00856789
8148.00   0.41316488   0.00879099
8150.00   0.41532886   0.00871694
8152.00   0.42858413   0.00829410
8154.00   0.43547902   0.00790727
8156.00   0.43118501   0.00757118
8158.00   0.42360529   0.00729886
8160.00   0.42223847   0.00724764
8162.00   0.42211270   0.00740849
8164.00   0.42912200   0.00753621
8166.00   0.44947708   0.00778059
8168.00   0.45891204   0.00791254
8170.00   0.45546758   0.00787495
8172.00   0.44803470   0.00784741
8174.00   0.44285768   0.00799509
8176.00   0.43650463   0.00824075
8178.00   0.43516645   0.00853403
8180.00   0.43763363   0.00881413
8182.00   0.44124100   0.00929423
8184.00   0.45210972   0.01016762
8186.00   0.45645612   0.01076988
8188.00   0.44296044   0.01074134
8190.00   0.41823879   0.01032344
8192.00   0.40619251   0.01008433
8194.00   0.39969996   0.00980088
8196.00   0.39452952   0.00954339
8198.00   0.39289349   0.00933828
8200.00   0.39185855   0.00906846
8202.00   0.39118901   0.00864326
8204.00   0.39065412   0.00814045
8206.00   0.38707939   0.00779670
8208.00   0.37614200   0.00742970
8210.00   0.37932518   0.00746849
8212.00   0.39981970   0.00811283
8214.00   0.40989792   0.00839371
8216.00   0.40345398   0.00814561
8218.00   0.39147851   0.00771480
8220.00   0.38592425   0.00748088
8222.00   0.38177547   0.00715072
8224.00   0.37953785   0.00753813
8226.00   0.37858307   0.00888304
8228.00   0.38033077   0.00939314
8230.00   0.38765931   0.00909070
8232.00   0.39385685   0.00857873
8234.00   0.39183035   0.00835356
8236.00   0.38412157   0.00820858
8238.00   0.38044238   0.00796931
8240.00   0.37713808   0.00766880
8242.00   0.37552065   0.00736937
8244.00   0.37693757   0.00699593
8246.00   0.37740141   0.00669660
8248.00   0.37450469   0.00659028
8250.00   0.36969310   0.00662067
8252.00   0.36540711   0.00664144
8254.00   0.35785350   0.00673551
8256.00   0.35681808   0.00679719
8258.00   0.36228240   0.00688615
8260.00   0.36705360   0.00691966
8262.00   0.36921668   0.00685448
8264.00   0.37039605   0.00674009
8266.00   0.37131599   0.00663909
8268.00   0.37219128   0.00602884
8270.00   0.37102395   0.00690550
8272.00   0.36728081   0.00881395
8274.00   0.36425960   0.01025398
8276.00   0.36193636   0.01152960
8278.00   0.36030048   0.01248438
8280.00   0.36075026   0.01262595
8282.00   0.36486518   0.01194890
8284.00   0.35934156   0.01217895
8286.00   0.34202459   0.01317939
8288.00   0.33249182   0.01359224
8290.00   0.32869264   0.01340882
8292.00   0.33002108   0.01310740
8294.00   0.33951801   0.01305412
8296.00   0.35709852   0.01309544
8298.00   0.36087292   0.01294305
8300.00   0.35680911   0.01286161
8302.00   0.34942129   0.01229243
8304.00   0.33474329   0.01089600
8306.00   0.32038748   0.00950912
8308.00   0.30986118   0.00883598
8310.00   0.30117378   0.00861148
8312.00   0.29527485   0.00825853
8314.00   0.29007232   0.00810075
8316.00   0.29146120   0.00779917
8318.00   0.29856455   0.00721481
8320.00   0.30919883   0.00696133
8322.00   0.32676661   0.00739241
8324.00   0.34561560   0.00805026
8326.00   0.34974673   0.00824841
8328.00   0.34492138   0.00826422
8330.00   0.33291870   0.00816396
8332.00   0.30300534   0.00730368
8334.00   0.28488052   0.00747373
8336.00   0.28477529   0.00875699
8338.00   0.28872281   0.01045996
8340.00   0.28247762   0.01236922
8342.00   0.27276501   0.01468445
8344.00   0.25514311   0.01566226
8346.00   0.21331555   0.01626792
8348.00   0.20190118   0.01598416
8350.00   0.22806074   0.01426425
8352.00   0.25854537   0.01213582
8354.00   0.26916075   0.01082406
8356.00   0.27129391   0.00993253
8358.00   0.27425197   0.00922703
8360.00   0.27179950   0.00905789
8362.00   0.27388626   0.00889180
8364.00   0.28413707   0.00908260
8366.00   0.28768063   0.00905963
8368.00   0.27351663   0.00837855
8370.00   0.25044727   0.00727039
8372.00   0.24632053   0.00693212
8374.00   0.25932777   0.00700713
8376.00   0.26145935   0.00752200
8378.00   0.26562238   0.00870710
8380.00   0.25896323   0.00957325
8382.00   0.23192342   0.01015095
8384.00   0.19851045   0.01047646
8386.00   0.18670650   0.01018403
8388.00   0.18566623   0.00890002
8390.00   0.19494066   0.00872204
8392.00   0.23135386   0.00905011
8394.00   0.24583586   0.00984953
8396.00   0.23026632   0.01149353
8398.00   0.20560968   0.01285631
8400.00   0.19105726   0.01292317
8402.00   0.17708735   0.01212675
8404.00   0.17267977   0.01130502
8406.00   0.17942098   0.00946744
8408.00   0.18334386   0.00842144
8410.00   0.18730463   0.00853907
8412.00   0.18943104   0.00891271
8414.00   0.18728846   0.00898104
8416.00   0.18199398   0.00902916
8418.00   0.17714538   0.00901735
8420.00   0.16645727   0.00848042
8422.00   0.16639838   0.00897542
8424.00   0.17848688   0.01040553
8426.00   0.18887502   0.01166102
8428.00   0.19563553   0.01268447
8430.00   0.19832362   0.01351192
8432.00   0.17901079   0.01332484
8434.00   0.11903956   0.01202020
8436.00   0.10670436   0.01086904
8438.00   0.13488713   0.00894238
8440.00   0.15032531   0.00727193
8442.00   0.13526011   0.00643379
8444.00   0.11461564   0.00633400
8446.00   0.12554106   0.00681339
8448.00   0.16629194   0.00815529
8450.00   0.17519395   0.00870957
8452.00   0.16221148   0.00903885
8454.00   0.15465933   0.00923000
8456.00   0.14971241   0.00902209
8458.00   0.14982882   0.00897205
8460.00   0.16404977   0.00986822
8462.00   0.19278617   0.01139437
8464.00   0.19942300   0.01190152
8466.00   0.18990394   0.01213005
8468.00   0.18306783   0.01177031
8470.00   0.17369576   0.01041231
8472.00   0.16699108   0.00880213
8474.00   0.16831514   0.00770420
8476.00   0.17500839   0.00685892
8478.00   0.17777678   0.00623715
8480.00   0.18073601   0.00608044
8482.00   0.18092562   0.00603396
8484.00   0.18022405   0.00599178
8486.00   0.17560822   0.00647951
8488.00   0.16190545   0.00787839
8490.00   0.14497243   0.00938971
8492.00   0.14621933   0.00965753
8494.00   0.16743611   0.00880583
8496.00   0.17335413   0.00875557
8498.00   0.17050545   0.00890505
8500.00   0.17018634   0.00934417
8502.00   0.17741504   0.01039489
8504.00   0.18410486   0.01134089
8506.00   0.17645651   0.01109010
8508.00   0.15346436   0.00975554
8510.00   0.14821047   0.00881924
8512.00   0.15819141   0.00747950
8514.00   0.15991177   0.00660286
8516.00   0.14974122   0.00665737
8518.00   0.13931063   0.00694003
8520.00   0.13953000   0.00673528
8522.00   0.14649782   0.00630199
8524.00   0.15065792   0.00607359
8526.00   0.15708663   0.00585390
8528.00   0.15970488   0.00584912
8530.00   0.15596128   0.00608904
8532.00   0.15460570   0.00640329
8534.00   0.16327229   0.00672747
8536.00   0.17777991   0.00708646
8538.00   0.17959537   0.00731631
8540.00   0.17577504   0.00724419
8542.00   0.16437349   0.00766425
8544.00   0.13513841   0.00867331
8546.00   0.11655177   0.00929063
8548.00   0.12102788   0.00929659
8550.00   0.13744284   0.00894692
8552.00   0.14814031   0.00842985
8554.00   0.16315371   0.00730370
8556.00   0.16950884   0.00667577
8558.00   0.17017481   0.00639087
8560.00   0.16781177   0.00617240
8562.00   0.15952432   0.00599768
8564.00   0.15073416   0.00591273
8566.00   0.15211673   0.00591735
8568.00   0.16070366   0.00604898
8570.00   0.16901696   0.00611075
8572.00   0.18797219   0.00606989
8574.00   0.19176064   0.00621358
8576.00   0.17363107   0.00665228
8578.00   0.15357479   0.00703777
8580.00   0.15055676   0.00705882
8582.00   0.15727377   0.00682319
8584.00   0.15809847   0.00689761
8586.00   0.15679553   0.00720372
8588.00   0.15788834   0.00737452
8590.00   0.16069768   0.00750848
8592.00   0.16480616   0.00754768
8594.00   0.17153898   0.00742085
8596.00   0.17991914   0.00716626
8598.00   0.18005480   0.00699492
8600.00   0.17102440   0.00682658
8602.00   0.16748776   0.00668506
8604.00   0.16479385   0.00649311
8606.00   0.16493617   0.00644629
8608.00   0.16956495   0.00660913
8610.00   0.17671959   0.00691737
8612.00   0.18131642   0.00730833
8614.00   0.18175037   0.00767970
8616.00   0.19193311   0.00842574
8618.00   0.21780930   0.00938014
8620.00   0.23021556   0.01041994
8622.00   0.22285703   0.01178608
8624.00   0.20746216   0.01293539
8626.00   0.19561471   0.01318055
8628.00   0.17904738   0.01279652
8630.00   0.17791986   0.01236936
8632.00   0.19429523   0.01142211
8634.00   0.20242769   0.01070283
8636.00   0.20032203   0.01025756
8638.00   0.19863330   0.00990574
8640.00   0.20658076   0.00948888
8642.00   0.22092301   0.00905460
8644.00   0.22697614   0.00898006
8646.00   0.22770678   0.00918759
8648.00   0.22935081   0.00955225
8650.00   0.22981882   0.01020820
8652.00   0.23120542   0.01080178
8654.00   0.23580791   0.01122108
8656.00   0.24200603   0.01154517
8658.00   0.24261844   0.01160876
8660.00   0.23780212   0.01131370
8662.00   0.23558755   0.01120846
8664.00   0.23059641   0.01116246
8666.00   0.23137397   0.01112200
8668.00   0.24317715   0.01113025
8670.00   0.25949714   0.01111388
8672.00   0.26656389   0.01081675
8674.00   0.26998928   0.01013824
8676.00   0.26836887   0.00980360
8678.00   0.25286549   0.00956051
8680.00   0.25032079   0.00955766
8682.00   0.26932719   0.00999470
8684.00   0.29236731   0.01045279
8686.00   0.29672438   0.01037384
8688.00   0.28736809   0.00989193
8690.00   0.29322317   0.00965069
8692.00   0.31707877   0.00951064
8694.00   0.32201511   0.00928091
8696.00   0.30112717   0.00895551
8698.00   0.28044498   0.00858121
8700.00   0.28112379   0.00814765
8702.00   0.29393342   0.00762332
8704.00   0.30277628   0.00741814
8706.00   0.31991670   0.00758025
8708.00   0.32335910   0.00758875
8710.00   0.30893144   0.00752849
8712.00   0.29901984   0.00746603
8714.00   0.30602950   0.00742917
8716.00   0.32167500   0.00739983
8718.00   0.33059055   0.00734608
8720.00   0.34104082   0.00717953
8722.00   0.34377518   0.00723536
8724.00   0.33851177   0.00750037
8726.00   0.33330861   0.00773171
8728.00   0.32738084   0.00790638
8730.00   0.32314077   0.00803734
8732.00   0.33110628   0.00803315
8734.00   0.35251617   0.00777853
8736.00   0.36434081   0.00792923
8738.00   0.37776342   0.00859792
8740.00   0.38077423   0.00881295
8742.00   0.36911300   0.00837819
8744.00   0.35209003   0.00776945
8746.00   0.33957878   0.00755590
8748.00   0.32543072   0.00743429
8750.00   0.32294253   0.00798983
8752.00   0.33030519   0.00880497
8754.00   0.33986160   0.01018379
8756.00   0.35818067   0.01214581
8758.00   0.37248275   0.01395402
8760.00   0.36959958   0.01539359
8762.00   0.35495618   0.01670804
8764.00   0.35451645   0.01736835
8766.00   0.36896709   0.01730570
8768.00   0.36739701   0.01762075
8770.00   0.35004190   0.01846256
8772.00   0.33410397   0.01878648
8774.00   0.32764894   0.01798983
8776.00   0.32508382   0.01645824
8778.00   0.31868270   0.01549265
8780.00   0.29927731   0.01483805
8782.00   0.30777633   0.01386784
8784.00   0.34839466   0.01243903
8786.00   0.37598494   0.01130342
8788.00   0.37669015   0.01089139
8790.00   0.36806375   0.01085426
8792.00   0.37334341   0.01055631
8794.00   0.38689306   0.01022309
8796.00   0.39277759   0.00995138
8798.00   0.39299658   0.00963766
8800.00   0.39618868   0.00951176
8802.00   0.40336663   0.00975307
8804.00   0.41157943   0.00997732
8806.00   0.41911930   0.00969081
8808.00   0.42816722   0.00894824
8810.00   0.42770025   0.00875497
8812.00   0.41580927   0.00884507
8814.00   0.40958512   0.00910126
8816.00   0.40028298   0.00878693
8818.00   0.40240818   0.00965729
8820.00   0.43683138   0.01268013
8822.00   0.49490780   0.01631410
8824.00   0.49522221   0.01866525
8826.00   0.44656432   0.02100664
8828.00   0.41159859   0.02242626
8830.00   0.36190376   0.02374670
8832.00   0.33278695   0.02388763
8834.00   0.34671941   0.02191443
8836.00   0.38448846   0.01823592
8838.00   0.39914146   0.01575286
8840.00   0.40450773   0.01344228
8842.00   0.41261485   0.01173161
8844.00   0.42133257   0.01120874
8846.00   0.42660952   0.01094695
8848.00   0.42771712   0.01097892
8850.00   0.42553839   0.01117601
8852.00   0.41981354   0.01085908
8854.00   0.40661126   0.01006751
8856.00   0.40544283   0.00977542
8858.00   0.40927732   0.00956716
8860.00   0.42094716   0.00985824
8862.00   0.44706991   0.01085197
8864.00   0.47330931   0.01187986
8866.00   0.48339003   0.01247369
8868.00   0.48427331   0.01297105
8870.00   0.47819304   0.01275018
8872.00   0.45865220   0.01107051
8874.00   0.44372886   0.01073983
8876.00   0.42743275   0.01165835
8878.00   0.41695717   0.01302737
8880.00   0.41916752   0.01465951
8882.00   0.43056402   0.01651225
8884.00   0.43911821   0.01742590
8886.00   0.45845935   0.01816902
8888.00   0.45747930   0.01799605
8890.00   0.43031877   0.01659621
8892.00   0.41263425   0.01510091
8894.00   0.42051938   0.01387166
8896.00   0.44037470   0.01278072
8898.00   0.44969472   0.01258562
8900.00   0.45355231   0.01337966
8902.00   0.46398860   0.01399721
8904.00   0.47896808   0.01521783
8906.00   0.49405262   0.01572626
8908.00   0.51054877   0.01492800
8910.00   0.52583748   0.01385975
8912.00   0.53478253   0.01448241
8914.00   0.54432553   0.01611691
8916.00   0.52940738   0.01763612
8918.00   0.48488423   0.02035480
8920.00   0.44976085   0.02113549
8922.00   0.41755706   0.01977499
8924.00   0.39538682   0.01749009
8926.00   0.39776808   0.01539053
8928.00   0.42183867   0.01260155
8930.00   0.43072730   0.01080058
8932.00   0.43250290   0.00991426
8934.00   0.44013417   0.00975526
8936.00   0.45496351   0.01072291
8938.00   0.46808994   0.01194554
8940.00   0.47682831   0.01320954
8942.00   0.48242217   0.01455812
8944.00   0.46922809   0.01472617
8946.00   0.41945845   0.01341366
8948.00   0.41014144   0.01327665
8950.00   0.43220347   0.01345397
8952.00   0.45673522   0.01444198
8954.00   0.48128200   0.01676209
8956.00   0.50387406   0.01926226
8958.00   0.49593148   0.01989331
8960.00   0.44538358   0.01949279
8962.00   0.43946785   0.01864751
8964.00   0.46679232   0.01646533
8966.00   0.48482221   0.01445897
8968.00   0.48614600   0.01292648
8970.00   0.48321208   0.01169597
8972.00   0.48774025   0.01089493
8974.00   0.49698696   0.01073064
8976.00   0.49960625   0.01058426
8978.00   0.49633476   0.01054886
8980.00   0.49578756   0.01097830
8982.00   0.49826580   0.01190287
8984.00   0.50126344   0.01299583
8986.00   0.50294375   0.01414972
8988.00   0.50402790   0.01547121
8990.00   0.50601357   0.01591262
8992.00   0.50931352   0.01520182
8994.00   0.51102763   0.01555839
8996.00   0.51030409   0.01678818
8998.00   0.51061821   0.01811964
9000.00   0.51194561   0.01961655
9002.00   0.51467961   0.02113418
9004.00   0.53111029   0.02055859
9006.00   0.57815284   0.01726583
9008.00   0.58494186   0.01514786
9010.00   0.55606532   0.01307639
9012.00   0.53059423   0.01149567
9014.00   0.51962262   0.01093644
9016.00   0.51386517   0.01120921
9018.00   0.50839436   0.01159523
9020.00   0.50491714   0.01285313
9022.00   0.50408673   0.01285428
9024.00   0.51080912   0.01173150
9026.00   0.51039189   0.01093297
9028.00   0.49947479   0.01073667
9030.00   0.48453408   0.01079087
9032.00   0.47187141   0.01084750
9034.00   0.45623067   0.01103629
9036.00   0.45328027   0.01118800
9038.00   0.46401271   0.01130203
9040.00   0.47019821   0.01154100
9042.00   0.47307563   0.01189210
9044.00   0.47446653   0.01231931
9046.00   0.47529536   0.01287323
9048.00   0.47554171   0.01355821
9050.00   0.46916246   0.01371119
9052.00   0.45455518   0.01355617
9054.00   0.44335702   0.01314763
9056.00   0.43252188   0.01207626
9058.00   0.42372909   0.01120025
9060.00   0.41690221   0.01128259
9062.00   0.41243774   0.01187563
9064.00   0.41743833   0.01176841
9066.00   0.43925297   0.01085450
9068.00   0.44471359   0.01090841
9070.00   0.43838441   0.01198144
9072.00   0.43313211   0.01252364
9074.00   0.43174946   0.01207624
9076.00   0.43198395   0.01117960
9078.00   0.43427911   0.01077570
9080.00   0.43903345   0.01051555
9082.00   0.44386584   0.01046347
9084.00   0.45419568   0.01065734
9086.00   0.45639542   0.01094147
9088.00   0.44543174   0.01125565
9090.00   0.43173635   0.01170444
9092.00   0.42867827   0.01248318
9094.00   0.43240029   0.01365369
9096.00   0.43127951   0.01391606
9098.00   0.43320790   0.01340638
9100.00   0.42539632   0.01313364
9102.00   0.39919806   0.01315025
9104.00   0.37811807   0.01306419
9106.00   0.38429481   0.01253083
9108.00   0.40883586   0.01162983
9110.00   0.41716468   0.01109605
9112.00   0.42376196   0.01075665
9114.00   0.41966876   0.01046404
9116.00   0.39712739   0.01021130
9118.00   0.38075957   0.01012538
9120.00   0.38473651   0.01036138
9122.00   0.39921221   0.01077429
9124.00   0.40403977   0.01079431
9126.00   0.40581977   0.01033280
9128.00   0.40678355   0.01039455
9130.00   0.40455523   0.01073370
9132.00   0.40388319   0.01120114
9134.00   0.40924206   0.01201122
9136.00   0.41408750   0.01274562
9138.00   0.40297610   0.01242920
9140.00   0.37155536   0.01085696
9142.00   0.36541253   0.01035887
9144.00   0.37358078   0.01023018
9146.00   0.38707379   0.01066344
9148.00   0.41491938   0.01199093
9150.00   0.43953609   0.01325724
9152.00   0.43399456   0.01356276
9154.00   0.40520117   0.01332399
9156.00   0.38644177   0.01303345
9158.00   0.36257783   0.01236240
9160.00   0.34716499   0.01175738
9162.00   0.33938062   0.01104882
9164.00   0.33666745   0.01047842
9166.00   0.33879808   0.01035095
9168.00   0.34619287   0.01056368
9170.00   0.35016188   0.01067200
9172.00   0.35384890   0.01099413
9174.00   0.35668069   0.01098204
9176.00   0.35887539   0.01062397
9178.00   0.36020857   0.01025899
9180.00   0.35960141   0.01003174
9182.00   0.35820752   0.00986052
9184.00   0.36152783   0.00974941
9186.00   0.36877784   0.00973384
9188.00   0.37574962   0.00969812
9190.00   0.38856795   0.00967913
9192.00   0.39368469   0.00967043
9194.00   0.38604069   0.00967229
9196.00   0.37261328   0.00968357
9198.00   0.36358738   0.00970162
9200.00   0.35279301   0.00974165
9202.00   0.35023379   0.00973758
9204.00   0.35423693   0.00958777
9206.00   0.36058015   0.00965305
9208.00   0.37282515   0.01000669
9210.00   0.38405982   0.01043082
9212.00   0.38423184   0.01073888
9214.00   0.37588260   0.01102328
9216.00   0.37377104   0.01124237
9218.00   0.37202820   0.01144466
9220.00   0.37396395   0.01153629
9222.00   0.38445151   0.01153099
9224.00   0.39072838   0.01143754
9226.00   0.38217291   0.01124051
9228.00   0.36390376   0.01093894
9230.00   0.35205778   0.01065552
9232.00   0.34076095   0.01033908
9234.00   0.33104211   0.01000792
9236.00   0.32260251   0.00954152
9238.00   0.31557733   0.00923192
9240.00   0.30959219   0.00926140
9242.00   0.30513370   0.00949304
9244.00   0.30454430   0.00964589
9246.00   0.30985293   0.00993030
9248.00   0.31071040   0.00995783
9250.00   0.30744490   0.00969193
9252.00   0.30779150   0.00956322
9254.00   0.31424528   0.00968493
9256.00   0.32309520   0.00990208
9258.00   0.32961848   0.01006495
9260.00   0.33741122   0.01030066
9262.00   0.33806047   0.01027760
9264.00   0.33054164   0.00995230
9266.00   0.32574019   0.00975661
9268.00   0.32330182   0.00960739
9270.00   0.32235533   0.00963278
9272.00   0.32332152   0.01005909
9274.00   0.32626635   0.01080004
9276.00   0.32890743   0.01133962
9278.00   0.33035338   0.01205149
9280.00   0.33576068   0.01231606
9282.00   0.34817091   0.01194632
9284.00   0.35816222   0.01170251
9286.00   0.35770279   0.01212902
9288.00   0.35099980   0.01290499
9290.00   0.35532314   0.01354984
9292.00   0.37548426   0.01404990
9294.00   0.37583792   0.01497347
9296.00   0.35837978   0.01543957
9298.00   0.34146231   0.01722647
9300.00   0.32634109   0.02017844
9302.00   0.31488258   0.02388946
9304.00   0.33130455   0.02895668
9306.00   0.42051437   0.03417790
9308.00   0.38192308   0.04057742
9310.00   0.22040507   0.04922075
9312.00   0.09269944   0.05477802
9314.00   -0.00671718   0.05810722
9316.00   -0.05952940   0.05942174
9318.00   0.02493621   0.05699246
9320.00   0.26949409   0.04924136
9322.00   0.36127615   0.04542157
9324.00   0.36902538   0.04415309
9326.00   0.38185129   0.04217945
9328.00   0.38236916   0.03884956
9330.00   0.39161229   0.03591114
9332.00   0.45192504   0.03555834
9334.00   0.55751079   0.03727473
9336.00   0.56776989   0.03795852
9338.00   0.49380451   0.03942323
9340.00   0.44779760   0.03917993
9342.00   0.41293392   0.03724388
9344.00   0.38026696   0.03446947
9346.00   0.33787885   0.03082388
9348.00   0.29347697   0.02588454
9350.00   0.31716338   0.02323893
9352.00   0.44784582   0.02326532
9354.00   0.47479439   0.02264396
9356.00   0.42377618   0.02240099
9358.00   0.37347817   0.02224292
9360.00   0.34109217   0.02142753
9362.00   0.31691960   0.02091066
9364.00   0.32317206   0.02337514
9366.00   0.37824851   0.02314852
9368.00   0.37841991   0.03473080
9370.00   0.30804265   0.05142874
9372.00   0.30149293   0.06253108
9374.00   0.41278234   0.07125046
9376.00   0.54355258   0.07736503
9378.00   0.55365175   0.07838644
9380.00   0.48032567   0.07575183
9382.00   0.43874392   0.06977375
9384.00   0.38112342   0.05443663
9386.00   0.34171611   0.04070796
9388.00   0.31631187   0.02985424
9390.00   0.30650944   0.02065875
9392.00   0.32086369   0.01431555
9394.00   0.35902804   0.01682558
9396.00   0.37568721   0.01691012
9398.00   0.38718042   0.01887444
9400.00   0.38962680   0.02093233
9402.00   0.37962753   0.02448004
9404.00   0.36749294   0.02643938
9406.00   0.35789335   0.02506788
9408.00   0.34836736   0.02137009
9410.00   0.34309247   0.02027236
9412.00   0.33923349   0.02009096
9414.00   0.34131640   0.02141493
9416.00   0.35446665   0.02497390
9418.00   0.36151990   0.02742575
9420.00   0.35462520   0.02837243
9422.00   0.34241784   0.02853791
9424.00   0.34080556   0.02806744
9426.00   0.34684330   0.02629575
9428.00   0.34791213   0.02550207
9430.00   0.36132810   0.02297224
9432.00   0.34819147   0.02466868
9434.00   0.29400083   0.03124962
9436.00   0.22727457   0.03829129
9438.00   0.17957202   0.04373446
9440.00   0.12458008   0.04979529
9442.00   0.14226575   0.05089079
9444.00   0.25639302   0.04844213
9446.00   0.31640193   0.04469438
9448.00   0.32215655   0.03657721
9450.00   0.31372908   0.02765191
9452.00   0.31710839   0.02592222
9454.00   0.32085863   0.02988948
9456.00   0.31057301   0.03319531
9458.00   0.27584487   0.04038367
9460.00   0.26567060   0.04199039
9462.00   0.26985744   0.03887974
9464.00   0.28842515   0.03491695
9466.00   0.33080056   0.03168175
9468.00   0.38857710   0.02842276
9470.00   0.40875977   0.02883458
9472.00   0.41444895   0.03305694
9474.00   0.39173836   0.03591383
9476.00   0.31546137   0.03993629
9478.00   0.26502663   0.04208783
9480.00   0.26688230   0.04203513
9482.00   0.29207972   0.04032717
9484.00   0.30278116   0.03653517
9486.00   0.31397319   0.02747490
9488.00   0.32398677   0.02224966
9490.00   0.34120756   0.01956075
9492.00   0.34270078   0.01943327
9494.00   0.31744558   0.02214976
9496.00   0.28844374   0.02650807
9498.00   0.28452450   0.03194852
9500.00   0.29422250   0.03920800
9502.00   0.31230968   0.04021368
9504.00   0.35546729   0.03649832
9506.00   0.37750927   0.03301530
9508.00   0.38818091   0.02830287
9510.00   0.37905398   0.02341289
9512.00   0.32927775   0.02062267
9514.00   0.24406038   0.01971695
9516.00   0.22797324   0.01986994
9518.00   0.26025158   0.02239629
9520.00   0.29325733   0.02385549
9522.00   0.35884765   0.02523050
9524.00   0.40252745   0.02612354
9526.00   0.38884282   0.02635221
9528.00   0.34415486   0.02608427
9530.00   0.33464164   0.02541432
9532.00   0.34898272   0.02396939
9534.00   0.34451193   0.02269347
9536.00   0.33345836   0.02071283
9538.00   0.31663761   0.01956243
9540.00   0.28872991   0.01953213
9542.00   0.25851494   0.02061863
9544.00   0.24758224   0.02340490
9546.00   0.24890570   0.02809159
9548.00   0.25619301   0.03020261
9550.00   0.27852672   0.03179839
9552.00   0.29492244   0.03200085
9554.00   0.30141252   0.02990833
9556.00   0.30787754   0.02725415
9558.00   0.32615045   0.02652368
9560.00   0.35527191   0.02637108
9562.00   0.36471373   0.02979420
9564.00   0.37119848   0.03723115
9566.00   0.35352951   0.04113776
9568.00   0.29244840   0.04401030
9570.00   0.24027701   0.04454436
9572.00   0.23927180   0.04041569
9574.00   0.26962209   0.03106374
9576.00   0.28818783   0.02527682
9578.00   0.32198855   0.02132069
9580.00   0.33112586   0.01815400
9582.00   0.31634733   0.01776172
9584.00   0.29961237   0.01812238
9586.00   0.28883043   0.01847907
9588.00   0.27909291   0.01919236
9590.00   0.27139774   0.01931992
9592.00   0.26369518   0.01905398
9594.00   0.26186568   0.01895963
9596.00   0.26658279   0.01876495
9598.00   0.27110904   0.01876051
9600.00   0.27332541   0.01877926
9602.00   0.27613452   0.01913376
9604.00   0.28366306   0.02067686
9606.00   0.29561499   0.02357511
9608.00   0.30567163   0.02441270
9610.00   0.31395224   0.02428072
9612.00   0.32592106   0.02358586
9614.00   0.34876499   0.02145869
9616.00   0.36680782   0.01934572
9618.00   0.35858434   0.01995369
9620.00   0.32785973   0.02253626
9622.00   0.32139304   0.02321893
9624.00   0.33052158   0.02351767
9626.00   0.33459425   0.02293744
9628.00   0.33899507   0.02076567
9630.00   0.33876523   0.01848511
9632.00   0.32893574   0.01749982
9634.00   0.31197444   0.01731794
9636.00   0.29451934   0.01783827
9638.00   0.26420939   0.01994459
9640.00   0.25406590   0.02057910
9642.00   0.26230890   0.02042526
9644.00   0.27257907   0.01987491
9646.00   0.28198323   0.01876739
9648.00   0.29097423   0.01724615
9650.00   0.28595755   0.01672718
9652.00   0.25670496   0.01698910
9654.00   0.25842223   0.01723158
9656.00   0.28427741   0.01751274
9658.00   0.30709076   0.01830265
9660.00   0.32385081   0.01972064
9662.00   0.33784497   0.02138157
9664.00   0.34753826   0.02295256
9666.00   0.35472938   0.02494988
9668.00   0.35348484   0.02542946
9670.00   0.34375826   0.02461861
9672.00   0.33123702   0.02391079
9674.00   0.30931219   0.02299455
9676.00   0.29118988   0.02230465
9678.00   0.29434967   0.02268907
9680.00   0.31415886   0.02394389
9682.00   0.32048407   0.02422317
9684.00   0.31983930   0.02408527
9686.00   0.32294533   0.02375262
9688.00   0.33284330   0.02286109
9690.00   0.33768615   0.02214758
9692.00   0.32162714   0.02208734
9694.00   0.29339540   0.02245259
9696.00   0.31910083   0.02350684
9698.00   0.43678311   0.02613605
9700.00   0.44470304   0.02675241
9702.00   0.34784624   0.02586049
9704.00   0.26893091   0.02479685
9706.00   0.24769311   0.02384558
9708.00   0.25447157   0.02289386
9710.00   0.27799648   0.02269275
9712.00   0.36535519   0.02278139
9714.00   0.35510123   0.02392387
9716.00   0.25637400   0.02542375
9718.00   0.18115096   0.02813586
9720.00   0.13153346   0.03361000
9722.00   0.10853495   0.03795100
9724.00   0.15088788   0.03613289
9726.00   0.27384451   0.02743232
9728.00   0.31109792   0.02342961
9730.00   0.29474968   0.02197010
9732.00   0.28600568   0.02153678
9734.00   0.28337222   0.02303612
9736.00   0.27795169   0.02484935
9738.00   0.26419830   0.02557210
9740.00   0.24246912   0.02599420
9742.00   0.23670770   0.02539079
9744.00   0.24509849   0.02316646
9746.00   0.24819534   0.02164851
9748.00   0.24425685   0.02060386
9750.00   0.24645835   0.01975439
9752.00   0.26716584   0.01899873
9754.00   0.29872388   0.01842115
9756.00   0.30289999   0.01806060
9758.00   0.27979437   0.01811051
9760.00   0.27381331   0.01795056
9762.00   0.28288642   0.01782953
9764.00   0.28099447   0.01751826
9766.00   0.24947752   0.01675857
9768.00   0.21015793   0.01581495
9770.00   0.21782930   0.01558270
9772.00   0.27051604   0.01592501
9774.00   0.29469165   0.01618017
9776.00   0.31432992   0.01621923
9778.00   0.32452524   0.01696406
9780.00   0.31914425   0.01828136
9782.00   0.30972487   0.02014804
9784.00   0.31724632   0.02274109
9786.00   0.34342274   0.02582731
9788.00   0.32836387   0.02874802
9790.00   0.27029482   0.03301165
9792.00   0.23237117   0.03461657
9794.00   0.21614473   0.03352602
9796.00   0.20318438   0.03147537
9798.00   0.17653203   0.02977460
9800.00   0.14037918   0.02766900
9802.00   0.14445499   0.02626569
9804.00   0.20141490   0.02551245
9806.00   0.21764505   0.02469112
9808.00   0.19608389   0.02352731
9810.00   0.17585362   0.02309445
9812.00   0.17691559   0.02454133
9814.00   0.18741152   0.02687976
9816.00   0.19393821   0.02667057
9818.00   0.19350938   0.02395615
9820.00   0.21206392   0.02258684
9822.00   0.26015601   0.02168359
9824.00   0.28982031   0.02096951
9826.00   0.28240880   0.02048201
9828.00   0.25790793   0.02015820
9830.00   0.24717185   0.01958488
9832.00   0.23809214   0.01877707
9834.00   0.23194569   0.01826824
9836.00   0.23651889   0.01762901
9838.00   0.22814867   0.01768561
9840.00   0.18283127   0.01845122
9842.00   0.14786214   0.01979061
9844.00   0.20086931   0.02182916
9846.00   0.33984458   0.02473255
9848.00   0.37349677   0.02581227
9850.00   0.33629611   0.02601505
9852.00   0.31004125   0.02568206
9854.00   0.28413898   0.02438078
9856.00   0.26008913   0.02286324
9858.00   0.24315147   0.02171639
9860.00   0.23009440   0.02056854
9862.00   0.23300685   0.02148967
9864.00   0.26263645   0.02370779
9866.00   0.27126172   0.02673561
9868.00   0.26735482   0.03127796
9870.00   0.25501671   0.03478768
9872.00   0.22864132   0.03689921
9874.00   0.19401363   0.03814204
9876.00   0.19195490   0.03723488
9878.00   0.22066528   0.03300139
9880.00   0.23683791   0.03024642
9882.00   0.25237018   0.02709259
9884.00   0.26865375   0.02501010
9886.00   0.29468712   0.02446802
9888.00   0.31643453   0.02550721
9890.00   0.29568610   0.02873258
9892.00   0.22544482   0.03500784
9894.00   0.19964346   0.03656323
9896.00   0.19914913   0.03576942
9898.00   0.19562702   0.03411153
9900.00   0.18191414   0.03037605
9902.00   0.17404458   0.02614183
9904.00   0.19228572   0.02531337
9906.00   0.23440926   0.02681751
9908.00   0.25641468   0.02942768
9910.00   0.28263468   0.03431067
9912.00   0.28173563   0.03753506
9914.00   0.23978679   0.04043304
9916.00   0.19885796   0.04196418
9918.00   0.19337180   0.04093297
9920.00   0.20775518   0.03773054
9922.00   0.21078633   0.03513350
9924.00   0.21033140   0.03130341
9926.00   0.21533166   0.02867255
9928.00   0.22301301   0.02636737
9930.00   0.23535830   0.02597929
9932.00   0.26350185   0.02841834
9934.00   0.29595202   0.03254182
9936.00   0.27426711   0.03682399
9938.00   0.18818694   0.04229425
9940.00   0.14482118   0.04626824
9942.00   0.11260876   0.05016802
9944.00   0.09133146   0.05294955
9946.00   0.08256506   0.05440189
9948.00   0.08367890   0.05513118
9950.00   0.08668938   0.05588419
9952.00   0.08270791   0.05621982
9954.00   0.12633155   0.05688529
9956.00   0.25227964   0.05857747
9958.00   0.30854532   0.05854658
9960.00   0.26981509   0.05567846
9962.00   0.20275545   0.05230619
9964.00   0.16626723   0.05184521
9966.00   0.12752031   0.05354945
9968.00   0.14134498   0.05275691
9970.00   0.24017791   0.05100463
9972.00   0.26776940   0.04797174
9974.00   0.21490742   0.04190513
9976.00   0.15846789   0.03565350
9978.00   0.14836016   0.03311517
9980.00   0.15992279   0.03336880
9982.00   0.17398465   0.03227293
9984.00   0.21496522   0.03116512
9986.00   0.22463946   0.03035452
9988.00   0.20105562   0.02974266
9990.00   0.18479688   0.02946980
9992.00   0.19789529   0.02928841
9994.00   0.22229522   0.02952979
9996.00   0.21794577   0.03177615
9998.00   0.17454185   0.03593386
10000.00   0.18021457   0.03895449
10002.00   0.21494415   0.04177931
10004.00   0.26144496   0.04451005
10006.00   0.34515101   0.04669666
10008.00   0.42063934   0.04919041
10010.00   0.37924165   0.05384749
10012.00   0.22519976   0.06128505
10014.00   0.14579491   0.06286438
10016.00   0.07153515   0.06036572
10018.00   0.03566244   0.05767867
10020.00   0.05516175   0.05405823
10022.00   0.08986317   0.05028151
10024.00   0.09332056   0.04826191
10026.00   0.08015763   0.04757015
10028.00   0.10109897   0.04651552
10030.00   0.15978017   0.04589424
10032.00   0.19278820   0.04501523
10034.00   0.20799825   0.04411275
10036.00   0.21143623   0.04286768
10038.00   0.19924389   0.04061842
10040.00   0.17311139   0.03751726
10042.00   0.17496136   0.03679649
10044.00   0.19569516   0.03901608
10046.00   0.21748568   0.03907217
10048.00   0.25955832   0.03744813
10050.00   0.28300077   0.03614905
10052.00   0.26306242   0.03575296
10054.00   0.22333288   0.03602698
10056.00   0.22317551   0.03779954
10058.00   0.26540065   0.04175590
10060.00   0.25915834   0.04347881
10062.00   0.19538763   0.04437625
10064.00   0.17639717   0.04466947
10066.00   0.23881963   0.04391352
10068.00   0.32393599   0.04291161
10070.00   0.34990352   0.04329904
10072.00   0.35400948   0.04420959
10074.00   0.31429070   0.04658308
10076.00   0.18076211   0.05109804
10078.00   0.12383048   0.05407981
10080.00   0.16545813   0.05605809
10082.00   0.22911727   0.05707203
10084.00   0.24823472   0.05678769
10086.00   0.24983704   0.05535985
10088.00   0.26363435   0.05274151
10090.00   0.29228562   0.04672204
10092.00   0.29645556   0.04326644
10094.00   0.28049284   0.04224619
10096.00   0.25077516   0.04262482
10098.00   0.20009418   0.04424823
10100.00   0.13305746   0.04701986
10102.00   0.12062451   0.04832825
10104.00   0.18406966   0.04956392
10106.00   0.17089444   0.04939519
10108.00   0.08464154   0.04754682
10110.00   0.02034444   0.04557030
10112.00   0.01538159   0.04261955
10114.00   0.03676586   0.04009033
10116.00   0.03730830   0.04491581
10118.00   0.01518682   0.05407904
10120.00   0.04475510   0.06311523
10122.00   0.11549144   0.07802793
10124.00   0.19353288   0.08359619
10126.00   0.30404484   0.07735088
10128.00   0.39938787   0.06550791
10130.00   0.37636432   0.05901909
10132.00   0.23358062   0.05406227
10134.00   0.20978744   0.05075446
10136.00   0.26653528   0.05006184
10138.00   0.29217562   0.05054551
10140.00   0.29575735   0.05277519
10142.00   0.28087038   0.05560327
10144.00   0.22669131   0.05814412
10146.00   0.12895118   0.06096673
10148.00   0.14806373   0.06205898
10150.00   0.28159198   0.06085024
10152.00   0.36762315   0.06158361
10154.00   0.44233435   0.06403194
10156.00   0.49249217   0.06656999
10158.00   0.51484478   0.06885367
10160.00   0.50962150   0.07102282
10162.00   0.42299306   0.07091314
10164.00   0.17613570   0.06531008
10166.00   0.09495023   0.06746063
10168.00   0.15585738   0.07643699
10170.00   0.18695073   0.08341594
10172.00   0.12225100   0.08780561
10174.00   0.02684916   0.09033026
10176.00   -0.00447352   0.08780453
10178.00   -0.03595604   0.07604019
10180.00   0.04500474   0.07468720
10182.00   0.30372766   0.08155605
10184.00   0.45411164   0.08655865
10186.00   0.46196234   0.09056097
10188.00   0.39249420   0.09266772
10190.00   0.27047095   0.08895785
10192.00   0.02804897   0.07832894
10194.00   0.00490989   0.07295270
10196.00   0.22041161   0.06930475
10198.00   0.28646567   0.06793612
10200.00   0.18512988   0.06908900
10202.00   0.05312877   0.07235341
10204.00   -0.02935699   0.07788559
10206.00   -0.11017016   0.08548191
10208.00   -0.04640865   0.08913442
10210.00   0.28739458   0.09189396
10212.00   0.33589786   0.09167771
10214.00   0.05530804   0.08705819
10216.00   -0.16293253   0.08239055
10218.00   -0.09920271   0.08014414
10220.00   0.10949949   0.07913248
10222.00   0.22550245   0.07965229
10224.00   0.40384170   0.08292575
10226.00   0.40867952   0.08438157
10228.00   0.21129012   0.08510680
10230.00   0.06859595   0.08572730
10232.00   0.05817052   0.08755132
10234.00   0.10309740   0.08866148
10236.00   0.12557355   0.08370789
10238.00   0.16639104   0.06955987
10240.00   0.18000641   0.06281094
10242.00   0.18478739   0.06143832
10244.00   0.16780671   0.06027988
10246.00   0.09779516   0.05906016
10248.00   0.03658432   0.05855931
10250.00   0.07956092   0.05897609
10252.00   0.20576951   0.06050970
10254.00   0.29129317   0.06125540
10256.00   0.37871417   0.06138535
10258.00   0.45925602   0.06227627
10260.00   0.55480635   0.06391633
10262.00   0.61790591   0.06583782
10264.00   0.59533137   0.06780695
10266.00   0.50587285   0.06993954
10268.00   0.47694463   0.07183564
10270.00   0.48982257   0.07321040
10272.00   0.46588978   0.07545732
10274.00   0.43432322   0.07499242
10276.00   0.36403978   0.08002796
10278.00   0.21294582   0.09457447
10280.00   0.01683549   0.11209688
10282.00   -0.06308924   0.12333982
10284.00   -0.06494118   0.13346826
10286.00   -0.05599744   0.14047572
10288.00   0.00297890   0.14784877
10290.00   0.05773814   0.14919589
10292.00   0.09025791   0.14057815
10294.00   0.12176482   0.12638488
10296.00   0.18740380   0.11866339
10298.00   0.32433498   0.11473251
10300.00   0.31011209   0.10877945
10302.00   0.11693471   0.10083949
10304.00   0.02657590   0.09585503
10306.00   0.10774092   0.09487695
10308.00   0.20186454   0.09651428
10310.00   0.10786957   0.10050296
10312.00   -0.15719585   0.10867817
10314.00   -0.10491031   0.10650515
10316.00   0.27215225   0.09211963
10318.00   0.46300653   0.08363143
10320.00   0.49551073   0.08144698
10322.00   0.47156855   0.08200047
10324.00   0.43214068   0.08390848
10326.00   0.35379294   0.08789585
10328.00   0.32225844   0.08910325
10330.00   0.31450552   0.08847753
10332.00   0.31033158   0.08858436
10334.00   0.33576858   0.08882536
10336.00   0.33572066   0.08924062
10338.00   0.27475327   0.08949365
10340.00   0.18109202   0.08997627
10342.00   0.12707734   0.09277844
10344.00   0.05040550   0.09701546
10346.00   0.07489927   0.10240394
10348.00   0.20902929   0.11271843
10350.00   0.32761684   0.11688416
10352.00   0.41917410   0.11141974
10354.00   0.48852032   0.10129922
10356.00   0.49752894   0.09602352
10358.00   0.45212814   0.09216940
10360.00   0.39427209   0.08996765
10362.00   0.24803299   0.08691542
10364.00   0.19929014   0.09075083
10366.00   0.27276787   0.10206421
10368.00   0.39728251   0.11565232
10370.00   0.53816396   0.12986127
10372.00   0.75923359   0.14760983
10374.00   0.67861408   0.14794078
10376.00   0.21446963   0.13022840
10378.00   0.00933698   0.11823362
10380.00   0.04730795   0.10977016
10382.00   0.13150404   0.10365953
10384.00   0.16099574   0.10102998
10386.00   0.18832730   0.10190955
10388.00   0.14858854   0.10080028
10390.00   0.00058245   0.09855050
10392.00   -0.04785516   0.09855650
10394.00   -0.02587455   0.10123954
10396.00   0.01322595   0.10334540
10398.00   0.06432752   0.10404287
10400.00   0.12389432   0.10380688
10402.00   0.12520096   0.10137018
10404.00   0.04968225   0.09375482
10406.00   0.05105995   0.09254077
10408.00   0.06091719   0.09433879
10410.00   0.14263263   0.09938695
10412.00   0.36673436   0.10916830
10414.00   0.61593956   0.11956307
10416.00   0.66227257   0.12487699
10418.00   0.55298918   0.12879750
10420.00   0.50222635   0.12749991
10422.00   0.43225479   0.11929944
10424.00   0.37560743   0.11203831
10426.00   0.31985343   0.10518340
10428.00   0.28658193   0.09896466
10430.00   0.31675309   0.09516846
10432.00   0.41035452   0.09372740
10434.00   0.40553865   0.09133233
10436.00   0.30725083   0.08884995
10438.00   0.26671445   0.08702689
10440.00   0.28535935   0.08560638
10442.00   0.29870310   0.08502359
10444.00   0.26631558   0.08575424
10446.00   0.20925778   0.08753414
10448.00   0.16459651   0.08906411
10450.00   0.06285674   0.09205259
10452.00   0.09044161   0.09231021
10454.00   0.30023748   0.08962334
10456.00   0.43012828   0.08731097
10458.00   0.36053225   0.08590044
10460.00   0.19534014   0.08548968
10462.00   0.11065728   0.08929724
10464.00   0.01841309   0.09727601
10466.00   0.00234640   0.10332948
10468.00   0.09491560   0.11304026
10470.00   0.13317838   0.11580910
10472.00   0.06245149   0.10745900
10474.00   -0.02771287   0.09440847
10476.00   -0.00969644   0.09034660
10478.00   0.09012387   0.09272452
10480.00   0.13979335   0.09085877
10482.00   0.18484162   0.08722748
10484.00   0.21306010   0.08419270
10486.00   0.21931385   0.08159740
10488.00   0.21695672   0.07948503
10490.00   0.21267012   0.07812442
10492.00   0.19674641   0.07740963
10494.00   0.23771293   0.07777448
10496.00   0.35588944   0.07969879
10498.00   0.41529173   0.08114871
10500.00   0.43407530   0.08254120
10502.00   0.42807949   0.08377405
10504.00   0.38486689   0.08423676
10506.00   0.31317711   0.08433475
10508.00   0.33868197   0.08759009
10510.00   0.52816719   0.09672949
10512.00   0.51407194   0.09764443
10514.00   0.29330429   0.09057737
10516.00   0.12993442   0.08485966
10518.00   0.12875356   0.08476401
10520.00   0.19352010   0.08707201
10522.00   0.18116961   0.08794648
10524.00   0.11674208   0.08939402
10526.00   0.11124963   0.08924230
10528.00   0.15251587   0.08741921
10530.00   0.17955047   0.08597248
10532.00   0.18275611   0.08531544
10534.00   0.17859909   0.08478183
10536.00   0.17988965   0.08363646
10538.00   0.17875411   0.08189380
10540.00   0.18979231   0.08105981
10542.00   0.22539037   0.08082061
10544.00   0.23404364   0.08074839
10546.00   0.19830388   0.08105790
10548.00   0.16815296   0.08137005
10550.00   0.19748290   0.08114617
10552.00   0.27045453   0.08050605
10554.00   0.27490455   0.08101872
10556.00   0.20239510   0.08281348
10558.00   0.19899788   0.08375333
10560.00   0.29631457   0.08432414
10562.00   0.34584573   0.08439871
10564.00   0.23251551   0.08347902
10566.00   0.02976413   0.08190649
10568.00   0.00450706   0.08225428
10570.00   0.12373896   0.08462337
10572.00   0.18221140   0.08558398
10574.00   0.25890434   0.08589160
10576.00   0.29135394   0.08608595
10578.00   0.23783676   0.08617774
10580.00   0.14840946   0.08623999
10582.00   0.13707277   0.08682003
10584.00   0.18384665   0.08810911
10586.00   0.19437082   0.08846157
10588.00   0.18409063   0.08776160
10590.00   0.19119798   0.08780876
10592.00   0.22987998   0.08948661
10594.00   0.27244338   0.09103890
10596.00   0.28204092   0.08991872
10598.00   0.26940033   0.08622921
10600.00   0.26264784   0.08542542
10602.00   0.26672250   0.08735529
10604.00   0.23916773   0.08732589
10606.00   0.15950666   0.08481832
10608.00   0.08494339   0.08212815
10610.00   0.06311105   0.08126081
10612.00   0.07179667   0.08142444
10614.00   0.10514367   0.08121186
10616.00   0.19071977   0.08108248
10618.00   0.24636297   0.08108439
10620.00   0.29682624   0.08127019
10622.00   0.32258359   0.08148243
10624.00   0.30193418   0.08166131
10626.00   0.25104895   0.08183675
10628.00   0.23753452   0.08191966
10630.00   0.25991857   0.08226353
10632.00   0.24192394   0.08178826
10634.00   0.19848421   0.08049157
10636.00   0.14759810   0.07916494
10638.00   0.08639509   0.07786144
10640.00   0.02207344   0.07662906
10642.00   -0.01854526   0.07605883
10644.00   -0.05888629   0.07620364
10646.00   -0.04361066   0.07595214
10648.00   0.03672697   0.07559628
10650.00   0.10534131   0.07527414
10652.00   0.17031802   0.07502184
10654.00   0.21916500   0.07476285
10656.00   0.21670292   0.07443824
10658.00   0.16778634   0.07413798
10660.00   0.13880934   0.07342639
10662.00   0.08781049   0.07199841
10664.00   0.07826034   0.07118261
10666.00   0.12652542   0.07106195
10668.00   0.17604603   0.07109316
10670.00   0.18768427   0.07099286
10672.00   0.18159215   0.07093362
10674.00   0.13453704   0.07019723
10676.00   -0.02036903   0.06816465
10678.00   -0.04144849   0.06755264
10680.00   0.06194928   0.06820406
10682.00   0.17896456   0.06906825
10684.00   0.28789285   0.06980663
10686.00   0.39203766   0.07059160
10688.00   0.35644919   0.07102152
10690.00   0.13279815   0.07104590
10692.00   0.04944754   0.07134821
10694.00   0.00530200   0.07241227
10696.00   0.01420742   0.07235003
10698.00   0.10006153   0.06994849
10700.00   0.22594723   0.06677885
10702.00   0.31028092   0.06650630
10704.00   0.39846194   0.06886354
10706.00   0.43015695   0.06894953
10708.00   0.42403761   0.06747771
10710.00   0.37988979   0.06679665
10712.00   0.26765910   0.06728674
10714.00   0.14844215   0.06802053
10716.00   0.10094257   0.06825966
10718.00   0.08948627   0.06851842
10720.00   0.12647291   0.06739695
10722.00   0.27828857   0.06385824
10724.00   0.32665917   0.06227258
10726.00   0.25132591   0.06306829
10728.00   0.17337078   0.06403053
10730.00   0.17880754   0.06383232
10732.00   0.22680920   0.06315044
10734.00   0.25344187   0.06157065
10736.00   0.30278635   0.05810924
10738.00   0.30254841   0.05610327
10740.00   0.24920979   0.05371756
10742.00   0.19486599   0.05397835
10744.00   0.14694759   0.05973141
10746.00   0.10692921   0.06732851
10748.00   0.14296232   0.06837910
10750.00   0.30021867   0.06503814
10752.00   0.33513203   0.06180378
10754.00   0.30749455   0.05553575
10756.00   0.25193277   0.05012484
10758.00   0.12894543   0.04666070
10760.00   0.00915004   0.04480523
10762.00   0.07233704   0.04523475
10764.00   0.32208458   0.04901070
10766.00   0.40769410   0.04984463
10768.00   0.39949271   0.04889933
10770.00   0.41162193   0.04874240
10772.00   0.45904231   0.05010359
10774.00   0.49699616   0.05113601
10776.00   0.47792447   0.04983314
10778.00   0.40894580   0.04657015
10780.00   0.40207750   0.04445148
10782.00   0.45697397   0.04225750
10784.00   0.46053505   0.04073762
10786.00   0.40815082   0.04043610
10788.00   0.35336977   0.03999789
10790.00   0.32771710   0.03813103
10792.00   0.31504264   0.03529309
10794.00   0.31553939   0.03443085
10796.00   0.35332575   0.03548502
10798.00   0.34913123   0.03571501
10800.00   0.29829770   0.03600209
10802.00   0.26314539   0.03579329
10804.00   0.26870137   0.03456748
10806.00   0.29627511   0.03274937
10808.00   0.32677472   0.03192072
10810.00   0.37853298   0.03172391
10812.00   0.41082922   0.03154924
10814.00   0.44663292   0.03168461
10816.00   0.45555243   0.03184849
10818.00   0.42224425   0.03183194
10820.00   0.37135667   0.03198149
10822.00   0.34491998   0.03292894
10824.00   0.33777180   0.03457857
10826.00   0.29163972   0.03584224
10828.00   0.17951988   0.03750029
10830.00   0.13646774   0.03825855
10832.00   0.18899275   0.03804393
10834.00   0.25941247   0.03732165
10836.00   0.26756772   0.03639853
10838.00   0.23701842   0.03502033
10840.00   0.28198922   0.03393193
10842.00   0.42046967   0.03251120
10844.00   0.47760683   0.03196998
10846.00   0.45291656   0.03232604
10848.00   0.42018598   0.03312150
10850.00   0.42059398   0.03448552
10852.00   0.43238071   0.03626518
10854.00   0.44469759   0.03579507
10856.00   0.48431763   0.03291623
10858.00   0.47535726   0.03094890
10860.00   0.39394853   0.02879603
10862.00   0.35403141   0.02716708
10864.00   0.42969736   0.02682441
10866.00   0.54485387   0.02712616
10868.00   0.50649321   0.02609961
10870.00   0.31340504   0.02343533
10872.00   0.24015297   0.02262415
10874.00   0.21018586   0.02264838
10876.00   0.20655978   0.02377396
10878.00   0.22997877   0.02708175
10880.00   0.27837020   0.03000014
10882.00   0.34908891   0.02891655
