# File created by shivutils (I.Shivvers)
# wl(A)   flm    er(optional)
3638.00   0.09435495   0.03661626
3640.00   0.06525625   0.03690759
3642.00   -0.00200611   0.03814522
3644.00   0.03248104   0.03824118
3646.00   0.07011783   0.04731010
3648.00   0.05945631   0.05780785
3650.00   -0.06950410   0.05695964
3652.00   -0.02321552   0.05050293
3654.00   0.08627999   0.04751379
3656.00   0.05968376   0.04054828
3658.00   0.08072984   0.03918016
3660.00   0.02008710   0.04381716
3662.00   0.00967887   0.04608642
3664.00   0.02770026   0.03907738
3666.00   0.09390742   0.03493360
3668.00   0.07165895   0.03365469
3670.00   0.02569236   0.03405837
3672.00   -0.00201611   0.03295044
3674.00   0.06404777   0.03324074
3676.00   0.06973036   0.03255801
3678.00   0.01611092   0.03166705
3680.00   0.05937682   0.03217556
3682.00   0.01504528   0.03157826
3684.00   0.05270056   0.03119595
3686.00   0.10355461   0.03209017
3688.00   -0.00206874   0.03065827
3690.00   0.05661527   0.03157379
3692.00   0.08400172   0.03221793
3694.00   -0.01318387   0.03127192
3696.00   0.04392815   0.03204419
3698.00   0.04704540   0.03291141
3700.00   0.02076986   0.03278218
3702.00   0.05050398   0.03288018
3704.00   0.08900833   0.03151881
3706.00   0.04390575   0.03036449
3708.00   0.01969926   0.03003545
3710.00   0.04897823   0.03081359
3712.00   0.03677083   0.03089192
3714.00   0.06859195   0.03097728
3716.00   0.07044925   0.03053230
3718.00   0.03617629   0.02967921
3720.00   0.02950568   0.02864320
3722.00   0.05933333   0.03008255
3724.00   0.09162531   0.03169315
3726.00   0.07396745   0.03183876
3728.00   0.06164512   0.03151702
3730.00   0.02089946   0.03018911
3732.00   0.02729053   0.02990905
3734.00   0.05294989   0.03001202
3736.00   0.06314510   0.03033578
3738.00   0.09475556   0.03149820
3740.00   0.05314219   0.03046186
3742.00   0.11830887   0.03077704
3744.00   0.08771524   0.02982312
3746.00   0.02625171   0.02863303
3748.00   0.01907181   0.02805453
3750.00   0.00612668   0.02872140
3752.00   0.07204877   0.02886771
3754.00   0.03911091   0.02794443
3756.00   0.02790303   0.02710523
3758.00   0.06501356   0.02790877
3760.00   0.02805342   0.02700347
3762.00   0.06406940   0.02664885
3764.00   0.07346723   0.02581066
3766.00   0.11057762   0.02693057
3768.00   0.04721777   0.02669444
3770.00   0.06010807   0.02720465
3772.00   0.05749457   0.02763049
3774.00   0.04760560   0.02728446
3776.00   0.02718160   0.02714386
3778.00   0.04343111   0.02664488
3780.00   0.02059777   0.02629569
3782.00   0.02366678   0.02686571
3784.00   0.02629305   0.02628464
3786.00   0.07844281   0.02617299
3788.00   0.04913797   0.02637055
3790.00   0.04535904   0.02597154
3792.00   0.06512944   0.02652270
3794.00   0.02083981   0.02542990
3796.00   0.03005929   0.02492331
3798.00   0.03478240   0.02533330
3800.00   0.05606161   0.02647902
3802.00   0.06346717   0.02678163
3804.00   0.06600054   0.02588807
3806.00   0.07803287   0.02486385
3808.00   0.08850324   0.02523247
3810.00   0.08674898   0.02570241
3812.00   0.01709170   0.02509320
3814.00   0.05852802   0.02476780
3816.00   0.03967088   0.02491425
3818.00   0.03091838   0.02375512
3820.00   0.07213196   0.02442044
3822.00   0.05496573   0.02419914
3824.00   0.01710664   0.02398988
3826.00   0.04893265   0.02480782
3828.00   0.09418248   0.02624704
3830.00   0.06709550   0.02555542
3832.00   0.04991279   0.02471042
3834.00   0.05072140   0.02442726
3836.00   0.06423113   0.02428156
3838.00   0.03168693   0.02351861
3840.00   0.06619771   0.02474349
3842.00   0.07708984   0.02437637
3844.00   0.05712992   0.02399677
3846.00   0.03597909   0.02328938
3848.00   0.04829591   0.02317076
3850.00   0.05893222   0.02300728
3852.00   0.01534407   0.02234619
3854.00   0.00947762   0.02155793
3856.00   0.02531747   0.02151297
3858.00   0.02338583   0.02169341
3860.00   0.05087528   0.02282907
3862.00   0.02150582   0.02258727
3864.00   0.04974988   0.02257550
3866.00   0.10934523   0.02286286
3868.00   0.06534922   0.02239901
3870.00   0.02685078   0.02174327
3872.00   0.02326580   0.02296152
3874.00   0.03146296   0.02262309
3876.00   0.06597835   0.02244561
3878.00   0.07329741   0.02202572
3880.00   0.04324313   0.02137206
3882.00   0.06133136   0.02181864
3884.00   0.08242004   0.02191212
3886.00   0.07500553   0.02153785
3888.00   0.07518889   0.02193652
3890.00   0.07246528   0.02134093
3892.00   0.04784574   0.02191507
3894.00   0.04212258   0.02215560
3896.00   0.05143928   0.02206778
3898.00   0.05436336   0.02232543
3900.00   0.05690939   0.02235589
3902.00   0.04128982   0.02273284
3904.00   0.05647451   0.02519718
3906.00   0.04466088   0.02698883
3908.00   0.11346144   0.02827241
3910.00   0.13196194   0.02810376
3912.00   0.10784429   0.02704286
3914.00   0.06753723   0.02470389
3916.00   0.09150815   0.02397737
3918.00   0.02516232   0.02254884
3920.00   0.06802145   0.02176401
3922.00   0.07491749   0.02190956
3924.00   0.05763010   0.02177329
3926.00   0.07539465   0.02096947
3928.00   0.08143315   0.02076371
3930.00   0.05480005   0.02090873
3932.00   0.05533493   0.02163914
3934.00   0.03498943   0.02016410
3936.00   0.02384803   0.02023319
3938.00   0.02854144   0.02064266
3940.00   0.08904754   0.02241666
3942.00   0.07314095   0.02321489
3944.00   0.07030878   0.02297845
3946.00   0.09875865   0.02194233
3948.00   0.04980768   0.02121248
3950.00   0.08224658   0.02087814
3952.00   0.07875919   0.02047545
3954.00   0.06968345   0.02019086
3956.00   0.09235660   0.02096806
3958.00   0.04114863   0.02155438
3960.00   0.04685238   0.02181582
3962.00   0.06806900   0.02031581
3964.00   0.08744864   0.01922035
3966.00   0.05342070   0.01850544
3968.00   0.04499664   0.01825796
3970.00   0.05815917   0.01949950
3972.00   0.09715717   0.02025383
3974.00   0.06238966   0.02013272
3976.00   0.06048028   0.02047531
3978.00   0.07159979   0.02066462
3980.00   0.05666408   0.02030148
3982.00   0.09300376   0.02043672
3984.00   0.06727692   0.02023481
3986.00   0.05665090   0.01986079
3988.00   0.09562927   0.02062527
3990.00   0.06285864   0.01993084
3992.00   0.10043916   0.02109681
3994.00   0.07605100   0.02216997
3996.00   0.03976266   0.02185945
3998.00   0.10282051   0.02141825
4000.00   0.06528208   0.02097738
4002.00   0.07312350   0.02066540
4004.00   0.09246480   0.02102946
4006.00   0.08108243   0.02138162
4008.00   0.04501615   0.02166406
4010.00   0.08309823   0.02210267
4012.00   0.09017744   0.02196728
4014.00   0.07314119   0.02163186
4016.00   0.08251429   0.02297640
4018.00   0.10482892   0.02598861
4020.00   0.08663180   0.02679678
4022.00   0.06149070   0.02617561
4024.00   0.05491984   0.02447375
4026.00   0.04914882   0.02314333
4028.00   0.08142205   0.02310425
4030.00   0.07599695   0.02238147
4032.00   0.09668581   0.02229783
4034.00   0.06988519   0.02187121
4036.00   0.07822470   0.02186099
4038.00   0.04832615   0.02189057
4040.00   0.09749166   0.02275932
4042.00   0.04716730   0.03191420
4044.00   0.03079917   0.04604300
4046.00   0.02617414   0.04490626
4048.00   0.05977646   0.02993510
4050.00   0.05415410   0.02325764
4052.00   0.06068719   0.02360726
4054.00   0.06193415   0.02301415
4056.00   0.05878069   0.02160883
4058.00   0.11199837   0.02171517
4060.00   0.08560190   0.02129950
4062.00   0.09686394   0.02125829
4064.00   0.02572336   0.02048050
4066.00   0.06795957   0.02104845
4068.00   0.05564816   0.02049872
4070.00   0.05681357   0.01996759
4072.00   0.05906362   0.02038791
4074.00   0.06956171   0.02360997
4076.00   0.07965810   0.02522783
4078.00   0.05287147   0.02410967
4080.00   0.05049767   0.02247320
4082.00   0.06352434   0.02238351
4084.00   0.02784184   0.02146509
4086.00   0.04656172   0.02082593
4088.00   0.06213991   0.01985961
4090.00   0.07201208   0.01945043
4092.00   0.07096981   0.01966997
4094.00   0.05291813   0.01928120
4096.00   0.07106981   0.01945437
4098.00   0.10063061   0.01933270
4100.00   0.07035363   0.01875718
4102.00   0.07583442   0.01859342
4104.00   0.06674142   0.01871822
4106.00   0.04845582   0.01891644
4108.00   0.04611382   0.01899299
4110.00   0.05485935   0.01870620
4112.00   0.02355157   0.01859332
4114.00   0.03313310   0.01873594
4116.00   0.03977541   0.01841736
4118.00   0.02519961   0.01781040
4120.00   0.07186011   0.01825607
4122.00   0.08451243   0.01861936
4124.00   0.08092245   0.01890330
4126.00   0.03859284   0.01846726
4128.00   0.07175150   0.01912130
4130.00   0.05756450   0.01953205
4132.00   0.02181293   0.01950121
4134.00   0.03913582   0.01924165
4136.00   0.09745193   0.01971245
4138.00   0.07568521   0.02003230
4140.00   0.03699338   0.01937982
4142.00   0.05879753   0.01848812
4144.00   0.04613671   0.01826618
4146.00   0.03441516   0.01830898
4148.00   0.05009011   0.01910892
4150.00   0.07306138   0.02003085
4152.00   0.04677166   0.01951132
4154.00   0.07138699   0.01932007
4156.00   0.05653986   0.01882285
4158.00   0.05968941   0.01938585
4160.00   0.04230396   0.01965138
4162.00   0.09449355   0.02119332
4164.00   0.09977291   0.02109423
4166.00   0.07610952   0.01998045
4168.00   0.07260177   0.01906796
4170.00   0.06587494   0.01854263
4172.00   0.06750418   0.01832616
4174.00   0.07295162   0.01851245
4176.00   0.04347726   0.01853365
4178.00   0.02747955   0.01819429
4180.00   0.05409170   0.01813639
4182.00   0.06189030   0.01814695
4184.00   0.06959141   0.01819859
4186.00   0.08995475   0.01836691
4188.00   0.07380757   0.01838110
4190.00   0.05540708   0.01817212
4192.00   0.06205148   0.01826649
4194.00   0.07054941   0.01791814
4196.00   0.10936561   0.01768852
4198.00   0.05619079   0.01735301
4200.00   0.06728908   0.01759335
4202.00   0.06866790   0.01808459
4204.00   0.05345502   0.01807703
4206.00   0.03255821   0.01817572
4208.00   0.02871537   0.01840157
4210.00   0.05247504   0.01871585
4212.00   0.05104868   0.01853994
4214.00   0.08611801   0.01830977
4216.00   0.08554644   0.01844442
4218.00   0.03565576   0.01826188
4220.00   0.04457132   0.01785552
4222.00   0.03510132   0.01752628
4224.00   0.03402852   0.01728355
4226.00   0.06775802   0.01776969
4228.00   0.05295294   0.01823567
4230.00   0.07192852   0.01866944
4232.00   0.04497157   0.01862831
4234.00   0.05512549   0.01869484
4236.00   0.06732831   0.01906245
4238.00   0.07777876   0.01901964
4240.00   0.06642056   0.01830343
4242.00   0.01425114   0.01887286
4244.00   0.04844430   0.02109846
4246.00   0.04549237   0.02107354
4248.00   0.05558558   0.01881478
4250.00   0.06541294   0.01837061
4252.00   0.06339720   0.01818176
4254.00   0.04341231   0.01821515
4256.00   0.06260879   0.01837935
4258.00   0.04882656   0.01793988
4260.00   0.04386916   0.01787868
4262.00   0.07747343   0.01811655
4264.00   0.06586593   0.01812410
4266.00   0.06361545   0.01800992
4268.00   0.05875497   0.01801467
4270.00   0.09532082   0.01813821
4272.00   0.06346174   0.01795493
4274.00   0.08909108   0.01847152
4276.00   0.07305875   0.01828108
4278.00   0.04163517   0.01812688
4280.00   0.10290784   0.01852267
4282.00   0.09663613   0.01845505
4284.00   0.07641441   0.01829614
4286.00   0.06146782   0.01796156
4288.00   0.06463407   0.01778048
4290.00   0.05870820   0.01788322
4292.00   0.03053848   0.01769994
4294.00   0.04596972   0.01787364
4296.00   0.06731725   0.01789768
4298.00   0.05790953   0.01758824
4300.00   0.04349955   0.01754330
4302.00   0.05234345   0.01770372
4304.00   0.04993741   0.01787134
4306.00   0.03139237   0.01770862
4308.00   0.05567399   0.01785001
4310.00   0.07541098   0.01920842
4312.00   0.08143540   0.02054722
4314.00   0.06599442   0.02003562
4316.00   0.07460923   0.01955924
4318.00   0.07149269   0.01989520
4320.00   0.08211730   0.02005428
4322.00   0.10590926   0.01964479
4324.00   0.07617190   0.01938670
4326.00   0.08754534   0.01885268
4328.00   0.08922491   0.01859469
4330.00   0.10668151   0.01862045
4332.00   0.08680687   0.01870813
4334.00   0.06946209   0.01877103
4336.00   0.09931017   0.01930726
4338.00   0.07580687   0.01933194
4340.00   0.08367962   0.01948285
4342.00   0.08599772   0.01983979
4344.00   0.08146501   0.02060575
4346.00   0.05426118   0.02095828
4348.00   0.10513924   0.02062419
4350.00   0.09771825   0.02006331
4352.00   0.13601558   0.02155891
4354.00   0.08460935   0.03643939
4356.00   0.13843942   0.04770181
4358.00   0.19243385   0.04408120
4360.00   0.15972070   0.02940955
4362.00   0.08588358   0.02246040
4364.00   0.08249238   0.02092038
4366.00   0.07455563   0.02049442
4368.00   0.06256921   0.02024316
4370.00   0.08227354   0.02069243
4372.00   0.07187834   0.02096037
4374.00   0.06392599   0.02079024
4376.00   0.10129668   0.02029874
4378.00   0.06854261   0.01963614
4380.00   0.08446702   0.01949918
4382.00   0.07731816   0.01923284
4384.00   0.07257099   0.01912512
4386.00   0.07392145   0.01918793
4388.00   0.09852365   0.01953267
4390.00   0.06378856   0.01931822
4392.00   0.09554234   0.01936661
4394.00   0.06009574   0.01919286
4396.00   0.04395364   0.01936927
4398.00   0.06830639   0.02000727
4400.00   0.05087502   0.01966078
4402.00   0.06556254   0.01930299
4404.00   0.08104022   0.01926313
4406.00   0.10240288   0.01950226
4408.00   0.06324302   0.01940424
4410.00   0.02699389   0.01944477
4412.00   0.06214381   0.01982725
4414.00   0.05124041   0.01976267
4416.00   0.06255788   0.01972186
4418.00   0.08981629   0.01969165
4420.00   0.05752746   0.01930530
4422.00   0.03140778   0.01914070
4424.00   0.08343446   0.01936338
4426.00   0.05099407   0.01887620
4428.00   0.07923808   0.01924329
4430.00   0.05345819   0.01915242
4432.00   0.09413885   0.01932121
4434.00   0.02300422   0.01897964
4436.00   0.06738604   0.01923984
4438.00   0.04786689   0.01905777
4440.00   0.03681908   0.01901354
4442.00   0.08166229   0.01925149
4444.00   0.04354198   0.01890282
4446.00   0.04721237   0.01887240
4448.00   0.00963652   0.01873117
4450.00   0.04389090   0.01894536
4452.00   0.04603076   0.01881845
4454.00   0.02592240   0.01852703
4456.00   0.04338571   0.01866527
4458.00   0.05444538   0.01861653
4460.00   0.01075166   0.01857281
4462.00   0.04948847   0.01868170
4464.00   0.10110860   0.01896151
4466.00   0.07027487   0.01877628
4468.00   0.06199476   0.01875364
4470.00   0.06126786   0.01869750
4472.00   0.01287564   0.01862182
4474.00   0.05193354   0.01864193
4476.00   0.06629582   0.01870476
4478.00   0.03819612   0.01845985
4480.00   0.05777861   0.01855828
4482.00   0.06830090   0.01846966
4484.00   0.06013770   0.01846595
4486.00   0.06622822   0.01868473
4488.00   0.03999470   0.01845402
4490.00   0.07203077   0.01869667
4492.00   0.07181730   0.01886305
4494.00   0.03356691   0.01864252
4496.00   0.07713526   0.01893097
4498.00   0.07778410   0.01887461
4500.00   0.04507148   0.01844386
4502.00   0.07026012   0.01855026
4504.00   0.09739045   0.01850433
4506.00   0.06537410   0.01837344
4508.00   0.06962268   0.01838954
4510.00   0.06518587   0.01813237
4512.00   0.08571117   0.01829154
4514.00   0.06716597   0.01793125
4516.00   0.07659325   0.01805531
4518.00   0.08387528   0.01796496
4520.00   0.08939070   0.01796643
4522.00   0.04191502   0.01761720
4524.00   0.08486443   0.01764279
4526.00   0.09214202   0.01763571
4528.00   0.08122262   0.01779689
4530.00   0.10099646   0.01773112
4532.00   0.09404059   0.01768338
4534.00   0.08587272   0.01762839
4536.00   0.07157948   0.01740666
4538.00   0.07087738   0.01727191
4540.00   0.10686748   0.01774478
4542.00   0.06438611   0.01747704
4544.00   0.11930265   0.01767612
4546.00   0.04947759   0.01715520
4548.00   0.05503683   0.01690270
4550.00   0.11419515   0.01695962
4552.00   0.09245960   0.01686214
4554.00   0.09144871   0.01677953
4556.00   0.08777713   0.01696377
4558.00   0.09297670   0.01689770
4560.00   0.12728748   0.01694179
4562.00   0.11625510   0.01681521
4564.00   0.13402462   0.01672146
4566.00   0.11524340   0.01663692
4568.00   0.10075209   0.01649393
4570.00   0.07216182   0.01633832
4572.00   0.09422175   0.01658355
4574.00   0.13032904   0.01667166
4576.00   0.09275565   0.01621888
4578.00   0.11250317   0.01622427
4580.00   0.09956609   0.01596547
4582.00   0.09183764   0.01595795
4584.00   0.13889790   0.01623109
4586.00   0.11605065   0.01596263
4588.00   0.11930562   0.01603575
4590.00   0.11288607   0.01602034
4592.00   0.11050238   0.01595781
4594.00   0.12646790   0.01609121
4596.00   0.12254474   0.01592599
4598.00   0.16576824   0.01602911
4600.00   0.14378186   0.01604084
4602.00   0.14517781   0.01589459
4604.00   0.15330690   0.01584467
4606.00   0.12814246   0.01581340
4608.00   0.12740265   0.01594321
4610.00   0.15376140   0.01595328
4612.00   0.15727481   0.01584820
4614.00   0.14433020   0.01553705
4616.00   0.15518023   0.01562013
4618.00   0.13821502   0.01571305
4620.00   0.16494691   0.01570621
4622.00   0.15402095   0.01548275
4624.00   0.13521583   0.01560770
4626.00   0.16090345   0.01563558
4628.00   0.17071496   0.01566864
4630.00   0.17449097   0.01581033
4632.00   0.19059759   0.01579428
4634.00   0.16632929   0.01557387
4636.00   0.15283681   0.01536412
4638.00   0.15289403   0.01542010
4640.00   0.15824331   0.01550004
4642.00   0.16082336   0.01538730
4644.00   0.17020273   0.01538178
4646.00   0.16398984   0.01531006
4648.00   0.14270557   0.01525264
4650.00   0.14098048   0.01530400
4652.00   0.18158831   0.01552612
4654.00   0.18357235   0.01580333
4656.00   0.16437232   0.01572447
4658.00   0.14641033   0.01581204
4660.00   0.14871217   0.01585895
4662.00   0.13912868   0.01588055
4664.00   0.15224989   0.01620704
4666.00   0.17366636   0.01649895
4668.00   0.16918580   0.01654739
4670.00   0.17163354   0.01633669
4672.00   0.15376663   0.01613585
4674.00   0.14633836   0.01577154
4676.00   0.17458284   0.01571719
4678.00   0.14497101   0.01541930
4680.00   0.16087839   0.01545650
4682.00   0.16215912   0.01530956
4684.00   0.17872223   0.01530211
4686.00   0.17146082   0.01527727
4688.00   0.17999485   0.01507158
4690.00   0.16169341   0.01487126
4692.00   0.13778456   0.01468781
4694.00   0.16494808   0.01486682
4696.00   0.15098143   0.01460476
4698.00   0.13987175   0.01443151
4700.00   0.13293026   0.01451178
4702.00   0.15600161   0.01464713
4704.00   0.13610725   0.01478556
4706.00   0.11455769   0.01470064
4708.00   0.14512721   0.01483605
4710.00   0.14117672   0.01474325
4712.00   0.11124784   0.01432680
4714.00   0.09624919   0.01413358
4716.00   0.09113661   0.01409335
4718.00   0.09809145   0.01424534
4720.00   0.09582014   0.01404441
4722.00   0.10410917   0.01413613
4724.00   0.11190486   0.01446539
4726.00   0.09371118   0.01496293
4728.00   0.07551453   0.01497776
4730.00   0.05662634   0.01479830
4732.00   0.11465418   0.01532529
4734.00   0.10190109   0.01558345
4736.00   0.10724786   0.01582243
4738.00   0.08306015   0.01605151
4740.00   0.08976068   0.01656646
4742.00   0.08808760   0.01619214
4744.00   0.10137907   0.01530035
4746.00   0.09801110   0.01450785
4748.00   0.09845439   0.01442135
4750.00   0.08537338   0.01451789
4752.00   0.10823753   0.01456155
4754.00   0.09799320   0.01386735
4756.00   0.06709698   0.01351075
4758.00   0.09899103   0.01345230
4760.00   0.07176753   0.01325039
4762.00   0.07113335   0.01301847
4764.00   0.09009364   0.01314667
4766.00   0.06612848   0.01295758
4768.00   0.06937511   0.01309548
4770.00   0.06715151   0.01290804
4772.00   0.08585622   0.01334326
4774.00   0.07066696   0.01334389
4776.00   0.08811852   0.01383801
4778.00   0.08585650   0.01371519
4780.00   0.06374082   0.01322892
4782.00   0.08304827   0.01316338
4784.00   0.08208363   0.01302157
4786.00   0.08337815   0.01303690
4788.00   0.08040220   0.01298731
4790.00   0.09124151   0.01310788
4792.00   0.08581028   0.01309764
4794.00   0.08107158   0.01304915
4796.00   0.06934484   0.01286736
4798.00   0.09500835   0.01297774
4800.00   0.09689204   0.01318778
4802.00   0.12790290   0.01335040
4804.00   0.08675956   0.01309443
4806.00   0.08368130   0.01316970
4808.00   0.07717050   0.01305349
4810.00   0.07771849   0.01308259
4812.00   0.09184431   0.01322977
4814.00   0.09924089   0.01328874
4816.00   0.08107451   0.01334752
4818.00   0.07536276   0.01329098
4820.00   0.10076848   0.01362359
4822.00   0.11267307   0.01362936
4824.00   0.08828320   0.01377042
4826.00   0.10399697   0.01378209
4828.00   0.10372441   0.01382259
4830.00   0.08166067   0.01369906
4832.00   0.11350343   0.01388911
4834.00   0.13976166   0.01409185
4836.00   0.11438563   0.01435932
4838.00   0.10131976   0.01412314
4840.00   0.12932560   0.01411372
4842.00   0.10235280   0.01386653
4844.00   0.10481846   0.01384954
4846.00   0.10822374   0.01389186
4848.00   0.07457577   0.01368094
4850.00   0.12573777   0.01400779
4852.00   0.15030017   0.01399733
4854.00   0.07960520   0.01335735
4856.00   0.09109531   0.01331268
4858.00   0.10586976   0.01367209
4860.00   0.10146677   0.01369198
4862.00   0.11972846   0.01381607
4864.00   0.08757941   0.01371277
4866.00   0.10995077   0.01372430
4868.00   0.11837284   0.01367417
4870.00   0.11839130   0.01370307
4872.00   0.11634921   0.01373846
4874.00   0.09098592   0.01354977
4876.00   0.11615173   0.01384333
4878.00   0.10724246   0.01382962
4880.00   0.09992014   0.01372568
4882.00   0.13350369   0.01390417
4884.00   0.16799092   0.01422684
4886.00   0.17355019   0.01405688
4888.00   0.13839822   0.01355485
4890.00   0.11054038   0.01344694
4892.00   0.09749357   0.01358792
4894.00   0.10054875   0.01344952
4896.00   0.11800339   0.01359066
4898.00   0.09273855   0.01331623
4900.00   0.08420920   0.01323796
4902.00   0.10876960   0.01344609
4904.00   0.13032433   0.01364907
4906.00   0.10711978   0.01356849
4908.00   0.08778799   0.01343796
4910.00   0.10811114   0.01359127
4912.00   0.11782364   0.01366318
4914.00   0.11745892   0.01366817
4916.00   0.14348222   0.01370463
4918.00   0.09593342   0.01339384
4920.00   0.10631768   0.01346825
4922.00   0.13124825   0.01366604
4924.00   0.10706233   0.01328567
4926.00   0.12876336   0.01347481
4928.00   0.13203830   0.01351283
4930.00   0.15787598   0.01371953
4932.00   0.14805917   0.01362942
4934.00   0.14417277   0.01353059
4936.00   0.15861945   0.01370818
4938.00   0.14550886   0.01358722
4940.00   0.14716993   0.01365002
4942.00   0.15158308   0.01364311
4944.00   0.17616197   0.01371439
4946.00   0.17247865   0.01361527
4948.00   0.16272590   0.01368116
4950.00   0.17748572   0.01416248
4952.00   0.18007182   0.01420533
4954.00   0.18425140   0.01409651
4956.00   0.22782582   0.01442495
4958.00   0.19541615   0.01415820
4960.00   0.19536158   0.01426784
4962.00   0.21450074   0.01443764
4964.00   0.21247883   0.01451523
4966.00   0.17854604   0.01431305
4968.00   0.21823785   0.01497733
4970.00   0.20589882   0.01531281
4972.00   0.19842173   0.01566396
4974.00   0.22023126   0.01622233
4976.00   0.21267885   0.01677164
4978.00   0.21177979   0.01728933
4980.00   0.18801524   0.01744834
4982.00   0.22200847   0.01757815
4984.00   0.23859333   0.01733010
4986.00   0.18860053   0.01648936
4988.00   0.20420171   0.01617888
4990.00   0.20058998   0.01580187
4992.00   0.18637624   0.01529348
4994.00   0.20037863   0.01492594
4996.00   0.18599968   0.01448825
4998.00   0.18269950   0.01432462
5000.00   0.15350039   0.01399973
5002.00   0.17245692   0.01404141
5004.00   0.17753795   0.01399868
5006.00   0.18052666   0.01393893
5008.00   0.16956083   0.01371805
5010.00   0.16831388   0.01353423
5012.00   0.15991543   0.01349409
5014.00   0.15842611   0.01355475
5016.00   0.14794146   0.01362429
5018.00   0.14847021   0.01362539
5020.00   0.14286980   0.01344179
5022.00   0.14511994   0.01328023
5024.00   0.15523925   0.01330135
5026.00   0.14528121   0.01333393
5028.00   0.12314860   0.01349230
5030.00   0.15669435   0.01363742
5032.00   0.10556883   0.01312744
5034.00   0.14323618   0.01318785
5036.00   0.11637835   0.01275294
5038.00   0.14532396   0.01280796
5040.00   0.12758157   0.01277020
5042.00   0.12031943   0.01282496
5044.00   0.14209849   0.01314882
5046.00   0.14587580   0.01301251
5048.00   0.12438015   0.01298928
5050.00   0.11732949   0.01287126
5052.00   0.10787039   0.01272694
5054.00   0.11397161   0.01290299
5056.00   0.11624376   0.01305357
5058.00   0.12411042   0.01304958
5060.00   0.11988031   0.01327510
5062.00   0.11909104   0.01343043
5064.00   0.10512440   0.01344627
5066.00   0.11801229   0.01377836
5068.00   0.12127548   0.01396456
5070.00   0.09721898   0.01344646
5072.00   0.08763652   0.01323925
5074.00   0.11956848   0.01328293
5076.00   0.11780870   0.01359082
5078.00   0.10000731   0.01458618
5080.00   0.12876658   0.01580348
5082.00   0.12069912   0.01647898
5084.00   0.10899889   0.01634506
5086.00   0.13269341   0.01563561
5088.00   0.10451733   0.01444379
5090.00   0.10689733   0.01356345
5092.00   0.12109745   0.01352996
5094.00   0.11480120   0.01363058
5096.00   0.12898509   0.01406592
5098.00   0.13260254   0.01420271
5100.00   0.13231607   0.01381141
5102.00   0.11302621   0.01308223
5104.00   0.11813366   0.01294580
5106.00   0.11472146   0.01284523
5108.00   0.08979997   0.01265747
5110.00   0.08266219   0.01266977
5112.00   0.11335375   0.01311572
5114.00   0.12533033   0.01322346
5116.00   0.10642650   0.01297686
5118.00   0.11996757   0.01298311
5120.00   0.12138024   0.01291253
5122.00   0.09900141   0.01254271
5124.00   0.11316632   0.01251290
5126.00   0.12706272   0.01259602
5128.00   0.10713072   0.01264777
5130.00   0.10759411   0.01264012
5132.00   0.10691319   0.01269058
5134.00   0.11942682   0.01257919
5136.00   0.10388688   0.01245320
5138.00   0.11069546   0.01269888
5140.00   0.13764089   0.01286891
5142.00   0.11677736   0.01280126
5144.00   0.12502734   0.01305459
5146.00   0.13216612   0.01326177
5148.00   0.11076847   0.01344572
5150.00   0.12550643   0.01385145
5152.00   0.11232050   0.01377235
5154.00   0.12697621   0.01363894
5156.00   0.13854802   0.01346094
5158.00   0.09688539   0.01289939
5160.00   0.12239915   0.01287446
5162.00   0.12231883   0.01264391
5164.00   0.11117468   0.01250916
5166.00   0.08580950   0.01212313
5168.00   0.11399031   0.01224601
5170.00   0.11394577   0.01222937
5172.00   0.11339711   0.01241792
5174.00   0.10525005   0.01244808
5176.00   0.08977626   0.01231396
5178.00   0.10112324   0.01233636
5180.00   0.11909988   0.01239914
5182.00   0.10233263   0.01220812
5184.00   0.11761823   0.01258743
5186.00   0.11995201   0.01251905
5188.00   0.12581195   0.01255963
5190.00   0.10798050   0.01230908
5192.00   0.11809084   0.01239943
5194.00   0.11448910   0.01246524
5196.00   0.13420762   0.01267951
5198.00   0.12307577   0.01269375
5200.00   0.14618886   0.01283551
5202.00   0.12487586   0.01256043
5204.00   0.14188832   0.01270260
5206.00   0.12252101   0.01269541
5208.00   0.16972430   0.01318750
5210.00   0.13582212   0.01287620
5212.00   0.14407411   0.01295317
5214.00   0.15234211   0.01296872
5216.00   0.14143699   0.01305248
5218.00   0.15258484   0.01315288
5220.00   0.12836897   0.01283219
5222.00   0.13130261   0.01288256
5224.00   0.14510854   0.01282277
5226.00   0.15924671   0.01285582
5228.00   0.16289268   0.01295927
5230.00   0.14490797   0.01281480
5232.00   0.13532387   0.01276941
5234.00   0.16801129   0.01285297
5236.00   0.15770619   0.01293016
5238.00   0.13836080   0.01289721
5240.00   0.16306992   0.01293376
5242.00   0.17781651   0.01300616
5244.00   0.17893884   0.01308335
5246.00   0.15730299   0.01287514
5248.00   0.16299389   0.01282871
5250.00   0.14070764   0.01272067
5252.00   0.17536947   0.01311341
5254.00   0.19145653   0.01338669
5256.00   0.18148373   0.01326189
5258.00   0.20591798   0.01333752
5260.00   0.17087558   0.01306306
5262.00   0.18233982   0.01302015
5264.00   0.17477480   0.01285602
5266.00   0.20986795   0.01306063
5268.00   0.20069401   0.01309408
5270.00   0.23351963   0.01347839
5272.00   0.21169059   0.01331528
5274.00   0.19271176   0.01317686
5276.00   0.20563680   0.01325141
5278.00   0.18040963   0.01308324
5280.00   0.19482565   0.01322585
5282.00   0.19873308   0.01338521
5284.00   0.23939973   0.01376574
5286.00   0.20110400   0.01339432
5288.00   0.21355748   0.01329339
5290.00   0.22770552   0.01344696
5292.00   0.21753486   0.01326428
5294.00   0.22078581   0.01332165
5296.00   0.23135668   0.01342685
5298.00   0.21339206   0.01340658
5300.00   0.23387983   0.01352903
5302.00   0.21982352   0.01356883
5304.00   0.23087421   0.01358553
5306.00   0.20051266   0.01350564
5308.00   0.24690431   0.01383322
5310.00   0.23975785   0.01381275
5312.00   0.25449812   0.01393395
5314.00   0.25771004   0.01392100
5316.00   0.23697568   0.01371404
5318.00   0.21568185   0.01360800
5320.00   0.23505241   0.01380642
5322.00   0.26646870   0.01393977
5324.00   0.27274996   0.01397301
5326.00   0.27431729   0.01402280
5328.00   0.28621674   0.01425841
5330.00   0.26212603   0.01414284
5332.00   0.25398305   0.01413388
5334.00   0.28981882   0.01444928
5336.00   0.27171552   0.01446074
5338.00   0.26489973   0.01444355
5340.00   0.24688086   0.01438837
5342.00   0.28132284   0.01461000
5344.00   0.29257542   0.01483473
5346.00   0.28922865   0.01503055
5348.00   0.28310940   0.01491764
5350.00   0.27315241   0.01477311
5352.00   0.27507290   0.01499892
5354.00   0.25910899   0.01493115
5356.00   0.30248636   0.01495226
5358.00   0.29956403   0.01475610
5360.00   0.29260445   0.01456558
5362.00   0.29596761   0.01449938
5364.00   0.30181560   0.01438554
5366.00   0.26612708   0.01417900
5368.00   0.27116030   0.01431982
5370.00   0.28338236   0.01460078
5372.00   0.27157784   0.01468998
5374.00   0.29421300   0.01498775
5376.00   0.28053898   0.01473009
5378.00   0.27845019   0.01475466
5380.00   0.26640093   0.01464663
5382.00   0.27624571   0.01479619
5384.00   0.28727123   0.01495002
5386.00   0.27925378   0.01495251
5388.00   0.27068135   0.01517227
5390.00   0.26880643   0.01537984
5392.00   0.25326329   0.01509933
5394.00   0.30233887   0.01547641
5396.00   0.28883478   0.01537800
5398.00   0.26881182   0.01542099
5400.00   0.28053865   0.01552595
5402.00   0.31470847   0.01582001
5404.00   0.27735299   0.01587606
5406.00   0.27437496   0.01597909
5408.00   0.33452314   0.01664173
5410.00   0.28673109   0.01670476
5412.00   0.28173053   0.01713086
5414.00   0.25806063   0.01739022
5416.00   0.29009074   0.01770278
5418.00   0.32317916   0.01803690
5420.00   0.26385972   0.01765906
5422.00   0.29319429   0.01792036
5424.00   0.30972937   0.01795648
5426.00   0.31951028   0.01809971
5428.00   0.29689538   0.01789376
5430.00   0.29059568   0.01787204
5432.00   0.29683712   0.01805886
5434.00   0.31031916   0.01829699
5436.00   0.34011909   0.01851191
5438.00   0.29220146   0.01837741
5440.00   0.32961947   0.01887672
5442.00   0.30688637   0.01898299
5444.00   0.30369562   0.01905391
5446.00   0.35032028   0.01944987
5448.00   0.32564357   0.01932296
5450.00   0.31428394   0.01939070
5452.00   0.29057521   0.01946519
5454.00   0.33508846   0.02171551
5456.00   0.35288239   0.02779088
5458.00   0.32181671   0.03134412
5460.00   0.29211786   0.02988197
5462.00   0.32638043   0.02702231
5464.00   0.33178821   0.02433104
5466.00   0.36910126   0.02277650
5468.00   0.32958686   0.02100939
5470.00   0.32328707   0.02024473
5472.00   0.36262730   0.02006871
5474.00   0.34533086   0.01983891
5476.00   0.38953736   0.02023927
5478.00   0.36879379   0.02061403
5480.00   0.41697603   0.02124866
5482.00   0.39151102   0.02109861
5484.00   0.40609422   0.02069879
5486.00   0.40577969   0.02051563
5488.00   0.40418395   0.02016182
5490.00   0.39701727   0.02008644
5492.00   0.41193461   0.02016564
5494.00   0.42122275   0.02003502
5496.00   0.42987081   0.02009612
5498.00   0.43962285   0.02008075
5500.00   0.41560835   0.01990499
5502.00   0.42025504   0.01981886
5504.00   0.45056218   0.02002957
5506.00   0.43830371   0.01990663
5508.00   0.48333713   0.02050638
5510.00   0.44352755   0.02043227
5512.00   0.43130079   0.02051598
5514.00   0.46602821   0.02082909
5516.00   0.49533501   0.02111103
5518.00   0.46479779   0.02092852
5520.00   0.51641268   0.02099267
5522.00   0.50744700   0.02090934
5524.00   0.48953515   0.02073085
5526.00   0.50835985   0.02072755
5528.00   0.46001303   0.02022577
5530.00   0.55381995   0.02080087
5532.00   0.48811275   0.02045022
5534.00   0.51783413   0.02051086
5536.00   0.50612801   0.02041276
5538.00   0.50770730   0.02059666
5540.00   0.49272445   0.02053837
5542.00   0.48187241   0.02045700
5544.00   0.48817962   0.02069226
5546.00   0.49892828   0.02049799
5548.00   0.55343705   0.02104899
5550.00   0.55519587   0.02094233
5552.00   0.54430556   0.02084186
5554.00   0.47504789   0.02041796
5556.00   0.52343035   0.02060103
5558.00   0.54485381   0.02085408
5560.00   0.52598023   0.02071649
5562.00   0.51238179   0.02069576
5564.00   0.51400214   0.03468988
5566.00   0.53687698   0.03548853
5568.00   0.50447732   0.03594098
5570.00   0.47355291   0.03673957
5572.00   0.47954845   0.03860576
5574.00   0.48167285   0.04106523
5576.00   0.47585770   0.04309679
5578.00   0.47391379   0.04351144
5580.00   0.49143696   0.04219667
5582.00   0.50261533   0.03965797
5584.00   0.49749804   0.03584957
5586.00   0.49552321   0.03168989
5588.00   0.48981652   0.02879410
5590.00   0.48015717   0.02776635
5592.00   0.48596558   0.02748839
5594.00   0.47834587   0.02719362
5596.00   0.46990868   0.02692042
5598.00   0.46898699   0.02678576
5600.00   0.45315412   0.02638425
5602.00   0.46596316   0.02635563
5604.00   0.47517109   0.02660453
5606.00   0.46742129   0.02645261
5608.00   0.44336662   0.02579919
5610.00   0.43996909   0.02554838
5612.00   0.43806088   0.02525135
5614.00   0.42647257   0.02489639
5616.00   0.42084873   0.02469547
5618.00   0.44216728   0.02484864
5620.00   0.44630203   0.02483245
5622.00   0.42983136   0.02459100
5624.00   0.42534921   0.02440258
5626.00   0.43888435   0.02431340
5628.00   0.43532038   0.02420825
5630.00   0.42025530   0.02392942
5632.00   0.40394711   0.02362855
5634.00   0.39824030   0.02355227
5636.00   0.38190660   0.02328999
5638.00   0.37058619   0.02311682
5640.00   0.37676826   0.02314977
5642.00   0.37410781   0.02309682
5644.00   0.36170992   0.02285533
5646.00   0.37367097   0.02286397
5648.00   0.41040346   0.02309664
5650.00   0.38655981   0.02285332
5652.00   0.38058719   0.02285093
5654.00   0.39111492   0.02296966
5656.00   0.36848119   0.02282241
5658.00   0.35581920   0.02283832
5660.00   0.34439909   0.02284991
5662.00   0.33886778   0.02290381
5664.00   0.32892066   0.02292246
5666.00   0.33766052   0.02330594
5668.00   0.34867308   0.02374656
5670.00   0.33835101   0.02400743
5672.00   0.33392587   0.02428918
5674.00   0.33437940   0.02447444
5676.00   0.34051308   0.02483382
5678.00   0.35529318   0.02536390
5680.00   0.32488382   0.02566153
5682.00   0.27920327   0.02592204
5684.00   0.26768366   0.02646023
5686.00   0.27031589   0.02694318
5688.00   0.26586208   0.02687414
5690.00   0.26015118   0.02632278
5692.00   0.25993201   0.02541190
5694.00   0.26684579   0.02428138
5696.00   0.26045051   0.02304672
5698.00   0.26201084   0.02200522
5700.00   0.26542076   0.02114442
5702.00   0.25782287   0.02041549
5704.00   0.25687698   0.01998223
5706.00   0.26735938   0.01980698
5708.00   0.25558391   0.01948738
5710.00   0.24707873   0.01924384
5712.00   0.24226089   0.01903938
5714.00   0.23607315   0.01872931
5716.00   0.25356999   0.01872145
5718.00   0.25240722   0.01853147
5720.00   0.23921140   0.01823240
5722.00   0.21511322   0.01783375
5724.00   0.21247427   0.01770357
5726.00   0.23488998   0.01770131
5728.00   0.24800606   0.01764592
5730.00   0.23658930   0.01741065
5732.00   0.23308563   0.01729681
5734.00   0.23443122   0.01721661
5736.00   0.23694344   0.01714215
5738.00   0.23146892   0.01703522
5740.00   0.23139115   0.01703306
5742.00   0.22449969   0.01691313
5744.00   0.23322444   0.01701366
5746.00   0.23752190   0.01711622
5748.00   0.24085210   0.01719942
5750.00   0.23675711   0.01715072
5752.00   0.23034777   0.01717575
5754.00   0.23325248   0.01734480
5756.00   0.23649901   0.01756044
5758.00   0.23656176   0.01774660
5760.00   0.24073081   0.01798469
5762.00   0.25345057   0.01847086
5764.00   0.25389871   0.01900923
5766.00   0.25695929   0.01957029
5768.00   0.24146700   0.01982906
5770.00   0.24230807   0.01992317
5772.00   0.26836237   0.01994769
5774.00   0.28010440   0.01964151
5776.00   0.28308114   0.01906477
5778.00   0.27904853   0.01851589
5780.00   0.27810085   0.01828209
5782.00   0.26903763   0.01834201
5784.00   0.28131440   0.01874999
5786.00   0.30743906   0.01945598
5788.00   0.30524859   0.01997592
5790.00   0.28639024   0.02011049
5792.00   0.28861579   0.02007396
5794.00   0.30579364   0.01991388
5796.00   0.32436669   0.01960886
5798.00   0.34366646   0.01919911
5800.00   0.33801934   0.01868540
5802.00   0.33079213   0.01840304
5804.00   0.33096552   0.01835743
5806.00   0.33490500   0.01840112
5808.00   0.34465480   0.01842912
5810.00   0.36665794   0.01855482
5812.00   0.37594521   0.01860786
5814.00   0.37842193   0.01865481
5816.00   0.37521696   0.01862476
5818.00   0.38082945   0.01868435
5820.00   0.39166561   0.01884039
5822.00   0.40294173   0.01907717
5824.00   0.41211686   0.01916596
5826.00   0.41995248   0.01922631
5828.00   0.42405447   0.01933537
5830.00   0.43246651   0.01948961
5832.00   0.44010603   0.01959006
5834.00   0.43950310   0.01964789
5836.00   0.44283077   0.01973593
5838.00   0.43591961   0.01975504
5840.00   0.43103245   0.01983654
5842.00   0.43014494   0.01987937
5844.00   0.44876012   0.02008391
5846.00   0.46637464   0.02028264
5848.00   0.45881656   0.02028882
5850.00   0.45692575   0.02040055
5852.00   0.47702727   0.02064481
5854.00   0.48313650   0.02072962
5856.00   0.47642756   0.02073993
5858.00   0.48858860   0.02091836
5860.00   0.49093857   0.02103017
5862.00   0.48123708   0.02108066
5864.00   0.48027277   0.02120946
5866.00   0.50058371   0.02149168
5868.00   0.50775945   0.02162699
5870.00   0.49908671   0.02159641
5872.00   0.49747118   0.02161053
5874.00   0.49496248   0.02174511
5876.00   0.48281541   0.02200930
5878.00   0.47197616   0.02262280
5880.00   0.45911524   0.02385080
5882.00   0.45038667   0.02592486
5884.00   0.46147504   0.02915356
5886.00   0.48283982   0.03345754
5888.00   0.47292805   0.03756888
5890.00   0.44207647   0.04022586
5892.00   0.41751862   0.04183970
5894.00   0.42121005   0.04227695
5896.00   0.45204151   0.04054499
5898.00   0.44828305   0.03666375
5900.00   0.43944979   0.03257862
5902.00   0.44793382   0.02861150
5904.00   0.46931735   0.02457938
5906.00   0.48268393   0.02163281
5908.00   0.46982861   0.02077091
5910.00   0.45591745   0.02070047
5912.00   0.43813837   0.02069451
5914.00   0.42577901   0.02062001
5916.00   0.43651935   0.02063482
5918.00   0.41989687   0.02052733
5920.00   0.40208825   0.02045365
5922.00   0.38918626   0.02037166
5924.00   0.39030889   0.02032048
5926.00   0.39609376   0.02037645
5928.00   0.41593447   0.02059370
5930.00   0.42111814   0.02071634
5932.00   0.40764892   0.02066370
5934.00   0.41921985   0.02068504
5936.00   0.42928424   0.02067325
5938.00   0.41939101   0.02046464
5940.00   0.41452470   0.02020735
5942.00   0.42467162   0.02004390
5944.00   0.42500186   0.01990931
5946.00   0.40971401   0.01972359
5948.00   0.40706444   0.01970720
5950.00   0.39904499   0.01966826
5952.00   0.39807495   0.01965185
5954.00   0.41342589   0.01970098
5956.00   0.40485033   0.01960395
5958.00   0.38299140   0.01932706
5960.00   0.38169572   0.01915800
5962.00   0.38721642   0.01910032
5964.00   0.39113405   0.01906773
5966.00   0.37846100   0.01893514
5968.00   0.36684784   0.01882369
5970.00   0.36976293   0.01882314
5972.00   0.36586499   0.01877779
5974.00   0.36728641   0.01878495
5976.00   0.36962733   0.01875669
5978.00   0.36173856   0.01864874
5980.00   0.35016561   0.01846896
5982.00   0.35488221   0.01840755
5984.00   0.35114309   0.01830787
5986.00   0.34625638   0.01820774
5988.00   0.34366563   0.01819290
5990.00   0.34697425   0.01824276
5992.00   0.34705245   0.01817594
5994.00   0.33266887   0.01800069
5996.00   0.32579133   0.01790594
5998.00   0.32451004   0.01786046
6000.00   0.32466105   0.01778806
6002.00   0.31867996   0.01765522
6004.00   0.31421599   0.01754434
6006.00   0.30372193   0.01736793
6008.00   0.30312198   0.01727704
6010.00   0.31128994   0.01727632
6012.00   0.29854015   0.01712405
6014.00   0.29458380   0.01702492
6016.00   0.29799238   0.01698438
6018.00   0.30623016   0.01695992
6020.00   0.30662706   0.01696121
6022.00   0.30322289   0.01692442
6024.00   0.29486915   0.01680288
6026.00   0.28010598   0.01665085
6028.00   0.26515019   0.01651868
6030.00   0.26869717   0.01650172
6032.00   0.27098003   0.01648317
6034.00   0.26742613   0.01637878
6036.00   0.27121449   0.01635934
6038.00   0.28172097   0.01640713
6040.00   0.27270457   0.01628769
6042.00   0.27789119   0.01626399
6044.00   0.27888593   0.01623634
6046.00   0.27525201   0.01617111
6048.00   0.26540184   0.01604194
6050.00   0.27145776   0.01604724
6052.00   0.28248647   0.01613742
6054.00   0.27899277   0.01604799
6056.00   0.27732027   0.01600913
6058.00   0.28262514   0.01609556
6060.00   0.27714145   0.01602541
6062.00   0.27270234   0.01595882
6064.00   0.27750325   0.01601807
6066.00   0.28362072   0.01609208
6068.00   0.28783342   0.01610713
6070.00   0.28512660   0.01606798
6072.00   0.28762481   0.01611379
6074.00   0.29384801   0.01617707
6076.00   0.29074815   0.01611179
6078.00   0.27464521   0.01596055
6080.00   0.27159393   0.01596920
6082.00   0.27708092   0.01601937
6084.00   0.28821850   0.01611889
6086.00   0.29709530   0.01614630
6088.00   0.30018857   0.01612536
6090.00   0.30006039   0.01618238
6092.00   0.29995337   0.01626233
6094.00   0.29853079   0.01628778
6096.00   0.28847322   0.01625806
6098.00   0.28120148   0.01628883
6100.00   0.29729980   0.01663551
6102.00   0.30485019   0.01690274
6104.00   0.31083721   0.01720341
6106.00   0.29838061   0.01746456
6108.00   0.28992680   0.01786026
6110.00   0.29143617   0.01830831
6112.00   0.29556179   0.01865983
6114.00   0.29320872   0.01875805
6116.00   0.29974946   0.01861995
6118.00   0.31156585   0.01839853
6120.00   0.30283788   0.01785761
6122.00   0.29362699   0.01735548
6124.00   0.29259872   0.01698526
6126.00   0.30782595   0.01687759
6128.00   0.30910143   0.01668420
6130.00   0.30675948   0.01653191
6132.00   0.31033662   0.01651790
6134.00   0.31710234   0.01657187
6136.00   0.31734952   0.01654782
6138.00   0.31660867   0.01651056
6140.00   0.32666814   0.01666752
6142.00   0.32166263   0.01669769
6144.00   0.31908312   0.01669847
6146.00   0.32743397   0.01674039
6148.00   0.30627325   0.01656059
6150.00   0.30217329   0.01661582
6152.00   0.31323722   0.01683369
6154.00   0.32683003   0.01708420
6156.00   0.31592235   0.01718516
6158.00   0.31227338   0.01734312
6160.00   0.31380352   0.01736482
6162.00   0.31051067   0.01715819
6164.00   0.30369148   0.01682046
6166.00   0.31990519   0.01668771
6168.00   0.32516673   0.01636014
6170.00   0.31909356   0.01594607
6172.00   0.31520459   0.01572137
6174.00   0.32681271   0.01579868
6176.00   0.32636097   0.01571634
6178.00   0.32322434   0.01561319
6180.00   0.32564175   0.01560185
6182.00   0.33215421   0.01566182
6184.00   0.32807508   0.01561221
6186.00   0.33043066   0.01552931
6188.00   0.32766816   0.01545245
6190.00   0.32213950   0.01538217
6192.00   0.32504103   0.01541230
6194.00   0.33428118   0.01547332
6196.00   0.32248071   0.01541329
6198.00   0.31161991   0.01535655
6200.00   0.31082228   0.01535016
6202.00   0.32169926   0.01540207
6204.00   0.31667352   0.01535025
6206.00   0.31393483   0.01542498
6208.00   0.31106877   0.01549816
6210.00   0.31505492   0.01553938
6212.00   0.31812739   0.01550207
6214.00   0.31976286   0.01548834
6216.00   0.31524110   0.01534427
6218.00   0.31679854   0.01528360
6220.00   0.32631660   0.01532888
6222.00   0.33637533   0.01536017
6224.00   0.34044826   0.01533570
6226.00   0.33449337   0.01527554
6228.00   0.32864466   0.01525482
6230.00   0.33816454   0.01546276
6232.00   0.33872306   0.01568838
6234.00   0.34309471   0.01597635
6236.00   0.36109272   0.01630487
6238.00   0.35998598   0.01635954
6240.00   0.35558763   0.01627722
6242.00   0.35538450   0.01611208
6244.00   0.35717645   0.01592578
6246.00   0.36063865   0.01576656
6248.00   0.36299694   0.01561178
6250.00   0.37029687   0.01556564
6252.00   0.35869196   0.01551672
6254.00   0.36793277   0.01584944
6256.00   0.37184095   0.01613786
6258.00   0.37867722   0.01628774
6260.00   0.38541403   0.01634859
6262.00   0.38527000   0.01633643
6264.00   0.37896049   0.01607576
6266.00   0.37711099   0.01577378
6268.00   0.37715229   0.01555812
6270.00   0.37545705   0.01545903
6272.00   0.37727332   0.01551143
6274.00   0.37929535   0.01558630
6276.00   0.37070003   0.01556853
6278.00   0.35850143   0.01553210
6280.00   0.35841230   0.01557382
6282.00   0.35917330   0.01556500
6284.00   0.35288611   0.01552460
6286.00   0.34594727   0.01551689
6288.00   0.34398711   0.01554888
6290.00   0.34070766   0.01559078
6292.00   0.33444116   0.01563911
6294.00   0.34356692   0.01600702
6296.00   0.33737138   0.01652512
6298.00   0.32619146   0.01709400
6300.00   0.33989516   0.01761736
6302.00   0.33324644   0.01773340
6304.00   0.31763265   0.01754717
6306.00   0.30092305   0.01700999
6308.00   0.29538357   0.01617693
6310.00   0.29636630   0.01559105
6312.00   0.30660716   0.01523002
6314.00   0.30420646   0.01487408
6316.00   0.29610017   0.01459802
6318.00   0.29039857   0.01453398
6320.00   0.28118992   0.01433377
6322.00   0.29396954   0.01453084
6324.00   0.29943994   0.01477846
6326.00   0.30219910   0.01467752
6328.00   0.33334041   0.01506177
6330.00   0.32170102   0.01491709
6332.00   0.30706313   0.01477287
6334.00   0.30899253   0.01493478
6336.00   0.30979148   0.01510909
6338.00   0.31162465   0.01461229
6340.00   0.31930611   0.01435277
6342.00   0.31952634   0.01431860
6344.00   0.31901166   0.01429175
6346.00   0.31880358   0.01432036
6348.00   0.32699966   0.01425957
6350.00   0.32192335   0.01428747
6352.00   0.32264882   0.01443424
6354.00   0.32815734   0.01450952
6356.00   0.32979074   0.01451451
6358.00   0.32503852   0.01467583
6360.00   0.33165890   0.01496472
6362.00   0.33948627   0.01505830
6364.00   0.33768019   0.01492908
6366.00   0.32637951   0.01470000
6368.00   0.32972142   0.01459481
6370.00   0.33761135   0.01440797
6372.00   0.34589529   0.01427316
6374.00   0.35193810   0.01426675
6376.00   0.35287443   0.01425230
6378.00   0.34598032   0.01421239
6380.00   0.34530362   0.01427356
6382.00   0.34905162   0.01436727
6384.00   0.35825872   0.01445832
6386.00   0.36748734   0.01453625
6388.00   0.37016019   0.01448102
6390.00   0.36824688   0.01437127
6392.00   0.37862229   0.01437229
6394.00   0.39389536   0.01445597
6396.00   0.40238747   0.01456408
6398.00   0.39881814   0.01465862
6400.00   0.40421596   0.01480426
6402.00   0.40795323   0.01485671
6404.00   0.41088367   0.01487513
6406.00   0.41178560   0.01488706
6408.00   0.41339716   0.01486173
6410.00   0.41689548   0.01482763
6412.00   0.42800927   0.01489380
6414.00   0.43434158   0.01492382
6416.00   0.44218096   0.01501337
6418.00   0.44578388   0.01500072
6420.00   0.44895282   0.01498253
6422.00   0.45149234   0.01500168
6424.00   0.46261740   0.01503553
6426.00   0.47360435   0.01507858
6428.00   0.48311529   0.01510972
6430.00   0.48925141   0.01516069
6432.00   0.47991705   0.01506237
6434.00   0.47720733   0.01504078
6436.00   0.49766102   0.01522869
6438.00   0.50893575   0.01533076
6440.00   0.50866038   0.01534052
6442.00   0.51003045   0.01532085
6444.00   0.51304573   0.01529152
6446.00   0.52660388   0.01544444
6448.00   0.53774649   0.01556281
6450.00   0.53988606   0.01554888
6452.00   0.55068833   0.01562775
6454.00   0.55793595   0.01569720
6456.00   0.55968338   0.01573741
6458.00   0.57035619   0.01583701
6460.00   0.57688230   0.01593802
6462.00   0.57991004   0.01609027
6464.00   0.57609802   0.01615149
6466.00   0.57256913   0.01618829
6468.00   0.57850856   0.01625810
6470.00   0.58834255   0.01629116
6472.00   0.60579276   0.01630639
6474.00   0.61212158   0.01627370
6476.00   0.62329042   0.01623873
6478.00   0.62605315   0.01616544
6480.00   0.62132329   0.01608798
6482.00   0.62119275   0.01601861
6484.00   0.62599796   0.01602221
6486.00   0.63880414   0.01611120
6488.00   0.64961141   0.01617351
6490.00   0.64580530   0.01613634
6492.00   0.64880317   0.01629426
6494.00   0.65095323   0.01649839
6496.00   0.66105479   0.01674874
6498.00   0.68006510   0.01705127
6500.00   0.68810934   0.01721284
6502.00   0.69504052   0.01731106
6504.00   0.69660908   0.01724932
6506.00   0.68847829   0.01702866
6508.00   0.68241423   0.01682176
6510.00   0.67833787   0.01670746
6512.00   0.69474483   0.01670741
6514.00   0.70068622   0.01662870
6516.00   0.70070773   0.01656582
6518.00   0.69945645   0.01657167
6520.00   0.70805389   0.01666636
6522.00   0.71117526   0.01667803
6524.00   0.71112961   0.01668277
6526.00   0.71025509   0.01671313
6528.00   0.70952076   0.01681773
6530.00   0.71905231   0.01701778
6532.00   0.71494722   0.01703493
6534.00   0.72026300   0.01707401
6536.00   0.72561139   0.01708242
6538.00   0.71362346   0.01691861
6540.00   0.71557099   0.01683836
6542.00   0.71355063   0.01678579
6544.00   0.70662546   0.01672180
6546.00   0.70547944   0.01673919
6548.00   0.71385121   0.01686916
6550.00   0.70909375   0.01692324
6552.00   0.71280628   0.01702059
6554.00   0.72068667   0.01708928
6556.00   0.72315329   0.01710455
6558.00   0.71269447   0.01707026
6560.00   0.71486616   0.01706877
6562.00   0.71131295   0.01697487
6564.00   0.70201689   0.01683759
6566.00   0.69809324   0.01676659
6568.00   0.69211787   0.01666918
6570.00   0.68463874   0.01647025
6572.00   0.67905551   0.01640023
6574.00   0.67849278   0.01647781
6576.00   0.68890303   0.01661256
6578.00   0.69220799   0.01665895
6580.00   0.69752526   0.01673174
6582.00   0.68499583   0.01662690
6584.00   0.66908979   0.01644691
6586.00   0.66771048   0.01631557
6588.00   0.67114192   0.01626054
6590.00   0.67711705   0.01622597
6592.00   0.69603366   0.01649405
6594.00   0.73898214   0.01710212
6596.00   0.75884438   0.01749854
6598.00   0.76969796   0.01750564
6600.00   0.77536350   0.01745244
6602.00   0.73851824   0.01702822
6604.00   0.66580886   0.01624795
6606.00   0.62304544   0.01572633
6608.00   0.61848503   0.01560304
6610.00   0.61611909   0.01549330
6612.00   0.60059422   0.01532838
6614.00   0.59032953   0.01533439
6616.00   0.60112399   0.01548702
6618.00   0.60003346   0.01552153
6620.00   0.60124058   0.01550759
6622.00   0.57763225   0.01534474
6624.00   0.55264997   0.01533404
6626.00   0.54355198   0.01555819
6628.00   0.53675872   0.01529710
6630.00   0.54307842   0.01498049
6632.00   0.54958177   0.01482082
6634.00   0.53992826   0.01477169
6636.00   0.50537658   0.01446414
6638.00   0.48869300   0.01428066
6640.00   0.48136905   0.01419193
6642.00   0.48017350   0.01417247
6644.00   0.48045358   0.01415321
6646.00   0.48031268   0.01412124
6648.00   0.47698936   0.01407648
6650.00   0.46534789   0.01397069
6652.00   0.45787486   0.01389605
6654.00   0.44703054   0.01380291
6656.00   0.43893257   0.01374742
6658.00   0.43604890   0.01372379
6660.00   0.44125006   0.01377318
6662.00   0.43969545   0.01376960
6664.00   0.43565235   0.01369540
6666.00   0.42100850   0.01355699
6668.00   0.41107178   0.01347741
6670.00   0.40273213   0.01339756
6672.00   0.40144992   0.01336447
6674.00   0.39352301   0.01328968
6676.00   0.38694525   0.01325477
6678.00   0.37804893   0.01318603
6680.00   0.36922303   0.01309613
6682.00   0.36427340   0.01301900
6684.00   0.35841313   0.01291241
6686.00   0.36029252   0.01287019
6688.00   0.36561307   0.01289054
6690.00   0.35966972   0.01283662
6692.00   0.35200641   0.01273282
6694.00   0.34597227   0.01266608
6696.00   0.33667806   0.01262595
6698.00   0.32171315   0.01252420
6700.00   0.31485274   0.01245488
6702.00   0.32312879   0.01253633
6704.00   0.31838226   0.01258986
6706.00   0.29846278   0.01248477
6708.00   0.28684011   0.01240296
6710.00   0.29159722   0.01245055
6712.00   0.28693327   0.01240459
6714.00   0.28129601   0.01230654
6716.00   0.27826545   0.01221804
6718.00   0.27627513   0.01215500
6720.00   0.27157065   0.01207068
6722.00   0.26894650   0.01198085
6724.00   0.26244491   0.01186727
6726.00   0.25798187   0.01180757
6728.00   0.25754818   0.01179784
6730.00   0.25570154   0.01179634
6732.00   0.25444809   0.01175631
6734.00   0.25115421   0.01169606
6736.00   0.24782126   0.01166848
6738.00   0.24109776   0.01160037
6740.00   0.23081310   0.01146217
6742.00   0.22792391   0.01138511
6744.00   0.22972973   0.01173155
6746.00   0.22716196   0.01222097
6748.00   0.22416604   0.01251540
6750.00   0.23508120   0.01230938
6752.00   0.24173836   0.01179991
6754.00   0.24085747   0.01145753
6756.00   0.23666890   0.01136526
6758.00   0.23601086   0.01138648
6760.00   0.23227192   0.01131560
6762.00   0.23491113   0.01133859
6764.00   0.23267615   0.01134827
6766.00   0.22355928   0.01125786
6768.00   0.22102869   0.01119211
6770.00   0.22861071   0.01127600
6772.00   0.22095995   0.01114706
6774.00   0.21041554   0.01099172
6776.00   0.20742877   0.01092571
6778.00   0.21309955   0.01102517
6780.00   0.21505983   0.01104984
6782.00   0.20393069   0.01091871
6784.00   0.20701468   0.01093417
6786.00   0.21367638   0.01101508
6788.00   0.21872430   0.01106352
6790.00   0.22046293   0.01107148
6792.00   0.21663624   0.01100322
6794.00   0.21152185   0.01097216
6796.00   0.20641856   0.01094134
6798.00   0.20183863   0.01082959
6800.00   0.20788614   0.01086554
6802.00   0.20738111   0.01087768
6804.00   0.20293494   0.01084476
6806.00   0.20381755   0.01083404
6808.00   0.20677431   0.01085584
6810.00   0.21525283   0.01092023
6812.00   0.21512009   0.01093456
6814.00   0.21299107   0.01092211
6816.00   0.21311478   0.01090595
6818.00   0.20511062   0.01081179
6820.00   0.21106912   0.01090899
6822.00   0.21629892   0.01112436
6824.00   0.21463422   0.01138226
6826.00   0.20692939   0.01164852
6828.00   0.20787613   0.01198081
6830.00   0.21117254   0.01233286
6832.00   0.21212484   0.01250949
6834.00   0.21685021   0.01244897
6836.00   0.22323571   0.01222831
6838.00   0.21130955   0.01191614
6840.00   0.21279931   0.01162720
6842.00   0.21715052   0.01134840
6844.00   0.21286762   0.01113664
6846.00   0.21500804   0.01111024
6848.00   0.20792110   0.01096752
6850.00   0.21738344   0.01101818
6852.00   0.22585803   0.01107828
6854.00   0.22027822   0.01102799
6856.00   0.21239388   0.01099045
6858.00   0.21551065   0.01140120
6860.00   0.22074933   0.01212946
6862.00   0.21803226   0.01281668
6864.00   0.21749580   0.01340131
6866.00   0.21285164   0.01401127
6868.00   0.21401633   0.01454213
6870.00   0.22094671   0.01449466
6872.00   0.22203910   0.01375292
6874.00   0.21673499   0.01286003
6876.00   0.22140063   0.01243827
6878.00   0.21836375   0.01200853
6880.00   0.21456002   0.01167942
6882.00   0.21809864   0.01165547
6884.00   0.23038940   0.01195328
6886.00   0.23110282   0.01218100
6888.00   0.22815086   0.01221135
6890.00   0.22496004   0.01215285
6892.00   0.22987776   0.01215623
6894.00   0.22794406   0.01206830
6896.00   0.22892608   0.01200257
6898.00   0.22704442   0.01195432
6900.00   0.22354899   0.01188955
6902.00   0.23020400   0.01191343
6904.00   0.23429830   0.01191087
6906.00   0.22931765   0.01185043
6908.00   0.23133492   0.01186057
6910.00   0.24126916   0.01197386
6912.00   0.23847167   0.01194095
6914.00   0.22634739   0.01174814
6916.00   0.22537206   0.01170408
6918.00   0.23065893   0.01186323
6920.00   0.24249180   0.01213528
6922.00   0.24911861   0.01231684
6924.00   0.24572450   0.01228056
6926.00   0.24296373   0.01223706
6928.00   0.23993368   0.01202993
6930.00   0.23612927   0.01165249
6932.00   0.24017911   0.01141713
6934.00   0.25047407   0.01152487
6936.00   0.25037479   0.01167219
6938.00   0.24629653   0.01175145
6940.00   0.24712478   0.01179351
6942.00   0.25079906   0.01189721
6944.00   0.24746750   0.01208920
6946.00   0.24916613   0.01230398
6948.00   0.25362703   0.01240022
6950.00   0.25963530   0.01238694
6952.00   0.25385848   0.01225753
6954.00   0.25635615   0.01208390
6956.00   0.25768796   0.01176433
6958.00   0.25998345   0.01151351
6960.00   0.25923088   0.01147711
6962.00   0.26484713   0.01154055
6964.00   0.26498178   0.01153706
6966.00   0.26251981   0.01156484
6968.00   0.25898495   0.01159377
6970.00   0.25330573   0.01153747
6972.00   0.25804493   0.01163958
6974.00   0.26188609   0.01183459
6976.00   0.26059762   0.01192798
6978.00   0.26337183   0.01194097
6980.00   0.27513275   0.01201129
6982.00   0.27673206   0.01200586
6984.00   0.27287355   0.01185289
6986.00   0.27318242   0.01169539
6988.00   0.27569869   0.01163899
6990.00   0.27773333   0.01167536
6992.00   0.27044809   0.01159106
6994.00   0.27319530   0.01155955
6996.00   0.28300652   0.01161784
6998.00   0.28666493   0.01166523
7000.00   0.28624836   0.01172414
7002.00   0.29033899   0.01179557
7004.00   0.28564754   0.01177184
7006.00   0.27701315   0.01173659
7008.00   0.27608660   0.01177028
7010.00   0.27841702   0.01180245
7012.00   0.27951998   0.01176585
7014.00   0.27810287   0.01170639
7016.00   0.28109577   0.01166999
7018.00   0.28166005   0.01163734
7020.00   0.27829131   0.01154190
7022.00   0.27582178   0.01147563
7024.00   0.27866182   0.01150652
7026.00   0.27709091   0.01155717
7028.00   0.27341351   0.01161604
7030.00   0.27298442   0.01160551
7032.00   0.27213556   0.01156315
7034.00   0.27011585   0.01150245
7036.00   0.27064940   0.01150209
7038.00   0.27556729   0.01154853
7040.00   0.27638769   0.01152033
7042.00   0.27792969   0.01156731
7044.00   0.27859572   0.01167224
7046.00   0.27753541   0.01174073
7048.00   0.26690397   0.01164642
7050.00   0.27184689   0.01170122
7052.00   0.27770489   0.01176710
7054.00   0.28034195   0.01175097
7056.00   0.27795231   0.01164916
7058.00   0.27796397   0.01160004
7060.00   0.27583766   0.01158770
7062.00   0.27275470   0.01159162
7064.00   0.27888462   0.01165957
7066.00   0.28722253   0.01173139
7068.00   0.29079533   0.01175063
7070.00   0.29348513   0.01174622
7072.00   0.28821266   0.01167859
7074.00   0.28342280   0.01166691
7076.00   0.28617069   0.01176355
7078.00   0.28625730   0.01178162
7080.00   0.28949532   0.01178570
7082.00   0.29525623   0.01183572
7084.00   0.29853317   0.01187004
7086.00   0.29334942   0.01184699
7088.00   0.29036984   0.01180686
7090.00   0.29069534   0.01179062
7092.00   0.29544079   0.01178181
7094.00   0.30067107   0.01175787
7096.00   0.30334571   0.01178915
7098.00   0.29916629   0.01175095
7100.00   0.30264556   0.01169152
7102.00   0.30974704   0.01163808
7104.00   0.30693278   0.01158660
7106.00   0.30431989   0.01161477
7108.00   0.31110319   0.01170213
7110.00   0.32016525   0.01179020
7112.00   0.32297409   0.01184821
7114.00   0.31362373   0.01184867
7116.00   0.31212521   0.01181226
7118.00   0.31924239   0.01184062
7120.00   0.32588142   0.01188625
7122.00   0.33038914   0.01193562
7124.00   0.33830038   0.01202904
7126.00   0.33757439   0.01205257
7128.00   0.33287096   0.01201742
7130.00   0.32907569   0.01197371
7132.00   0.33935213   0.01202806
7134.00   0.34235165   0.01205327
7136.00   0.34504530   0.01207023
7138.00   0.34643570   0.01213672
7140.00   0.35103500   0.01226523
7142.00   0.36179993   0.01240883
7144.00   0.35390046   0.01234479
7146.00   0.35548273   0.01231105
7148.00   0.36333585   0.01234513
7150.00   0.37268022   0.01238172
7152.00   0.37429258   0.01233820
7154.00   0.37865433   0.01240341
7156.00   0.37732530   0.01241425
7158.00   0.37473473   0.01239457
7160.00   0.37705716   0.01245424
7162.00   0.38121739   0.01254816
7164.00   0.37737766   0.01256297
7166.00   0.37977502   0.01269600
7168.00   0.38822210   0.01292653
7170.00   0.40227500   0.01315012
7172.00   0.40459970   0.01324540
7174.00   0.39730343   0.01323516
7176.00   0.39515415   0.01328563
7178.00   0.40624297   0.01341286
7180.00   0.41431165   0.01345622
7182.00   0.42076740   0.01353204
7184.00   0.42249325   0.01361109
7186.00   0.42440942   0.01363726
7188.00   0.42430511   0.01359823
7190.00   0.42208564   0.01355437
7192.00   0.42355385   0.01351549
7194.00   0.42888817   0.01358086
7196.00   0.42978683   0.01360053
7198.00   0.43394300   0.01362884
7200.00   0.43627468   0.01362744
7202.00   0.43898702   0.01361802
7204.00   0.44657370   0.01363942
7206.00   0.44462323   0.01352280
7208.00   0.44654468   0.01337543
7210.00   0.44908571   0.01323721
7212.00   0.44633505   0.01308356
7214.00   0.44121417   0.01297034
7216.00   0.43966320   0.01294208
7218.00   0.44874021   0.01305258
7220.00   0.45751831   0.01315989
7222.00   0.45605627   0.01315688
7224.00   0.45892319   0.01322694
7226.00   0.46081260   0.01331250
7228.00   0.46289790   0.01341608
7230.00   0.46566948   0.01360580
7232.00   0.47949266   0.01395023
7234.00   0.48892280   0.01461900
7236.00   0.49168825   0.01543570
7238.00   0.48415640   0.01609852
7240.00   0.47261897   0.01670356
7242.00   0.49067482   0.01744367
7244.00   0.49119020   0.01742967
7246.00   0.48658815   0.01681928
7248.00   0.48873389   0.01624887
7250.00   0.49025407   0.01577454
7252.00   0.49168181   0.01518151
7254.00   0.49432072   0.01470676
7256.00   0.49129066   0.01438746
7258.00   0.48998973   0.01421774
7260.00   0.49180856   0.01409560
7262.00   0.50212210   0.01412122
7264.00   0.50203246   0.01408711
7266.00   0.49830225   0.01407353
7268.00   0.50485319   0.01424307
7270.00   0.50643939   0.01481856
7272.00   0.51120210   0.01602643
7274.00   0.51455718   0.01707344
7276.00   0.51184630   0.01743838
7278.00   0.50555444   0.01731483
7280.00   0.51373565   0.01719405
7282.00   0.52096105   0.01655511
7284.00   0.52679211   0.01569796
7286.00   0.52088082   0.01520958
7288.00   0.51197344   0.01513729
7290.00   0.51670504   0.01497180
7292.00   0.52741122   0.01475965
7294.00   0.52802086   0.01451561
7296.00   0.52541858   0.01440935
7298.00   0.52685291   0.01454565
7300.00   0.52854866   0.01482517
7302.00   0.53315216   0.01497424
7304.00   0.52605337   0.01487123
7306.00   0.51564378   0.01476299
7308.00   0.50549835   0.01456550
7310.00   0.51437670   0.01476605
7312.00   0.51762468   0.01540475
7314.00   0.51559144   0.01609855
7316.00   0.51307470   0.01635001
7318.00   0.50495040   0.01615887
7320.00   0.51010656   0.01577611
7322.00   0.51026636   0.01505377
7324.00   0.50322384   0.01430130
7326.00   0.50519210   0.01427663
7328.00   0.50517040   0.01444744
7330.00   0.51030332   0.01456379
7332.00   0.51228958   0.01456727
7334.00   0.51539892   0.01467292
7336.00   0.51148993   0.01505473
7338.00   0.51096958   0.01563780
7340.00   0.50923628   0.01596849
7342.00   0.50390780   0.01601338
7344.00   0.49798194   0.01589072
7346.00   0.49805227   0.01529820
7348.00   0.50159383   0.01439053
7350.00   0.50069761   0.01377636
7352.00   0.50793988   0.01380027
7354.00   0.50173968   0.01402649
7356.00   0.49223009   0.01416762
7358.00   0.50164115   0.01431523
7360.00   0.50921869   0.01438322
7362.00   0.50814539   0.01442820
7364.00   0.49498168   0.01459262
7366.00   0.49572507   0.01500083
7368.00   0.50315082   0.01532352
7370.00   0.50028849   0.01536850
7372.00   0.50119042   0.01525655
7374.00   0.50140244   0.01489452
7376.00   0.50130147   0.01420166
7378.00   0.50236470   0.01373105
7380.00   0.51024389   0.01364505
7382.00   0.51384836   0.01369523
7384.00   0.51472479   0.01368390
7386.00   0.51607126   0.01376636
7388.00   0.50869000   0.01387446
7390.00   0.49893308   0.01395406
7392.00   0.50472111   0.01404842
7394.00   0.51356143   0.01416991
7396.00   0.51989520   0.01439946
7398.00   0.52842599   0.01465671
7400.00   0.53375274   0.01480226
7402.00   0.52625173   0.01475927
7404.00   0.52210659   0.01465712
7406.00   0.53398347   0.01457818
7408.00   0.53917450   0.01431530
7410.00   0.53556657   0.01394057
7412.00   0.54390806   0.01385087
7414.00   0.54905242   0.01382209
7416.00   0.54728001   0.01377498
7418.00   0.54852706   0.01377968
7420.00   0.55676723   0.01382383
7422.00   0.55986220   0.01381754
7424.00   0.55789107   0.01388882
7426.00   0.56389487   0.01401914
7428.00   0.56947106   0.01411479
7430.00   0.57202989   0.01415984
7432.00   0.57937455   0.01432171
7434.00   0.58342695   0.01448272
7436.00   0.58598274   0.01456495
7438.00   0.59242082   0.01461325
7440.00   0.59944743   0.01465813
7442.00   0.59479743   0.01458510
7444.00   0.59857529   0.01444079
7446.00   0.60160488   0.01426512
7448.00   0.60423750   0.01415927
7450.00   0.60509801   0.01416673
7452.00   0.61530542   0.01427451
7454.00   0.61435312   0.01428000
7456.00   0.61798739   0.01431805
7458.00   0.62242168   0.01439543
7460.00   0.62326890   0.01447841
7462.00   0.61813569   0.01451737
7464.00   0.61750031   0.01459122
7466.00   0.62292433   0.01472862
7468.00   0.62761551   0.01490190
7470.00   0.62365794   0.01502496
7472.00   0.62194520   0.01507264
7474.00   0.62953347   0.01516337
7476.00   0.63928312   0.01530088
7478.00   0.64301515   0.01541546
7480.00   0.64380425   0.01545276
7482.00   0.63580412   0.01537747
7484.00   0.63110596   0.01527281
7486.00   0.63610649   0.01518894
7488.00   0.64342451   0.01506170
7490.00   0.64816505   0.01490388
7492.00   0.65413290   0.01482707
7494.00   0.65368390   0.01482258
7496.00   0.64584970   0.01480690
7498.00   0.64334220   0.01479595
7500.00   0.64613181   0.01472380
7502.00   0.64075857   0.01460215
7504.00   0.63447589   0.01451110
7506.00   0.62685633   0.01444108
7508.00   0.62911248   0.01443582
7510.00   0.62730730   0.01442789
7512.00   0.62620836   0.01444075
7514.00   0.62224263   0.01443207
7516.00   0.61889321   0.01447481
7518.00   0.61442918   0.01482148
7520.00   0.60233927   0.01539173
7522.00   0.59613210   0.01579221
7524.00   0.59488434   0.01594702
7526.00   0.59024906   0.01596798
7528.00   0.57359642   0.01574596
7530.00   0.58149850   0.01529520
7532.00   0.58506024   0.01479068
7534.00   0.57255369   0.01438945
7536.00   0.55467665   0.01414665
7538.00   0.55255729   0.01400671
7540.00   0.55446666   0.01395896
7542.00   0.55081373   0.01391421
7544.00   0.54583353   0.01384127
7546.00   0.53810924   0.01371236
7548.00   0.53504246   0.01361986
7550.00   0.52436757   0.01353773
7552.00   0.51165366   0.01351302
7554.00   0.50236863   0.01355447
7556.00   0.49867585   0.01360140
7558.00   0.49223825   0.01356753
7560.00   0.50083899   0.01361662
7562.00   0.50746232   0.01364174
7564.00   0.50029486   0.01363377
7566.00   0.48680243   0.01377691
7568.00   0.48262563   0.01421588
7570.00   0.47557569   0.01452068
7572.00   0.46944150   0.01458549
7574.00   0.46731961   0.01448651
7576.00   0.46119621   0.01410774
7578.00   0.46592870   0.01370692
7580.00   0.48034897   0.01351232
7582.00   0.48916665   0.01353549
7584.00   0.47130513   0.01347900
7586.00   0.46624851   0.01348255
7588.00   0.45659518   0.01358830
7590.00   0.45363045   0.01399742
7592.00   0.46145031   0.01498945
7594.00   0.45121527   0.01661522
7596.00   0.43686876   0.01920043
7598.00   0.42970467   0.02253339
7600.00   0.43237507   0.02594800
7602.00   0.43229726   0.02837346
7604.00   0.42033234   0.02875519
7606.00   0.42057338   0.02727985
7608.00   0.43647528   0.02522569
7610.00   0.44563350   0.02285797
7612.00   0.44145480   0.02022336
7614.00   0.46171775   0.01833939
7616.00   0.47922897   0.01700562
7618.00   0.48941267   0.01638369
7620.00   0.48143029   0.01640172
7622.00   0.47221613   0.01706110
7624.00   0.47577214   0.01829813
7626.00   0.48948660   0.01952931
7628.00   0.48840943   0.01998043
7630.00   0.48625493   0.01981832
7632.00   0.49580789   0.01964093
7634.00   0.51267409   0.01928240
7636.00   0.50226378   0.01842921
7638.00   0.50193846   0.01782342
7640.00   0.52684706   0.01770925
7642.00   0.53333187   0.01741510
7644.00   0.52604192   0.01695900
7646.00   0.53205490   0.01670262
7648.00   0.53841919   0.01657663
7650.00   0.54875296   0.01653313
7652.00   0.55392259   0.01637414
7654.00   0.55789840   0.01624636
7656.00   0.55382830   0.01601155
7658.00   0.56074816   0.01591613
7660.00   0.57882857   0.01596928
7662.00   0.58312684   0.01604719
7664.00   0.57513762   0.01582998
7666.00   0.57457995   0.01579412
7668.00   0.58754218   0.01579017
7670.00   0.60419744   0.01555851
7672.00   0.60384178   0.01553982
7674.00   0.59826946   0.01587488
7676.00   0.60463023   0.01473590
7678.00   0.62033695   0.01478717
7680.00   0.63381493   0.01477481
7682.00   0.61811370   0.01465727
7684.00   0.63010311   0.01477420
7686.00   0.64641458   0.01487170
7688.00   0.65183073   0.01491155
7690.00   0.64288849   0.01500203
7692.00   0.64352369   0.01498310
7694.00   0.65205425   0.01505662
7696.00   0.65923119   0.01644094
7698.00   0.65332717   0.01519330
7700.00   0.65494734   0.01517343
7702.00   0.65753025   0.01643051
7704.00   0.64815110   0.01595342
7706.00   0.65303802   0.01566031
7708.00   0.68513852   0.01624708
7710.00   0.68330836   0.01718041
7712.00   0.70119786   0.01817688
7714.00   0.70329446   0.01872125
7716.00   0.68839192   0.01873861
7718.00   0.68186712   0.01833184
7720.00   0.68080956   0.01767322
7722.00   0.69196743   0.01702153
7724.00   0.69343787   0.01630237
7726.00   0.69713306   0.01584329
7728.00   0.68621844   0.01560398
7730.00   0.69426227   0.01557172
7732.00   0.69986802   0.01542699
7734.00   0.69399124   0.01524968
7736.00   0.69390804   0.01521812
7738.00   0.69742757   0.01521685
7740.00   0.69781142   0.01523312
7742.00   0.69201523   0.01525136
7744.00   0.69030136   0.01577241
7746.00   0.68858141   0.01688626
7748.00   0.70305711   0.01800097
7750.00   0.70171905   0.01832362
7752.00   0.69369215   0.01835383
7754.00   0.69968408   0.01827524
7756.00   0.70047730   0.01774949
7758.00   0.69184965   0.01680567
7760.00   0.70879167   0.01645985
7762.00   0.71628761   0.01642053
7764.00   0.70898420   0.01626931
7766.00   0.71186668   0.01591584
7768.00   0.71512765   0.01565704
7770.00   0.71056181   0.01560921
7772.00   0.70640379   0.01562452
7774.00   0.70447034   0.01572250
7776.00   0.70539778   0.01597424
7778.00   0.70344931   0.01611239
7780.00   0.70665264   0.01603911
7782.00   0.71237683   0.01592139
7784.00   0.70650345   0.01577502
7786.00   0.69473410   0.01566551
7788.00   0.69807142   0.01609501
7790.00   0.69804829   0.01693095
7792.00   0.69738919   0.01759711
7794.00   0.69585174   0.01778054
7796.00   0.68194681   0.01755911
7798.00   0.68454981   0.01714859
7800.00   0.68389654   0.01628859
7802.00   0.68512565   0.01558128
7804.00   0.68075848   0.01549875
7806.00   0.67254066   0.01575449
7808.00   0.67623162   0.01592625
7810.00   0.67519158   0.01595774
7812.00   0.67251664   0.01586264
7814.00   0.67709559   0.01578855
7816.00   0.67229605   0.01625717
7818.00   0.66253543   0.01707145
7820.00   0.65165979   0.01755909
7822.00   0.65216720   0.01769261
7824.00   0.66084599   0.01766928
7826.00   0.67035860   0.01711155
7828.00   0.65213007   0.01590017
7830.00   0.63535607   0.01490700
7832.00   0.63549048   0.01462133
7834.00   0.64462942   0.01477012
7836.00   0.62845606   0.01489516
7838.00   0.62108612   0.01514937
7840.00   0.62345177   0.01536420
7842.00   0.63162470   0.01548421
7844.00   0.62904006   0.01548696
7846.00   0.62997609   0.01563190
7848.00   0.62544638   0.01616289
7850.00   0.62071133   0.01691567
7852.00   0.61269683   0.01747846
7854.00   0.60803717   0.01772446
7856.00   0.60062575   0.01787832
7858.00   0.59438890   0.01753931
7860.00   0.59085500   0.01674624
7862.00   0.58894658   0.01601360
7864.00   0.58101988   0.01587380
7866.00   0.57796073   0.01595965
7868.00   0.57000899   0.01602062
7870.00   0.55982703   0.01599946
7872.00   0.56005651   0.01595329
7874.00   0.57410306   0.01600202
7876.00   0.57508081   0.01584060
7878.00   0.55969256   0.01548354
7880.00   0.54414707   0.01520925
7882.00   0.53232723   0.01517377
7884.00   0.54016620   0.01538814
7886.00   0.53722918   0.01556087
7888.00   0.52577049   0.01555755
7890.00   0.51272845   0.01538504
7892.00   0.51526266   0.01529721
7894.00   0.51448798   0.01503194
7896.00   0.51342148   0.01449523
7898.00   0.50985926   0.01394451
7900.00   0.50096542   0.01370899
7902.00   0.49590111   0.01363781
7904.00   0.50414926   0.01372333
7906.00   0.50045615   0.01413969
7908.00   0.49446556   0.01527470
7910.00   0.48941550   0.01691178
7912.00   0.47419378   0.01773527
7914.00   0.46554610   0.01800479
7916.00   0.46407577   0.01823742
7918.00   0.46255556   0.01805213
7920.00   0.45493457   0.01674879
7922.00   0.44807610   0.01545742
7924.00   0.43946353   0.01496193
7926.00   0.43924022   0.01475647
7928.00   0.44009158   0.01449437
7930.00   0.44546163   0.01431705
7932.00   0.43830106   0.01419939
7934.00   0.41979042   0.01393539
7936.00   0.41087678   0.01354931
7938.00   0.41537866   0.01308395
7940.00   0.41184616   0.01274856
7942.00   0.40843120   0.01279556
7944.00   0.40279970   0.01311353
7946.00   0.39684498   0.01345614
7948.00   0.39898261   0.01363605
7950.00   0.39079165   0.01357691
7952.00   0.38401163   0.01340109
7954.00   0.38935122   0.01312027
7956.00   0.39331985   0.01286196
7958.00   0.38282704   0.01303769
7960.00   0.36340770   0.01424209
7962.00   0.36673108   0.01543247
7964.00   0.35935938   0.01584659
7966.00   0.35689208   0.01581304
7968.00   0.36468992   0.01550507
7970.00   0.35709968   0.01444396
7972.00   0.36582223   0.01338419
7974.00   0.36360291   0.01302785
7976.00   0.35681644   0.01334238
7978.00   0.35396925   0.01361481
7980.00   0.34512463   0.01356151
7982.00   0.34513855   0.01343807
7984.00   0.34687734   0.01316183
7986.00   0.34761199   0.01293091
7988.00   0.35163140   0.01379069
7990.00   0.33765617   0.01504650
7992.00   0.33599079   0.01574414
7994.00   0.34565616   0.01590847
7996.00   0.34723750   0.01569627
7998.00   0.33758560   0.01479747
8000.00   0.33944678   0.01332899
8002.00   0.33938345   0.01232422
8004.00   0.33724976   0.01202525
8006.00   0.33685932   0.01209390
8008.00   0.34421515   0.01233963
8010.00   0.34007660   0.01264939
8012.00   0.33837286   0.01295946
8014.00   0.34315768   0.01317338
8016.00   0.34960899   0.01320614
8018.00   0.34096274   0.01308827
8020.00   0.33210596   0.01342658
8022.00   0.33035925   0.01410529
8024.00   0.33884534   0.01466121
8026.00   0.34273490   0.01477914
8028.00   0.35074034   0.01480810
8030.00   0.34764719   0.01427111
8032.00   0.34133080   0.01330295
8034.00   0.33863652   0.01244233
8036.00   0.33918476   0.01215471
8038.00   0.33237609   0.01200942
8040.00   0.33018407   0.01190228
8042.00   0.33729744   0.01192272
8044.00   0.34438685   0.01205326
8046.00   0.34247568   0.01219286
8048.00   0.34022939   0.01235016
8050.00   0.33763245   0.01244059
8052.00   0.33745745   0.01246064
8054.00   0.34085500   0.01250579
8056.00   0.34343621   0.01275520
8058.00   0.34258565   0.01305163
8060.00   0.33780459   0.01318142
8062.00   0.33232996   0.01313943
8064.00   0.33115962   0.01307527
8066.00   0.33237317   0.01289776
8068.00   0.33149478   0.01250522
8070.00   0.33362448   0.01213994
8072.00   0.33962986   0.01200531
8074.00   0.34101224   0.01202047
8076.00   0.33645180   0.01194951
8078.00   0.34011236   0.01199367
8080.00   0.34563234   0.01209522
8082.00   0.34105715   0.01211321
8084.00   0.33558157   0.01204293
8086.00   0.33744708   0.01207104
8088.00   0.33724236   0.01209333
8090.00   0.33634269   0.01212500
8092.00   0.34424707   0.01222622
8094.00   0.34365311   0.01226483
8096.00   0.34321156   0.01235871
8098.00   0.33977363   0.01246483
8100.00   0.33451721   0.01250535
8102.00   0.33889684   0.01255475
8104.00   0.33614004   0.01256700
8106.00   0.33943763   0.01254730
8108.00   0.34332070   0.01246526
8110.00   0.34064046   0.01229588
8112.00   0.33928239   0.01219076
8114.00   0.33897677   0.01213331
8116.00   0.33106264   0.01206797
8118.00   0.32942581   0.01207313
8120.00   0.33647153   0.01213664
8122.00   0.34358659   0.01214638
8124.00   0.34510136   0.01212925
8126.00   0.34677148   0.01218719
8128.00   0.34937084   0.01231495
8130.00   0.34609222   0.01237903
8132.00   0.34004197   0.01243624
8134.00   0.33826223   0.01250450
8136.00   0.33862260   0.01258706
8138.00   0.33983031   0.01265229
8140.00   0.33496785   0.01262659
8142.00   0.33966669   0.01271073
8144.00   0.34491873   0.01281371
8146.00   0.34709072   0.01287462
8148.00   0.34122539   0.01286031
8150.00   0.33541951   0.01288517
8152.00   0.33784911   0.01286638
8154.00   0.34514788   0.01281766
8156.00   0.34111428   0.01272677
8158.00   0.34028044   0.01281078
8160.00   0.33564159   0.01293813
8162.00   0.33852276   0.01300804
8164.00   0.34834602   0.01318532
8166.00   0.35275158   0.01324559
8168.00   0.34349009   0.01305604
8170.00   0.32984552   0.01290376
8172.00   0.34209296   0.01314631
8174.00   0.34667289   0.01344633
8176.00   0.34694490   0.01393387
8178.00   0.34575820   0.01470570
8180.00   0.35160413   0.01556914
8182.00   0.34721169   0.01596129
8184.00   0.33994594   0.01608848
8186.00   0.33048093   0.01608866
8188.00   0.33312461   0.01620184
8190.00   0.33920193   0.01651098
8192.00   0.33699414   0.01673919
8194.00   0.33000118   0.01678936
8196.00   0.32854545   0.01674471
8198.00   0.31524488   0.01636247
8200.00   0.30457646   0.01536763
8202.00   0.29255798   0.01418525
8204.00   0.28315148   0.01333873
8206.00   0.28161207   0.01292722
8208.00   0.27029148   0.01260136
8210.00   0.26041600   0.01234328
8212.00   0.25317571   0.01206316
8214.00   0.24585898   0.01178860
8216.00   0.23644145   0.01157617
8218.00   0.21999283   0.01129099
8220.00   0.21531308   0.01123212
8222.00   0.21619767   0.01141254
8224.00   0.21129160   0.01163087
8226.00   0.19590068   0.01173726
8228.00   0.18594015   0.01177930
8230.00   0.18579751   0.01167173
8232.00   0.18444502   0.01134407
8234.00   0.18334460   0.01096059
8236.00   0.17636304   0.01061881
8238.00   0.16256517   0.01031561
8240.00   0.15591000   0.01016024
8242.00   0.15157181   0.01011025
8244.00   0.14995104   0.01011566
8246.00   0.14547640   0.01002026
8248.00   0.14356005   0.00990538
8250.00   0.14039762   0.00987513
8252.00   0.13490605   0.00985170
8254.00   0.13068385   0.00982731
8256.00   0.13405810   0.00980786
8258.00   0.13655351   0.00977053
8260.00   0.12435921   0.00958274
8262.00   0.11168381   0.00938572
8264.00   0.10634322   0.00924031
8266.00   0.10860463   0.00918344
8268.00   0.10816658   0.00925066
8270.00   0.10862990   0.00945228
8272.00   0.10552757   0.00976628
8274.00   0.10232753   0.01036095
8276.00   0.09376919   0.01130557
8278.00   0.09227067   0.01211241
8280.00   0.09843302   0.01264952
8282.00   0.09792431   0.01318452
8284.00   0.08628786   0.01389249
8286.00   0.09359387   0.01433567
8288.00   0.10184500   0.01397497
8290.00   0.10046416   0.01364775
8292.00   0.10065586   0.01381967
8294.00   0.09970022   0.01413504
8296.00   0.09757569   0.01422120
8298.00   0.09296481   0.01417859
8300.00   0.09014446   0.01402052
8302.00   0.08692676   0.01338207
8304.00   0.08788637   0.01216686
8306.00   0.09564284   0.01100290
8308.00   0.10203854   0.01058800
8310.00   0.10234507   0.01055931
8312.00   0.09197865   0.01045299
8314.00   0.09657115   0.01044382
8316.00   0.11380965   0.01037077
8318.00   0.11084194   0.00997846
8320.00   0.10456494   0.00963373
8322.00   0.11026963   0.00953573
8324.00   0.11162002   0.00938585
8326.00   0.12001956   0.00938128
8328.00   0.12950408   0.00942001
8330.00   0.13022150   0.00942711
8332.00   0.12060200   0.00943864
8334.00   0.12589164   0.00960281
8336.00   0.13267508   0.01009150
8338.00   0.13985702   0.01235633
8340.00   0.13369285   0.01545152
8342.00   0.12103725   0.01767340
8344.00   0.14539753   0.01831634
8346.00   0.14527766   0.01851528
8348.00   0.14279640   0.01820484
8350.00   0.14107107   0.01669967
8352.00   0.14453584   0.01424212
8354.00   0.15105495   0.01318408
8356.00   0.14604138   0.01266347
8358.00   0.14486358   0.01200204
8360.00   0.14568089   0.01119601
8362.00   0.14546865   0.01100189
8364.00   0.13938864   0.01100389
8366.00   0.13801175   0.01090916
8368.00   0.13915525   0.01063025
8370.00   0.14266108   0.01020486
8372.00   0.13904101   0.00972658
8374.00   0.14258437   0.00968709
8376.00   0.14959809   0.01032788
8378.00   0.14828266   0.01117356
8380.00   0.13825209   0.01167869
8382.00   0.13227543   0.01176656
8384.00   0.14055090   0.01179077
8386.00   0.14723267   0.01145332
8388.00   0.14422940   0.01063344
8390.00   0.14830984   0.00996927
8392.00   0.15173936   0.01064974
8394.00   0.15427853   0.01307717
8396.00   0.15953313   0.01526419
8398.00   0.16551529   0.01623746
8400.00   0.16506325   0.01615262
8402.00   0.16655426   0.01583892
8404.00   0.16822571   0.01417362
8406.00   0.17384870   0.01183075
8408.00   0.17301130   0.01037581
8410.00   0.17528039   0.01098055
8412.00   0.16841030   0.01183294
8414.00   0.16530168   0.01217127
8416.00   0.16442521   0.01214967
8418.00   0.17430569   0.01208000
8420.00   0.17829220   0.01157271
8422.00   0.17682965   0.01108920
8424.00   0.16895109   0.01216542
8426.00   0.16877423   0.01444464
8428.00   0.17568414   0.01630069
8430.00   0.19289364   0.01664637
8432.00   0.19617973   0.01654467
8434.00   0.19478536   0.01551286
8436.00   0.18744618   0.01332348
8438.00   0.19328386   0.01086642
8440.00   0.18651593   0.00995058
8442.00   0.18956469   0.00999073
8444.00   0.19626655   0.01034669
8446.00   0.20259719   0.01083146
8448.00   0.21302371   0.01155993
8450.00   0.21931000   0.01217809
8452.00   0.22063048   0.01230709
8454.00   0.22274429   0.01223333
8456.00   0.22890997   0.01208157
8458.00   0.23695028   0.01199632
8460.00   0.23233564   0.01282258
8462.00   0.23768033   0.01422595
8464.00   0.23563366   0.01499659
8466.00   0.22630616   0.01495594
8468.00   0.23208319   0.01471273
8470.00   0.24636953   0.01378211
8472.00   0.24604233   0.01213986
8474.00   0.24522150   0.01087655
8476.00   0.24832134   0.01073608
8478.00   0.25731558   0.01081837
8480.00   0.26521066   0.01085261
8482.00   0.26949844   0.01084682
8484.00   0.27356669   0.01086969
8486.00   0.27677524   0.01100431
8488.00   0.28327423   0.01148251
8490.00   0.29558000   0.01205732
8492.00   0.30424401   0.01235952
8494.00   0.31127107   0.01247004
8496.00   0.31344685   0.01248465
8498.00   0.31687987   0.01262997
8500.00   0.31592688   0.01309363
8502.00   0.32395905   0.01360477
8504.00   0.33835959   0.01384077
8506.00   0.35462919   0.01398148
8508.00   0.34714726   0.01366417
8510.00   0.34262148   0.01284885
8512.00   0.35904565   0.01211775
8514.00   0.37766299   0.01190032
8516.00   0.37484410   0.01190558
8518.00   0.37519613   0.01197622
8520.00   0.39046574   0.01214647
8522.00   0.40933594   0.01231417
8524.00   0.41900381   0.01238464
8526.00   0.42595136   0.01240167
8528.00   0.43356362   0.01241754
8530.00   0.44812250   0.01255201
8532.00   0.46613249   0.01280634
8534.00   0.47366929   0.01305361
8536.00   0.47920349   0.01321140
8538.00   0.48108312   0.01323294
8540.00   0.49039686   0.01329472
8542.00   0.50284833   0.01347939
8544.00   0.50407797   0.01367871
8546.00   0.50592071   0.01385034
8548.00   0.50876147   0.01394645
8550.00   0.51731616   0.01402742
8552.00   0.52811259   0.01403758
8554.00   0.53091872   0.01377507
8556.00   0.52444094   0.01340592
8558.00   0.51963955   0.01319823
8560.00   0.52147073   0.01318674
8562.00   0.53293586   0.01326751
8564.00   0.54492158   0.01336559
8566.00   0.54916310   0.01341002
8568.00   0.54761201   0.01342080
8570.00   0.54361480   0.01341024
8572.00   0.54252571   0.01342614
8574.00   0.55646628   0.01356534
8576.00   0.55758184   0.01357218
8578.00   0.55406946   0.01350697
8580.00   0.55355173   0.01343932
8582.00   0.55927235   0.01347559
8584.00   0.56282073   0.01355489
8586.00   0.57111758   0.01364647
8588.00   0.56941199   0.01364157
8590.00   0.55740887   0.01361005
8592.00   0.56235379   0.01379407
8594.00   0.56390506   0.01385721
8596.00   0.56314880   0.01383869
8598.00   0.57358354   0.01391870
8600.00   0.58410794   0.01398795
8602.00   0.58314919   0.01390857
8604.00   0.57688427   0.01377516
8606.00   0.58647513   0.01381547
8608.00   0.58833903   0.01388374
8610.00   0.58789426   0.01398734
8612.00   0.59360623   0.01418777
8614.00   0.59261870   0.01440431
8616.00   0.58934301   0.01464512
8618.00   0.59143740   0.01497161
8620.00   0.60544902   0.01544255
8622.00   0.60751462   0.01587727
8624.00   0.59957123   0.01612110
8626.00   0.60412872   0.01633545
8628.00   0.61217523   0.01652076
8630.00   0.61215514   0.01658271
8632.00   0.60244739   0.01646509
8634.00   0.60388261   0.01627538
8636.00   0.60420227   0.01602430
8638.00   0.58821940   0.01561126
8640.00   0.59941578   0.01527160
8642.00   0.60976559   0.01508000
8644.00   0.60872120   0.01502425
8646.00   0.60776538   0.01520927
8648.00   0.61204529   0.01561552
8650.00   0.61142528   0.01596934
8652.00   0.59943604   0.01613805
8654.00   0.60388714   0.01633590
8656.00   0.61212432   0.01646924
8658.00   0.61160314   0.01641891
8660.00   0.61316460   0.01639898
8662.00   0.62059182   0.01637033
8664.00   0.62105769   0.01624604
8666.00   0.62492490   0.01613878
8668.00   0.62969249   0.01599502
8670.00   0.62767667   0.01579805
8672.00   0.63172203   0.01564408
8674.00   0.63515610   0.01547328
8676.00   0.64184433   0.01531788
8678.00   0.64308721   0.01515317
8680.00   0.64533043   0.01500822
8682.00   0.64135987   0.01483511
8684.00   0.63618630   0.01466667
8686.00   0.64001423   0.01458728
8688.00   0.64687252   0.01453569
8690.00   0.65203911   0.01448543
8692.00   0.64671481   0.01439078
8694.00   0.64507467   0.01437579
8696.00   0.65308028   0.01445084
8698.00   0.66501689   0.01451756
8700.00   0.67173725   0.01451201
8702.00   0.66998863   0.01448767
8704.00   0.66647249   0.01445390
8706.00   0.66709018   0.01440702
8708.00   0.67190862   0.01436315
8710.00   0.67471290   0.01435364
8712.00   0.67882568   0.01439035
8714.00   0.68147057   0.01439679
8716.00   0.68120259   0.01435229
8718.00   0.68241978   0.01434091
8720.00   0.68783236   0.01443014
8722.00   0.69388443   0.01449337
8724.00   0.69634938   0.01450629
8726.00   0.69078010   0.01446534
8728.00   0.69507027   0.01450197
8730.00   0.69277722   0.01445712
8732.00   0.68793583   0.01441908
8734.00   0.69291377   0.01447772
8736.00   0.70591193   0.01457330
8738.00   0.70182991   0.01456166
8740.00   0.69702023   0.01454886
8742.00   0.70021552   0.01459062
8744.00   0.71050316   0.01465709
8746.00   0.71970719   0.01470087
8748.00   0.71805447   0.01470111
8750.00   0.71859837   0.01473916
8752.00   0.71665794   0.01492170
8754.00   0.71246094   0.01545176
8756.00   0.70636821   0.01640456
8758.00   0.71209246   0.01735218
8760.00   0.70593977   0.01808799
8762.00   0.70489579   0.01892421
8764.00   0.71786004   0.01982438
8766.00   0.72516316   0.01977102
8768.00   0.71745223   0.01910186
8770.00   0.71916467   0.01879757
8772.00   0.72129077   0.01898303
8774.00   0.71806842   0.01920593
8776.00   0.71039915   0.01921172
8778.00   0.71074635   0.01916222
8780.00   0.72569305   0.01893838
8782.00   0.71829635   0.01804767
8784.00   0.70874023   0.01655704
8786.00   0.70917171   0.01578160
8788.00   0.72824651   0.01590029
8790.00   0.73725539   0.01613653
8792.00   0.73174906   0.01613361
8794.00   0.73109180   0.01598229
8796.00   0.72839117   0.01551589
8798.00   0.72629815   0.01496005
8800.00   0.72907639   0.01461996
8802.00   0.72970206   0.01480440
8804.00   0.73530656   0.01542767
8806.00   0.76922244   0.01572785
8808.00   0.74891901   0.01522501
8810.00   0.73364240   0.01620117
8812.00   0.72949582   0.01527158
8814.00   0.73749548   0.01484646
8816.00   0.72217506   0.01481711
8818.00   0.71664453   0.01513901
8820.00   0.71850675   0.01671806
8822.00   0.72291398   0.01979914
8824.00   0.72023791   0.02230496
8826.00   0.70643586   0.02317182
8828.00   0.70814866   0.02331099
8830.00   0.71527821   0.02308545
8832.00   0.71026731   0.02180259
8834.00   0.70559949   0.01980905
8836.00   0.71713954   0.01853638
8838.00   0.71898317   0.01799044
8840.00   0.71246433   0.01746259
8842.00   0.71370918   0.01641172
8844.00   0.71654445   0.01570149
8846.00   0.71984524   0.01571175
8848.00   0.72640848   0.01606645
8850.00   0.73634189   0.01629405
8852.00   0.72644120   0.01622866
8854.00   0.71020293   0.01597989
8856.00   0.70739794   0.01575211
8858.00   0.71555489   0.01566433
8860.00   0.71649557   0.01573572
8862.00   0.70151645   0.01602154
8864.00   0.69319803   0.01648035
8866.00   0.69313198   0.01682954
8868.00   0.69345087   0.01678476
8870.00   0.68884295   0.01648466
8872.00   0.68774158   0.01588199
8874.00   0.68952066   0.01508956
8876.00   0.68714023   0.01464132
8878.00   0.67711449   0.01509338
8880.00   0.66507936   0.01678772
8882.00   0.66487974   0.01924444
8884.00   0.67139369   0.02045303
8886.00   0.66503805   0.02053183
8888.00   0.66567475   0.02010666
8890.00   0.65685195   0.01890035
8892.00   0.65777475   0.01665134
8894.00   0.65741283   0.01493098
8896.00   0.65173602   0.01465263
8898.00   0.64996058   0.01552598
8900.00   0.66781634   0.01658991
8902.00   0.64627653   0.01677445
8904.00   0.62417644   0.01662773
8906.00   0.61351490   0.01628006
8908.00   0.62522250   0.01563261
8910.00   0.62034184   0.01461660
8912.00   0.61548084   0.01489790
8914.00   0.61459458   0.01699681
8916.00   0.61466050   0.01946360
8918.00   0.59555137   0.02056743
8920.00   0.60154480   0.02071728
8922.00   0.60115004   0.02027473
8924.00   0.59759277   0.01874889
8926.00   0.59409523   0.01625538
8928.00   0.58836240   0.01433983
8930.00   0.57368952   0.01373905
8932.00   0.57374090   0.01369757
8934.00   0.58451104   0.01385520
8936.00   0.59541738   0.01418002
8938.00   0.58466136   0.01479873
8940.00   0.59465289   0.01567199
8942.00   0.59441251   0.01610543
8944.00   0.57941002   0.01607985
8946.00   0.56302708   0.01578618
8948.00   0.56008929   0.01523812
8950.00   0.56133658   0.01491493
8952.00   0.56792259   0.01610914
8954.00   0.57193607   0.01806620
8956.00   0.57183266   0.01942480
8958.00   0.57590479   0.01987308
8960.00   0.57430679   0.01980912
8962.00   0.57035118   0.01873696
8964.00   0.56612760   0.01671723
8966.00   0.56098741   0.01493326
8968.00   0.55777764   0.01434354
8970.00   0.55244309   0.01421475
8972.00   0.54551315   0.01412349
8974.00   0.54559958   0.01409368
8976.00   0.55220371   0.01412738
8978.00   0.54882199   0.01395575
8980.00   0.54334092   0.01398006
8982.00   0.54143339   0.01459045
8984.00   0.54338223   0.01571825
8986.00   0.53777814   0.01673589
8988.00   0.53493673   0.01722950
8990.00   0.54443240   0.01710974
8992.00   0.55550200   0.01646560
8994.00   0.55129558   0.01575566
8996.00   0.54600340   0.01602874
8998.00   0.54080439   0.01705582
9000.00   0.53220373   0.01798363
9002.00   0.53852791   0.01859866
9004.00   0.55905205   0.01867647
9006.00   0.56331021   0.01752465
9008.00   0.55528826   0.01574217
9010.00   0.54090571   0.01447802
9012.00   0.53042799   0.01417410
9014.00   0.52395266   0.01410192
9016.00   0.51683635   0.01388732
9018.00   0.51692498   0.01382097
9020.00   0.51731926   0.01387365
9022.00   0.51352984   0.01390280
9024.00   0.50108999   0.01371543
9026.00   0.50394005   0.01362833
9028.00   0.49995193   0.01346183
9030.00   0.49614325   0.01332983
9032.00   0.50099951   0.01337678
9034.00   0.49427029   0.01346274
9036.00   0.48843047   0.01353602
9038.00   0.48338619   0.01355823
9040.00   0.47691432   0.01352888
9042.00   0.47682524   0.01358293
9044.00   0.47256526   0.01374812
9046.00   0.47069427   0.01411666
9048.00   0.47008106   0.01436092
9050.00   0.47663727   0.01446966
9052.00   0.47948089   0.01433184
9054.00   0.49380526   0.01399764
9056.00   0.48099706   0.01336459
9058.00   0.46933588   0.01296608
9060.00   0.47553334   0.01293582
9062.00   0.48045635   0.01309328
9064.00   0.48100233   0.01326941
9066.00   0.47554672   0.01341916
9068.00   0.47324070   0.01354907
9070.00   0.48192301   0.01366290
9072.00   0.48971817   0.01366246
9074.00   0.48181996   0.01356542
9076.00   0.47455934   0.01344827
9078.00   0.46801528   0.01336109
9080.00   0.47090244   0.01343550
9082.00   0.48362574   0.01365547
9084.00   0.48806557   0.01373638
9086.00   0.48346767   0.01371949
9088.00   0.47262439   0.01367677
9090.00   0.46736038   0.01365594
9092.00   0.46639156   0.01357588
9094.00   0.47224465   0.01368262
9096.00   0.47393036   0.01391745
9098.00   0.47633216   0.01418352
9100.00   0.48566815   0.01442838
9102.00   0.47927752   0.01446774
9104.00   0.46101072   0.01422495
9106.00   0.45104969   0.01380371
9108.00   0.45798135   0.01338952
9110.00   0.47252646   0.01309676
9112.00   0.47503856   0.01297620
9114.00   0.47098836   0.01284386
9116.00   0.45541856   0.01280133
9118.00   0.37403655   0.01346509
9120.00   0.45065567   0.01286867
9122.00   0.45944816   0.01283239
9124.00   0.46190357   0.01287206
9126.00   0.44883245   0.01289511
9128.00   0.43015176   0.01295983
9130.00   0.43019637   0.01328772
9132.00   0.45008510   0.01375245
9134.00   0.38476908   0.01411939
9136.00   0.48537454   0.01345114
9138.00   0.47134706   0.01336138
9140.00   0.47453210   0.01318869
9142.00   0.46709144   0.01291214
9144.00   0.46723565   0.01280639
9146.00   0.47267422   0.01300227
9148.00   0.46151841   0.01338903
9150.00   0.45814225   0.01392918
9152.00   0.45687023   0.01431581
9154.00   0.46471033   0.01457547
9156.00   0.46894255   0.01453689
9158.00   0.46086988   0.01408513
9160.00   0.45533657   0.01357523
9162.00   0.45669758   0.01331396
9164.00   0.47294304   0.01331822
9166.00   0.47898149   0.01328419
9168.00   0.47580266   0.01320619
9170.00   0.46117410   0.01327191
9172.00   0.46593297   0.01360604
9174.00   0.47168148   0.01379428
9176.00   0.47280803   0.01370982
9178.00   0.48989853   0.01364324
9180.00   0.48903069   0.01338928
9182.00   0.47319278   0.01309796
9184.00   0.45787373   0.01290066
9186.00   0.46128654   0.01290787
9188.00   0.46488762   0.01282383
9190.00   0.47146419   0.01289095
9192.00   0.47167990   0.01300919
9194.00   0.47108984   0.01304252
9196.00   0.47597003   0.01298482
9198.00   0.48205730   0.01292372
9200.00   0.49314213   0.01299549
9202.00   0.49925312   0.01305483
9204.00   0.48643222   0.01292797
9206.00   0.47537062   0.01287058
9208.00   0.48351994   0.01305656
9210.00   0.49591461   0.01334098
9212.00   0.50308251   0.01368919
9214.00   0.49509725   0.01397388
9216.00   0.50776190   0.01427380
9218.00   0.53173488   0.01459838
9220.00   0.54387832   0.01471749
9222.00   0.53310639   0.01448923
9224.00   0.51548308   0.01406396
9226.00   0.50840837   0.01379816
9228.00   0.49912906   0.01358615
9230.00   0.49363557   0.01340539
9232.00   0.49007562   0.01323944
9234.00   0.49577475   0.01323214
9236.00   0.49834070   0.01323431
9238.00   0.50658512   0.01330633
9240.00   0.51028299   0.01337738
9242.00   0.51285368   0.01347174
9244.00   0.51797152   0.01355482
9246.00   0.52017403   0.01356487
9248.00   0.51326025   0.01347611
9250.00   0.50858402   0.01339292
9252.00   0.50850958   0.01332829
9254.00   0.50144345   0.01319992
9256.00   0.50929898   0.01324738
9258.00   0.51916844   0.01332051
9260.00   0.52194685   0.01332930
9262.00   0.51566887   0.01323653
9264.00   0.52415949   0.01329170
9266.00   0.52859735   0.01333855
9268.00   0.52980512   0.01334580
9270.00   0.53068966   0.01339010
9272.00   0.53351516   0.01356381
9274.00   0.53818041   0.01381057
9276.00   0.53969085   0.01404709
9278.00   0.55273956   0.01437001
9280.00   0.56412655   0.01468085
9282.00   0.56486893   0.01487883
9284.00   0.55974358   0.01490418
9286.00   0.55383217   0.01484692
9288.00   0.55447227   0.01492648
9290.00   0.56404513   0.01517985
9292.00   0.56409097   0.01540791
9294.00   0.55869454   0.01566547
9296.00   0.55488104   0.01599968
9298.00   0.56667167   0.01665515
9300.00   0.58142573   0.01791520
9302.00   0.58371556   0.01992359
9304.00   0.60271776   0.02247781
9306.00   0.57886696   0.02469396
9308.00   0.56808227   0.02721403
9310.00   0.59943533   0.02990310
9312.00   0.60808522   0.03143185
9314.00   0.60108393   0.03117816
9316.00   0.61620134   0.03082841
9318.00   0.63659579   0.03103582
9320.00   0.62814540   0.03140107
9322.00   0.58691120   0.03090867
9324.00   0.61102992   0.02991349
9326.00   0.62993294   0.02846229
9328.00   0.62564683   0.02624828
9330.00   0.63473028   0.02354775
9332.00   0.62018472   0.02239502
9334.00   0.60743690   0.02333130
9336.00   0.63879704   0.02532014
9338.00   0.66967076   0.02719538
9340.00   0.63401920   0.02787446
9342.00   0.59710032   0.02609465
9344.00   0.62144148   0.02329553
9346.00   0.67781848   0.02125337
9348.00   0.71373850   0.02041779
9350.00   0.66933507   0.01988241
9352.00   0.61339515   0.02008954
9354.00   0.57556331   0.02056610
9356.00   0.59922373   0.02088462
9358.00   0.65326476   0.02055150
9360.00   0.67477399   0.01986334
9362.00   0.66698235   0.01944977
9364.00   0.64522070   0.01970539
9366.00   0.61990970   0.02176348
9368.00   0.61892802   0.02687169
9370.00   0.68780583   0.03475795
9372.00   0.69521999   0.04090856
9374.00   0.67129117   0.04431101
9376.00   0.64193004   0.04516102
9378.00   0.64415914   0.04362407
9380.00   0.64608395   0.03845127
9382.00   0.65630943   0.03020828
9384.00   0.65462089   0.02258418
9386.00   0.65135145   0.01861353
9388.00   0.65371823   0.01756652
9390.00   0.65064234   0.01663939
9392.00   0.63687009   0.01615129
9394.00   0.62268424   0.01635927
9396.00   0.61926550   0.01730749
9398.00   0.60858482   0.01847774
9400.00   0.58724123   0.01909772
9402.00   0.60439211   0.01946632
9404.00   0.63502079   0.01961612
9406.00   0.64296705   0.01933013
9408.00   0.60754162   0.01824735
9410.00   0.61529797   0.01754219
9412.00   0.62058836   0.01787497
9414.00   0.62774825   0.01918255
9416.00   0.61704224   0.02056128
9418.00   0.60242152   0.02123804
9420.00   0.62417728   0.02200048
9422.00   0.63165122   0.02286891
9424.00   0.60366261   0.02294976
9426.00   0.57256252   0.02155996
9428.00   0.59298939   0.01975258
9430.00   0.66215819   0.01953910
9432.00   0.70138615   0.02097272
9434.00   0.67820626   0.02430565
9436.00   0.60346609   0.02930925
9438.00   0.55233628   0.03411417
9440.00   0.56557304   0.03668839
9442.00   0.63190365   0.03545667
9444.00   0.65873075   0.02996189
9446.00   0.66429645   0.02301500
9448.00   0.68492323   0.01949195
9450.00   0.66500467   0.01904308
9452.00   0.63075024   0.02096467
9454.00   0.62586361   0.02421077
9456.00   0.63988334   0.02718071
9458.00   0.63907808   0.02802274
9460.00   0.65739393   0.02701510
9462.00   0.68124789   0.02487106
9464.00   0.67684132   0.02209605
9466.00   0.65259975   0.01955206
9468.00   0.64047027   0.01913653
9470.00   0.64212978   0.02142066
9472.00   0.66213852   0.02513564
9474.00   0.69332486   0.02850788
9476.00   0.66593772   0.03049173
9478.00   0.63454127   0.03135900
9480.00   0.62415767   0.02983961
9482.00   0.64904511   0.02585085
9484.00   0.68260854   0.02107953
9486.00   0.69018674   0.01848021
9488.00   0.67461818   0.01766706
9490.00   0.65170318   0.01788375
9492.00   0.64124894   0.01876597
9494.00   0.64533395   0.02046815
9496.00   0.62983871   0.02323885
9498.00   0.63861257   0.02572995
9500.00   0.67222708   0.02637240
9502.00   0.70506239   0.02495719
9504.00   0.71875697   0.02292377
9506.00   0.70554775   0.02070019
9508.00   0.68953878   0.01870007
9510.00   0.67377609   0.01763002
9512.00   0.66090894   0.01820980
9514.00   0.64637923   0.02046268
9516.00   0.64658386   0.02329826
9518.00   0.64574200   0.02515158
9520.00   0.66628838   0.02579620
9522.00   0.71105075   0.02528293
9524.00   0.73021650   0.02356806
9526.00   0.72324210   0.02134962
9528.00   0.72628713   0.01995454
9530.00   0.74105114   0.01974458
9532.00   0.74506432   0.01996855
9534.00   0.73840642   0.01993644
9536.00   0.74107772   0.01997892
9538.00   0.73547977   0.02015756
9540.00   0.71595502   0.02018638
9542.00   0.67883152   0.01959232
9544.00   0.68804234   0.01933913
9546.00   0.71707743   0.01996933
9548.00   0.73540908   0.02112283
9550.00   0.71417713   0.02206391
9552.00   0.68163139   0.02255099
9554.00   0.67623520   0.02272414
9556.00   0.69565505   0.02230724
9558.00   0.72986954   0.02180356
9560.00   0.72658616   0.02189800
9562.00   0.68985301   0.02365933
9564.00   0.67808723   0.02564473
9566.00   0.68613416   0.02635609
9568.00   0.69628096   0.02557054
9570.00   0.69092417   0.02369519
9572.00   0.68655419   0.02128056
9574.00   0.69564223   0.01935852
9576.00   0.67593974   0.01842004
9578.00   0.65487128   0.01714005
9580.00   0.68019271   0.01736152
9582.00   0.68129045   0.01787337
9584.00   0.68121260   0.01826423
9586.00   0.67407012   0.01958557
9588.00   0.63315177   0.01915766
9590.00   0.63329512   0.01995163
9592.00   0.66549402   0.01894988
9594.00   0.68564814   0.01855993
9596.00   0.68066221   0.01806727
9598.00   0.69245547   0.01766594
9600.00   0.67859793   0.01768029
9602.00   0.65089536   0.01808213
9604.00   0.62269813   0.01824845
9606.00   0.62208277   0.01914893
9608.00   0.63810855   0.01915080
9610.00   0.64465982   0.01904691
9612.00   0.62067401   0.01843768
9614.00   0.61241233   0.01811168
9616.00   0.61566496   0.01857090
9618.00   0.60375524   0.01941638
9620.00   0.58870798   0.01984281
9622.00   0.58429879   0.01977704
9624.00   0.58981198   0.01923225
9626.00   0.60426307   0.01834907
9628.00   0.61646461   0.01748794
9630.00   0.62646222   0.01714658
9632.00   0.59674364   0.01684430
9634.00   0.55833638   0.01661686
9636.00   0.54372066   0.01666395
9638.00   0.56032497   0.01698341
9640.00   0.57540005   0.01721486
9642.00   0.56205827   0.01701202
9644.00   0.55007720   0.01669481
9646.00   0.54435843   0.01646274
9648.00   0.54968190   0.01646861
9650.00   0.53979206   0.01631133
9652.00   0.53383988   0.01616686
9654.00   0.52940041   0.01618023
9656.00   0.53439766   0.01651152
9658.00   0.52849203   0.01679693
9660.00   0.51150900   0.01696642
9662.00   0.50557107   0.01739216
9664.00   0.51732618   0.01804706
9666.00   0.51740879   0.01832007
9668.00   0.49109504   0.01782993
9670.00   0.47484192   0.01722245
9672.00   0.48545036   0.01691916
9674.00   0.49701217   0.01693478
9676.00   0.48307571   0.01719589
9678.00   0.45700815   0.01756400
9680.00   0.44450507   0.01785589
9682.00   0.45539281   0.01803549
9684.00   0.46325469   0.01784270
9686.00   0.45040944   0.01709342
9688.00   0.43575716   0.01628286
9690.00   0.43410456   0.01590085
9692.00   0.43299365   0.01629522
9694.00   0.43632612   0.01751303
9696.00   0.42260328   0.01859118
9698.00   0.42581126   0.01893044
9700.00   0.42510089   0.01885323
9702.00   0.42921400   0.01842223
9704.00   0.44360018   0.01756778
9706.00   0.43762699   0.01642931
9708.00   0.42491212   0.01598764
9710.00   0.40500382   0.01621397
9712.00   0.38538697   0.01706359
9714.00   0.38620982   0.01859906
9716.00   0.40728894   0.02017044
9718.00   0.40685371   0.02079534
9720.00   0.40453359   0.02070141
9722.00   0.39837059   0.02002961
9724.00   0.39088905   0.01876502
9726.00   0.39688626   0.01692908
9728.00   0.39724860   0.01573301
9730.00   0.40546477   0.01580623
9732.00   0.39950755   0.01659898
9734.00   0.37499991   0.01721346
9736.00   0.38066256   0.01777923
9738.00   0.39484558   0.01796990
9740.00   0.40569940   0.01775698
9742.00   0.40870130   0.01722860
9744.00   0.40413901   0.01645010
9746.00   0.40290573   0.01593341
9748.00   0.40417659   0.01564706
9750.00   0.41188374   0.01549769
9752.00   0.41005394   0.01525448
9754.00   0.39131868   0.01486678
9756.00   0.39316380   0.01481520
9758.00   0.40433982   0.01500635
9760.00   0.41237199   0.01514456
9762.00   0.40922403   0.01496021
9764.00   0.41414142   0.01474933
9766.00   0.42267585   0.01467909
9768.00   0.42559627   0.01458626
9770.00   0.41994941   0.01447083
9772.00   0.42042199   0.01454299
9774.00   0.41877937   0.01464133
9776.00   0.41130653   0.01468337
9778.00   0.40424284   0.01480654
9780.00   0.40772176   0.01528157
9782.00   0.42355323   0.01654036
9784.00   0.42209324   0.01906655
9786.00   0.43400303   0.02223223
9788.00   0.44323096   0.02472078
9790.00   0.43429744   0.02591573
9792.00   0.41506183   0.02613144
9794.00   0.42029476   0.02554690
9796.00   0.42845628   0.02388251
9798.00   0.44092628   0.02179305
9800.00   0.46255744   0.02036070
9802.00   0.48218393   0.01979442
9804.00   0.46517983   0.01881405
9806.00   0.44965711   0.01781980
9808.00   0.44436133   0.01735228
9810.00   0.45341992   0.01758374
9812.00   0.45304254   0.01765203
9814.00   0.46117100   0.01760216
9816.00   0.46633974   0.01736449
9818.00   0.47564676   0.01703121
9820.00   0.48215520   0.01667383
9822.00   0.47960186   0.01647298
9824.00   0.47652197   0.01641470
9826.00   0.48513260   0.01656389
9828.00   0.49715331   0.01671437
9830.00   0.50114673   0.01660862
9832.00   0.49881616   0.01639884
9834.00   0.50152141   0.01624233
9836.00   0.50049639   0.01609095
9838.00   0.50184220   0.01610753
9840.00   0.49916533   0.01661683
9842.00   0.52400452   0.01791045
9844.00   0.55227393   0.01938788
9846.00   0.56518406   0.02045422
9848.00   0.54272789   0.02062153
9850.00   0.52896929   0.02020757
9852.00   0.54438215   0.01954925
9854.00   0.56459957   0.01865317
9856.00   0.56472450   0.01763873
9858.00   0.55412096   0.01706756
9860.00   0.56942719   0.01729177
9862.00   0.57484549   0.01792107
9864.00   0.57971311   0.01971649
9866.00   0.58298296   0.02272422
9868.00   0.58243126   0.02623550
9870.00   0.56946272   0.02820941
9872.00   0.58372831   0.02875070
9874.00   0.58385396   0.02794771
9876.00   0.57312471   0.02588644
9878.00   0.58249909   0.02260165
9880.00   0.60420471   0.02004308
9882.00   0.61006361   0.01887393
9884.00   0.61059076   0.01867028
9886.00   0.59877211   0.01886573
9888.00   0.61430877   0.01989017
9890.00   0.62952513   0.02150131
9892.00   0.63652962   0.02271357
9894.00   0.63945419   0.02316636
9896.00   0.63095230   0.02289355
9898.00   0.63599569   0.02217644
9900.00   0.64222151   0.02098400
9902.00   0.65460962   0.01991388
9904.00   0.65425569   0.01948197
9906.00   0.64552146   0.02038335
9908.00   0.67527181   0.02323856
9910.00   0.67085838   0.02589605
9912.00   0.66062868   0.02928717
9914.00   0.67246658   0.02931607
9916.00   0.61941737   0.02894408
9918.00   0.66811937   0.02810833
9920.00   0.71683574   0.02539112
9922.00   0.71264797   0.02151684
9924.00   0.67856234   0.02031028
9926.00   0.69101930   0.01968556
9928.00   0.69965458   0.01962506
9930.00   0.69663244   0.01977347
9932.00   0.69640493   0.02022794
9934.00   0.69465834   0.02121240
9936.00   0.70089620   0.02307087
9938.00   0.69619471   0.02565713
9940.00   0.72572517   0.02876383
9942.00   0.75529832   0.03147262
9944.00   0.75388288   0.03296943
9946.00   0.72608143   0.03287537
9948.00   0.72983092   0.03216379
9950.00   0.73682481   0.03140804
9952.00   0.75424534   0.03104538
9954.00   0.77893180   0.03134405
9956.00   0.77570844   0.03220783
9958.00   0.75014538   0.03298675
9960.00   0.72932982   0.03269541
9962.00   0.73210764   0.03119506
9964.00   0.76080924   0.02931342
9966.00   0.78494310   0.02772425
9968.00   0.76133174   0.02608028
9970.00   0.75587821   0.02506197
9972.00   0.78186888   0.02496408
9974.00   0.80374843   0.02509542
9976.00   0.80008525   0.02464308
9978.00   0.79678661   0.02390761
9980.00   0.78773755   0.02312633
9982.00   0.79191607   0.02272387
9984.00   0.79715472   0.02253414
9986.00   0.80227333   0.02244184
9988.00   0.81190115   0.02246349
9990.00   0.80883795   0.02256897
9992.00   0.79890615   0.02282322
9994.00   0.84181786   0.02370738
9996.00   0.83931071   0.02431985
9998.00   0.82424861   0.02469756
10000.00   0.83001614   0.02512616
10002.00   0.84589964   0.02585846
10004.00   0.84228158   0.02745673
10006.00   0.85634369   0.03085663
10008.00   0.85582805   0.03498308
10010.00   0.83345240   0.03827143
10012.00   0.81786442   0.03956432
10014.00   0.81597918   0.03931025
10016.00   0.82956868   0.03756741
10018.00   0.84880447   0.03468283
10020.00   0.85929298   0.03182693
10022.00   0.87424183   0.03109361
10024.00   0.85904956   0.03089122
10026.00   0.85002750   0.03052150
10028.00   0.85615188   0.02976668
10030.00   0.85153168   0.02833356
10032.00   0.85064030   0.02664658
10034.00   0.85170269   0.02579875
10036.00   0.84777969   0.02580459
10038.00   0.84348249   0.02626269
10040.00   0.82929450   0.02664862
10042.00   0.84051782   0.02699915
10044.00   0.84215218   0.02706217
10046.00   0.81997007   0.02665392
10048.00   0.82058233   0.02620881
10050.00   0.83553290   0.02585394
10052.00   0.84563428   0.02606238
10054.00   0.83892983   0.02693779
10056.00   0.81381887   0.02799095
10058.00   0.80335546   0.02905810
10060.00   0.84277296   0.03001278
10062.00   0.84581119   0.03032886
10064.00   0.81155872   0.02989127
10066.00   0.78629750   0.02913040
10068.00   0.78139907   0.02843192
10070.00   0.79618818   0.02827743
10072.00   0.79710221   0.02845520
10074.00   0.79125530   0.02959953
10076.00   0.78867769   0.03194525
10078.00   0.79836631   0.03483528
10080.00   0.78722048   0.03676499
10082.00   0.79420322   0.03755853
10084.00   0.81001323   0.03717024
10086.00   0.81419724   0.03534540
10088.00   0.78914118   0.03197565
10090.00   0.77129394   0.02900414
10092.00   0.78180891   0.02773643
10094.00   0.78623605   0.02777802
10096.00   0.77517587   0.02855452
10098.00   0.76653343   0.02987871
10100.00   0.78062773   0.03127260
10102.00   0.77196175   0.03194039
10104.00   0.74823684   0.03185461
10106.00   0.73580807   0.03123825
10108.00   0.73665303   0.03011006
10110.00   0.74576992   0.02885561
10112.00   0.74167800   0.02812187
10114.00   0.73483497   0.02868872
10116.00   0.72831821   0.03098559
10118.00   0.73298949   0.03493301
10120.00   0.73797137   0.03883306
10122.00   0.73701531   0.04117273
10124.00   0.72485703   0.04185413
10126.00   0.70245963   0.04094179
10128.00   0.69416422   0.03809674
10130.00   0.69392538   0.03418928
10132.00   0.70871538   0.03129549
10134.00   0.71947747   0.03007532
10136.00   0.72530288   0.02998123
10138.00   0.72019988   0.03016311
10140.00   0.69323492   0.03033346
10142.00   0.68330806   0.03078068
10144.00   0.68542713   0.03157191
10146.00   0.69793439   0.03290641
10148.00   0.70634288   0.03444418
10150.00   0.69954586   0.03556927
10152.00   0.70223635   0.03638856
10154.00   0.71825719   0.03683768
10156.00   0.72103953   0.03646182
10158.00   0.68506408   0.03522788
10160.00   0.69112092   0.03459185
10162.00   0.71138626   0.03525164
10164.00   0.72784567   0.03760001
10166.00   0.71244001   0.04129720
10168.00   0.70482510   0.04530175
10170.00   0.69404918   0.04728956
10172.00   0.68612558   0.04750430
10174.00   0.66736501   0.04642679
10176.00   0.65985680   0.04388011
10178.00   0.67632097   0.04038878
10180.00   0.65968043   0.03810227
10182.00   0.66115016   0.03856878
10184.00   0.69017333   0.04118474
10186.00   0.71554494   0.04371806
10188.00   0.66923904   0.04461113
10190.00   0.64566499   0.04461129
10192.00   0.64216644   0.04365465
10194.00   0.65301347   0.04186912
10196.00   0.66866946   0.03967054
10198.00   0.65177536   0.03897775
10200.00   0.66095227   0.04016441
10202.00   0.67488021   0.04286144
10204.00   0.67424178   0.04665432
10206.00   0.65863091   0.05060147
10208.00   0.70083600   0.05334900
10210.00   0.73198938   0.05415184
10212.00   0.70538741   0.05300182
10214.00   0.66277415   0.04998377
10216.00   0.65702349   0.04593572
10218.00   0.63243413   0.04256670
10220.00   0.63860154   0.04226835
10222.00   0.65227300   0.04443120
10224.00   0.65383416   0.04658522
10226.00   0.62307757   0.04811320
10228.00   0.61461943   0.04868657
10230.00   0.64379233   0.04792644
10232.00   0.65181589   0.04576517
10234.00   0.65291464   0.04327464
10236.00   0.67799109   0.04115149
10238.00   0.68062121   0.03959856
10240.00   0.64205617   0.03832043
10242.00   0.61471617   0.03768478
10244.00   0.64228493   0.03795507
10246.00   0.65397048   0.03850630
10248.00   0.65540069   0.03895250
10250.00   0.63407904   0.03866861
10252.00   0.63555622   0.03952098
10254.00   0.64522123   0.03991344
10256.00   0.63405097   0.04023159
10258.00   0.61908787   0.04040369
10260.00   0.61259317   0.04051472
10262.00   0.64679921   0.04287313
10264.00   0.67350227   0.04377843
10266.00   0.65937239   0.04448146
10268.00   0.64365500   0.04681428
10270.00   0.63664252   0.04677998
10272.00   0.64313626   0.04761696
10274.00   0.62067109   0.04817675
10276.00   0.64133602   0.05108805
10278.00   0.66522855   0.05877909
10280.00   0.65208238   0.07125899
10282.00   0.56658739   0.08399746
10284.00   0.52308249   0.09277657
10286.00   0.53374928   0.09718233
10288.00   0.56551111   0.09771043
10290.00   0.58403057   0.09387539
10292.00   0.61666036   0.08576126
10294.00   0.65358722   0.07810352
10296.00   0.63192272   0.07264008
10298.00   0.58527297   0.06879447
10300.00   0.59541678   0.06481004
10302.00   0.62706465   0.06110786
10304.00   0.60452968   0.05835019
10306.00   0.60176647   0.05759877
10308.00   0.63321471   0.05813557
10310.00   0.63816965   0.05806733
10312.00   0.61037141   0.05684896
10314.00   0.61366707   0.05540150
10316.00   0.62192863   0.05394101
10318.00   0.61947626   0.05306940
10320.00   0.61163276   0.05313663
10322.00   0.58181310   0.05326052
10324.00   0.56749696   0.05347607
10326.00   0.57391375   0.05396010
10328.00   0.58499968   0.05454686
10330.00   0.57896000   0.05512094
10332.00   0.60487247   0.05592719
10334.00   0.62062770   0.05666993
10336.00   0.61606377   0.05759843
10338.00   0.58114928   0.05895652
10340.00   0.60003227   0.06268433
10342.00   0.60305101   0.06745219
10344.00   0.60268378   0.07141656
10346.00   0.58725125   0.07464939
10348.00   0.64967704   0.07493568
10350.00   0.60979933   0.07391851
10352.00   0.60720468   0.07161961
10354.00   0.59044963   0.06832724
10356.00   0.57272041   0.06580538
10358.00   0.53599268   0.06441516
10360.00   0.56404191   0.06410173
10362.00   0.59082717   0.06567443
10364.00   0.61018473   0.07082441
10366.00   0.72400540   0.08282125
10368.00   0.56452078   0.09507705
10370.00   0.65645701   0.10661576
10372.00   0.67984223   0.11124479
10374.00   0.60233295   0.11032019
10376.00   0.58512795   0.10270990
10378.00   0.57442850   0.09049231
10380.00   0.59660643   0.08079774
10382.00   0.56671101   0.07351301
10384.00   0.58757693   0.07179525
10386.00   0.61200482   0.07250922
10388.00   0.64134431   0.07497340
10390.00   0.70798004   0.07928899
10392.00   0.60638076   0.08634773
10394.00   0.58745033   0.08926721
10396.00   0.64609641   0.09280914
10398.00   0.60075122   0.09028634
10400.00   0.52706176   0.08459818
10402.00   0.57022387   0.08247542
10404.00   0.61901921   0.07945674
10406.00   0.60056996   0.07886660
10408.00   0.60019350   0.08153624
10410.00   0.60322428   0.08957874
10412.00   0.62477535   0.10191539
10414.00   0.68701172   0.12091590
10416.00   0.81287521   0.13089660
10418.00   0.72791427   0.12932357
10420.00   0.61272067   0.12749808
10422.00   0.57577723   0.11868419
10424.00   0.64368802   0.10600577
10426.00   0.64810562   0.09433831
10428.00   0.54861760   0.08941343
10430.00   0.64536130   0.08555409
10432.00   0.61615485   0.08389657
10434.00   0.58403134   0.08138536
10436.00   0.64800078   0.08198693
10438.00   0.67457598   0.08556048
10440.00   0.62023926   0.08498880
10442.00   0.60540867   0.08632558
10444.00   0.79004550   0.09395497
10446.00   0.74053645   0.09560588
10448.00   0.59558088   0.09776453
10450.00   0.61456895   0.10218125
10452.00   0.65873045   0.10295463
10454.00   0.65917563   0.10033838
10456.00   0.63255429   0.09561289
10458.00   0.64779490   0.09445599
10460.00   0.66394281   0.09817121
10462.00   0.76303220   0.10723885
10464.00   0.65181988   0.11945507
10466.00   0.65653098   0.12502623
10468.00   0.59596175   0.12709764
10470.00   0.59899217   0.13017231
10472.00   0.70026672   0.12555701
10474.00   0.67757195   0.11555769
10476.00   0.71537191   0.10578850
10478.00   0.71184063   0.10002002
10480.00   0.65019256   0.09921796
10482.00   0.71691918   0.09780370
10484.00   0.74703950   0.09852153
10486.00   0.73454505   0.10049719
10488.00   0.66206223   0.09699573
10490.00   0.60048795   0.09717380
10492.00   0.61303383   0.09789509
10494.00   0.62446827   0.09854140
10496.00   0.66212338   0.10042584
10498.00   0.65937918   0.10169385
10500.00   0.63250035   0.10377951
10502.00   0.66249675   0.10610183
10504.00   0.67305088   0.11022070
10506.00   0.68365866   0.11379740
10508.00   0.67068118   0.11595146
10510.00   0.62970114   0.11389504
10512.00   0.55730087   0.11380935
10514.00   0.59498930   0.11163815
10516.00   0.67991209   0.11385807
10518.00   0.74579817   0.11888415
10520.00   0.64570230   0.12278736
10522.00   0.54515642   0.12449228
10524.00   0.54606342   0.12580167
10526.00   0.61988622   0.12703367
10528.00   0.66759402   0.12386623
10530.00   0.65581006   0.12127887
10532.00   0.64751220   0.11581723
10534.00   0.66850138   0.11377716
10536.00   0.65952951   0.10936230
10538.00   0.61339825   0.10597358
10540.00   0.63300616   0.10950167
10542.00   0.74523133   0.11254696
10544.00   0.74706870   0.11315636
10546.00   0.67058891   0.11202528
10548.00   0.64243037   0.11243078
10550.00   0.69936627   0.11478642
10552.00   0.68925887   0.11523663
10554.00   0.64133644   0.11553735
10556.00   0.72718048   0.11218702
10558.00   0.59339887   0.10756402
10560.00   0.65336627   0.11425251
10562.00   0.63723272   0.11077696
10564.00   0.57560450   0.11098476
10566.00   0.56418252   0.11525086
10568.00   0.67684954   0.11955366
10570.00   0.69767445   0.11931165
10572.00   0.66091186   0.11639658
10574.00   0.60461718   0.11771023
10576.00   0.64314932   0.11908356
10578.00   0.64367795   0.11735292
10580.00   0.55078834   0.11918826
10582.00   0.55113298   0.11942655
10584.00   0.66396672   0.12980863
10586.00   0.75370151   0.13192214
10588.00   0.65920639   0.12552366
10590.00   0.58019471   0.12310448
10592.00   0.59668547   0.12060399
10594.00   0.65028685   0.12008905
10596.00   0.68259454   0.12024698
10598.00   0.57543457   0.11514383
10600.00   0.57358003   0.11636952
10602.00   0.55993623   0.11750209
10604.00   0.50270158   0.11559989
10606.00   0.44501153   0.11456347
10608.00   0.48901829   0.11598176
10610.00   0.52247536   0.11756656
10612.00   0.50382262   0.11656683
10614.00   0.50035149   0.11398213
10616.00   0.50764865   0.11561299
10618.00   0.43143794   0.11515685
10620.00   0.46811223   0.11625121
10622.00   0.49492708   0.11641752
10624.00   0.48175514   0.11408630
10626.00   0.46558595   0.12034520
10628.00   0.48443460   0.12097327
10630.00   0.49205837   0.12408380
10632.00   0.55108219   0.12540418
10634.00   0.61927527   0.12608184
10636.00   0.55930442   0.12244523
10638.00   0.51126987   0.12386333
10640.00   0.44462928   0.12085292
10642.00   0.47808933   0.12446458
10644.00   0.56892139   0.12618199
10646.00   0.48247266   0.12437792
10648.00   0.32482982   0.12286764
10650.00   0.38689998   0.12455747
10652.00   0.44683132   0.12670206
10654.00   0.45018968   0.12730065
10656.00   0.36308280   0.12249567
10658.00   0.33723649   0.11944968
10660.00   0.41602764   0.12999102
10662.00   0.49181667   0.12911814
10664.00   0.47813502   0.12818928
10666.00   0.33590856   0.12392598
10668.00   0.31107250   0.12293761
10670.00   0.32218757   0.12210142
10672.00   0.32337818   0.12513728
10674.00   0.35234961   0.12664007
10676.00   0.41965035   0.13264364
10678.00   0.39393422   0.13614115
10680.00   0.32211980   0.13815364
10682.00   0.41212624   0.14113294
10684.00   0.43500152   0.14812982
10686.00   0.31715146   0.14317037
10688.00   0.32681203   0.14708677
10690.00   0.40905127   0.14803219
10692.00   0.30664414   0.14790982
10694.00   0.23887074   0.14845556
10696.00   0.32460317   0.15450701
10698.00   0.30262095   0.15554118
10700.00   0.22211526   0.15774000
10702.00   0.34613022   0.15796112
10704.00   0.26649022   0.15787114
10706.00   0.24317364   0.16512382
10708.00   0.21930711   0.17355214
10710.00   0.18251394   0.17658164
