# File created by shivutils (I.Shivvers)
# wl(A)   flm    er(optional)
3680.00   0.06499881   0.02749519
3682.00   0.11456247   0.02810355
3684.00   0.07104621   0.02767399
3686.00   0.09689929   0.02689017
3688.00   0.05790062   0.02646220
3690.00   0.07907213   0.02726842
3692.00   0.11149849   0.02767225
3694.00   0.05182501   0.02640839
3696.00   0.06304791   0.02648026
3698.00   0.06615966   0.02785251
3700.00   0.07603402   0.02815585
3702.00   0.11735955   0.02855245
3704.00   0.06332958   0.02663010
3706.00   0.03739376   0.02566346
3708.00   0.04046492   0.02546008
3710.00   0.09693697   0.02697195
3712.00   0.06899773   0.02748585
3714.00   0.06627475   0.02821481
3716.00   0.05775683   0.02775785
3718.00   0.03132376   0.02628777
3720.00   0.05038270   0.02465329
3722.00   0.05061765   0.02349127
3724.00   0.10631061   0.02577735
3726.00   0.09437474   0.02693441
3728.00   0.12248811   0.02715440
3730.00   0.05006413   0.02611891
3732.00   0.04960471   0.02534592
3734.00   0.06764697   0.02437346
3736.00   0.09239826   0.02390089
3738.00   0.08609227   0.02526861
3740.00   0.04180334   0.02616831
3742.00   0.04812764   0.02587762
3744.00   0.03022644   0.02413135
3746.00   0.12682924   0.02448733
3748.00   0.03102448   0.02282544
3750.00   0.04938075   0.02281029
3752.00   0.09982858   0.02455321
3754.00   0.09629174   0.02558352
3756.00   0.07165650   0.02481747
3758.00   0.09082657   0.02388836
3760.00   0.09540735   0.02345056
3762.00   0.08133581   0.02355900
3764.00   0.06501981   0.02331275
3766.00   0.13105428   0.02369988
3768.00   0.07872442   0.02293027
3770.00   0.03908186   0.02298673
3772.00   0.07630771   0.02419875
3774.00   0.09954430   0.02479169
3776.00   0.07372714   0.02458948
3778.00   0.01882338   0.02417727
3780.00   0.06709898   0.02469194
3782.00   0.02558715   0.02465738
3784.00   0.06846361   0.02483756
3786.00   0.04783739   0.02354184
3788.00   0.03082974   0.02265892
3790.00   0.03497117   0.02311510
3792.00   0.04388472   0.02347341
3794.00   0.07050741   0.02306577
3796.00   0.04299193   0.02197683
3798.00   0.06300121   0.02196934
3800.00   0.06825151   0.02227518
3802.00   0.06551067   0.02326472
3804.00   0.03245079   0.02352058
3806.00   0.01937220   0.02216177
3808.00   0.06354702   0.02217984
3810.00   0.09659638   0.02232113
3812.00   0.08390632   0.02199634
3814.00   0.03346720   0.02065255
3816.00   0.02689052   0.01950583
3818.00   0.03783170   0.01960971
3820.00   0.06328002   0.01946495
3822.00   0.07250974   0.01909407
3824.00   0.00809569   0.01896576
3826.00   0.01867096   0.01823242
3828.00   0.07007851   0.01930430
3830.00   0.06592375   0.01967574
3832.00   0.06709755   0.01983947
3834.00   0.01754424   0.01907812
3836.00   0.04799069   0.01936661
3838.00   -0.00423604   0.01862910
3840.00   0.06135761   0.01904394
3842.00   0.08084863   0.01975953
3844.00   0.06888057   0.02066574
3846.00   0.05586614   0.02027033
3848.00   0.04264304   0.01970645
3850.00   0.04469436   0.01953689
3852.00   0.03585665   0.01947982
3854.00   0.07780290   0.01915967
3856.00   0.07824360   0.01868405
3858.00   0.06042051   0.01790164
3860.00   0.04305934   0.01768729
3862.00   0.07026714   0.01932694
3864.00   0.07298113   0.01957417
3866.00   0.08082039   0.01922470
3868.00   0.06594031   0.01896466
3870.00   0.04581649   0.01801459
3872.00   0.08643151   0.01831638
3874.00   0.06274517   0.01909263
3876.00   0.09786451   0.01968274
3878.00   0.08128472   0.01860330
3880.00   0.07498535   0.01822301
3882.00   0.11481168   0.01829910
3884.00   0.07026608   0.01809580
3886.00   0.07674574   0.01790893
3888.00   0.09076847   0.01771561
3890.00   0.09485558   0.01816345
3892.00   0.07505058   0.01869573
3894.00   0.06882745   0.01872191
3896.00   0.10041519   0.01950033
3898.00   0.07169338   0.01921667
3900.00   0.05718506   0.01888588
3902.00   0.07106518   0.01889298
3904.00   0.10237838   0.01924932
3906.00   0.12212543   0.02033903
3908.00   0.09785067   0.02156363
3910.00   0.05364639   0.02168367
3912.00   0.09463430   0.02208233
3914.00   0.09322034   0.02129438
3916.00   0.10197981   0.02001170
3918.00   0.08411098   0.01958543
3920.00   0.11764701   0.01886092
3922.00   0.10031486   0.01829993
3924.00   0.11518600   0.01834450
3926.00   0.13092212   0.01802209
3928.00   0.07261690   0.01641321
3930.00   0.10056817   0.01594857
3932.00   0.09007990   0.01572122
3934.00   0.10693869   0.01565141
3936.00   0.13261841   0.01572056
3938.00   0.12905806   0.01646096
3940.00   0.07958421   0.01711566
3942.00   0.08493554   0.01779551
3944.00   0.09547802   0.01826053
3946.00   0.11095731   0.01851311
3948.00   0.13212182   0.01857707
3950.00   0.08184943   0.01790882
3952.00   0.11024847   0.01808251
3954.00   0.07846975   0.01770276
3956.00   0.08525417   0.01738772
3958.00   0.12317964   0.01824632
3960.00   0.15485184   0.01848982
3962.00   0.08609635   0.01732719
3964.00   0.13197193   0.01660815
3966.00   0.11464683   0.01508461
3968.00   0.10719686   0.01457306
3970.00   0.12656406   0.01488898
3972.00   0.14653951   0.01577076
3974.00   0.16335127   0.01697566
3976.00   0.15327995   0.01736091
3978.00   0.12583283   0.01795225
3980.00   0.11899370   0.01799215
3982.00   0.16614284   0.01821842
3984.00   0.09363843   0.01773673
3986.00   0.13839222   0.01810016
3988.00   0.10198977   0.01799154
3990.00   0.09168009   0.01830401
3992.00   0.13542031   0.01857287
3994.00   0.10076533   0.01835709
3996.00   0.14202273   0.01896481
3998.00   0.14427264   0.01909541
4000.00   0.13862979   0.01914386
4002.00   0.11418582   0.01857762
4004.00   0.13867436   0.01833104
4006.00   0.12444731   0.01803035
4008.00   0.15470244   0.01877227
4010.00   0.15783487   0.01902107
4012.00   0.12725393   0.01874142
4014.00   0.11191525   0.01855817
4016.00   0.11908437   0.01842914
4018.00   0.11429249   0.01892795
4020.00   0.11227539   0.02016004
4022.00   0.15547684   0.02090351
4024.00   0.08109146   0.01999995
4026.00   0.09023431   0.01940956
4028.00   0.14571391   0.01910750
4030.00   0.12745468   0.01838103
4032.00   0.08537572   0.01751213
4034.00   0.07808583   0.01727450
4036.00   0.10727899   0.01769388
4038.00   0.11834370   0.01803668
4040.00   0.08801489   0.01776477
4042.00   0.10581756   0.01810631
4044.00   0.11737830   0.02192441
4046.00   0.09780654   0.02753812
4048.00   0.08670031   0.02720036
4050.00   0.11753115   0.02106110
4052.00   0.10260029   0.01829443
4054.00   0.08457366   0.01795070
4056.00   0.11760688   0.01803494
4058.00   0.08720739   0.01752221
4060.00   0.08099253   0.01716154
4062.00   0.12422886   0.01737518
4064.00   0.10357996   0.01687744
4066.00   0.10901572   0.01726927
4068.00   0.10892770   0.01741666
4070.00   0.10514629   0.01736333
4072.00   0.11526658   0.01705763
4074.00   0.14917767   0.01747473
4076.00   0.11337327   0.01858127
4078.00   0.12301613   0.01928401
4080.00   0.12313872   0.01898533
4082.00   0.13250998   0.01875330
4084.00   0.13459292   0.01832545
4086.00   0.07508726   0.01787899
4088.00   0.08823831   0.01790259
4090.00   0.10330921   0.01746185
4092.00   0.12860841   0.01712836
4094.00   0.08752079   0.01680875
4096.00   0.07819432   0.01659875
4098.00   0.10041804   0.01625134
4100.00   0.09228366   0.01580126
4102.00   0.09711355   0.01556333
4104.00   0.11627946   0.01576058
4106.00   0.10870501   0.01618828
4108.00   0.06506748   0.01607723
4110.00   0.11952048   0.01649713
4112.00   0.10790284   0.01638583
4114.00   0.08541818   0.01628534
4116.00   0.08699045   0.01634703
4118.00   0.07242449   0.01594073
4120.00   0.08848342   0.01579949
4122.00   0.13887687   0.01624163
4124.00   0.13229963   0.01616617
4126.00   0.13050060   0.01613072
4128.00   0.09319555   0.01576486
4130.00   0.09234065   0.01570377
4132.00   0.15346390   0.01621626
4134.00   0.10823124   0.01616907
4136.00   0.09264059   0.01588353
4138.00   0.10161813   0.01606724
4140.00   0.12107513   0.01642474
4142.00   0.08339679   0.01557284
4144.00   0.10399383   0.01513293
4146.00   0.09534011   0.01523502
4148.00   0.08115971   0.01508504
4150.00   0.11118157   0.01553858
4152.00   0.10188458   0.01572515
4154.00   0.09553393   0.01570371
4156.00   0.08742008   0.01509164
4158.00   0.09698351   0.01524349
4160.00   0.13403600   0.01578111
4162.00   0.12518634   0.01592296
4164.00   0.14064044   0.01654821
4166.00   0.11916941   0.01641282
4168.00   0.08920340   0.01564834
4170.00   0.09770891   0.01537301
4172.00   0.09698013   0.01490872
4174.00   0.07669734   0.01461875
4176.00   0.07097780   0.01467149
4178.00   0.10421240   0.01490880
4180.00   0.11091094   0.01507201
4182.00   0.08267543   0.01458487
4184.00   0.07670489   0.01457532
4186.00   0.10213602   0.01462099
4188.00   0.13281685   0.01482904
4190.00   0.11079933   0.01471971
4192.00   0.09877613   0.01475714
4194.00   0.12423190   0.01488498
4196.00   0.13189635   0.01470459
4198.00   0.10751768   0.01430401
4200.00   0.11317586   0.01423153
4202.00   0.11426121   0.01427328
4204.00   0.11765321   0.01458762
4206.00   0.08544709   0.01462074
4208.00   0.10846475   0.01492675
4210.00   0.10268323   0.01503494
4212.00   0.09693217   0.01496206
4214.00   0.09786737   0.01475850
4216.00   0.12729213   0.01484387
4218.00   0.11454957   0.01469147
4220.00   0.11820495   0.01481328
4222.00   0.11707880   0.01489123
4224.00   0.09836090   0.01437179
4226.00   0.09537186   0.01378080
4228.00   0.12581818   0.01425480
4230.00   0.13859317   0.01484419
4232.00   0.14904593   0.01529508
4234.00   0.13595192   0.01504402
4236.00   0.12799898   0.01493692
4238.00   0.12056685   0.01489076
4240.00   0.11453006   0.01491629
4242.00   0.10795160   0.01471497
4244.00   0.10500789   0.01524342
4246.00   0.16535538   0.01625319
4248.00   0.17220512   0.01609764
4250.00   0.13888942   0.01493577
4252.00   0.11840721   0.01464995
4254.00   0.11345521   0.01463850
4256.00   0.11363120   0.01456564
4258.00   0.11835558   0.01456714
4260.00   0.10668662   0.01409603
4262.00   0.11724112   0.01428475
4264.00   0.10701449   0.01437458
4266.00   0.11257577   0.01450531
4268.00   0.10357299   0.01433306
4270.00   0.11030464   0.01386060
4272.00   0.12465518   0.01378656
4274.00   0.13635051   0.01390720
4276.00   0.11142247   0.01418989
4278.00   0.11771928   0.01431711
4280.00   0.13095319   0.01435891
4282.00   0.14166050   0.01446000
4284.00   0.14246957   0.01440017
4286.00   0.11641821   0.01420677
4288.00   0.12423322   0.01388890
4290.00   0.15121906   0.01396763
4292.00   0.08670926   0.01373315
4294.00   0.12228606   0.01400875
4296.00   0.10945019   0.01378398
4298.00   0.10833840   0.01345840
4300.00   0.13051952   0.01322035
4302.00   0.12595128   0.01324186
4304.00   0.12534963   0.01327767
4306.00   0.12827614   0.01337011
4308.00   0.13833790   0.01327171
4310.00   0.12221108   0.01328078
4312.00   0.14048213   0.01414803
4314.00   0.15143818   0.01506921
4316.00   0.13747746   0.01518883
4318.00   0.15680359   0.01528895
4320.00   0.16667876   0.01551737
4322.00   0.16373762   0.01511234
4324.00   0.15144342   0.01448944
4326.00   0.17239152   0.01442590
4328.00   0.15448311   0.01434794
4330.00   0.19239619   0.01462257
4332.00   0.13189730   0.01443008
4334.00   0.18930943   0.01457765
4336.00   0.14542347   0.01427081
4338.00   0.16005853   0.01427358
4340.00   0.15858078   0.01413593
4342.00   0.12751573   0.01404260
4344.00   0.16352837   0.01458850
4346.00   0.14667308   0.01513233
4348.00   0.15195568   0.01539066
4350.00   0.15708782   0.01512031
4352.00   0.13152474   0.01459607
4354.00   0.15279214   0.01537849
4356.00   0.07734342   0.02237283
4358.00   0.14023601   0.02825863
4360.00   0.16729935   0.02679098
4362.00   0.16618605   0.01960908
4364.00   0.13518809   0.01594190
4366.00   0.12043931   0.01509522
4368.00   0.14118546   0.01497065
4370.00   0.13828270   0.01476283
4372.00   0.12179007   0.01478647
4374.00   0.08765958   0.01472869
4376.00   0.14837898   0.01496564
4378.00   0.12520540   0.01460370
4380.00   0.12390113   0.01453387
4382.00   0.09440045   0.01377159
4384.00   0.12617001   0.01368055
4386.00   0.10592835   0.01373507
4388.00   0.10881115   0.01398032
4390.00   0.08630223   0.01394742
4392.00   0.10435008   0.01410725
4394.00   0.11439496   0.01412881
4396.00   0.12109059   0.01423116
4398.00   0.10360570   0.01431958
4400.00   0.12301629   0.01460105
4402.00   0.10496587   0.01440520
4404.00   0.10792179   0.01419670
4406.00   0.07904036   0.01371392
4408.00   0.11514867   0.01407394
4410.00   0.12592888   0.01437103
4412.00   0.10040768   0.01431761
4414.00   0.08080029   0.01427707
4416.00   0.08574404   0.01431623
4418.00   0.10191268   0.01442294
4420.00   0.11119038   0.01437396
4422.00   0.09506761   0.01423949
4424.00   0.09675170   0.01407170
4426.00   0.09143166   0.01404106
4428.00   0.08153555   0.01391990
4430.00   0.09284312   0.01394978
4432.00   0.08499043   0.01385920
4434.00   0.06104745   0.01366982
4436.00   0.08361513   0.01387590
4438.00   0.06787745   0.01378090
4440.00   0.10627375   0.01407932
4442.00   0.09021160   0.01378242
4444.00   0.08842582   0.01380613
4446.00   0.10512695   0.01391629
4448.00   0.10654573   0.01390760
4450.00   0.09903594   0.01381852
4452.00   0.06989630   0.01358977
4454.00   0.09024847   0.01361247
4456.00   0.07275563   0.01335105
4458.00   0.08725555   0.01341922
4460.00   0.09208566   0.01354679
4462.00   0.11188073   0.01366467
4464.00   0.08294348   0.01359764
4466.00   0.07710506   0.01368705
4468.00   0.10789743   0.01366929
4470.00   0.08815067   0.01362428
4472.00   0.11889756   0.01375094
4474.00   0.12328966   0.01388537
4476.00   0.10092412   0.01383132
4478.00   0.08968095   0.01360130
4480.00   0.11198045   0.01357916
4482.00   0.11019161   0.01356683
4484.00   0.11238696   0.01367517
4486.00   0.13835347   0.01380296
4488.00   0.10078039   0.01352150
4490.00   0.12258321   0.01354799
4492.00   0.12944955   0.01362781
4494.00   0.11181752   0.01363741
4496.00   0.12059389   0.01368533
4498.00   0.13520156   0.01375941
4500.00   0.10295438   0.01362123
4502.00   0.12021399   0.01352542
4504.00   0.12021337   0.01362306
4506.00   0.11763324   0.01364180
4508.00   0.11270590   0.01346926
4510.00   0.11828989   0.01347654
4512.00   0.13922003   0.01344573
4514.00   0.14235900   0.01347226
4516.00   0.16439795   0.01343395
4518.00   0.16252765   0.01338544
4520.00   0.14592098   0.01326786
4522.00   0.14896816   0.01335813
4524.00   0.14765552   0.01324114
4526.00   0.11961450   0.01296405
4528.00   0.13782576   0.01295626
4530.00   0.13694820   0.01292164
4532.00   0.15950108   0.01312936
4534.00   0.15470193   0.01311494
4536.00   0.14461580   0.01307400
4538.00   0.16129176   0.01325991
4540.00   0.16879669   0.01333896
4542.00   0.19633095   0.01355783
4544.00   0.18995933   0.01358742
4546.00   0.17663744   0.01336101
4548.00   0.17954715   0.01324208
4550.00   0.16859981   0.01316185
4552.00   0.18706116   0.01314528
4554.00   0.19551130   0.01316991
4556.00   0.23001111   0.01348642
4558.00   0.22776802   0.01356172
4560.00   0.21926354   0.01354247
4562.00   0.24365216   0.01368590
4564.00   0.22316931   0.01346275
4566.00   0.24340466   0.01351545
4568.00   0.24205610   0.01344734
4570.00   0.25528625   0.01353344
4572.00   0.25611806   0.01352274
4574.00   0.29676116   0.01383763
4576.00   0.27879030   0.01370959
4578.00   0.30481991   0.01373111
4580.00   0.31326440   0.01367045
4582.00   0.30393583   0.01355518
4584.00   0.32667059   0.01376718
4586.00   0.32652697   0.01362281
4588.00   0.34730384   0.01382157
4590.00   0.32828051   0.01378417
4592.00   0.33135685   0.01382648
4594.00   0.34884408   0.01386798
4596.00   0.36317500   0.01389506
4598.00   0.37469387   0.01392400
4600.00   0.35397142   0.01376310
4602.00   0.33961582   0.01356593
4604.00   0.37155923   0.01373251
4606.00   0.38319680   0.01381833
4608.00   0.36850256   0.01382380
4610.00   0.38523373   0.01403649
4612.00   0.39092410   0.01395690
4614.00   0.36878633   0.01380371
4616.00   0.40350312   0.01389520
4618.00   0.40529612   0.01385437
4620.00   0.36812291   0.01367973
4622.00   0.39332345   0.01382681
4624.00   0.38078833   0.01373197
4626.00   0.39979801   0.01383008
4628.00   0.38422292   0.01367152
4630.00   0.41593304   0.01387371
4632.00   0.40233216   0.01381796
4634.00   0.44202489   0.01400320
4636.00   0.41987428   0.01390340
4638.00   0.43581578   0.01386102
4640.00   0.45595497   0.01396067
4642.00   0.44410568   0.01396617
4644.00   0.45896998   0.01396254
4646.00   0.43801513   0.01379331
4648.00   0.45605314   0.01395208
4650.00   0.44578689   0.01397322
4652.00   0.44263282   0.01396965
4654.00   0.45547116   0.01408659
4656.00   0.46312124   0.01409378
4658.00   0.46115354   0.01407827
4660.00   0.44557148   0.01418352
4662.00   0.43313253   0.01413942
4664.00   0.41088301   0.01397292
4666.00   0.41312969   0.01394767
4668.00   0.40475968   0.01395071
4670.00   0.39451700   0.01399717
4672.00   0.38773713   0.01400572
4674.00   0.39345133   0.01395520
4676.00   0.40529221   0.01387581
4678.00   0.39461163   0.01367414
4680.00   0.38660195   0.01354622
4682.00   0.37744659   0.01340502
4684.00   0.38211161   0.01342316
4686.00   0.36227059   0.01323113
4688.00   0.37030616   0.01322950
4690.00   0.35029817   0.01303615
4692.00   0.32730058   0.01291148
4694.00   0.33134931   0.01284481
4696.00   0.31999284   0.01284373
4698.00   0.30259004   0.01266738
4700.00   0.31922215   0.01264329
4702.00   0.31120047   0.01249203
4704.00   0.29544601   0.01246719
4706.00   0.29922482   0.01253478
4708.00   0.29194826   0.01255260
4710.00   0.30437174   0.01270997
4712.00   0.26167974   0.01248304
4714.00   0.26356789   0.01239682
4716.00   0.23876829   0.01215756
4718.00   0.26570076   0.01235413
4720.00   0.25374493   0.01239590
4722.00   0.25810000   0.01230181
4724.00   0.24640806   0.01220425
4726.00   0.24443944   0.01226457
4728.00   0.23436406   0.01236506
4730.00   0.26747689   0.01267874
4732.00   0.23092334   0.01247176
4734.00   0.21709347   0.01253443
4736.00   0.22561896   0.01270254
4738.00   0.25340068   0.01293958
4740.00   0.24399617   0.01300311
4742.00   0.24216555   0.01331588
4744.00   0.23398554   0.01309120
4746.00   0.22947308   0.01265384
4748.00   0.21355096   0.01213553
4750.00   0.23248072   0.01214277
4752.00   0.20605221   0.01203097
4754.00   0.21489337   0.01194454
4756.00   0.20096622   0.01168119
4758.00   0.21479042   0.01163266
4760.00   0.22193080   0.01159762
4762.00   0.20646551   0.01138589
4764.00   0.20547602   0.01133265
4766.00   0.20581175   0.01124913
4768.00   0.20168874   0.01136934
4770.00   0.23602577   0.01159607
4772.00   0.20516664   0.01132298
4774.00   0.19776595   0.01128702
4776.00   0.20017253   0.01150255
4778.00   0.19005165   0.01162673
4780.00   0.19705011   0.01169279
4782.00   0.20287581   0.01161901
4784.00   0.19587953   0.01135828
4786.00   0.20041755   0.01127834
4788.00   0.20589955   0.01132244
4790.00   0.20661503   0.01140278
4792.00   0.20727123   0.01141781
4794.00   0.19659112   0.01140922
4796.00   0.19907014   0.01139671
4798.00   0.23124823   0.01144767
4800.00   0.23535296   0.01150599
4802.00   0.23033933   0.01155141
4804.00   0.23148534   0.01157298
4806.00   0.24395800   0.01158754
4808.00   0.26023421   0.01169722
4810.00   0.23020338   0.01150735
4812.00   0.23402865   0.01152794
4814.00   0.22847958   0.01154047
4816.00   0.25215736   0.01175473
4818.00   0.24680792   0.01173542
4820.00   0.28025821   0.01191326
4822.00   0.28763935   0.01201072
4824.00   0.29905012   0.01206908
4826.00   0.27987075   0.01200293
4828.00   0.28344753   0.01208402
4830.00   0.29533869   0.01206057
4832.00   0.30281547   0.01214794
4834.00   0.32461861   0.01231624
4836.00   0.30486816   0.01219715
4838.00   0.29453796   0.01211283
4840.00   0.27935094   0.01211979
4842.00   0.28678799   0.01207548
4844.00   0.28624314   0.01200647
4846.00   0.27992681   0.01198390
4848.00   0.28924847   0.01201096
4850.00   0.28079239   0.01197669
4852.00   0.27433631   0.01196603
4854.00   0.26926765   0.01176243
4856.00   0.27509639   0.01168831
4858.00   0.27286628   0.01142422
4860.00   0.27328151   0.01141229
4862.00   0.23660037   0.01116922
4864.00   0.27239448   0.01152201
4866.00   0.27557981   0.01156458
4868.00   0.25479493   0.01162597
4870.00   0.27337110   0.01160203
4872.00   0.27543366   0.01164055
4874.00   0.26452568   0.01155224
4876.00   0.27166680   0.01163261
4878.00   0.27342808   0.01176060
4880.00   0.25770271   0.01166996
4882.00   0.29305002   0.01185654
4884.00   0.33394524   0.01198866
4886.00   0.29783973   0.01186912
4888.00   0.32426187   0.01176119
4890.00   0.30638328   0.01160688
4892.00   0.30204886   0.01170084
4894.00   0.28831261   0.01164524
4896.00   0.28340808   0.01175669
4898.00   0.27562866   0.01163981
4900.00   0.28491008   0.01176109
4902.00   0.29199091   0.01176150
4904.00   0.29568473   0.01174477
4906.00   0.31087109   0.01190608
4908.00   0.28244686   0.01175633
4910.00   0.27750358   0.01167889
4912.00   0.32852095   0.01194617
4914.00   0.31824759   0.01190758
4916.00   0.33255729   0.01200022
4918.00   0.32065710   0.01187270
4920.00   0.35801038   0.01192695
4922.00   0.34152427   0.01190492
4924.00   0.33475959   0.01192856
4926.00   0.34400463   0.01203972
4928.00   0.36291128   0.01206201
4930.00   0.35514417   0.01206654
4932.00   0.37000489   0.01208505
4934.00   0.36427537   0.01201045
4936.00   0.37117678   0.01212003
4938.00   0.38524163   0.01215701
4940.00   0.39176592   0.01223225
4942.00   0.41338947   0.01236452
4944.00   0.38673860   0.01227047
4946.00   0.41059795   0.01235193
4948.00   0.40864524   0.01235110
4950.00   0.42190272   0.01243037
4952.00   0.42936134   0.01260101
4954.00   0.42455783   0.01264826
4956.00   0.42736411   0.01250873
4958.00   0.43368506   0.01250201
4960.00   0.44254100   0.01259184
4962.00   0.45539454   0.01274562
4964.00   0.47506094   0.01280430
4966.00   0.45812273   0.01275267
4968.00   0.48408404   0.01292719
4970.00   0.46277717   0.01290558
4972.00   0.47055554   0.01311736
4974.00   0.45831811   0.01335279
4976.00   0.46370053   0.01343163
4978.00   0.45695072   0.01370384
4980.00   0.46758911   0.01393398
4982.00   0.45477167   0.01396413
4984.00   0.46967104   0.01397312
4986.00   0.43923444   0.01382377
4988.00   0.41575548   0.01354626
4990.00   0.41332713   0.01323741
4992.00   0.39498913   0.01300455
4994.00   0.37577021   0.01275364
4996.00   0.37795344   0.01250813
4998.00   0.40102768   0.01245941
5000.00   0.40814397   0.01228992
5002.00   0.38201991   0.01217983
5004.00   0.39110079   0.01210136
5006.00   0.37155637   0.01190026
5008.00   0.37757817   0.01192614
5010.00   0.37300104   0.01186004
5012.00   0.38061160   0.01180625
5014.00   0.36226776   0.01168543
5016.00   0.34502953   0.01170995
5018.00   0.34287211   0.01169964
5020.00   0.34370258   0.01272157
5022.00   0.33298498   0.01171405
5024.00   0.33945301   0.01164313
5026.00   0.34079221   0.01164876
5028.00   0.31763965   0.01150622
5030.00   0.31841871   0.01162294
5032.00   0.31061634   0.01172207
5034.00   0.32580554   0.01161076
5036.00   0.32060191   0.01148173
5038.00   0.31418157   0.01130611
5040.00   0.32056549   0.01133065
5042.00   0.30305696   0.01117391
5044.00   0.32138702   0.01144248
5046.00   0.31425422   0.01137402
5048.00   0.30427957   0.01131105
5050.00   0.30258113   0.01132691
5052.00   0.27420339   0.01111612
5054.00   0.29184899   0.01129504
5056.00   0.29615116   0.01133175
5058.00   0.30409911   0.01136227
5060.00   0.27465549   0.01123470
5062.00   0.29711962   0.01139188
5064.00   0.26308590   0.01130720
5066.00   0.27575794   0.01144684
5068.00   0.26259932   0.01152078
5070.00   0.28514016   0.01167819
5072.00   0.26301572   0.01146510
5074.00   0.27398533   0.01136676
5076.00   0.27217287   0.01138895
5078.00   0.24814388   0.01127186
5080.00   0.28443325   0.01189127
5082.00   0.26989374   0.01247870
5084.00   0.25054941   0.01281653
5086.00   0.27079707   0.01294312
5088.00   0.25927526   0.01259884
5090.00   0.25775614   0.01202320
5092.00   0.25197688   0.01151232
5094.00   0.25890902   0.01141103
5096.00   0.24752915   0.01139300
5098.00   0.25674021   0.01149264
5100.00   0.25460708   0.01160010
5102.00   0.27112752   0.01152766
5104.00   0.24955259   0.01120385
5106.00   0.25366718   0.01104018
5108.00   0.24372248   0.01095185
5110.00   0.24889682   0.01096643
5112.00   0.25394726   0.01102690
5114.00   0.24438810   0.01102956
5116.00   0.25376841   0.01120693
5118.00   0.24115263   0.01108727
5120.00   0.26180205   0.01103092
5122.00   0.27602741   0.01100960
5124.00   0.24853431   0.01082370
5126.00   0.25097033   0.01084892
5128.00   0.26257172   0.01083611
5130.00   0.27108830   0.01087169
5132.00   0.25398490   0.01082263
5134.00   0.25952503   0.01092445
5136.00   0.24419869   0.01077897
5138.00   0.24803831   0.01073733
5140.00   0.26057595   0.01086357
5142.00   0.25544438   0.01083773
5144.00   0.24633947   0.01067387
5146.00   0.24628076   0.01078597
5148.00   0.25176805   0.01104198
5150.00   0.25836140   0.01115899
5152.00   0.24858856   0.01121707
5154.00   0.25454682   0.01135907
5156.00   0.26692489   0.01135591
5158.00   0.26422358   0.01126787
5160.00   0.24902919   0.01096969
5162.00   0.25535586   0.01096526
5164.00   0.27086875   0.01085451
5166.00   0.25904417   0.01054913
5168.00   0.25612473   0.01046519
5170.00   0.27645981   0.01046037
5172.00   0.27588573   0.01053014
5174.00   0.27384433   0.01065206
5176.00   0.26923925   0.01071583
5178.00   0.27502754   0.01083069
5180.00   0.26704293   0.01071465
5182.00   0.29388660   0.01075943
5184.00   0.27074328   0.01054236
5186.00   0.29158050   0.01081949
5188.00   0.29359201   0.01085532
5190.00   0.29132861   0.01086572
5192.00   0.30437350   0.01090700
5194.00   0.28748578   0.01081581
5196.00   0.29195717   0.01091423
5198.00   0.30791551   0.01106441
5200.00   0.31332716   0.01118436
5202.00   0.29591843   0.01105738
5204.00   0.33242458   0.01123151
5206.00   0.34479380   0.01120181
5208.00   0.34716371   0.01126039
5210.00   0.30827352   0.01115642
5212.00   0.33908391   0.01138196
5214.00   0.32984346   0.01122379
5216.00   0.35514334   0.01135987
5218.00   0.34166354   0.01138231
5220.00   0.37603760   0.01169288
5222.00   0.36643431   0.01158387
5224.00   0.36025155   0.01151536
5226.00   0.39046231   0.01160235
5228.00   0.38682145   0.01155576
5230.00   0.40645006   0.01168600
5232.00   0.40756422   0.01169002
5234.00   0.42460275   0.01174777
5236.00   0.41053331   0.01173259
5238.00   0.42049176   0.01191038
5240.00   0.42968032   0.01193040
5242.00   0.44206917   0.01197906
5244.00   0.45297003   0.01201196
5246.00   0.47361228   0.01200654
5248.00   0.46798795   0.01207884
5250.00   0.47622493   0.01207990
5252.00   0.46677867   0.01207151
5254.00   0.47642305   0.01210034
5256.00   0.50350463   0.01236551
5258.00   0.48492429   0.01225451
5260.00   0.51692450   0.01244333
5262.00   0.50680608   0.01225005
5264.00   0.50463980   0.01221066
5266.00   0.53213167   0.01231102
5268.00   0.51350880   0.01216234
5270.00   0.52335024   0.01221462
5272.00   0.56078619   0.01244849
5274.00   0.56132948   0.01250290
5276.00   0.57285255   0.01258892
5278.00   0.55836946   0.01249142
5280.00   0.58038819   0.01260296
5282.00   0.55666298   0.01253238
5284.00   0.57238030   0.01265284
5286.00   0.60923833   0.01293963
5288.00   0.60041076   0.01283298
5290.00   0.61244905   0.01286349
5292.00   0.61427891   0.01285233
5294.00   0.62015814   0.01281850
5296.00   0.62427533   0.01286534
5298.00   0.63315004   0.01289841
5300.00   0.66282517   0.01306186
5302.00   0.63040906   0.01296244
5304.00   0.63542515   0.01302637
5306.00   0.68811077   0.01330844
5308.00   0.67438787   0.01320987
5310.00   0.69096047   0.01333819
5312.00   0.68512058   0.01329737
5314.00   0.68025851   0.01334786
5316.00   0.69958973   0.01344930
5318.00   0.71129537   0.01346626
5320.00   0.71742636   0.01352873
5322.00   0.70326060   0.01342332
5324.00   0.70487040   0.01343081
5326.00   0.72061515   0.01347958
5328.00   0.70522422   0.01334789
5330.00   0.73102111   0.01352524
5332.00   0.74094594   0.01364875
5334.00   0.72180313   0.01358548
5336.00   0.73959202   0.01369843
5338.00   0.72367913   0.01368121
5340.00   0.74113446   0.01382435
5342.00   0.73556256   0.01378528
5344.00   0.72891444   0.01372684
5346.00   0.75022990   0.01394841
5348.00   0.74399078   0.01400980
5350.00   0.73888606   0.01403826
5352.00   0.72470385   0.01390311
5354.00   0.73168999   0.01398818
5356.00   0.72666496   0.01403486
5358.00   0.72414148   0.01391354
5360.00   0.71630549   0.01368082
5362.00   0.71898997   0.01366150
5364.00   0.73283380   0.01366785
5366.00   0.69463855   0.01344233
5368.00   0.70714343   0.01346177
5370.00   0.68297327   0.01337099
5372.00   0.70317775   0.01351928
5374.00   0.71103966   0.01371179
5376.00   0.68635899   0.01370641
5378.00   0.68674314   0.01369118
5380.00   0.69659102   0.01372819
5382.00   0.68403339   0.01365079
5384.00   0.69281429   0.01373244
5386.00   0.69034612   0.01375612
5388.00   0.71305358   0.01390271
5390.00   0.69503123   0.01392885
5392.00   0.68159515   0.01402219
5394.00   0.69264340   0.01397907
5396.00   0.68810797   0.01395236
5398.00   0.69130808   0.01401581
5400.00   0.69924843   0.01418588
5402.00   0.71952611   0.01429311
5404.00   0.72647995   0.01440338
5406.00   0.71962959   0.01432377
5408.00   0.73085833   0.01456598
5410.00   0.73267865   0.01463436
5412.00   0.73025495   0.01486638
5414.00   0.74992174   0.01517431
5416.00   0.74040729   0.01531880
5418.00   0.79327446   0.01566580
5420.00   0.79056054   0.01572010
5422.00   0.79219520   0.01581417
5424.00   0.79776907   0.01594851
5426.00   0.83243471   0.01609530
5428.00   0.81931305   0.01613373
5430.00   0.81869012   0.01618494
5432.00   0.87732893   0.01654132
5434.00   0.86409497   0.01652506
5436.00   0.87555766   0.01668822
5438.00   0.86506552   0.01679855
5440.00   0.88446659   0.01702851
5442.00   0.87728846   0.01711062
5444.00   0.85293806   0.01715937
5446.00   0.88655537   0.01738166
5448.00   0.89242452   0.01751028
5450.00   0.89419895   0.01754896
5452.00   0.88137078   0.01766002
5454.00   0.91888922   0.01781073
5456.00   0.94128805   0.01864438
5458.00   0.97066396   0.02142473
5460.00   0.96142948   0.02357587
5462.00   0.94887960   0.02342431
5464.00   0.97638035   0.02234422
5466.00   0.96859348   0.02120469
5468.00   0.95490456   0.02022180
5470.00   0.96306032   0.01961878
5472.00   0.99070728   0.01916586
5474.00   0.98961389   0.01884823
5476.00   0.97840399   0.01865470
5478.00   0.99375600   0.01873998
5480.00   0.97404009   0.01885207
5482.00   0.98982298   0.01921193
5484.00   0.99713182   0.01923663
5486.00   0.98163742   0.01907386
5488.00   0.99847472   0.01902625
5490.00   1.03114843   0.01908808
5492.00   1.02878976   0.01897508
5494.00   0.98145121   0.01872101
5496.00   0.99537772   0.01877999
5498.00   0.96252078   0.01861432
5500.00   1.01243162   0.01883814
5502.00   1.01441801   0.01883838
5504.00   0.99561387   0.01873773
5506.00   1.03008163   0.01899010
5508.00   1.01922131   0.01889770
5510.00   1.02652371   0.01894255
5512.00   1.00012696   0.01897478
5514.00   0.97277135   0.01894563
5516.00   1.01458991   0.01909214
5518.00   1.04498208   0.01948339
5520.00   1.03410888   0.01941913
5522.00   1.00581098   0.01923234
5524.00   1.02901185   0.01928330
5526.00   0.99891889   0.01910001
5528.00   1.01658142   0.01919860
5530.00   1.00164545   0.01900980
5532.00   1.00601447   0.01898320
5534.00   1.01329589   0.01903627
5536.00   1.01116729   0.01911291
5538.00   1.08180082   0.01948518
5540.00   1.03871560   0.01934868
5542.00   1.00698805   0.01920886
5544.00   0.99314862   0.01916956
5546.00   0.97679484   0.01909094
5548.00   1.01966977   0.01937381
5550.00   0.99487513   0.01917369
5552.00   1.01685512   0.01936846
5554.00   0.98876119   0.01930526
5556.00   0.99051929   0.01929106
5558.00   1.00580978   0.03446988
5560.00   0.99780846   0.03460702
5562.00   0.99392128   0.03507260
5564.00   1.00504529   0.03599268
5566.00   0.99122334   0.03665183
5568.00   0.97491378   0.03721128
5570.00   0.95794576   0.03809814
5572.00   0.95759624   0.03959519
5574.00   0.99127483   0.04162613
5576.00   0.99071580   0.04308968
5578.00   1.00563765   0.04297894
5580.00   1.00045455   0.04162639
5582.00   0.97971576   0.03935353
5584.00   0.98480678   0.03631758
5586.00   0.98052508   0.03265475
5588.00   0.97152489   0.03037994
5590.00   0.97472125   0.02956455
5592.00   0.98694378   0.02944570
5594.00   0.96830517   0.02917228
5596.00   0.94323748   0.02889017
5598.00   0.94465345   0.02861650
5600.00   0.96524554   0.02842088
5602.00   0.98121339   0.02830984
5604.00   0.95104200   0.02800594
5606.00   0.94436246   0.02775837
5608.00   0.91242152   0.02740642
5610.00   0.88202924   0.02711262
5612.00   0.88980699   0.02701851
5614.00   0.90274030   0.02678394
5616.00   0.89706963   0.02661271
5618.00   0.88467574   0.02639357
5620.00   0.88022035   0.02616175
5622.00   0.88782120   0.02600352
5624.00   0.87483805   0.02574865
5626.00   0.86539555   0.02549572
5628.00   0.85872000   0.02532801
5630.00   0.85438347   0.02522245
5632.00   0.84943086   0.02500127
5634.00   0.82176614   0.02461913
5636.00   0.79914409   0.02427832
5638.00   0.78526419   0.02400621
5640.00   0.78258419   0.02381044
5642.00   0.79551488   0.02369480
5644.00   0.77665448   0.02354364
5646.00   0.74320883   0.02317897
5648.00   0.72119004   0.02284942
5650.00   0.71987104   0.02272831
5652.00   0.71011537   0.02242686
5654.00   0.68840712   0.02216683
5656.00   0.66434819   0.02189469
5658.00   0.65763307   0.02176144
5660.00   0.67275095   0.02185094
5662.00   0.64679068   0.02167439
5664.00   0.63114852   0.02166457
5666.00   0.62685728   0.02176523
5668.00   0.62824506   0.02192503
5670.00   0.62777656   0.02212379
5672.00   0.63461852   0.02234592
5674.00   0.62214470   0.02261647
5676.00   0.61381292   0.02287835
5678.00   0.61638790   0.02309129
5680.00   0.60705733   0.02327467
5682.00   0.61296821   0.02371711
5684.00   0.62538737   0.02414584
5686.00   0.64036655   0.02448807
5688.00   0.65260464   0.02462951
5690.00   0.64193493   0.02419282
5692.00   0.63536596   0.02365728
5694.00   0.65439552   0.02311264
5696.00   0.67855948   0.02260735
5698.00   0.68429923   0.02214143
5700.00   0.67652291   0.02163934
5702.00   0.67681569   0.02132147
5704.00   0.67717224   0.02106648
5706.00   0.67866689   0.02087100
5708.00   0.68503994   0.02077821
5710.00   0.68720418   0.02068562
5712.00   0.67294794   0.02052477
5714.00   0.67199755   0.02045491
5716.00   0.68272668   0.02041846
5718.00   0.67638308   0.02019961
5720.00   0.67177314   0.02005546
5722.00   0.67170709   0.01994996
5724.00   0.67367870   0.01986077
5726.00   0.67201787   0.01974828
5728.00   0.66207039   0.01958537
5730.00   0.65679532   0.01940405
5732.00   0.66378880   0.01934070
5734.00   0.66093057   0.01926508
5736.00   0.64160329   0.01911291
5738.00   0.63795882   0.01905785
5740.00   0.65003198   0.01909330
5742.00   0.65626621   0.01910367
5744.00   0.64985669   0.01905029
5746.00   0.63771474   0.01898041
5748.00   0.63231677   0.01896582
5750.00   0.63779563   0.01899230
5752.00   0.64798397   0.01904692
5754.00   0.65440279   0.01914560
5756.00   0.65266365   0.01930166
5758.00   0.65793651   0.01940857
5760.00   0.65665084   0.01953438
5762.00   0.66087413   0.01979947
5764.00   0.66439503   0.02015520
5766.00   0.64677387   0.02041069
5768.00   0.65663576   0.02072601
5770.00   0.66685241   0.02082966
5772.00   0.67129660   0.02070140
5774.00   0.67359525   0.02040515
5776.00   0.68353415   0.02005520
5778.00   0.68489486   0.01969711
5780.00   0.68646806   0.01962636
5782.00   0.69526100   0.01980423
5784.00   0.71127605   0.02009043
5786.00   0.72569686   0.02040808
5788.00   0.73307890   0.02077910
5790.00   0.74469656   0.02101023
5792.00   0.75980932   0.02105299
5794.00   0.77121204   0.02092616
5796.00   0.75079101   0.02051704
5798.00   0.76125914   0.02022962
5800.00   0.77950549   0.02003546
5802.00   0.78966457   0.01990246
5804.00   0.78597307   0.01980934
5806.00   0.78466749   0.01980374
5808.00   0.79545760   0.01982283
5810.00   0.80485183   0.01983456
5812.00   0.80213928   0.01982041
5814.00   0.79039019   0.01981297
5816.00   0.82078457   0.01995863
5818.00   0.85450935   0.02018387
5820.00   0.86140817   0.02027250
5822.00   0.84579015   0.02021043
5824.00   0.84906244   0.02024993
5826.00   0.86045140   0.02030916
5828.00   0.86259627   0.02039296
5830.00   0.86683702   0.02048296
5832.00   0.88136882   0.02055449
5834.00   0.88791639   0.02058880
5836.00   0.90231109   0.02075385
5838.00   0.90830660   0.02086355
5840.00   0.90959287   0.02092079
5842.00   0.91802138   0.02100772
5844.00   0.93883920   0.02113187
5846.00   0.95567369   0.02123992
5848.00   0.96210212   0.02133594
5850.00   1.04548120   0.02148047
5852.00   1.01474392   0.02171908
5854.00   1.02556956   0.02186743
5856.00   1.02512729   0.02192861
5858.00   1.03796244   0.02204298
5860.00   1.06339288   0.02222677
5862.00   1.07643211   0.02237753
5864.00   1.09242237   0.02254852
5866.00   1.11398304   0.02270154
5868.00   1.14618242   0.02289413
5870.00   1.17373478   0.02307764
5872.00   1.14950240   0.02299887
5874.00   1.17202044   0.02319235
5876.00   1.18361080   0.02348898
5878.00   1.19402301   0.02394528
5880.00   1.21997213   0.02471145
5882.00   1.25385404   0.02593653
5884.00   1.23705721   0.02760587
5886.00   1.21912396   0.02985159
5888.00   1.20276260   0.03204723
5890.00   1.17167914   0.03353154
5892.00   1.15047157   0.03438230
5894.00   1.15641832   0.03458164
5896.00   1.19451296   0.03352746
5898.00   1.23017132   0.03139959
5900.00   1.21939027   0.02906206
5902.00   1.25761414   0.02711502
5904.00   1.29062343   0.02522455
5906.00   1.31369483   0.02394697
5908.00   1.32725370   0.02355056
5910.00   1.33162344   0.02364786
5912.00   1.32643044   0.02363458
5914.00   1.30947459   0.02358254
5916.00   1.29721987   0.02354199
5918.00   1.28486848   0.02345736
5920.00   1.23331010   0.02312424
5922.00   1.16780961   0.02273083
5924.00   1.14940524   0.02265410
5926.00   1.16088533   0.02277130
5928.00   1.16684401   0.02285557
5930.00   1.18407536   0.02302567
5932.00   1.23388970   0.02328917
5934.00   1.25291264   0.02334396
5936.00   1.25137079   0.02325366
5938.00   1.27046478   0.02324435
5940.00   1.27424192   0.02317000
5942.00   1.26919127   0.02300911
5944.00   1.24677980   0.02276884
5946.00   1.29993486   0.02250516
5948.00   1.25724101   0.02233058
5950.00   1.18581450   0.02242690
5952.00   1.26563597   0.02244990
5954.00   1.26534677   0.02237484
5956.00   1.24180090   0.02222230
5958.00   1.12199056   0.02196683
5960.00   1.11362731   0.02181914
5962.00   1.11798239   0.02174653
5964.00   1.11515844   0.02167343
5966.00   1.09641266   0.02154654
5968.00   1.07490945   0.02138232
5970.00   1.06884825   0.02135260
5972.00   1.05474281   0.02123303
5974.00   1.02500379   0.02102043
5976.00   0.99273044   0.02083517
5978.00   0.99995327   0.02082346
5980.00   0.98676044   0.02068151
5982.00   0.97762984   0.02056900
5984.00   0.97404003   0.02051378
5986.00   0.96410924   0.02045064
5988.00   0.94501877   0.02027799
5990.00   0.93555242   0.02020479
5992.00   0.91922998   0.02010219
5994.00   0.90277767   0.01997092
5996.00   0.91045737   0.01993683
5998.00   0.90782958   0.01994926
6000.00   0.90018177   0.01988209
6002.00   0.90804452   0.01986104
6004.00   0.92825574   0.01990852
6006.00   0.92898083   0.01987830
6008.00   0.91289514   0.01975708
6010.00   0.90847588   0.01970240
6012.00   0.91039973   0.01967122
6014.00   0.90883166   0.01961902
6016.00   0.91343522   0.01965628
6018.00   0.90297723   0.01952606
6020.00   0.90163231   0.01944556
6022.00   0.91174263   0.01954645
6024.00   0.92106390   0.01979513
6026.00   0.91674083   0.01981797
6028.00   0.91181344   0.01986709
6030.00   0.91118312   0.01998478
6032.00   0.91687173   0.02004869
6034.00   0.92691010   0.01990417
6036.00   0.93229467   0.01988939
6038.00   0.90886933   0.01997879
6040.00   0.89275938   0.01894202
6042.00   0.89323384   0.01992831
6044.00   0.88878745   0.01982345
6046.00   0.89743835   0.01976459
6048.00   0.88701218   0.01871007
6050.00   0.88004893   0.01866218
6052.00   0.88693935   0.01867190
6054.00   0.88238716   0.01865223
6056.00   0.87042660   0.01850846
6058.00   0.86899346   0.01845519
6060.00   0.87163574   0.01847095
6062.00   0.86768126   0.01847278
6064.00   0.85734528   0.01840149
6066.00   0.84747481   0.01836661
6068.00   0.84106636   0.01831875
6070.00   0.83353800   0.01823781
6072.00   0.82514626   0.01816872
6074.00   0.83831167   0.01818892
6076.00   0.85898304   0.01824366
6078.00   0.85991734   0.01823614
6080.00   0.85016507   0.01822086
6082.00   0.85811406   0.01829267
6084.00   0.84657282   0.01820606
6086.00   0.85789341   0.01922715
6088.00   0.86183482   0.01907396
6090.00   0.85192245   0.01863766
6092.00   0.85316032   0.01853134
6094.00   0.85964173   0.01864030
6096.00   0.86986810   0.01878160
6098.00   0.88011485   0.01888097
6100.00   0.88557935   0.01895248
6102.00   0.88028097   0.01907733
6104.00   0.86844873   0.01915137
6106.00   0.88256282   0.01940498
6108.00   0.89955372   0.01989936
6110.00   0.90413523   0.02064268
6112.00   0.84461010   0.01986249
6114.00   0.86543000   0.01997781
6116.00   0.85133266   0.01982275
6118.00   0.82549423   0.01948898
6120.00   0.87938398   0.02012750
6122.00   0.87523621   0.01955218
6124.00   0.85822052   0.01914471
6126.00   0.84379631   0.01881311
6128.00   0.83785963   0.01858153
6130.00   0.83588696   0.01848223
6132.00   0.83109456   0.01838371
6134.00   0.81736010   0.01826806
6136.00   0.80099791   0.01812614
6138.00   0.78257591   0.01796984
6140.00   0.75265259   0.01781587
6142.00   0.74320984   0.01778648
6144.00   0.74008793   0.01776894
6146.00   0.73481220   0.01771929
6148.00   0.72602814   0.01765540
6150.00   0.72181743   0.01766498
6152.00   0.70648295   0.01765498
6154.00   0.70422179   0.01773501
6156.00   0.70345592   0.01782831
6158.00   0.68825096   0.01781601
6160.00   0.66987562   0.01768061
6162.00   0.67213923   0.01754935
6164.00   0.66042185   0.01730147
6166.00   0.63670391   0.01695576
6168.00   0.62187010   0.01662323
6170.00   0.62321490   0.01642101
6172.00   0.61401105   0.01622182
6174.00   0.61807495   0.01618150
6176.00   0.63027841   0.01622554
6178.00   0.62474573   0.01613680
6180.00   0.61923152   0.01605856
6182.00   0.62353873   0.01611663
6184.00   0.62457830   0.01613038
6186.00   0.62104338   0.01605803
6188.00   0.62986660   0.01609306
6190.00   0.62387490   0.01604346
6192.00   0.62185365   0.01599924
6194.00   0.61929005   0.01596517
6196.00   0.61495513   0.01595246
6198.00   0.62802702   0.01603477
6200.00   0.62959307   0.01606396
6202.00   0.62192982   0.01601657
6204.00   0.61719412   0.01598377
6206.00   0.62760073   0.01606868
6208.00   0.63588440   0.01620647
6210.00   0.65883112   0.01636470
6212.00   0.66004831   0.01634285
6214.00   0.64896864   0.01621573
6216.00   0.65415078   0.01617847
6218.00   0.65597939   0.01614965
6220.00   0.66166210   0.01612177
6222.00   0.67026037   0.01614355
6224.00   0.67981702   0.01619646
6226.00   0.68783075   0.01621387
6228.00   0.68225032   0.01620837
6230.00   0.68280286   0.01626872
6232.00   0.69046283   0.01641067
6234.00   0.70225376   0.01659898
6236.00   0.71312112   0.01675912
6238.00   0.71954393   0.01685769
6240.00   0.71608549   0.01680502
6242.00   0.71428472   0.01668556
6244.00   0.72549009   0.01664605
6246.00   0.74952054   0.01683722
6248.00   0.74984080   0.01672217
6250.00   0.73910934   0.01659620
6252.00   0.73451757   0.01659919
6254.00   0.74525064   0.01673676
6256.00   0.75435114   0.01688634
6258.00   0.74817866   0.01688680
6260.00   0.74395055   0.01687793
6262.00   0.75436574   0.01692929
6264.00   0.78085065   0.01702131
6266.00   0.77936959   0.01684359
6268.00   0.76801378   0.01667888
6270.00   0.76028848   0.01657328
6272.00   0.76783639   0.01659080
6274.00   0.79114676   0.01676608
6276.00   0.78336883   0.01678146
6278.00   0.80001402   0.01702304
6280.00   0.80691332   0.01722692
6282.00   0.79186660   0.01721811
6284.00   0.79117531   0.01707280
6286.00   0.79612547   0.01705256
6288.00   0.79823393   0.01707030
6290.00   0.80544120   0.01715452
6292.00   0.82220459   0.01735514
6294.00   0.83304113   0.01770060
6296.00   0.84272504   0.01837256
6298.00   0.85729915   0.01907612
6300.00   0.87361264   0.01951415
6302.00   0.88506228   0.01954281
6304.00   0.88052016   0.01940189
6306.00   0.87228608   0.01884808
6308.00   0.87152261   0.01825659
6310.00   0.88803649   0.01789141
6312.00   0.91913670   0.01778512
6314.00   0.90435839   0.01747243
6316.00   0.90026969   0.01728554
6318.00   0.90410894   0.01726602
6320.00   0.91252571   0.01735882
6322.00   0.92598909   0.01743753
6324.00   0.94829911   0.01758849
6326.00   0.98156786   0.01783538
6328.00   1.00589383   0.01800966
6330.00   1.01161802   0.01803613
6332.00   1.01659369   0.01805590
6334.00   1.02637386   0.01803886
6336.00   1.03315663   0.01799939
6338.00   1.04219425   0.01799596
6340.00   1.05660570   0.01805297
6342.00   1.05951178   0.01805864
6344.00   1.06502759   0.01809720
6346.00   1.06550455   0.01807117
6348.00   1.07331979   0.01808377
6350.00   1.10113704   0.01825904
6352.00   1.12372291   0.01842035
6354.00   1.13627231   0.01850820
6356.00   1.13543427   0.01852122
6358.00   1.13723803   0.01861363
6360.00   1.16315579   0.01895317
6362.00   1.18321955   0.01915867
6364.00   1.18114293   0.01913777
6366.00   1.18454325   0.01909668
6368.00   1.20167446   0.01908715
6370.00   1.20807302   0.01892351
6372.00   1.22154129   0.01883678
6374.00   1.22931159   0.01882016
6376.00   1.23825097   0.01887419
6378.00   1.25070620   0.01896260
6380.00   1.25466168   0.01901865
6382.00   1.27702582   0.01913906
6384.00   1.28774393   0.01916055
6386.00   1.29676712   0.01916171
6388.00   1.31722319   0.01924008
6390.00   1.34033298   0.01934371
6392.00   1.35615921   0.01939305
6394.00   1.34975231   0.01931097
6396.00   1.34540331   0.01925033
6398.00   1.45637918   0.01952762
6400.00   1.47782838   0.01921852
6402.00   1.42070472   0.01937637
6404.00   1.43034363   0.01944673
6406.00   1.41176379   0.01941433
6408.00   1.39233732   0.01934976
6410.00   1.37195396   0.01930843
6412.00   1.38620985   0.02027897
6414.00   1.42227793   0.01996719
6416.00   1.55234826   0.01982153
6418.00   1.47161210   0.01987207
6420.00   1.48127353   0.01991136
6422.00   1.49339712   0.01997259
6424.00   1.50600111   0.02001458
6426.00   1.51797783   0.02003475
6428.00   1.52455199   0.02006855
6430.00   1.51963556   0.02005695
6432.00   1.51824510   0.02002155
6434.00   1.52220678   0.02001729
6436.00   1.53062534   0.02008447
6438.00   1.53823233   0.02012572
6440.00   1.55233371   0.02018244
6442.00   1.55938625   0.02021799
6444.00   1.55497539   0.02020730
6446.00   1.54698229   0.02016796
6448.00   1.56880891   0.02023405
6450.00   1.58100128   0.02029100
6452.00   1.58336794   0.02086344
6454.00   1.58339441   0.02072933
6456.00   1.59286964   0.02073917
6458.00   1.61787117   0.02085056
6460.00   1.62078762   0.02130361
6462.00   1.61086273   0.02035743
6464.00   1.60625112   0.02062071
6466.00   1.61796868   0.02064607
6468.00   1.63040817   0.02066760
6470.00   1.72761393   0.02064087
6472.00   1.63592196   0.02060683
6474.00   1.64049399   0.02058586
6476.00   1.64442289   0.02055892
6478.00   1.64332521   0.02050088
6480.00   1.65310967   0.02052293
6482.00   1.66055202   0.02055172
6484.00   1.65138733   0.02049663
6486.00   1.64154494   0.02043906
6488.00   1.65423870   0.02050906
6490.00   1.66458094   0.02056303
6492.00   1.66411495   0.02056707
6494.00   1.65845919   0.02057421
6496.00   1.68183744   0.02075277
6498.00   1.68369770   0.02081999
6500.00   1.68630755   0.02087002
6502.00   1.70260155   0.02095435
6504.00   1.72645414   0.02104083
6506.00   1.73333585   0.02100964
6508.00   1.73222625   0.02095651
6510.00   1.73473203   0.02092337
6512.00   1.73913062   0.02088569
6514.00   1.82115579   0.02075642
6516.00   1.81351769   0.02067158
6518.00   1.71098757   0.02063711
6520.00   1.71556056   0.02066369
6522.00   1.83535576   0.02071782
6524.00   1.83277845   0.02073373
6526.00   1.81355381   0.02068629
6528.00   1.71476877   0.02071386
6530.00   1.73204148   0.02082166
6532.00   1.84146369   0.02091993
6534.00   1.85627973   0.02095449
6536.00   1.85091996   0.02090197
6538.00   1.84108496   0.02082543
6540.00   1.73459053   0.02076355
6542.00   1.73219526   0.02072835
6544.00   1.74272692   0.02077409
6546.00   1.75166166   0.02080578
6548.00   1.74703395   0.02079734
6550.00   1.73786032   0.02078559
6552.00   1.75255334   0.02085876
6554.00   1.73513937   0.02078107
6556.00   1.74422491   0.02080506
6558.00   1.85026169   0.02079920
6560.00   1.82798231   0.02071393
6562.00   1.73920429   0.02072737
6564.00   1.73159790   0.02068458
6566.00   1.72717249   0.02063081
6568.00   1.72932684   0.02059006
6570.00   1.73475444   0.02057083
6572.00   1.71635389   0.02046204
6574.00   1.70360267   0.02043624
6576.00   1.70410597   0.02048896
6578.00   1.71028388   0.02054264
6580.00   1.70919788   0.02052178
6582.00   1.69924831   0.02048752
6584.00   1.69381011   0.02041734
6586.00   1.78718925   0.02033862
6588.00   1.79120016   0.02027643
6590.00   1.68880987   0.02027476
6592.00   1.71553075   0.02042185
6594.00   1.75056517   0.02060815
6596.00   1.87863517   0.02078182
6598.00   1.88679814   0.02086168
6600.00   1.77027547   0.02074726
6602.00   1.71570837   0.02041347
6604.00   1.66047084   0.02005244
6606.00   1.71405172   0.01980771
6608.00   1.70581198   0.01970715
6610.00   1.68772399   0.01961524
6612.00   1.59073448   0.01961444
6614.00   1.57893896   0.01956852
6616.00   1.56190598   0.01949181
6618.00   1.55181897   0.01944430
6620.00   1.55570138   0.01945588
6622.00   1.55067384   0.01940134
6624.00   1.62083495   0.01926434
6626.00   1.50660646   0.01911511
6628.00   1.49814069   0.01904236
6630.00   1.49170268   0.01898574
6632.00   1.47241485   0.01886483
6634.00   1.46097410   0.01879992
6636.00   1.46155536   0.01880270
6638.00   1.45979488   0.01877722
6640.00   1.43586195   0.01864518
6642.00   1.42078960   0.01855100
6644.00   1.40956438   0.01847476
6646.00   1.39249372   0.01837505
6648.00   1.36619651   0.01823835
6650.00   1.34975708   0.01814802
6652.00   1.33426285   0.01806289
6654.00   1.32415771   0.01800966
6656.00   1.32530069   0.01801617
6658.00   1.33365428   0.01804358
6660.00   1.32487440   0.01798569
6662.00   1.31110060   0.01791613
6664.00   1.29605007   0.01783969
6666.00   1.28058636   0.01774378
6668.00   1.26876199   0.01764762
6670.00   1.26340258   0.01761322
6672.00   1.26832342   0.01764210
6674.00   1.26383877   0.01761809
6676.00   1.23345757   0.01745059
6678.00   1.22145653   0.01737937
6680.00   1.21266544   0.01731558
6682.00   1.21228635   0.01730678
6684.00   1.21048319   0.01730045
6686.00   1.18770647   0.01716941
6688.00   1.17673957   0.01708091
6690.00   1.17994058   0.01709405
6692.00   1.17963409   0.01708403
6694.00   1.16662645   0.01699007
6696.00   1.14806926   0.01689130
6698.00   1.14447463   0.01689452
6700.00   1.13074362   0.01684740
6702.00   1.12260616   0.01683277
6704.00   1.12851191   0.01689852
6706.00   1.11449754   0.01685673
6708.00   1.11014378   0.01684724
6710.00   1.10486805   0.01680134
6712.00   1.09476483   0.01671356
6714.00   1.08048046   0.01660845
6716.00   1.08459640   0.01657920
6718.00   1.07601595   0.01651221
6720.00   1.06460845   0.01641703
6722.00   1.05503643   0.01632209
6724.00   1.04757297   0.01625668
6726.00   1.04116452   0.01620185
6728.00   1.03027999   0.01612568
6730.00   1.01872694   0.01606970
6732.00   1.01121485   0.01604110
6734.00   1.01057947   0.01601112
6736.00   1.00654161   0.01596857
6738.00   1.00454533   0.01594645
6740.00   0.99860048   0.01588947
6742.00   0.98791522   0.01579878
6744.00   0.97761875   0.01574465
6746.00   0.98300952   0.01578971
6748.00   0.98696154   0.01580827
6750.00   0.97961903   0.01573907
6752.00   0.96359652   0.01561633
6754.00   0.96218967   0.01561636
6756.00   0.96919614   0.01561924
6758.00   0.96387941   0.01557239
6760.00   0.95037585   0.01550848
6762.00   0.94168139   0.01547763
6764.00   0.94215411   0.01548198
6766.00   0.94357300   0.01549883
6768.00   0.93972301   0.01547046
6770.00   0.93004721   0.01539402
6772.00   0.91996115   0.01531030
6774.00   0.92434311   0.01526085
6776.00   0.91277432   0.01519944
6778.00   0.90479797   0.01516545
6780.00   0.90757108   0.01517123
6782.00   0.90921545   0.01518558
6784.00   0.89681691   0.01511113
6786.00   0.87975031   0.01502189
6788.00   0.87528831   0.01498372
6790.00   0.88645428   0.01500734
6792.00   0.89262509   0.01500420
6794.00   0.88408709   0.01496320
6796.00   0.87767428   0.01492616
6798.00   0.87438440   0.01490304
6800.00   0.87062341   0.01489012
6802.00   0.86802292   0.01488055
6804.00   0.87107104   0.01487186
6806.00   0.86604029   0.01483475
6808.00   0.85974556   0.01480329
6810.00   0.86113185   0.01480494
6812.00   0.85187936   0.01476489
6814.00   0.84980965   0.01475114
6816.00   0.85533673   0.01477666
6818.00   0.85925007   0.01479191
6820.00   0.84699488   0.01472175
6822.00   0.83761710   0.01473128
6824.00   0.82758641   0.01475458
6826.00   0.83236408   0.01489654
6828.00   0.84843856   0.01512135
6830.00   0.85586149   0.01527373
6832.00   0.84970188   0.01533660
6834.00   0.84580463   0.01526331
6836.00   0.84583473   0.01518220
6838.00   0.84873110   0.01515634
6840.00   0.85359573   0.01507305
6842.00   0.84631997   0.01489245
6844.00   0.83284664   0.01473589
6846.00   0.82697839   0.01466845
6848.00   0.83263153   0.01467354
6850.00   0.82211637   0.01458704
6852.00   0.82920521   0.01460669
6854.00   0.83661002   0.01464007
6856.00   0.83814460   0.01469663
6858.00   0.83602828   0.01483603
6860.00   0.84084588   0.01511182
6862.00   0.83746505   0.01522955
6864.00   0.82807475   0.01529186
6866.00   0.82843035   0.01560656
6868.00   0.85348147   0.01644500
6870.00   0.85313177   0.01729497
6872.00   0.82295889   0.01748221
6874.00   0.80257702   0.01729414
6876.00   0.80540586   0.01694965
6878.00   0.80506188   0.01641407
6880.00   0.80790740   0.01590121
6882.00   0.81215495   0.01550220
6884.00   0.81567878   0.01529117
6886.00   0.81722265   0.01529901
6888.00   0.81599206   0.01551000
6890.00   0.83046556   0.01578745
6892.00   0.80953455   0.01550836
6894.00   0.85158199   0.01617208
6896.00   0.78374374   0.01541506
6898.00   0.79016024   0.01541027
6900.00   0.78777242   0.01534019
6902.00   0.85211629   0.01584082
6904.00   0.79021901   0.01504321
6906.00   0.81960291   0.01533520
6908.00   0.81314707   0.01526405
6910.00   0.81516153   0.01522179
6912.00   0.81966072   0.01521240
6914.00   0.82162046   0.01518777
6916.00   0.81997627   0.01509800
6918.00   0.82290053   0.01510533
6920.00   0.82613844   0.01519256
6922.00   0.83448130   0.01526175
6924.00   0.84148616   0.01524022
6926.00   0.82695723   0.01510744
6928.00   0.81757379   0.01494040
6930.00   0.81661654   0.01481452
6932.00   0.81891155   0.01473311
6934.00   0.82209891   0.01471741
6936.00   0.83348846   0.01486147
6938.00   0.82926005   0.01493220
6940.00   0.82639980   0.01498235
6942.00   0.82397413   0.01500751
6944.00   0.81925648   0.01501115
6946.00   0.82796526   0.01507899
6948.00   0.83021140   0.01511979
6950.00   0.82460546   0.01507572
6952.00   0.81958181   0.01497193
6954.00   0.82320148   0.01486471
6956.00   0.81031054   0.01468223
6958.00   0.80421394   0.01461273
6960.00   0.80245423   0.01456977
6962.00   0.80465144   0.01454527
6964.00   0.81222051   0.01460407
6966.00   0.82238942   0.01466502
6968.00   0.81588197   0.01459442
6970.00   0.80336237   0.01448581
6972.00   0.79897642   0.01446619
6974.00   0.80785209   0.01460888
6976.00   0.80988687   0.01465799
6978.00   0.80936474   0.01465659
6980.00   0.80782884   0.01463381
6982.00   0.80564308   0.01459652
6984.00   0.79974395   0.01447252
6986.00   0.78754759   0.01435354
6988.00   0.79156321   0.01439008
6990.00   0.80420202   0.01450477
6992.00   0.80846763   0.01454424
6994.00   0.79720688   0.01443723
6996.00   0.80277330   0.01446386
6998.00   0.80751783   0.01451100
7000.00   0.80267125   0.01450295
7002.00   0.79172772   0.01443736
7004.00   0.79919815   0.01450027
7006.00   0.80051333   0.01450543
7008.00   0.78945595   0.01443849
7010.00   0.77335280   0.01432365
7012.00   0.76600140   0.01419281
7014.00   0.77284616   0.01421314
7016.00   0.78047222   0.01428292
7018.00   0.78334385   0.01430798
7020.00   0.78115946   0.01425873
7022.00   0.78217316   0.01423810
7024.00   0.77889746   0.01419932
7026.00   0.77417064   0.01419431
7028.00   0.77468151   0.01424660
7030.00   0.78243637   0.01432282
7032.00   0.78261763   0.01427782
7034.00   0.77395153   0.01418631
7036.00   0.77766424   0.01417638
7038.00   0.78534573   0.01422942
7040.00   0.78215760   0.01426332
7042.00   0.77908641   0.01424318
7044.00   0.78285056   0.01425481
7046.00   0.78826618   0.01428595
7048.00   0.79165834   0.01433428
7050.00   0.79246634   0.01439878
7052.00   0.78837663   0.01436737
7054.00   0.78890300   0.01436595
7056.00   0.79841828   0.01440715
7058.00   0.80634648   0.01442435
7060.00   0.79456681   0.01432442
7062.00   0.79589319   0.01436292
7064.00   0.79150325   0.01435396
7066.00   0.78927404   0.01434131
7068.00   0.79622906   0.01437792
7070.00   0.80586463   0.01441943
7072.00   0.80044240   0.01434962
7074.00   0.80310535   0.01434134
7076.00   0.80431747   0.01436909
7078.00   0.79461890   0.01436812
7080.00   0.79172879   0.01432288
7082.00   0.79142517   0.01433090
7084.00   0.79343718   0.01434217
7086.00   0.80049866   0.01438714
7088.00   0.81200767   0.01448691
7090.00   0.79906249   0.01441227
7092.00   0.79274195   0.01432195
7094.00   0.79701877   0.01426631
7096.00   0.80260879   0.01423823
7098.00   0.79806882   0.01420585
7100.00   0.79645729   0.01415794
7102.00   0.79706401   0.01416815
7104.00   0.80153823   0.01423528
7106.00   0.80516356   0.01428552
7108.00   0.79826564   0.01419845
7110.00   0.78667861   0.01411709
7112.00   0.79903001   0.01422796
7114.00   0.81669968   0.01434505
7116.00   0.82258695   0.01434860
7118.00   0.82179070   0.01438635
7120.00   0.82886416   0.01446097
7122.00   0.82818556   0.01442514
7124.00   0.82243484   0.01434595
7126.00   0.82345468   0.01436398
7128.00   0.84355021   0.01455749
7130.00   0.84688324   0.01456835
7132.00   0.85423118   0.01457497
7134.00   0.86169457   0.01459488
7136.00   0.86048126   0.01459918
7138.00   0.87620109   0.01472070
7140.00   0.87487584   0.01476868
7142.00   0.87814075   0.01484225
7144.00   0.89283085   0.01495753
7146.00   0.90667844   0.01503772
7148.00   0.91284561   0.01506239
7150.00   0.91454595   0.01504263
7152.00   0.92295432   0.01506535
7154.00   0.93729210   0.01514118
7156.00   0.94024962   0.01515841
7158.00   0.93040228   0.01510791
7160.00   0.94481421   0.01521829
7162.00   0.96345448   0.01533864
7164.00   0.96608692   0.01535292
7166.00   0.96691585   0.01541015
7168.00   0.97764063   0.01561753
7170.00   0.98588997   0.01582540
7172.00   0.99158567   0.01600691
7174.00   0.99862695   0.01618528
7176.00   1.00715876   0.01638262
7178.00   1.00595176   0.01635154
7180.00   1.00532579   0.01628352
7182.00   1.00540864   0.01626663
7184.00   1.00500798   0.01633095
7186.00   1.01084816   0.01652040
7188.00   1.00799263   0.01656879
7190.00   1.00813615   0.01654540
7192.00   1.01868951   0.01654626
7194.00   1.03866637   0.01663634
7196.00   1.03181946   0.01659678
7198.00   1.02775204   0.01654973
7200.00   1.03056777   0.01652447
7202.00   1.03692198   0.01655999
7204.00   1.04166090   0.01673138
7206.00   1.03816330   0.01662216
7208.00   1.03707540   0.01642245
7210.00   1.03549266   0.01619184
7212.00   1.03058207   0.01596547
7214.00   1.02627790   0.01577191
7216.00   1.01971447   0.01564745
7218.00   1.02552104   0.01570495
7220.00   1.03787470   0.01582237
7222.00   1.04071319   0.01581475
7224.00   1.01322448   0.01563127
7226.00   1.01425374   0.01570681
7228.00   1.02319372   0.01579993
7230.00   1.02578115   0.01584509
7232.00   1.01956260   0.01595902
7234.00   1.02824414   0.01641513
7236.00   1.02995718   0.01701028
7238.00   1.02997267   0.01740561
7240.00   1.03509319   0.01761956
7242.00   1.04571354   0.01794939
7244.00   1.02423584   0.01801398
7246.00   1.01800156   0.01774300
7248.00   1.02388918   0.01735453
7250.00   1.03190053   0.01702776
7252.00   1.04171431   0.01678018
7254.00   1.03882039   0.01668698
7256.00   1.03938138   0.01660064
7258.00   1.04352605   0.01645570
7260.00   1.04693329   0.01628240
7262.00   1.03927469   0.01620053
7264.00   1.04233539   0.01629723
7266.00   1.04435921   0.01640506
7268.00   1.03913128   0.01640576
7270.00   1.02975523   0.01636920
7272.00   1.03858137   0.01689611
7274.00   1.06572902   0.01761534
7276.00   1.07891691   0.01813331
7278.00   1.06997693   0.01829209
7280.00   1.05235612   0.01810887
7282.00   1.07090771   0.01771271
7284.00   1.07604504   0.01709122
7286.00   1.08018458   0.01669781
7288.00   1.08672559   0.01668748
7290.00   1.08389390   0.01677532
7292.00   1.08238709   0.01678577
7294.00   1.09417880   0.01681851
7296.00   1.10209024   0.01676741
7298.00   1.10201871   0.01665044
7300.00   1.11579096   0.01671354
7302.00   1.12587464   0.01687387
7304.00   1.12152708   0.01698560
7306.00   1.11459410   0.01700300
7308.00   1.11694634   0.01695324
7310.00   1.11213076   0.01687355
7312.00   1.12206519   0.01720485
7314.00   1.12280190   0.01747617
7316.00   1.11820757   0.01757230
7318.00   1.11952162   0.01755068
7320.00   1.11551225   0.01743292
7322.00   1.11617768   0.01708270
7324.00   1.11807096   0.01669598
7326.00   1.12004602   0.01648022
7328.00   1.12409639   0.01655552
7330.00   1.13276041   0.01669600
7332.00   1.14151251   0.01676165
7334.00   1.13961720   0.01678767
7336.00   1.12811613   0.01689315
7338.00   1.12233603   0.01721853
7340.00   1.13199937   0.01736156
7342.00   1.14512432   0.01745096
7344.00   1.15283871   0.01741555
7346.00   1.15429485   0.01718903
7348.00   1.15583289   0.01672647
7350.00   1.16577709   0.01656982
7352.00   1.16398191   0.01660881
7354.00   1.15760291   0.01668835
7356.00   1.15759647   0.01669748
7358.00   1.15292275   0.01669738
7360.00   1.15301549   0.01675602
7362.00   1.15759897   0.01682119
7364.00   1.16298020   0.01693458
7366.00   1.16687453   0.01713532
7368.00   1.17799461   0.01724285
7370.00   1.18256223   0.01729209
7372.00   1.17533457   0.01724038
7374.00   1.16405380   0.01704792
7376.00   1.16489172   0.01671286
7378.00   1.17151487   0.01650581
7380.00   1.17870009   0.01647354
7382.00   1.18863785   0.01655690
7384.00   1.19791186   0.01666405
7386.00   1.19475758   0.01670849
7388.00   1.19502294   0.01674324
7390.00   1.19083655   0.01674934
7392.00   1.18227410   0.01670342
7394.00   1.17730653   0.01667756
7396.00   1.18933892   0.01689615
7398.00   1.20160329   0.01701896
7400.00   1.19320786   0.01701655
7402.00   1.18382847   0.01699245
7404.00   1.19426012   0.01701288
7406.00   1.19406712   0.01683130
7408.00   1.19699180   0.01665676
7410.00   1.18962228   0.01648085
7412.00   1.18327916   0.01639348
7414.00   1.26831055   0.01645665
7416.00   1.19056237   0.01645881
7418.00   1.19446552   0.01647914
7420.00   1.19390023   0.01646520
7422.00   1.19148600   0.01643725
7424.00   1.19570661   0.01645997
7426.00   1.19089222   0.01650636
7428.00   1.18951476   0.01652654
7430.00   1.18847358   0.01652737
7432.00   1.18866873   0.01656229
7434.00   1.20275688   0.01673548
7436.00   1.20288336   0.01676021
7438.00   1.20165837   0.01674409
7440.00   1.19515324   0.01669950
7442.00   1.18437803   0.01662646
7444.00   1.19315183   0.01655523
7446.00   1.19543314   0.01645941
7448.00   1.19266605   0.01640653
7450.00   1.18512809   0.01637849
7452.00   1.17725182   0.01634684
7454.00   1.18257844   0.01635631
7456.00   1.17635345   0.01631265
7458.00   1.17114770   0.01628968
7460.00   1.16901243   0.01630123
7462.00   1.16581893   0.01632031
7464.00   1.17259848   0.01640091
7466.00   1.16524386   0.01639701
7468.00   1.15593708   0.01641341
7470.00   1.15115964   0.01646265
7472.00   1.14696753   0.01645241
7474.00   1.14048481   0.01643059
7476.00   1.13738334   0.01643402
7478.00   1.13739920   0.01646510
7480.00   1.13934433   0.01650503
7482.00   1.14430332   0.01653709
7484.00   1.14925671   0.01650618
7486.00   1.14281094   0.01641634
7488.00   1.13252890   0.01629606
7490.00   1.12445891   0.01616886
7492.00   1.10888815   0.01602802
7494.00   1.09558105   0.01592240
7496.00   1.09073198   0.01588185
7498.00   1.08859026   0.01585082
7500.00   1.08168113   0.01577010
7502.00   1.06740248   0.01566573
7504.00   1.06241941   0.01563816
7506.00   1.05551350   0.01559824
7508.00   1.04455018   0.01552325
7510.00   1.03560591   0.01545662
7512.00   1.03416824   0.01547182
7514.00   1.03610122   0.01551005
7516.00   1.03368509   0.01554873
7518.00   1.02822816   0.01565368
7520.00   1.02939999   0.01594021
7522.00   1.02497852   0.01610222
7524.00   1.02439368   0.01615903
7526.00   1.02196038   0.01616555
7528.00   1.01446712   0.01610362
7530.00   1.01018775   0.01583474
7532.00   1.00988674   0.01560905
7534.00   1.01075125   0.01551404
7536.00   1.01122582   0.01547358
7538.00   1.01140082   0.01540818
7540.00   1.01673508   0.01541397
7542.00   1.01527011   0.01538591
7544.00   1.01123321   0.01534353
7546.00   1.01047277   0.01532142
7548.00   1.01505983   0.01533224
7550.00   1.00625896   0.01526599
7552.00   1.00534356   0.01529188
7554.00   1.00166857   0.01533048
7556.00   0.99485946   0.01533884
7558.00   0.99536294   0.01534809
7560.00   1.01080108   0.01550118
7562.00   1.00955665   0.01548500
7564.00   1.00068772   0.01541106
7566.00   0.99459523   0.01543401
7568.00   0.99431229   0.01564655
7570.00   0.99007100   0.01577791
7572.00   0.98800653   0.01581171
7574.00   0.98683232   0.01576696
7576.00   0.98521084   0.01566017
7578.00   0.98156977   0.01544955
7580.00   0.98103428   0.01532499
7582.00   0.98679918   0.01535650
7584.00   0.99869710   0.01546949
7586.00   1.01229143   0.01555235
7588.00   1.02066243   0.01559186
7590.00   1.09738600   0.01556294
7592.00   1.01751363   0.01552727
7594.00   1.00980699   0.01616813
7596.00   1.01517308   0.01819220
7598.00   1.01821792   0.02155867
7600.00   0.97174025   0.02464738
7602.00   0.94713807   0.02820211
7604.00   0.95140076   0.03120762
7606.00   0.93995076   0.03216439
7608.00   0.92987090   0.03228813
7610.00   0.95046788   0.03115350
7612.00   0.97083551   0.02884124
7614.00   0.97970313   0.02578725
7616.00   1.00058663   0.02287746
7618.00   1.02115452   0.02036093
7620.00   1.04179132   0.01872631
7622.00   1.05211031   0.01834138
7624.00   1.04153550   0.01913565
7626.00   1.00512838   0.02063716
7628.00   1.01965153   0.02184677
7630.00   1.03880405   0.02249932
7632.00   1.04866123   0.02260895
7634.00   1.05099237   0.02234522
7636.00   1.05453551   0.02190239
7638.00   1.06338418   0.02151873
7640.00   1.06034195   0.02110990
7642.00   1.06126416   0.02074427
7644.00   1.08954179   0.02053354
7646.00   1.09715223   0.02017731
7648.00   1.09590137   0.01981633
7650.00   1.09814847   0.01946663
7652.00   1.10309923   0.01911540
7654.00   1.10218441   0.01875921
7656.00   1.12529659   0.01866570
7658.00   1.14296544   0.01862516
7660.00   1.15204370   0.01843577
7662.00   1.14981771   0.01807139
7664.00   1.13050258   0.01776071
7666.00   1.13974631   0.01754323
7668.00   1.15595198   0.01742844
7670.00   1.16387367   0.01731299
7672.00   1.16166151   0.01714826
7674.00   1.16895580   0.01704326
7676.00   1.17974651   0.01696446
7678.00   1.18812263   0.01694114
7680.00   1.19111013   0.01693948
7682.00   1.18849266   0.01690996
7684.00   1.20497525   0.01696945
7686.00   1.21172142   0.01697991
7688.00   1.22263718   0.01701858
7690.00   1.23546112   0.01707460
7692.00   1.23831379   0.01708719
7694.00   1.29805756   0.01700756
7696.00   1.29164004   0.01698906
7698.00   1.21759415   0.01699718
7700.00   1.22361624   0.01698481
7702.00   1.22289097   0.01692513
7704.00   1.23228741   0.01691376
7706.00   1.21332181   0.01685267
7708.00   1.19991624   0.01703247
7710.00   1.21259272   0.01753515
7712.00   1.23065078   0.01805059
7714.00   1.20819640   0.01831868
7716.00   1.21119821   0.01844379
7718.00   1.22412598   0.01836403
7720.00   1.22224963   0.01805563
7722.00   1.22415257   0.01770278
7724.00   1.22894561   0.01730795
7726.00   1.21991408   0.01701671
7728.00   1.20627010   0.01685841
7730.00   1.20374024   0.01678564
7732.00   1.20979130   0.01678499
7734.00   1.22159564   0.01680727
7736.00   1.22331989   0.01677084
7738.00   1.21239960   0.01666225
7740.00   1.19903147   0.01654793
7742.00   1.20371234   0.01659787
7744.00   1.20226955   0.01683888
7746.00   1.20049250   0.01739715
7748.00   1.20094585   0.01801548
7750.00   1.19802046   0.01816348
7752.00   1.20314550   0.01820257
7754.00   1.20560277   0.01817651
7756.00   1.20658958   0.01793954
7758.00   1.20321739   0.01748160
7760.00   1.18661976   0.01709530
7762.00   1.18999410   0.01699649
7764.00   1.19392455   0.01695487
7766.00   1.19818008   0.01705346
7768.00   1.20624149   0.01726539
7770.00   1.21663713   0.01700337
7772.00   1.21381843   0.01691018
7774.00   1.21031809   0.01688017
7776.00   1.20932913   0.01692420
7778.00   1.21073902   0.01704855
7780.00   1.21213138   0.01699719
7782.00   1.21021986   0.01690976
7784.00   1.21026945   0.01687562
7786.00   1.21215141   0.01690104
7788.00   1.21102524   0.01696744
7790.00   1.19643533   0.01737656
7792.00   1.19600737   0.01766260
7794.00   1.19632101   0.01776618
7796.00   1.19387233   0.01774838
7798.00   1.20486021   0.01773309
7800.00   1.20743060   0.01725533
7802.00   1.21574306   0.01691394
7804.00   1.21766913   0.01687951
7806.00   1.20839226   0.01705026
7808.00   1.20855713   0.01710867
7810.00   1.22374046   0.01720387
7812.00   1.22030115   0.01714705
7814.00   1.20454443   0.01705663
7816.00   1.19408810   0.01715172
7818.00   1.19331145   0.01761868
7820.00   1.19667542   0.01791515
7822.00   1.20280826   0.01808193
7824.00   1.20784009   0.01807604
7826.00   1.20906055   0.01782724
7828.00   1.20398736   0.01719610
7830.00   1.28318429   0.01676132
7832.00   1.28708386   0.01658119
7834.00   1.21796262   0.01665232
7836.00   1.23798335   0.01690748
7838.00   1.23412406   0.01705068
7840.00   1.22485411   0.01709013
7842.00   1.22269380   0.01711079
7844.00   1.22756374   0.01715552
7846.00   1.22759545   0.01720626
7848.00   1.22812426   0.01745317
7850.00   1.21977937   0.01774670
7852.00   1.21521556   0.01800262
7854.00   1.22329974   0.01819548
7856.00   1.23327780   0.01838384
7858.00   1.22490776   0.01814468
7860.00   1.22978449   0.01774344
7862.00   1.24072456   0.01746128
7864.00   1.23773003   0.01744460
7866.00   1.21311843   0.01742701
7868.00   1.20216799   0.01741742
7870.00   1.20731270   0.01741191
7872.00   1.21858275   0.01741699
7874.00   1.22393167   0.01744370
7876.00   1.22115266   0.01742822
7878.00   1.21916306   0.01732686
7880.00   1.22003841   0.01728605
7882.00   1.22124958   0.01734113
7884.00   1.21681964   0.01740363
7886.00   1.20318031   0.01739521
7888.00   1.19938362   0.01738648
7890.00   1.20818985   0.01743939
7892.00   1.22289431   0.01752680
7894.00   1.30201495   0.01750053
7896.00   1.30878520   0.01729778
7898.00   1.22702491   0.01709289
7900.00   1.21833944   0.01691912
7902.00   1.20256579   0.01677888
7904.00   1.19627583   0.01671239
7906.00   1.21122754   0.01692100
7908.00   1.21553409   0.01738227
7910.00   1.20254362   0.01796565
7912.00   1.25555992   0.01848257
7914.00   1.20336211   0.01869279
7916.00   1.19998157   0.01877369
7918.00   1.19847476   0.01863269
7920.00   1.20196593   0.01823626
7922.00   1.20006287   0.01766963
7924.00   1.18220091   0.01739535
7926.00   1.18487418   0.01733615
7928.00   1.18661427   0.01729956
7930.00   1.18197811   0.01722230
7932.00   1.18279350   0.01717396
7934.00   1.16994011   0.01702614
7936.00   1.16500437   0.01682841
7938.00   1.16671097   0.01662364
7940.00   1.16779768   0.01646930
7942.00   1.16381395   0.01645907
7944.00   1.15967417   0.01656564
7946.00   1.14377224   0.01655719
7948.00   1.13003433   0.01652029
7950.00   1.13162577   0.01656654
7952.00   1.14384949   0.01666363
7954.00   1.14752305   0.01654784
7956.00   1.14973831   0.01646119
7958.00   1.13891065   0.01650281
7960.00   1.10990798   0.01672316
7962.00   1.10242307   0.01729244
7964.00   1.17318988   0.01750474
7966.00   1.17291260   0.01758686
7968.00   1.09895563   0.01748504
7970.00   1.09326661   0.01700894
7972.00   1.09842801   0.01652653
7974.00   1.08673108   0.01632023
7976.00   1.07398641   0.01631634
7978.00   1.06874740   0.01636886
7980.00   1.07129991   0.01637700
7982.00   1.07680786   0.01642281
7984.00   1.07172060   0.01633362
7986.00   1.06030667   0.01620783
7988.00   1.05043340   0.01630931
7990.00   1.05178654   0.01703186
7992.00   1.05168390   0.01726115
7994.00   1.04580009   0.01733513
7996.00   1.04064143   0.01726815
7998.00   1.04130757   0.01698912
8000.00   1.05368757   0.01641597
8002.00   1.04573643   0.01597156
8004.00   1.03711808   0.01576173
8006.00   1.03485191   0.01573686
8008.00   1.03342831   0.01576286
8010.00   1.02285898   0.01592263
8012.00   1.02909279   0.01602974
8014.00   1.02315629   0.01602116
8016.00   1.00892317   0.01596361
8018.00   1.01352465   0.01600984
8020.00   1.01500940   0.01617977
8022.00   1.01769114   0.01649942
8024.00   1.01966679   0.01670308
8026.00   1.01170766   0.01664564
8028.00   0.98534995   0.01640581
8030.00   0.98656982   0.01629041
8032.00   0.99706012   0.01603947
8034.00   1.00593770   0.01577626
8036.00   1.00461471   0.01560354
8038.00   0.98984647   0.01542791
8040.00   0.98458004   0.01541328
8042.00   0.98732740   0.01542860
8044.00   0.98436838   0.01538504
8046.00   0.96854401   0.01530008
8048.00   0.96099705   0.01541461
8050.00   0.96134645   0.01543488
8052.00   0.95830446   0.01539046
8054.00   0.95565891   0.01536638
8056.00   0.96036005   0.01544225
8058.00   0.96156722   0.01561340
8060.00   0.96649247   0.01570760
8062.00   0.96594238   0.01568045
8064.00   0.95576954   0.01558281
8066.00   0.93980473   0.01550772
8068.00   0.94090366   0.01530344
8070.00   0.94952661   0.01515345
8072.00   0.95743817   0.01513333
8074.00   0.95691329   0.01518241
8076.00   0.94536120   0.01513636
8078.00   0.92951041   0.01503575
8080.00   0.92661697   0.01500279
8082.00   0.93062788   0.01503354
8084.00   0.93317318   0.01509091
8086.00   0.93002743   0.01511724
8088.00   0.94022679   0.01517819
8090.00   0.94370872   0.01517532
8092.00   0.93686962   0.01512404
8094.00   0.92767459   0.01509854
8096.00   0.94097346   0.01523406
8098.00   0.94147801   0.01526944
8100.00   0.93243068   0.01526730
8102.00   0.92769957   0.01528538
8104.00   0.93742990   0.01533320
8106.00   0.92989606   0.01524095
8108.00   0.91308850   0.01512729
8110.00   0.90164489   0.01503471
8112.00   0.90088516   0.01500331
8114.00   0.90877527   0.01507184
8116.00   0.91533118   0.01512076
8118.00   0.91760200   0.01511602
8120.00   0.92144871   0.01512800
8122.00   0.92540002   0.01515509
8124.00   0.91613191   0.01507874
8126.00   0.91300267   0.01508000
8128.00   0.90681911   0.01510362
8130.00   0.90319473   0.01514945
8132.00   0.90673178   0.01524699
8134.00   0.91624618   0.01548971
8136.00   0.92040277   0.01563935
8138.00   0.92438507   0.01565516
8140.00   0.92621326   0.01558727
8142.00   0.92291230   0.01552878
8144.00   0.91253972   0.01553805
8146.00   0.90838152   0.01554179
8148.00   0.90847272   0.01561441
8150.00   0.91238242   0.01575519
8152.00   0.92001581   0.01588961
8154.00   0.92080420   0.01581063
8156.00   0.91559219   0.01568186
8158.00   0.90742713   0.01561576
8160.00   0.90269655   0.01567894
8162.00   0.90836591   0.01587811
8164.00   0.89450473   0.01606973
8166.00   0.89861995   0.01621449
8168.00   0.91042978   0.01618174
8170.00   0.90918112   0.01596882
8172.00   0.87091428   0.01572878
8174.00   0.86670655   0.01567999
8176.00   0.89176774   0.01601370
8178.00   0.89834929   0.01658981
8180.00   0.86110616   0.01711913
8182.00   0.83017844   0.01725282
8184.00   0.84172124   0.01722277
8186.00   0.85289621   0.01714619
8188.00   0.84786433   0.01711980
8190.00   0.82899004   0.01718427
8192.00   0.81729859   0.01736733
8194.00   0.79335898   0.01721139
8196.00   0.76984400   0.01698129
8198.00   0.75595528   0.01677732
8200.00   0.75043279   0.01651043
8202.00   0.71964431   0.01576492
8204.00   0.69879174   0.01505800
8206.00   0.67769217   0.01444468
8208.00   0.65847009   0.01399500
8210.00   0.65799731   0.01381494
8212.00   0.65460491   0.01379925
8214.00   0.64501071   0.01369485
8216.00   0.62644804   0.01348328
8218.00   0.60342139   0.01323449
8220.00   0.59068513   0.01305426
8222.00   0.58653980   0.01300155
8224.00   0.58485788   0.01307896
8226.00   0.58309299   0.01335740
8228.00   0.57868713   0.01380266
8230.00   0.56364852   0.01415259
8232.00   0.55147570   0.01410563
8234.00   0.53951883   0.01365227
8236.00   0.52967411   0.01303642
8238.00   0.52353257   0.01259369
8240.00   0.51330352   0.01231697
8242.00   0.50244308   0.01221595
8244.00   0.50174564   0.01225908
8246.00   0.50166559   0.01224867
8248.00   0.48636484   0.01199119
8250.00   0.48022154   0.01180830
8252.00   0.47242066   0.01171335
8254.00   0.46805966   0.01173891
8256.00   0.46396819   0.01180390
8258.00   0.44760081   0.01172492
8260.00   0.43465617   0.01165176
8262.00   0.43036962   0.01158717
8264.00   0.43102661   0.01150993
8266.00   0.43161777   0.01141190
8268.00   0.42926469   0.01131511
8270.00   0.42297044   0.01124139
8272.00   0.42346370   0.01138649
8274.00   0.42864215   0.01178999
8276.00   0.43109277   0.01234737
8278.00   0.42048606   0.01281758
8280.00   0.41345429   0.01306678
8282.00   0.41512391   0.01333568
8284.00   0.41947147   0.01360846
8286.00   0.41874376   0.01372916
8288.00   0.42467296   0.01350168
8290.00   0.43146729   0.01345491
8292.00   0.43602356   0.01360390
8294.00   0.43706110   0.01379562
8296.00   0.43400121   0.01381330
8298.00   0.43535051   0.01380783
8300.00   0.44490400   0.01375277
8302.00   0.45409408   0.01355728
8304.00   0.45757303   0.01317395
8306.00   0.46021208   0.01266967
8308.00   0.44131878   0.01228099
8310.00   0.43925098   0.01211707
8312.00   0.44523939   0.01207910
8314.00   0.44862625   0.01207744
8316.00   0.45511031   0.01214027
8318.00   0.47363177   0.01215303
8320.00   0.47991922   0.01217053
8322.00   0.47362128   0.01214038
8324.00   0.46411312   0.01200080
8326.00   0.46632054   0.01181595
8328.00   0.47151244   0.01178031
8330.00   0.47220275   0.01177428
8332.00   0.46606836   0.01175857
8334.00   0.46125317   0.01179696
8336.00   0.48940477   0.01206584
8338.00   0.48754588   0.01281437
8340.00   0.47695112   0.01427939
8342.00   0.47214639   0.01567106
8344.00   0.47342458   0.01592899
8346.00   0.49441588   0.01597689
8348.00   0.47585073   0.01578117
8350.00   0.45847270   0.01501487
8352.00   0.46253875   0.01383096
8354.00   0.46181098   0.01323390
8356.00   0.47211435   0.01306096
8358.00   0.47232702   0.01270843
8360.00   0.46744156   0.01232225
8362.00   0.46728206   0.01215994
8364.00   0.47178754   0.01212836
8366.00   0.46648979   0.01204575
8368.00   0.45852110   0.01191207
8370.00   0.45617333   0.01174368
8372.00   0.46367025   0.01160280
8374.00   0.47463417   0.01162728
8376.00   0.47708157   0.01179465
8378.00   0.47821259   0.01217354
8380.00   0.47868887   0.01253768
8382.00   0.47679415   0.01260850
8384.00   0.48176107   0.01260883
8386.00   0.48376676   0.01248612
8388.00   0.48860407   0.01219926
8390.00   0.50074297   0.01194045
8392.00   0.51752132   0.01211462
8394.00   0.51054782   0.01312905
8396.00   0.50492835   0.01417018
8398.00   0.50696468   0.01477114
8400.00   0.51549619   0.01486731
8402.00   0.52332419   0.01479697
8404.00   0.52964121   0.01407319
8406.00   0.53541034   0.01302274
8408.00   0.53696561   0.01230446
8410.00   0.53591126   0.01239451
8412.00   0.54698664   0.01290485
8414.00   0.55655652   0.01315352
8416.00   0.56153119   0.01325575
8418.00   0.56407815   0.01323409
8420.00   0.56547213   0.01307287
8422.00   0.56692749   0.01271057
8424.00   0.57391840   0.01323618
8426.00   0.59291518   0.01440167
8428.00   0.61228418   0.01544752
8430.00   0.61428457   0.01571309
8432.00   0.60141081   0.01563824
8434.00   0.60940838   0.01523227
8436.00   0.62174320   0.01435571
8438.00   0.62950975   0.01329414
8440.00   0.63729221   0.01282622
8442.00   0.65165460   0.01286726
8444.00   0.66053462   0.01295654
8446.00   0.67130452   0.01319444
8448.00   0.68470865   0.01359633
8450.00   0.68833566   0.01392350
8452.00   0.69586736   0.01405374
8454.00   0.71044141   0.01412751
8456.00   0.71991044   0.01407293
8458.00   0.71931058   0.01396184
8460.00   0.72873241   0.01430142
8462.00   0.74814391   0.01510077
8464.00   0.75800872   0.01554414
8466.00   0.76082641   0.01561637
8468.00   0.76829702   0.01558149
8470.00   0.78424406   0.01529216
8472.00   0.78628445   0.01457603
8474.00   0.79214907   0.01405666
8476.00   0.80853218   0.01399414
8478.00   0.82985210   0.01418461
8480.00   0.84488195   0.01422326
8482.00   0.85186344   0.01425191
8484.00   0.86168033   0.01430747
8486.00   0.87964010   0.01444370
8488.00   0.90173358   0.01471787
8490.00   0.90516347   0.01494357
8492.00   0.90542394   0.01505722
8494.00   0.91777343   0.01514906
8496.00   0.94176245   0.01527981
8498.00   0.95182657   0.01539083
8500.00   0.96890754   0.01565220
8502.00   0.97506505   0.01589161
8504.00   0.99243897   0.01611382
8506.00   1.02974212   0.01629838
8508.00   1.02589500   0.01623395
8510.00   1.05403221   0.01607303
8512.00   1.07819855   0.01586139
8514.00   1.09410298   0.01574811
8516.00   1.11202729   0.01585296
8518.00   1.14292395   0.01604682
8520.00   1.15893781   0.01613586
8522.00   1.16660357   0.01619839
8524.00   1.17738295   0.01628883
8526.00   1.19820154   0.01639467
8528.00   1.21005487   0.01643003
8530.00   1.21831238   0.01647002
8532.00   1.23465824   0.01657682
8534.00   1.25613534   0.01672723
8536.00   1.26573801   0.01682554
8538.00   1.28195906   0.01689579
8540.00   1.29336905   0.01693513
8542.00   1.30069911   0.01700300
8544.00   1.30787981   0.01712792
8546.00   1.31894302   0.01727076
8548.00   1.33528328   0.01739414
8550.00   1.34030879   0.01745128
8552.00   1.34387398   0.01744656
8554.00   1.35963202   0.01740809
8556.00   1.38331854   0.01737913
8558.00   1.39731169   0.01738539
8560.00   1.40413713   0.01740081
8562.00   1.41009331   0.01742441
8564.00   1.41963434   0.01746321
8566.00   1.43131840   0.01753259
8568.00   1.43846905   0.01759101
8570.00   1.44220257   0.01763544
8572.00   1.44665289   0.01767317
8574.00   1.45737696   0.01772131
8576.00   1.47578967   0.01780595
8578.00   1.49645364   0.01789196
8580.00   1.50304210   0.01790769
8582.00   1.49528837   0.01785374
8584.00   1.58016348   0.01784152
8586.00   1.52038276   0.01794548
8588.00   1.53709364   0.01803906
8590.00   1.54541504   0.01811684
8592.00   1.55157948   0.01820312
8594.00   1.56102955   0.01830390
8596.00   1.64698958   0.01833405
8598.00   1.64610195   0.01834200
8600.00   1.56994426   0.01835999
8602.00   1.58566093   0.01839185
8604.00   1.59687424   0.01839238
8606.00   1.61281586   0.01846949
8608.00   1.62136710   0.01855426
8610.00   1.71512055   0.01863465
8612.00   1.62971532   0.01874488
8614.00   1.64960086   0.01897661
8616.00   1.66792405   0.01922020
8618.00   1.67947865   0.01946281
8620.00   1.68322468   0.01969637
8622.00   1.68310893   0.01992003
8624.00   1.69263613   0.02019257
8626.00   1.70964956   0.02042864
8628.00   1.81294107   0.02059446
8630.00   1.82611609   0.02068061
8632.00   1.83673215   0.02069985
8634.00   1.74810708   0.02064762
8636.00   1.75383556   0.02047600
8638.00   1.75857890   0.02027676
8640.00   1.77066803   0.02013493
8642.00   1.78058207   0.01995662
8644.00   1.79013789   0.01989515
8646.00   1.80701983   0.02002742
8648.00   1.81443548   0.02023376
8650.00   1.80203676   0.02040089
8652.00   1.81427097   0.02075382
8654.00   1.83130872   0.02096763
8656.00   1.94566274   0.02111807
8658.00   1.95986378   0.02118771
8660.00   1.95076966   0.02112593
8662.00   1.95855582   0.02107598
8664.00   1.85158694   0.02097949
8666.00   1.85281181   0.02087874
8668.00   1.97183418   0.02080514
8670.00   1.98460746   0.02076581
8672.00   1.99649227   0.02073503
8674.00   1.91478443   0.02067883
8676.00   1.92759502   0.02060435
8678.00   1.93610573   0.02050877
8680.00   2.00480485   0.02034912
8682.00   2.02723789   0.02031173
8684.00   2.03770494   0.02025757
8686.00   2.04818249   0.02019636
8688.00   2.07143736   0.02015248
8690.00   2.06100774   0.02007379
8692.00   2.07056069   0.02005948
8694.00   2.07851505   0.02007676
8696.00   2.08426380   0.02010711
8698.00   2.09427547   0.02013812
8700.00   2.09128809   0.02014232
8702.00   2.10010648   0.02014107
8704.00   2.11201000   0.02018168
8706.00   2.01715922   0.02020713
8708.00   2.10657096   0.02013535
8710.00   2.12368107   0.02013972
8712.00   2.13360023   0.02017550
8714.00   2.03051353   0.02018447
8716.00   2.13791609   0.02017088
8718.00   2.13737941   0.02021101
8720.00   2.14543772   0.02025994
8722.00   2.15906644   0.02029896
8724.00   2.17094755   0.02030742
8726.00   2.17375946   0.02028879
8728.00   2.16251898   0.02028324
8730.00   2.17243433   0.02034242
8732.00   2.18716550   0.02037863
8734.00   2.19654799   0.02039066
8736.00   2.19574785   0.02040037
8738.00   2.18504143   0.02038654
8740.00   2.17556930   0.02036897
8742.00   2.19261885   0.02042246
8744.00   2.21615362   0.02049275
8746.00   2.21405244   0.02048685
8748.00   2.20485830   0.02042901
8750.00   2.20543909   0.02038920
8752.00   2.20699692   0.02044802
8754.00   2.20692730   0.02067919
8756.00   2.10618567   0.02109562
8758.00   2.20143318   0.02149226
8760.00   2.21162105   0.02181724
8762.00   2.21990705   0.02224852
8764.00   2.11142993   0.02268906
8766.00   2.09304619   0.02273254
8768.00   2.18458319   0.02232736
8770.00   2.18952250   0.02215152
8772.00   2.20093298   0.02221719
8774.00   2.20612574   0.02233634
8776.00   2.19182730   0.02235126
8778.00   2.18301845   0.02227625
8780.00   2.17715836   0.02214618
8782.00   2.07479930   0.02183154
8784.00   2.18946004   0.02127172
8786.00   2.18790865   0.02080336
8788.00   2.19237685   0.02081765
8790.00   2.18915033   0.02088803
8792.00   2.18934250   0.02088826
8794.00   2.20797253   0.02088226
8796.00   2.20509195   0.02087980
8798.00   2.21503544   0.02073868
8800.00   2.22653866   0.02058701
8802.00   2.22424173   0.02047876
8804.00   2.19461322   0.02036824
8806.00   2.06388402   0.02023529
8808.00   2.07038140   0.02034691
8810.00   2.17515397   0.02045244
8812.00   2.17144036   0.02040635
8814.00   2.17414808   0.02032869
8816.00   2.18101645   0.02038247
8818.00   2.16966200   0.02038515
8820.00   2.16467738   0.02089452
8822.00   2.17849112   0.02214576
8824.00   2.18877697   0.02359538
8826.00   2.15684271   0.02406960
8828.00   2.16874981   0.02427004
8830.00   2.18629813   0.02421655
8832.00   2.15967679   0.02371363
8834.00   2.13843727   0.02250742
8836.00   2.12273550   0.02176993
8838.00   2.01594615   0.02151330
8840.00   2.01893640   0.02143215
8842.00   2.13565731   0.02112833
8844.00   2.15613222   0.02070663
8846.00   2.16089296   0.02063747
8848.00   2.15710139   0.02078063
8850.00   2.05544114   0.02096163
8852.00   2.17777777   0.02105229
8854.00   2.18209553   0.02108802
8856.00   2.18379498   0.02102425
8858.00   2.17744017   0.02086031
8860.00   2.15652561   0.02067628
8862.00   2.11643481   0.02064406
8864.00   2.06607246   0.02068754
8866.00   1.94548523   0.02075112
8868.00   1.94465482   0.02077651
8870.00   1.94752896   0.02068892
8872.00   1.93612254   0.02034727
8874.00   1.92759132   0.01996727
8876.00   1.92557657   0.01969219
8878.00   1.92147255   0.01977373
8880.00   1.90915549   0.02039734
8882.00   1.90718937   0.02154563
8884.00   1.90616119   0.02220807
8886.00   1.89595354   0.02235802
8888.00   1.88517821   0.02214369
8890.00   1.98204970   0.02172248
8892.00   1.96775341   0.02061091
8894.00   1.86225510   0.01965580
8896.00   1.86750567   0.01940995
8898.00   1.87034702   0.01980846
8900.00   1.85578573   0.02021172
8902.00   1.84038365   0.02032439
8904.00   1.84501743   0.02037016
8906.00   1.94640684   0.02029247
8908.00   1.93829918   0.02000771
8910.00   1.91249418   0.01947254
8912.00   1.80671203   0.01930746
8914.00   1.79979455   0.02004240
8916.00   1.79541385   0.02117944
8918.00   1.79514849   0.02202290
8920.00   1.81665766   0.02214786
8922.00   1.81973827   0.02218265
8924.00   1.79308498   0.02155082
8926.00   1.86041760   0.02037773
8928.00   1.86530483   0.01927678
8930.00   1.86073351   0.01905591
8932.00   1.84522295   0.01904052
8934.00   1.84162974   0.01903273
8936.00   1.84243512   0.01903147
8938.00   1.82311058   0.01916285
8940.00   1.72151852   0.01944478
8942.00   1.81602407   0.01968938
8944.00   1.80892015   0.01980547
8946.00   1.70843458   0.01975769
8948.00   1.78987169   0.01955861
8950.00   1.78806400   0.01937669
8952.00   1.79518962   0.01986152
8954.00   1.78927779   0.02073387
8956.00   1.76402068   0.02146346
8958.00   1.65646982   0.02157364
8960.00   1.66360438   0.02167580
8962.00   1.66466796   0.02131392
8964.00   1.65224850   0.02059108
8966.00   1.63192272   0.01985480
8968.00   1.71768951   0.01956041
8970.00   1.74746430   0.01951981
8972.00   1.73695016   0.01947260
8974.00   1.63335609   0.01943558
8976.00   1.63388312   0.01948968
8978.00   1.63270152   0.01931950
8980.00   1.60239732   0.01892295
8982.00   1.57510078   0.01890817
8984.00   1.56906140   0.01934930
8986.00   1.67504311   0.01987982
8988.00   1.68133187   0.02060453
8990.00   1.58582973   0.02153565
8992.00   1.56079757   0.02149757
8994.00   1.52800620   0.02048018
8996.00   1.61307526   0.02000257
8998.00   1.65461159   0.02003995
9000.00   1.58700562   0.02044221
9002.00   1.59507120   0.02117762
9004.00   1.69144392   0.02189898
9006.00   1.71863270   0.02179002
9008.00   1.62804520   0.02097148
9010.00   1.61008203   0.02014199
9012.00   1.58819473   0.01958951
9014.00   1.56622279   0.01930124
9016.00   1.53346157   0.01904496
9018.00   1.49964893   0.01888854
9020.00   1.48417270   0.01881162
9022.00   1.48492873   0.01872873
9024.00   1.48614395   0.01858618
9026.00   1.46969259   0.01861945
9028.00   1.46504307   0.01865401
9030.00   1.46840847   0.01850522
9032.00   1.47757685   0.01827431
9034.00   1.49216688   0.01825427
9036.00   1.48130417   0.01809631
9038.00   1.46638262   0.01788261
9040.00   1.55249822   0.01785009
9042.00   1.47765696   0.01804302
9044.00   1.47259760   0.01820033
9046.00   1.47821867   0.01837389
9048.00   1.48271096   0.01846561
9050.00   1.49281657   0.01850910
9052.00   1.51004303   0.01861411
9054.00   1.52274704   0.01900509
9056.00   1.52639282   0.01935042
9058.00   1.52819431   0.01881791
9060.00   1.53020036   0.01810567
9062.00   1.52962971   0.01831540
9064.00   1.50623989   0.01836856
9066.00   1.51660299   0.01861485
9068.00   1.52048314   0.01874078
9070.00   1.51409566   0.01882269
9072.00   1.51303709   0.01906984
9074.00   1.52790642   0.01929232
9076.00   1.53668344   0.01922196
9078.00   1.53840029   0.01905353
9080.00   1.53412497   0.01896831
9082.00   1.52778018   0.01906209
9084.00   1.61504102   0.01922510
9086.00   1.53940248   0.01925822
9088.00   1.54836750   0.01926442
9090.00   1.53914225   0.01925228
9092.00   1.52233040   0.01906140
9094.00   1.52759933   0.01900770
9096.00   1.52134573   0.01900037
9098.00   1.51418114   0.01908595
9100.00   1.51907051   0.01927335
9102.00   1.51823092   0.01940013
9104.00   1.53028429   0.01952390
9106.00   1.54936028   0.01953902
9108.00   1.54497278   0.01933297
9110.00   1.50311756   0.01888289
9112.00   1.48653269   0.01836835
9114.00   1.58046055   0.01820335
9116.00   1.51283729   0.01833376
9118.00   1.51375449   0.01856908
9120.00   1.48616457   0.01869553
9122.00   1.49270999   0.01874211
9124.00   1.50032985   0.01847042
9126.00   1.49572563   0.01823810
9128.00   1.48067856   0.01829833
9130.00   1.47160912   0.01867115
9132.00   1.46299803   0.01913281
9134.00   1.46977842   0.01947342
9136.00   1.47535932   0.01953450
9138.00   1.47000778   0.01931460
9140.00   1.46082318   0.01899520
9142.00   1.46202648   0.01847653
9144.00   1.46033287   0.01805501
9146.00   1.45863640   0.01791155
9148.00   1.45801020   0.01805917
9150.00   1.53313887   0.01826791
9152.00   1.43333435   0.01868447
9154.00   1.42734385   0.01929923
9156.00   1.42730510   0.01977226
9158.00   1.43081892   0.01978766
9160.00   1.43422210   0.01954561
9162.00   1.36941528   0.01933734
9164.00   1.30160606   0.01783051
9166.00   1.28585780   0.01865001
9168.00   1.34222305   0.01820626
9170.00   1.38663733   0.01797055
9172.00   1.40215778   0.01821996
9174.00   1.40526712   0.01864547
9176.00   1.40182054   0.01891673
9178.00   1.38147676   0.01885542
9180.00   1.39670789   0.01865280
9182.00   1.40103257   0.01825833
9184.00   1.38138044   0.01785564
9186.00   1.35123873   0.01761588
9188.00   1.34517229   0.01754344
9190.00   1.34700549   0.01743402
9192.00   1.35343754   0.01738848
9194.00   1.34778023   0.01742815
9196.00   1.32865393   0.01759768
9198.00   1.34714401   0.01813671
9200.00   1.36430120   0.01788003
9202.00   1.37321663   0.01750365
9204.00   1.36973011   0.01732838
9206.00   1.35631049   0.01733858
9208.00   1.35613716   0.01748888
9210.00   1.36566341   0.01765783
9212.00   1.36852372   0.01783150
9214.00   1.37530661   0.01811208
9216.00   1.40780962   0.01860461
9218.00   1.42651021   0.01895609
9220.00   1.45099103   0.01925315
9222.00   1.45442665   0.01921994
9224.00   1.42834234   0.01881220
9226.00   1.39542103   0.01832317
9228.00   1.37545395   0.01801046
9230.00   1.35567105   0.01776386
9232.00   1.34204423   0.01757348
9234.00   1.41012263   0.01744906
9236.00   1.39597082   0.01742045
9238.00   1.30010831   0.01731497
9240.00   1.29825258   0.01732784
9242.00   1.30087149   0.01737376
9244.00   1.29953492   0.01735275
9246.00   1.30606747   0.01742732
9248.00   1.30023611   0.01748156
9250.00   1.28970385   0.01739574
9252.00   1.28435910   0.01726200
9254.00   1.29124463   0.01724357
9256.00   1.29691374   0.01720866
9258.00   1.28022635   0.01704735
9260.00   1.25845051   0.01689562
9262.00   1.25046790   0.01690029
9264.00   1.26872551   0.01712853
9266.00   1.28966570   0.01715865
9268.00   1.29287148   0.01706259
9270.00   1.28588963   0.01697378
9272.00   1.27576745   0.01697467
9274.00   1.26237202   0.01705262
9276.00   1.25459754   0.01726970
9278.00   1.25379324   0.01748890
9280.00   1.25468075   0.01774457
9282.00   1.25603855   0.01803703
9284.00   1.26904476   0.01823499
9286.00   1.35012674   0.01828258
9288.00   1.26958561   0.01836146
9290.00   1.27012587   0.01844143
9292.00   1.28377283   0.01846213
9294.00   1.28640258   0.01851185
9296.00   1.28010285   0.01879544
9298.00   1.28725493   0.01928463
9300.00   1.30378187   0.02003688
9302.00   1.31017578   0.02108530
9304.00   1.30428779   0.02227203
9306.00   1.30354941   0.02324255
9308.00   1.37462592   0.02438048
9310.00   1.35715246   0.02571130
9312.00   1.34578168   0.02685074
9314.00   1.36350417   0.02654441
9316.00   1.34626198   0.02599481
9318.00   1.26067114   0.02673148
9320.00   1.27608204   0.02845506
9322.00   1.32484555   0.02887481
9324.00   1.33905172   0.02814964
9326.00   1.40700507   0.02787004
9328.00   1.40009952   0.02726068
9330.00   1.35007513   0.02552170
9332.00   1.46876812   0.02329253
9334.00   1.40081882   0.02290723
9336.00   1.27187133   0.02410234
9338.00   1.27012682   0.02581516
9340.00   1.31969297   0.02713909
9342.00   1.37470710   0.02826487
9344.00   1.36215699   0.02813338
9346.00   1.33441734   0.02798155
9348.00   1.31869352   0.02691524
9350.00   1.31950617   0.02324946
9352.00   1.33871186   0.02120918
9354.00   1.34420621   0.02257058
9356.00   1.33663404   0.02458141
9358.00   1.32729125   0.02557022
9360.00   1.33405828   0.02541079
9362.00   1.41361547   0.02371957
9364.00   1.33924305   0.02210530
9366.00   1.33205450   0.02174051
9368.00   1.30754268   0.02393147
9370.00   1.31299913   0.02936397
9372.00   1.29742527   0.03558473
9374.00   1.29842007   0.03792482
9376.00   1.28541219   0.03695186
9378.00   1.31888247   0.03442935
9380.00   1.27009797   0.03306736
9382.00   1.19670689   0.03016386
9384.00   1.24958277   0.02658758
9386.00   1.28522480   0.02331089
9388.00   1.26494753   0.02130909
9390.00   1.25220263   0.02056666
9392.00   1.25043380   0.01966273
9394.00   1.32970810   0.01901135
9396.00   1.26306748   0.01897832
9398.00   1.25908315   0.01963797
9400.00   1.26323521   0.02055565
9402.00   1.33952475   0.02100824
9404.00   1.25559855   0.02114238
9406.00   1.26114917   0.02103027
9408.00   1.26360142   0.02058975
9410.00   1.26283371   0.02016578
9412.00   1.26911366   0.02050499
9414.00   1.29165268   0.02140151
9416.00   1.40108657   0.02217015
9418.00   1.39213514   0.02193182
9420.00   1.25141227   0.02146262
9422.00   1.20936310   0.02111724
9424.00   1.30414343   0.02129645
9426.00   1.37031949   0.02210215
9428.00   1.39579368   0.02311601
9430.00   1.28604650   0.02349681
9432.00   1.26979148   0.02387084
9434.00   1.27375972   0.02414736
9436.00   1.32991779   0.02421021
9438.00   1.26047826   0.02491923
9440.00   1.14864814   0.02804085
9442.00   1.18998563   0.03113581
9444.00   1.28329194   0.03280615
9446.00   1.33479500   0.02818610
9448.00   1.26602328   0.02263548
9450.00   1.21878874   0.02028559
9452.00   1.21515226   0.02093715
9454.00   1.23444545   0.02225781
9456.00   1.22864294   0.02488579
9458.00   1.20240593   0.02614877
9460.00   1.20068800   0.02686912
9462.00   1.29728568   0.02640655
9464.00   1.24443901   0.02461274
9466.00   1.26425087   0.02268533
9468.00   1.27575195   0.02143636
9470.00   1.24538887   0.02182904
9472.00   1.21348047   0.02351766
9474.00   1.21169221   0.02528132
9476.00   1.17535937   0.02535255
9478.00   1.17196357   0.02629606
9480.00   1.19582736   0.02684972
9482.00   1.22251022   0.02735199
9484.00   1.22961283   0.02453237
9486.00   1.29865611   0.02233738
9488.00   1.26939476   0.02050490
9490.00   1.19569099   0.01919779
9492.00   1.13549054   0.01938241
9494.00   1.11429131   0.01943044
9496.00   1.09047973   0.02143779
9498.00   1.11925650   0.02446561
9500.00   1.17818654   0.02675419
9502.00   1.21870601   0.02739857
9504.00   1.18720114   0.02615000
9506.00   1.19612205   0.02319336
9508.00   1.19874144   0.02054681
9510.00   1.17723131   0.01882240
9512.00   1.13631737   0.01811825
9514.00   1.11113191   0.01861099
9516.00   1.08077383   0.01977890
9518.00   1.07349730   0.02162608
9520.00   1.08229637   0.02343783
9522.00   1.09268188   0.02447417
9524.00   1.11428559   0.02417608
9526.00   1.14169705   0.02315645
9528.00   1.15612805   0.02199988
9530.00   1.16058958   0.02130263
9532.00   1.17134583   0.02134275
9534.00   1.18132615   0.02111224
9536.00   1.16312170   0.02058358
9538.00   1.14708269   0.02043600
9540.00   1.14581668   0.02073240
9542.00   1.14601934   0.02087716
9544.00   1.11035025   0.02044044
9546.00   1.06888044   0.02051026
9548.00   1.05997109   0.02111914
9550.00   1.08678913   0.02171635
9552.00   1.10322917   0.02141363
9554.00   1.06277323   0.02129348
9556.00   1.02060544   0.02142261
9558.00   1.00817287   0.02137978
9560.00   1.03105450   0.02111047
9562.00   1.06415308   0.02164757
9564.00   1.06012094   0.02273348
9566.00   1.03651798   0.02369252
9568.00   1.01684272   0.02414829
9570.00   1.01881981   0.02379714
9572.00   1.02316153   0.02180854
9574.00   1.03822207   0.01976675
9576.00   1.04001093   0.01849585
9578.00   1.02775466   0.01812871
9580.00   1.01297045   0.01811712
9582.00   0.98948884   0.01841992
9584.00   0.98599100   0.01869001
9586.00   1.01100111   0.01901752
9588.00   1.04397213   0.01957636
9590.00   1.04184532   0.02043957
9592.00   0.99708796   0.02037957
9594.00   0.99216670   0.02067020
9596.00   1.00878298   0.02045483
9598.00   1.00886655   0.01934800
9600.00   0.96868181   0.01832904
9602.00   0.95986080   0.01834845
9604.00   0.96930021   0.01873763
9606.00   0.97953349   0.01910274
9608.00   0.97961313   0.01926308
9610.00   0.98070765   0.01931403
9612.00   0.97963613   0.01890608
9614.00   0.97611207   0.01852406
9616.00   0.96873111   0.01852769
9618.00   0.95673656   0.01897825
9620.00   0.96163201   0.01948003
9622.00   0.96635276   0.02000635
9624.00   0.96815580   0.02012775
9626.00   0.96122342   0.01972274
9628.00   0.94497186   0.01895406
9630.00   0.96061355   0.01827844
9632.00   0.97442728   0.01783369
9634.00   0.97304869   0.01759916
9636.00   0.95636719   0.01762108
9638.00   0.93795949   0.01802147
9640.00   0.92723662   0.01847821
9642.00   0.93911362   0.01856829
9644.00   0.94850731   0.01833933
9646.00   0.94239348   0.01807857
9648.00   0.93825072   0.01821175
9650.00   0.94947290   0.01812986
9652.00   0.96020985   0.01792114
9654.00   0.95199734   0.01763797
9656.00   0.92751789   0.01745277
9658.00   0.94033480   0.01782589
9660.00   0.94791317   0.01803915
9662.00   0.94455004   0.01840140
9664.00   0.93402845   0.01890218
9666.00   0.92517918   0.01931404
9668.00   0.92582732   0.01920394
9670.00   0.92700523   0.01874828
9672.00   0.92430305   0.01831582
9674.00   0.92120498   0.01807632
9676.00   0.92402053   0.01797737
9678.00   0.91752046   0.01797024
9680.00   0.90416461   0.01814504
9682.00   0.89076561   0.01833651
9684.00   0.88453847   0.01834925
9686.00   0.89277011   0.01805019
9688.00   0.89788193   0.01750011
9690.00   0.89200252   0.01705884
9692.00   0.88967842   0.01708894
9694.00   0.89628917   0.01761244
9696.00   0.89298600   0.01816499
9698.00   0.88644457   0.01849527
9700.00   0.88177878   0.01859260
9702.00   0.87655991   0.01841705
9704.00   0.87403435   0.01803142
9706.00   0.89879870   0.01774445
9708.00   0.90083247   0.01744324
9710.00   0.89645213   0.01736308
9712.00   0.90071249   0.01768052
9714.00   0.91767645   0.01839954
9716.00   0.90558928   0.01915536
9718.00   0.90546149   0.01966175
9720.00   0.91290051   0.01988640
9722.00   0.91827065   0.01980930
9724.00   0.91257542   0.01939989
9726.00   0.90030855   0.01849300
9728.00   0.89980954   0.01790439
9730.00   0.90500051   0.01781662
9732.00   0.91407055   0.01814999
9734.00   0.93149614   0.01864051
9736.00   0.92180824   0.01904035
9738.00   0.91072464   0.01934061
9740.00   0.91706449   0.01953621
9742.00   0.93387657   0.01946169
9744.00   0.90819669   0.01859206
9746.00   0.91773540   0.01838117
9748.00   0.93063229   0.01849729
9750.00   0.93196744   0.01846987
9752.00   0.92104250   0.01808568
9754.00   0.92364329   0.01812628
9756.00   0.93792981   0.01817391
9758.00   0.94366473   0.01830644
9760.00   0.94710851   0.01849944
9762.00   1.02751184   0.01863283
9764.00   0.95544595   0.01841113
9766.00   0.95288754   0.01836310
9768.00   0.95632249   0.01827262
9770.00   0.96064043   0.01804186
9772.00   0.95973426   0.01779954
9774.00   0.96914452   0.01793955
9776.00   0.97635394   0.01807905
9778.00   0.97485685   0.01822576
9780.00   0.97006625   0.01844143
9782.00   0.98016101   0.01876353
9784.00   0.97150183   0.01962054
9786.00   0.97272235   0.02102061
9788.00   0.99003172   0.02239735
9790.00   1.01226032   0.02330001
9792.00   0.99912435   0.02364257
9794.00   1.05606532   0.02358567
9796.00   1.05109751   0.02279279
9798.00   0.98595166   0.02166410
9800.00   1.00289488   0.02086357
9802.00   1.00844395   0.02065491
9804.00   0.98328823   0.02023832
9806.00   0.97976589   0.01993675
9808.00   0.99648494   0.01976600
9810.00   0.99991816   0.01955987
9812.00   0.99950713   0.01954285
9814.00   0.99553639   0.01956231
9816.00   0.98561651   0.01939192
9818.00   0.97924489   0.01915403
9820.00   0.99095631   0.01923695
9822.00   0.98532087   0.01909491
9824.00   0.98562813   0.01905986
9826.00   0.98837227   0.01917348
9828.00   0.98866767   0.01929114
9830.00   1.05542946   0.01915794
9832.00   0.97981435   0.01905979
9834.00   0.96823549   0.01887509
9836.00   0.96439743   0.01868715
9838.00   0.96956843   0.01862341
9840.00   0.97174150   0.01875988
9842.00   0.96690315   0.01907691
9844.00   0.97272938   0.01978387
9846.00   0.98634577   0.02049470
9848.00   0.99610549   0.02076736
9850.00   0.98029703   0.02062890
9852.00   0.97571009   0.02031349
9854.00   0.97317600   0.01978928
9856.00   0.97070026   0.01929387
9858.00   0.97066468   0.01914821
9860.00   0.97444010   0.01899692
9862.00   0.98773962   0.01911634
9864.00   0.98293185   0.01963218
9866.00   0.96087718   0.02070845
9868.00   0.95484924   0.02243125
9870.00   0.98380470   0.02404804
9872.00   0.98021221   0.02459545
9874.00   0.97394723   0.02448046
9876.00   0.98364705   0.02391653
9878.00   0.97768193   0.02235947
9880.00   0.98029965   0.02090510
9882.00   0.97529036   0.02009390
9884.00   0.97220582   0.01987485
9886.00   0.97824478   0.01996728
9888.00   0.97517371   0.02033633
9890.00   0.97296542   0.02087089
9892.00   0.96568799   0.02135882
9894.00   0.95703220   0.02162977
9896.00   0.95377880   0.02166299
9898.00   0.94442892   0.02186290
9900.00   0.96534282   0.02123077
9902.00   0.99942225   0.02102882
9904.00   0.92484838   0.01968272
9906.00   0.97616607   0.01973542
9908.00   0.97856361   0.02204008
9910.00   0.97028559   0.02338918
9912.00   0.95918250   0.02451199
9914.00   0.95345265   0.02506507
9916.00   0.95941895   0.02517910
9918.00   0.96677810   0.02474754
9920.00   0.97039324   0.02340669
9922.00   0.96783638   0.02178090
9924.00   0.95954132   0.02064658
9926.00   0.94566137   0.02031878
9928.00   0.93324995   0.02018111
9930.00   0.94012755   0.02031277
9932.00   0.94901901   0.02055196
9934.00   0.94369143   0.02089001
9936.00   0.94121772   0.02175670
9938.00   0.95688438   0.02336401
9940.00   0.97084618   0.02530066
9942.00   0.97709829   0.02721155
9944.00   0.97370166   0.02870067
9946.00   0.95731562   0.02902871
9948.00   0.95917732   0.02863880
9950.00   0.96471006   0.02810843
9952.00   0.96733999   0.02777294
9954.00   1.03129864   0.02765556
9956.00   0.96700066   0.02799220
9958.00   0.96350265   0.02850890
9960.00   0.95663786   0.02855025
9962.00   0.95322973   0.02780970
9964.00   0.95772606   0.02644373
9966.00   0.95961922   0.02529034
9968.00   0.95304757   0.02437289
9970.00   0.94965959   0.02384582
9972.00   0.95655364   0.02373622
9974.00   0.96301490   0.02385212
9976.00   0.96948177   0.02373493
9978.00   0.97546315   0.02337967
9980.00   0.97604913   0.02292497
9982.00   0.96953011   0.02256376
9984.00   0.97320670   0.02244502
9986.00   0.96642190   0.02226532
9988.00   0.95884609   0.02214928
9990.00   1.02069247   0.02217939
9992.00   0.96498537   0.02238169
9994.00   0.96623057   0.02263376
9996.00   0.96091396   0.02292941
9998.00   0.94471312   0.02313819
10000.00   0.92980784   0.02329191
10002.00   0.93665338   0.02356478
10004.00   0.95308208   0.02416958
10006.00   0.94926900   0.02598889
10008.00   0.95063591   0.02896797
10010.00   0.97194928   0.03205592
10012.00   1.00153887   0.03374400
10014.00   0.96794939   0.03386313
10016.00   0.93697047   0.03293122
10018.00   1.00177908   0.03109203
10020.00   1.00109899   0.02884675
10022.00   0.92473179   0.02759356
10024.00   0.93978661   0.02768726
10026.00   0.96186763   0.02789126
10028.00   0.96981746   0.02763392
10030.00   0.95238596   0.02678867
10032.00   0.93767071   0.02550514
10034.00   0.95447046   0.02469723
10036.00   0.95702559   0.02441354
10038.00   0.94647950   0.02464981
10040.00   0.94885403   0.02524884
10042.00   0.94604707   0.02557483
10044.00   0.94352740   0.02561246
10046.00   0.94558454   0.02557290
10048.00   0.95392370   0.02546769
10050.00   0.96614331   0.02512541
10052.00   0.94156915   0.02469220
10054.00   0.93678206   0.02511898
10056.00   0.94129020   0.02612906
10058.00   0.94569224   0.02717182
10060.00   0.95465964   0.02774176
10062.00   0.95650738   0.02808836
10064.00   0.95206481   0.02815944
10066.00   0.95379448   0.02793110
10068.00   0.96496969   0.02751217
10070.00   0.95502877   0.02722669
10072.00   0.95115262   0.02706661
10074.00   0.94394064   0.02732082
10076.00   0.93630201   0.02848912
10078.00   0.93811274   0.03068513
10080.00   1.02365899   0.03293340
10082.00   0.97392112   0.03406624
10084.00   1.03481221   0.03427938
10086.00   0.94970578   0.03342119
10088.00   0.93948203   0.03132790
10090.00   0.92828876   0.02874314
10092.00   0.95232087   0.02758322
10094.00   0.96905476   0.02747099
10096.00   0.95850915   0.02783085
10098.00   0.93998891   0.02847935
10100.00   0.93770832   0.02954976
10102.00   0.93927026   0.03042394
10104.00   0.96124363   0.03097112
10106.00   0.98704529   0.03101654
10108.00   0.94168061   0.03015853
10110.00   0.93276614   0.02914498
10112.00   0.94534141   0.02854087
10114.00   0.94829750   0.02847213
10116.00   0.93719512   0.02935188
10118.00   0.99121553   0.03248256
10120.00   1.10447919   0.03551900
10122.00   1.07474244   0.03767973
10124.00   1.02922094   0.03845636
10126.00   1.06431651   0.03855434
10128.00   1.11369634   0.03760494
10130.00   1.10776377   0.03489637
10132.00   0.99818873   0.03208821
10134.00   0.98189193   0.03050115
10136.00   0.97695273   0.03038523
10138.00   0.94929582   0.03050999
10140.00   0.95461893   0.03081519
10142.00   1.02856350   0.03126192
10144.00   1.02574730   0.03300251
10146.00   0.96085930   0.03257073
10148.00   0.95739788   0.03439002
10150.00   0.93693000   0.03511475
10152.00   0.92747504   0.03582858
10154.00   0.93993282   0.03628916
10156.00   0.94310433   0.03653237
10158.00   0.93932915   0.03603816
10160.00   0.93735188   0.03535753
10162.00   1.00794113   0.03504518
10164.00   0.94164270   0.03562973
10166.00   0.92341393   0.03734126
10168.00   0.99385172   0.04032814
10170.00   1.03015339   0.04299479
10172.00   0.96514422   0.04416856
10174.00   0.91755122   0.04338316
10176.00   0.89629823   0.04211202
10178.00   0.92289972   0.04011989
10180.00   0.93703395   0.03800939
10182.00   0.92865705   0.03699777
10184.00   0.93358463   0.03817994
10186.00   0.94499224   0.03979665
10188.00   0.92943430   0.04065524
10190.00   0.90026528   0.04084092
10192.00   0.88418579   0.04059828
10194.00   0.91395193   0.04013611
10196.00   0.92166036   0.03877692
10198.00   0.99263948   0.03802572
10200.00   0.93433762   0.03834735
10202.00   0.93841761   0.03969934
10204.00   0.95433396   0.04168953
10206.00   0.92743808   0.04443426
10208.00   0.92618579   0.04676833
10210.00   0.92201823   0.04789979
10212.00   0.88099939   0.04753811
10214.00   0.87391287   0.04646726
10216.00   0.91424006   0.04449072
10218.00   0.93850476   0.04231611
10220.00   0.92658406   0.04116401
10222.00   0.89431173   0.04197252
10224.00   0.87509084   0.04357463
10226.00   0.87579966   0.04501694
10228.00   0.90013188   0.04613517
10230.00   0.91796190   0.04632622
10232.00   0.87654275   0.04476587
10234.00   0.90311718   0.04334608
10236.00   0.93332273   0.04219347
10238.00   1.00862360   0.04100181
10240.00   0.91307515   0.03996703
10242.00   0.96478689   0.03986186
10244.00   0.99534810   0.04033858
10246.00   1.01147938   0.04078591
10248.00   0.93012524   0.04081375
10250.00   0.89519787   0.04054244
10252.00   0.92522973   0.04115814
10254.00   0.94316202   0.04188335
10256.00   0.94814450   0.04226257
10258.00   0.95701915   0.04267820
10260.00   0.98013777   0.04349607
10262.00   0.96774006   0.04371462
10264.00   0.97384852   0.04455010
10266.00   0.96300060   0.04561554
10268.00   0.95713091   0.04676498
10270.00   0.99102736   0.04790606
10272.00   0.98139077   0.04833284
10274.00   1.03998578   0.04854601
10276.00   1.03311396   0.04984083
10278.00   0.93101054   0.05082667
10280.00   0.92896581   0.05646783
10282.00   0.85868800   0.06597155
10284.00   1.07495141   0.07447895
10286.00   1.04846287   0.07981303
10288.00   1.06453776   0.08154920
10290.00   1.12188518   0.08103989
10292.00   1.16489494   0.07745931
10294.00   1.09047127   0.07186232
10296.00   1.03672659   0.06675958
10298.00   1.04766154   0.06414825
10300.00   0.97968608   0.06281576
10302.00   1.00500047   0.06031609
10304.00   1.02989841   0.05853021
10306.00   1.04390943   0.05800846
10308.00   1.04414952   0.05834445
10310.00   1.04484236   0.05848870
10312.00   1.05244076   0.05870426
10314.00   1.05172384   0.05841138
10316.00   1.03679836   0.05738877
10318.00   1.01259303   0.05598399
10320.00   1.01945555   0.05641939
10322.00   1.01844573   0.05819991
10324.00   1.00712228   0.05740933
10326.00   0.99526215   0.05729032
10328.00   0.93173277   0.05804339
10330.00   0.97461843   0.05824794
10332.00   0.96834058   0.05840304
10334.00   0.97939920   0.05888563
10336.00   0.98950070   0.05973666
10338.00   0.95738816   0.06029033
10340.00   0.95963305   0.06210842
10342.00   0.97737056   0.06488036
10344.00   0.96596783   0.06731520
10346.00   0.91989756   0.06867754
10348.00   0.95645076   0.07034836
10350.00   1.08383679   0.07187662
10352.00   1.02922916   0.07046010
10354.00   0.86988974   0.06740417
10356.00   0.78900993   0.06444216
10358.00   0.92164803   0.06759874
10360.00   0.99686813   0.06729324
10362.00   1.01179981   0.06797718
10364.00   1.03086519   0.07005079
10366.00   1.00742459   0.07351308
10368.00   1.01928687   0.08100603
10370.00   1.02535868   0.08967969
10372.00   0.94647211   0.09469823
10374.00   0.91331083   0.09449942
10376.00   0.88807416   0.09495270
10378.00   0.90505308   0.08955918
10380.00   0.92840791   0.08189365
10382.00   0.92636544   0.07544447
10384.00   0.90441775   0.07132823
10386.00   0.86143398   0.07141775
10388.00   0.97652531   0.07479947
10390.00   0.92248422   0.07635134
10392.00   0.98713475   0.08067370
10394.00   1.08806181   0.08595548
10396.00   1.08549380   0.08613171
10398.00   0.95044142   0.08618630
10400.00   0.90767604   0.08516553
10402.00   0.85888582   0.08133829
10404.00   0.84997278   0.07871661
10406.00   0.84146714   0.07835875
10408.00   1.00736415   0.08197037
10410.00   1.04953086   0.08479192
10412.00   0.92261946   0.08927914
10414.00   0.90005368   0.09760854
10416.00   0.86398649   0.10671670
10418.00   0.93262815   0.11189532
10420.00   1.01052463   0.11584890
10422.00   1.03793347   0.11472745
10424.00   1.01021826   0.10638335
10426.00   0.92876482   0.09574429
10428.00   0.89322966   0.08882940
10430.00   0.89776629   0.08518938
10432.00   0.91981846   0.08790763
10434.00   0.91714317   0.08419726
10436.00   0.95028907   0.08560152
10438.00   0.93418717   0.08575320
10440.00   0.92557961   0.08646028
10442.00   0.97050899   0.08935243
10444.00   0.93523932   0.08898100
10446.00   0.91194773   0.09285869
10448.00   0.98815608   0.09539623
10450.00   0.94398898   0.09466233
10452.00   0.81248808   0.09432470
10454.00   0.90789551   0.09605245
10456.00   0.96322459   0.09569491
10458.00   1.05544949   0.09565315
10460.00   0.93487567   0.09194352
10462.00   0.86733931   0.09340594
10464.00   0.93712348   0.10156187
10466.00   0.93650895   0.11018802
10468.00   0.93575114   0.11316619
10470.00   0.86107671   0.11428666
10472.00   0.88302928   0.11275087
10474.00   0.86595315   0.10846590
10476.00   0.89269906   0.10240629
10478.00   0.98427665   0.09876235
10480.00   0.90115958   0.09367751
10482.00   0.91628283   0.09622338
10484.00   0.93360192   0.09675945
10486.00   0.90697545   0.09448510
10488.00   0.78262019   0.09291650
10490.00   0.86282569   0.09569412
10492.00   0.86183757   0.09594849
10494.00   0.87240672   0.09504390
10496.00   0.90392494   0.09614428
10498.00   0.87953907   0.09696724
10500.00   0.74767709   0.09410729
10502.00   0.80198383   0.09617677
10504.00   0.84780103   0.10120839
10506.00   0.86313468   0.10218301
10508.00   0.81060684   0.10191098
10510.00   0.94474298   0.10478888
10512.00   0.89234895   0.10221356
10514.00   0.88904405   0.10349080
10516.00   0.87329525   0.10262525
10518.00   0.81263965   0.10159352
10520.00   0.74484164   0.10377267
10522.00   0.78377771   0.10915744
10524.00   0.81505990   0.11115642
10526.00   0.74592012   0.10908882
10528.00   0.80038661   0.10992882
10530.00   0.83718854   0.10992792
10532.00   0.88752085   0.10756064
10534.00   0.92234677   0.10609975
10536.00   0.91136473   0.10366698
10538.00   0.84707671   0.10333502
10540.00   0.78183198   0.10051913
10542.00   0.79940820   0.10153718
10544.00   0.81356055   0.10383522
10546.00   0.80265790   0.10356950
10548.00   0.79997021   0.10240094
10550.00   0.72855008   0.10385910
10552.00   0.75847703   0.10711027
10554.00   0.88077623   0.10707919
10556.00   0.92417139   0.10992206
10558.00   0.91254228   0.11006763
10560.00   0.91407180   0.10626097
10562.00   0.93413246   0.11109670
10564.00   0.81020296   0.11085334
10566.00   0.83631182   0.11064833
10568.00   0.93164790   0.11458800
10570.00   1.02432942   0.11791451
10572.00   0.97959626   0.11623733
10574.00   0.73877132   0.11105932
10576.00   0.73655063   0.11062051
10578.00   0.82795906   0.11375040
10580.00   0.90670842   0.11556150
10582.00   0.91758990   0.11558275
10584.00   0.87203318   0.11706790
10586.00   0.94373262   0.11934993
10588.00   0.84872323   0.11983881
10590.00   0.82771707   0.11909693
10592.00   0.76443130   0.11935410
10594.00   0.73055339   0.11570124
10596.00   0.79292935   0.11776689
10598.00   0.86945122   0.11871719
10600.00   0.81918716   0.11939439
10602.00   0.76348162   0.11788997
10604.00   0.75459766   0.11792636
10606.00   0.64607370   0.11732136
10608.00   0.89637077   0.11974619
10610.00   0.76667458   0.12116890
10612.00   0.77020168   0.11960012
10614.00   0.81769681   0.12205114
10616.00   0.89157200   0.12695989
10618.00   0.75638872   0.12522422
10620.00   0.76070434   0.12236696
10622.00   0.80734378   0.12305728
10624.00   0.82400948   0.12372425
10626.00   0.73985296   0.12289459
10628.00   0.76539975   0.12488465
10630.00   0.89716417   0.12746626
