# File created by shivutils (I.Shivvers)
# wl(A)   flm    er(optional)
3442.00   0.37278116   0.04776705
3444.00   0.49141923   0.05034291
3446.00   0.58635277   0.05308825
3448.00   0.44528481   0.05384663
3450.00   0.44095692   0.05484181
3452.00   0.43146989   0.05471125
3454.00   0.41679174   0.05436091
3456.00   0.41214424   0.05374605
3458.00   0.48441571   0.05307418
3460.00   0.51459843   0.05338909
3462.00   0.42615259   0.05435370
3464.00   0.43725580   0.05448426
3466.00   0.50628686   0.05568515
3468.00   0.47325751   0.05618512
3470.00   0.38332725   0.05450843
3472.00   0.48756292   0.05400194
3474.00   0.39659312   0.05110078
3476.00   0.41586190   0.05234054
3478.00   0.48746449   0.05675352
3480.00   0.34218815   0.05475304
3482.00   0.42812449   0.05527219
3484.00   0.34582478   0.05434068
3486.00   0.45341700   0.05631486
3488.00   0.39493781   0.05462983
3490.00   0.45219627   0.05381592
3492.00   0.30236426   0.05267275
3494.00   0.38793790   0.05426493
3496.00   0.39462531   0.05391162
3498.00   0.43358043   0.05553335
3500.00   0.42630219   0.05758852
3502.00   0.48096302   0.05787401
3504.00   0.38595834   0.05607679
3506.00   0.43694964   0.05597540
3508.00   0.56067783   0.05748827
3510.00   0.51743186   0.05595573
3512.00   0.47843915   0.05356741
3514.00   0.50794375   0.05430004
3516.00   0.48540694   0.05574811
3518.00   0.48870778   0.05640984
3520.00   0.38433009   0.05426617
3522.00   0.49992043   0.05308467
3524.00   0.41546136   0.05164296
3526.00   0.51238418   0.05335951
3528.00   0.49360368   0.05539445
3530.00   0.57797843   0.05719673
3532.00   0.41187575   0.05464525
3534.00   0.55636507   0.05666745
3536.00   0.64572889   0.05785367
3538.00   0.52998495   0.05602250
3540.00   0.54354936   0.05680405
3542.00   0.69449848   0.05817857
3544.00   0.63738000   0.05764779
3546.00   0.62932295   0.05777251
3548.00   0.62318820   0.05680008
3550.00   0.54769790   0.05575263
3552.00   0.53611457   0.05458245
3554.00   0.48719445   0.05380801
3556.00   0.55956113   0.05510669
3558.00   0.63329065   0.05493801
3560.00   0.58228457   0.05495519
3562.00   0.51831895   0.05385744
3564.00   0.55625099   0.05147729
3566.00   0.40926704   0.04725947
3568.00   0.54642445   0.04782027
3570.00   0.54427403   0.04776451
3572.00   0.60319090   0.04927033
3574.00   0.58015740   0.04992168
3576.00   0.70611537   0.05126811
3578.00   0.55993181   0.04812318
3580.00   0.67713952   0.04747162
3582.00   0.66261733   0.04629776
3584.00   0.67806834   0.04611200
3586.00   0.66446108   0.04547707
3588.00   0.64010334   0.04715646
3590.00   0.62432861   0.04875432
3592.00   0.72092980   0.04975089
3594.00   0.61283165   0.04876570
3596.00   0.69428527   0.04989593
3598.00   0.71121895   0.05023270
3600.00   0.70538974   0.04939873
3602.00   0.61912173   0.04712225
3604.00   0.62728405   0.04569046
3606.00   0.61045986   0.04497518
3608.00   0.68216622   0.04518021
3610.00   0.64992779   0.04491101
3612.00   0.60703290   0.04576455
3614.00   0.58827502   0.04659797
3616.00   0.63430601   0.04552690
3618.00   0.65875381   0.04355642
3620.00   0.66435140   0.04420175
3622.00   0.65381306   0.04543688
3624.00   0.60953242   0.04589818
3626.00   0.62983775   0.04634086
3628.00   0.63048846   0.04602665
3630.00   0.61770958   0.04364568
3632.00   0.67727691   0.04371300
3634.00   0.66151154   0.04404167
3636.00   0.59373045   0.04361875
3638.00   0.57223898   0.04444325
3640.00   0.66697687   0.04557693
3642.00   0.65360057   0.04492131
3644.00   0.66175270   0.04382512
3646.00   0.55871499   0.04315014
3648.00   0.65518141   0.04778996
3650.00   0.64322692   0.04934449
3652.00   0.64952272   0.04769418
3654.00   0.69472855   0.04722126
3656.00   0.72999543   0.04657789
3658.00   0.69560695   0.04447030
3660.00   0.71222305   0.04475576
3662.00   0.79789597   0.04651663
3664.00   0.87035823   0.04565129
3666.00   0.84875476   0.04379664
3668.00   0.84713393   0.04308439
3670.00   0.83914864   0.04288128
3672.00   0.83730984   0.04347097
3674.00   0.90507179   0.04338634
3676.00   0.83432066   0.04198562
3678.00   0.87134868   0.04155730
3680.00   0.88849264   0.04153207
3682.00   0.91428536   0.04215817
3684.00   0.85482436   0.04134519
3686.00   0.98949295   0.04159545
3688.00   0.92998505   0.04159299
3690.00   0.96589381   0.04318896
3692.00   0.94887429   0.04277469
3694.00   0.90347761   0.04179642
3696.00   1.01573932   0.04277641
3698.00   1.18212283   0.04471928
3700.00   1.13091385   0.04425624
3702.00   1.13011491   0.04330588
3704.00   1.15398431   0.04208630
3706.00   1.13202488   0.04149631
3708.00   1.12045681   0.04173614
3710.00   1.16957748   0.04280035
3712.00   1.20375991   0.04413828
3714.00   1.18794501   0.04419560
3716.00   1.16703331   0.04293200
3718.00   1.15819931   0.04113684
3720.00   1.28852391   0.04035136
3722.00   1.21382773   0.04043835
3724.00   1.19005823   0.04132029
3726.00   1.24962842   0.04187361
3728.00   1.34258783   0.04215794
3730.00   1.21729267   0.04068763
3732.00   1.20836782   0.03936097
3734.00   1.24931479   0.03792346
3736.00   1.15871882   0.03731239
3738.00   1.18947363   0.03894650
3740.00   1.12348056   0.03968690
3742.00   1.16640985   0.03944971
3744.00   1.03456712   0.03693846
3746.00   1.03934324   0.03594223
3748.00   1.03837454   0.03549587
3750.00   1.04018569   0.03624519
3752.00   0.98117119   0.03714421
3754.00   0.88380259   0.03714048
3756.00   0.89577746   0.03598755
3758.00   0.82381570   0.03434329
3760.00   0.77189696   0.03442002
3762.00   0.73055828   0.03379950
3764.00   0.68083024   0.03313747
3766.00   0.68070793   0.03313248
3768.00   0.61246192   0.03246472
3770.00   0.58821630   0.03305436
3772.00   0.58062792   0.03366651
3774.00   0.61250478   0.03382399
3776.00   0.58795685   0.03346197
3778.00   0.50153714   0.03287549
3780.00   0.49611434   0.03284407
3782.00   0.48939255   0.03270992
3784.00   0.41776937   0.03160233
3786.00   0.46861994   0.03085474
3788.00   0.38432324   0.02953533
3790.00   0.39415687   0.02962081
3792.00   0.35201725   0.02899579
3794.00   0.30774230   0.02800672
3796.00   0.32188639   0.02703125
3798.00   0.33242700   0.02717073
3800.00   0.33098683   0.02806048
3802.00   0.38966653   0.02949939
3804.00   0.35341889   0.02884865
3806.00   0.25421402   0.02746938
3808.00   0.32843694   0.02813131
3810.00   0.32942593   0.02840957
3812.00   0.27508077   0.02696642
3814.00   0.25918725   0.02549258
3816.00   0.33381641   0.02602251
3818.00   0.31590870   0.02535092
3820.00   0.35331729   0.02548438
3822.00   0.31257924   0.02536189
3824.00   0.30657199   0.02441794
3826.00   0.33441725   0.02402460
3828.00   0.38021827   0.02480248
3830.00   0.39184549   0.02487157
3832.00   0.37149212   0.02416951
3834.00   0.33343145   0.02368987
3836.00   0.34999341   0.02373283
3838.00   0.39616853   0.02393090
3840.00   0.37912998   0.02423757
3842.00   0.41474369   0.02552162
3844.00   0.39264578   0.02614073
3846.00   0.37507150   0.02564808
3848.00   0.43181303   0.02590286
3850.00   0.46507695   0.02603583
3852.00   0.46803716   0.02618718
3854.00   0.44987297   0.02551057
3856.00   0.54240918   0.02600433
3858.00   0.55610138   0.02545635
3860.00   0.53244346   0.02562256
3862.00   0.60809654   0.02759463
3864.00   0.59998393   0.02771762
3866.00   0.60783869   0.02751615
3868.00   0.67277277   0.02736414
3870.00   0.69493306   0.02680160
3872.00   0.72655517   0.02757620
3874.00   0.72380841   0.02839585
3876.00   0.79695797   0.02858025
3878.00   0.78699291   0.02796949
3880.00   0.78583610   0.02773150
3882.00   0.92583942   0.02926745
3884.00   0.82955486   0.02848196
3886.00   0.90212238   0.02844660
3888.00   0.93666357   0.02873106
3890.00   0.96274269   0.02960069
3892.00   0.96337628   0.03003392
3894.00   1.00681567   0.03053830
3896.00   0.98860574   0.03036940
3898.00   1.08680928   0.03108264
3900.00   1.03857362   0.03063180
3902.00   1.02668691   0.03047758
3904.00   1.15297163   0.03128980
3906.00   1.16945374   0.03241432
3908.00   1.18468702   0.03340580
3910.00   1.23366380   0.03417485
3912.00   1.23713183   0.03461071
3914.00   1.26788032   0.03414396
3916.00   1.26375985   0.03266143
3918.00   1.27164710   0.03194107
3920.00   1.27493691   0.03142571
3922.00   1.34918928   0.03159625
3924.00   1.39155781   0.03197308
3926.00   1.42003334   0.03148802
3928.00   1.48244858   0.03089418
3930.00   1.49347091   0.03048759
3932.00   1.39594102   0.02933956
3934.00   1.42137289   0.02951758
3936.00   1.53083003   0.03047150
3938.00   1.54306316   0.03130043
3940.00   1.61278665   0.03238850
3942.00   1.58258140   0.03247534
3944.00   1.67753315   0.03332264
3946.00   1.63249552   0.03329755
3948.00   1.57344925   0.03296173
3950.00   1.72510087   0.03369152
3952.00   1.66422701   0.03333902
3954.00   1.81689119   0.03396699
3956.00   1.80425048   0.03412098
3958.00   1.77521265   0.03399289
3960.00   1.85873508   0.03401791
3962.00   1.80249500   0.03316828
3964.00   1.80258727   0.03220614
3966.00   1.83457708   0.03165977
3968.00   1.74887168   0.03070024
3970.00   1.82832456   0.03158704
3972.00   1.85631824   0.03257550
3974.00   1.88591361   0.03334749
3976.00   1.85947752   0.03373633
3978.00   1.81334257   0.03381230
3980.00   1.88422394   0.03431248
3982.00   1.83786190   0.03374106
3984.00   1.82400906   0.03359575
3986.00   1.86072457   0.03394499
3988.00   1.84180439   0.03420772
3990.00   1.88692462   0.03464440
3992.00   1.77936721   0.03412647
3994.00   1.85491478   0.03468087
3996.00   1.83893180   0.03450051
3998.00   1.81718481   0.03436826
4000.00   1.84491313   0.03450070
4002.00   1.79533815   0.03421448
4004.00   1.81872594   0.03369213
4006.00   1.78436089   0.03352646
4008.00   1.77327752   0.03400364
4010.00   1.74423742   0.03395066
4012.00   1.74159491   0.03393313
4014.00   1.72637677   0.03370912
4016.00   1.61696529   0.03302043
4018.00   1.67078936   0.03387426
4020.00   1.76916242   0.03485847
4022.00   1.61961401   0.03421446
4024.00   1.61068928   0.03383579
4026.00   1.65051436   0.03369310
4028.00   1.55403459   0.03278442
4030.00   1.57103872   0.03243755
4032.00   1.55542564   0.03194326
4034.00   1.51531053   0.03196782
4036.00   1.49171078   0.03190433
4038.00   1.45921481   0.03179856
4040.00   1.51777315   0.03194353
4042.00   1.49293041   0.03191631
4044.00   1.40428686   0.03417643
4046.00   1.38679230   0.03626003
4048.00   1.36209893   0.03444669
4050.00   1.36735427   0.03142478
4052.00   1.29059517   0.03024391
4054.00   1.31051409   0.03010956
4056.00   1.27304864   0.02977018
4058.00   1.24073100   0.02934006
4060.00   1.28475893   0.02947672
4062.00   1.26075363   0.02884899
4064.00   1.25000453   0.02863423
4066.00   1.21723223   0.02883273
4068.00   1.20543885   0.02904240
4070.00   1.22937500   0.02882407
4072.00   1.22264063   0.02866268
4074.00   1.24233127   0.02905656
4076.00   1.16883922   0.02892402
4078.00   1.23647153   0.02940570
4080.00   1.17197454   0.02906703
4082.00   1.15611792   0.02875685
4084.00   1.14873409   0.02859640
4086.00   1.17224324   0.02875767
4088.00   1.13944566   0.02876652
4090.00   1.22521162   0.02880770
4092.00   1.18496275   0.02830682
4094.00   1.07028604   0.02768979
4096.00   1.10159695   0.02748134
4098.00   1.13515306   0.02728566
4100.00   1.06399000   0.02654262
4102.00   0.99680912   0.02609112
4104.00   1.04154086   0.02670535
4106.00   1.10357821   0.02756876
4108.00   1.10483289   0.02762008
4110.00   1.04980290   0.02734271
4112.00   1.02132916   0.02729612
4114.00   1.09977102   0.02788230
4116.00   0.98742485   0.02732882
4118.00   1.01710200   0.02704721
4120.00   1.04339242   0.02707078
4122.00   1.02999127   0.02714241
4124.00   1.02886045   0.02711041
4126.00   1.02280462   0.02682109
4128.00   1.03149533   0.02669374
4130.00   0.96943980   0.02637708
4132.00   0.93610734   0.02608333
4134.00   0.99147975   0.02629018
4136.00   1.00332367   0.02656944
4138.00   0.95433044   0.02664390
4140.00   1.01412272   0.02689188
4142.00   1.00951505   0.02624418
4144.00   0.96141905   0.02555973
4146.00   0.98585522   0.02584645
4148.00   0.98754877   0.02588474
4150.00   1.02036071   0.02619829
4152.00   0.99891347   0.02608024
4154.00   1.05184472   0.02596621
4156.00   1.05832124   0.02585089
4158.00   1.01187515   0.02589063
4160.00   1.00468242   0.02586311
4162.00   1.01285970   0.02627048
4164.00   1.01251256   0.02638411
4166.00   0.96923709   0.02584252
4168.00   1.02484965   0.02573559
4170.00   0.99273342   0.02525944
4172.00   1.01384473   0.02484773
4174.00   1.00347674   0.02473213
4176.00   1.00122905   0.02493359
4178.00   1.04871368   0.02531727
4180.00   1.03020990   0.02516273
4182.00   0.93099672   0.02446903
4184.00   1.04527414   0.02495189
4186.00   1.04784095   0.02478084
4188.00   1.04649985   0.02476636
4190.00   1.04862487   0.02510224
4192.00   1.04920316   0.02516345
4194.00   1.09468055   0.02519777
4196.00   1.07173145   0.02463093
4198.00   1.11266863   0.02470548
4200.00   1.03237247   0.02436877
4202.00   1.09064794   0.02473204
4204.00   1.07346654   0.02500702
4206.00   1.13424504   0.02543929
4208.00   1.17055941   0.02566250
4210.00   1.13169873   0.02553994
4212.00   1.10180342   0.02539442
4214.00   1.21407485   0.02560312
4216.00   1.17376041   0.02532634
4218.00   1.14727819   0.02529876
4220.00   1.15926468   0.02537185
4222.00   1.13288546   0.02503722
4224.00   1.10542083   0.02431937
4226.00   1.13672268   0.02404252
4228.00   1.14995766   0.02465057
4230.00   1.15849924   0.02524614
4232.00   1.22017801   0.02551802
4234.00   1.17602921   0.02495265
4236.00   1.14787090   0.02480181
4238.00   1.21988094   0.02505941
4240.00   1.17802811   0.02481373
4242.00   1.17959034   0.02481586
4244.00   1.23774123   0.02533591
4246.00   1.20823252   0.02549277
4248.00   1.19951391   0.02493974
4250.00   1.18585765   0.02449656
4252.00   1.12984443   0.02423173
4254.00   1.19382036   0.02465553
4256.00   1.19466424   0.02475038
4258.00   1.14981532   0.02443705
4260.00   1.18784297   0.02421782
4262.00   1.21136093   0.02459573
4264.00   1.17847252   0.02472324
4266.00   1.16966867   0.02466897
4268.00   1.17203307   0.02410231
4270.00   1.19526696   0.02375764
4272.00   1.18637156   0.02350625
4274.00   1.20871091   0.02378355
4276.00   1.15883172   0.02409639
4278.00   1.21211553   0.02435265
4280.00   1.19964874   0.02415591
4282.00   1.21501935   0.02421724
4284.00   1.20471644   0.02407660
4286.00   1.23240554   0.02400194
4288.00   1.22924137   0.02375525
4290.00   1.28289104   0.02394255
4292.00   1.28925765   0.02425968
4294.00   1.32005906   0.02440096
4296.00   1.31088865   0.02415137
4298.00   1.25132012   0.02356571
4300.00   1.29245043   0.02338382
4302.00   1.33879113   0.02352737
4304.00   1.29085672   0.02328983
4306.00   1.27587128   0.02308834
4308.00   1.36715126   0.02335801
4310.00   1.33817399   0.02353083
4312.00   1.30115104   0.02408909
4314.00   1.33924377   0.02499850
4316.00   1.36871469   0.02541933
4318.00   1.46815145   0.02587373
4320.00   1.40437758   0.02555866
4322.00   1.38293827   0.02495787
4324.00   1.42001069   0.02460128
4326.00   1.43145216   0.02474638
4328.00   1.41160238   0.02508938
4330.00   1.37109768   0.02506626
4332.00   1.41121876   0.02525926
4334.00   1.37092304   0.02526135
4336.00   1.38094771   0.02505939
4338.00   1.40622580   0.02471306
4340.00   1.33999169   0.02418705
4342.00   1.35980344   0.02453036
4344.00   1.46605933   0.02542314
4346.00   1.41052544   0.02552749
4348.00   1.40915823   0.02552962
4350.00   1.39774621   0.02516557
4352.00   1.32997954   0.02478734
4354.00   1.31543112   0.02602129
4356.00   1.32143426   0.03116797
4358.00   1.34794486   0.03379936
4360.00   1.30716753   0.03082510
4362.00   1.28107011   0.02708118
4364.00   1.22857261   0.02543385
4366.00   1.20650792   0.02505098
4368.00   1.23760545   0.02503642
4370.00   1.15485799   0.02455706
4372.00   1.19994259   0.02470405
4374.00   1.13461733   0.02454371
4376.00   1.12148941   0.02441286
4378.00   1.07487988   0.02417852
4380.00   1.09147930   0.02390964
4382.00   1.11086881   0.02342309
4384.00   1.04039192   0.02278773
4386.00   1.02490711   0.02282347
4388.00   0.99668926   0.02276511
4390.00   0.97248274   0.02263687
4392.00   0.94043237   0.02243329
4394.00   0.93315816   0.02246109
4396.00   0.91507477   0.02258032
4398.00   0.93369746   0.02268354
4400.00   0.88780951   0.02237095
4402.00   0.88356537   0.02211723
4404.00   0.86139852   0.02180042
4406.00   0.86046922   0.02184255
4408.00   0.83971661   0.02192436
4410.00   0.80824524   0.02210631
4412.00   0.78670514   0.02208291
4414.00   0.76604295   0.02189152
4416.00   0.78217489   0.02195464
4418.00   0.79766244   0.02201480
4420.00   0.73684847   0.02162616
4422.00   0.71555567   0.02137907
4424.00   0.70296133   0.02119949
4426.00   0.71458185   0.02137970
4428.00   0.75765145   0.02152043
4430.00   0.68499714   0.02125764
4432.00   0.67882740   0.02112522
4434.00   0.69688290   0.02107220
4436.00   0.73381579   0.02135592
4438.00   0.69462425   0.02137890
4440.00   0.70494229   0.02138754
4442.00   0.70012254   0.02115776
4444.00   0.70631146   0.02116050
4446.00   0.64342868   0.02103881
4448.00   0.68415779   0.02123039
4450.00   0.68771005   0.02125961
4452.00   0.71948606   0.02125341
4454.00   0.69725412   0.02099163
4456.00   0.74954742   0.02114846
4458.00   0.77981478   0.02144572
4460.00   0.72879261   0.02123491
4462.00   0.70086670   0.02139159
4464.00   0.74974972   0.02179776
4466.00   0.75954306   0.02180861
4468.00   0.77523386   0.02180718
4470.00   0.76372755   0.02172495
4472.00   0.77663738   0.02185036
4474.00   0.78290278   0.02184707
4476.00   0.80550104   0.02182734
4478.00   0.79811704   0.02160348
4480.00   0.82657534   0.02142304
4482.00   0.82088006   0.02144326
4484.00   0.82319790   0.02176711
4486.00   0.88114113   0.02201504
4488.00   0.86329186   0.02197719
4490.00   0.87524647   0.02201950
4492.00   0.88252378   0.02216682
4494.00   0.88384080   0.02219869
4496.00   0.93072784   0.02252091
4498.00   0.84319156   0.02230512
4500.00   0.89325291   0.02241283
4502.00   0.93752116   0.02260214
4504.00   0.90615624   0.02263211
4506.00   0.98136550   0.02282845
4508.00   0.99305916   0.02284183
4510.00   1.04200864   0.02303227
4512.00   1.03036451   0.02287412
4514.00   1.04897308   0.02287295
4516.00   1.03480041   0.02272665
4518.00   1.10590959   0.02304805
4520.00   1.12212074   0.02312842
4522.00   1.10182858   0.02304593
4524.00   1.13063467   0.02305060
4526.00   1.16040862   0.02295017
4528.00   1.22901261   0.02311071
4530.00   1.19998920   0.02314180
4532.00   1.26430643   0.02335644
4534.00   1.23367143   0.02327695
4536.00   1.30497324   0.02371088
4538.00   1.32270420   0.02387382
4540.00   1.38492966   0.02420530
4542.00   1.32249033   0.02385794
4544.00   1.36224699   0.02399418
4546.00   1.37960637   0.02380415
4548.00   1.45060241   0.02392607
4550.00   1.46942592   0.02393045
4552.00   1.54346764   0.02433314
4554.00   1.60848820   0.02459643
4556.00   1.61803806   0.02480022
4558.00   1.60661280   0.02485257
4560.00   1.62638915   0.02495569
4562.00   1.69113255   0.02516052
4564.00   1.70419693   0.02501773
4566.00   1.70881367   0.02504691
4568.00   1.76766157   0.02523322
4570.00   1.77767205   0.02527347
4572.00   1.80411923   0.02528833
4574.00   1.89130425   0.02555133
4576.00   1.86248076   0.02541918
4578.00   1.92066813   0.02549917
4580.00   1.96209705   0.02549038
4582.00   1.96746778   0.02546452
4584.00   1.94962871   0.02547748
4586.00   1.97891355   0.02562536
4588.00   2.00620842   0.02584574
4590.00   2.05586243   0.02595657
4592.00   2.10584950   0.02612360
4594.00   2.14499283   0.02624815
4596.00   2.16367483   0.02630770
4598.00   2.21732497   0.02644723
4600.00   2.22791910   0.02653204
4602.00   2.29556680   0.02671626
4604.00   2.32264709   0.02685603
4606.00   2.35051107   0.02716321
4608.00   2.34299350   0.02725125
4610.00   2.36189628   0.02740884
4612.00   2.39898229   0.02751421
4614.00   2.46643376   0.02786199
4616.00   2.45781136   0.02784166
4618.00   2.51387453   0.02803682
4620.00   2.55905747   0.02821604
4622.00   2.56643748   0.02828138
4624.00   2.59242225   0.02839956
4626.00   2.63725615   0.02856396
4628.00   2.65612602   0.02860369
4630.00   2.66883135   0.02861612
4632.00   2.67446351   0.02858880
4634.00   2.74152207   0.02877392
4636.00   2.71296120   0.02860994
4638.00   2.70708513   0.02861210
4640.00   2.72055149   0.02859542
4642.00   2.66747427   0.02841800
4644.00   2.75288033   0.02860780
4646.00   2.67751169   0.02831676
4648.00   2.67759252   0.02827385
4650.00   2.66053295   0.02829130
4652.00   2.72084475   0.02845371
4654.00   2.72012687   0.02843262
4656.00   2.67759109   0.02829015
4658.00   2.68424010   0.02840595
4660.00   2.65890908   0.02829609
4662.00   2.62208128   0.02808100
4664.00   2.63761115   0.02799434
4666.00   2.66504598   0.02795014
4668.00   2.58869219   0.02758748
4670.00   2.57416224   0.02758717
4672.00   2.52911305   0.02754211
4674.00   2.47988224   0.02743020
4676.00   2.45949650   0.02732298
4678.00   2.48222947   0.02724343
4680.00   2.43491197   0.02699890
4682.00   2.30434966   0.02656143
4684.00   2.35576534   0.02672759
4686.00   2.33892822   0.02663517
4688.00   2.24658871   0.02633279
4690.00   2.19959521   0.02610633
4692.00   2.15142369   0.02587983
4694.00   2.08076930   0.02574305
4696.00   2.04893303   0.02551111
4698.00   2.02433515   0.02539061
4700.00   1.96875560   0.02491488
4702.00   1.90780818   0.02464892
4704.00   1.88588262   0.02458183
4706.00   1.84635925   0.02443860
4708.00   1.81850994   0.02444841
4710.00   1.79866087   0.02436666
4712.00   1.77020049   0.02420662
4714.00   1.71353078   0.02393016
4716.00   1.68295848   0.02380021
4718.00   1.61494946   0.02351722
4720.00   1.56835234   0.02336791
4722.00   1.55076993   0.02325043
4724.00   1.52852750   0.02312577
4726.00   1.50011885   0.02303226
4728.00   1.44943142   0.02286064
4730.00   1.42889309   0.02277686
4732.00   1.38739848   0.02259099
4734.00   1.35383749   0.02256431
4736.00   1.31986129   0.02235849
4738.00   1.31812239   0.02243873
4740.00   1.28741992   0.02241533
4742.00   1.24363828   0.02245484
4744.00   1.23759902   0.02233351
4746.00   1.21536970   0.02189972
4748.00   1.19782245   0.02153837
4750.00   1.16566503   0.02135812
4752.00   1.12607872   0.02119312
4754.00   1.15814173   0.02122624
4756.00   1.11454904   0.02099181
4758.00   1.07871044   0.02080135
4760.00   1.07111442   0.02070792
4762.00   1.03107798   0.02050386
4764.00   1.03290319   0.02037265
4766.00   0.99831331   0.02017377
4768.00   0.92586422   0.01995080
4770.00   0.95955998   0.02010647
4772.00   0.95948374   0.02007938
4774.00   0.93504000   0.02003043
4776.00   0.94563389   0.02011353
4778.00   0.93835330   0.02020112
4780.00   0.91462159   0.02008205
4782.00   0.91157752   0.01987264
4784.00   0.89504951   0.01965531
4786.00   0.91281825   0.01960024
4788.00   0.87273097   0.01941083
4790.00   0.95097274   0.01973924
4792.00   0.95010823   0.01973497
4794.00   0.93013167   0.01977912
4796.00   0.94831777   0.01977170
4798.00   0.95765829   0.01974198
4800.00   0.96317846   0.01973998
4802.00   0.98106110   0.01986348
4804.00   1.01193702   0.01988290
4806.00   1.01031184   0.01978071
4808.00   0.99862432   0.01980374
4810.00   1.00997591   0.01989838
4812.00   1.02581489   0.02001191
4814.00   1.04193842   0.02005894
4816.00   1.04223478   0.02013920
4818.00   1.04095936   0.02018354
4820.00   1.02575779   0.02008717
4822.00   1.04895973   0.02012551
4824.00   1.09958494   0.02030868
4826.00   1.05965221   0.02026116
4828.00   1.04284012   0.02014322
4830.00   1.06362700   0.02023167
4832.00   1.09961820   0.02042976
4834.00   1.08238387   0.02036319
4836.00   1.09547329   0.02043585
4838.00   1.07422328   0.02037564
4840.00   1.03249002   0.02017043
4842.00   1.03539765   0.02012316
4844.00   1.10719514   0.02025937
4846.00   0.99525476   0.01984855
4848.00   1.04606938   0.02004597
4850.00   1.00390410   0.01986909
4852.00   1.00218773   0.01980247
4854.00   1.00969779   0.01972494
4856.00   0.98671627   0.01943917
4858.00   0.98639184   0.01921720
4860.00   0.98043627   0.01890760
4862.00   1.01040065   0.01910152
4864.00   0.97835630   0.01920567
4866.00   0.99364334   0.01944717
4868.00   1.01187265   0.01959889
4870.00   1.01817119   0.01953941
4872.00   1.00680780   0.01954983
4874.00   1.01870346   0.01954380
4876.00   1.02735662   0.01964509
4878.00   1.00114119   0.01964168
4880.00   0.97976643   0.01951609
4882.00   1.06996667   0.01974877
4884.00   1.06861699   0.01972169
4886.00   1.09334683   0.01961395
4888.00   1.07027137   0.01946656
4890.00   1.10691524   0.01951841
4892.00   1.11224413   0.01970584
4894.00   1.15211523   0.01998636
4896.00   1.14820778   0.02016198
4898.00   1.13857806   0.02012850
4900.00   1.13692153   0.02013601
4902.00   1.13598478   0.02011840
4904.00   1.16998589   0.02020046
4906.00   1.18312204   0.02028384
4908.00   1.21932721   0.02038471
4910.00   1.20787346   0.02032067
4912.00   1.21365047   0.02034238
4914.00   1.25905883   0.02058292
4916.00   1.29330254   0.02066826
4918.00   1.27892303   0.02043822
4920.00   1.32281840   0.02048633
4922.00   1.32153499   0.02058758
4924.00   1.31063783   0.02064136
4926.00   1.33941698   0.02078452
4928.00   1.38536429   0.02100535
4930.00   1.45674646   0.02116387
4932.00   1.44599175   0.02117546
4934.00   1.47549117   0.02117925
4936.00   1.49353981   0.02125121
4938.00   1.47332990   0.02106250
4940.00   1.49172640   0.02111190
4942.00   1.54799092   0.02145453
4944.00   1.58481896   0.02158167
4946.00   1.61319768   0.02170419
4948.00   1.59698641   0.02173026
4950.00   1.60542858   0.02185223
4952.00   1.64497316   0.02195130
4954.00   1.68836129   0.02208737
4956.00   1.68071830   0.02189605
4958.00   1.67039657   0.02181470
4960.00   1.70816541   0.02197213
4962.00   1.68267095   0.02196489
4964.00   1.71887088   0.02213503
4966.00   1.68606818   0.02209954
4968.00   1.66043627   0.02204460
4970.00   1.66342616   0.02203428
4972.00   1.65169740   0.02210375
4974.00   1.68005455   0.02229232
4976.00   1.64602733   0.02222055
4978.00   1.63856208   0.02231688
4980.00   1.57581472   0.02219079
4982.00   1.57114816   0.02213249
4984.00   1.55463672   0.02200928
4986.00   1.54005599   0.02191939
4988.00   1.49444401   0.02174992
4990.00   1.46193779   0.02158870
4992.00   1.44388330   0.02145965
4994.00   1.48687255   0.02142683
4996.00   1.41594505   0.02114051
4998.00   1.37207913   0.02080271
5000.00   1.34909558   0.02057791
5002.00   1.34683752   0.02043979
5004.00   1.31612098   0.02022818
5006.00   1.30498469   0.02008685
5008.00   1.30899286   0.02013668
5010.00   1.21663344   0.01979397
5012.00   1.25059485   0.01987604
5014.00   1.21127534   0.01965499
5016.00   1.19333577   0.01958904
5018.00   1.18414664   0.01955026
5020.00   1.21773803   0.01967771
5022.00   1.18432212   0.01950391
5024.00   1.17147803   0.01945408
5026.00   1.15583539   0.01961809
5028.00   1.14132154   0.01923159
5030.00   1.14764190   0.01939107
5032.00   1.14915037   0.01934616
5034.00   1.14277565   0.01929562
5036.00   1.13098323   0.01918934
5038.00   1.11851573   0.01896878
5040.00   1.10992837   0.01883488
5042.00   1.10439277   0.01878137
5044.00   1.08713377   0.01888505
5046.00   1.07182598   0.01892416
5048.00   1.05818367   0.01890461
5050.00   1.07929850   0.01895177
5052.00   1.11658382   0.01918755
5054.00   1.06098878   0.01902661
5056.00   1.03256559   0.01896340
5058.00   1.00260818   0.01882781
5060.00   1.03247535   0.01901067
5062.00   1.06331742   0.01916866
5064.00   1.07134652   0.01923409
5066.00   1.03075123   0.01910915
5068.00   1.04079080   0.01932241
5070.00   1.04323566   0.01930553
5072.00   1.05353343   0.01925705
5074.00   1.02908194   0.01911186
5076.00   1.03722727   0.01910857
5078.00   1.03656936   0.01910191
5080.00   1.04874527   0.01946540
5082.00   1.01350081   0.01981429
5084.00   1.03862166   0.02026152
5086.00   1.05816638   0.02034362
5088.00   1.03837895   0.02008557
5090.00   1.01484704   0.01967884
5092.00   1.07247448   0.01966578
5094.00   1.08156359   0.01953523
5096.00   1.03210151   0.01938678
5098.00   1.02757239   0.01940888
5100.00   1.03150439   0.01941819
5102.00   1.06233907   0.01945945
5104.00   1.04018259   0.01927715
5106.00   1.05288243   0.01919708
5108.00   1.07331800   0.01929503
5110.00   1.09674788   0.01932578
5112.00   1.07792783   0.01940273
5114.00   1.10607314   0.01957966
5116.00   1.07579780   0.01961486
5118.00   1.09339333   0.01965754
5120.00   1.09765971   0.01954040
5122.00   1.04756987   0.01932087
5124.00   1.07184994   0.01929363
5126.00   1.09692299   0.01945174
5128.00   1.13790739   0.01964374
5130.00   1.09164119   0.01953459
5132.00   1.11985469   0.01971805
5134.00   1.11908710   0.01978882
5136.00   1.15860617   0.02003331
5138.00   1.13819242   0.02001878
5140.00   1.12336218   0.01996048
5142.00   1.12649357   0.01994535
5144.00   1.12250757   0.01992654
5146.00   1.11945343   0.01999664
5148.00   1.10923457   0.02002294
5150.00   1.13080025   0.02021354
5152.00   1.06469941   0.02010109
5154.00   1.12619698   0.02033041
5156.00   1.14885604   0.02049499
5158.00   1.13155949   0.02035935
5160.00   1.17803741   0.02046165
5162.00   1.11590755   0.02015031
5164.00   1.16456056   0.02014476
5166.00   1.13356304   0.01982308
5168.00   1.10894632   0.01962369
5170.00   1.12129283   0.01969547
5172.00   1.13371372   0.01971324
5174.00   1.12349868   0.01988061
5176.00   1.16792738   0.02030738
5178.00   1.19437182   0.02056561
5180.00   1.17898798   0.02050307
5182.00   1.19286239   0.02043359
5184.00   1.23002541   0.02039262
5186.00   1.23031116   0.02049749
5188.00   1.18512464   0.02035866
5190.00   1.19709790   0.02034133
5192.00   1.17951941   0.02021796
5194.00   1.17660832   0.02035681
5196.00   1.24356472   0.02074528
5198.00   1.22661817   0.02099763
5200.00   1.22507024   0.02110216
5202.00   1.19404864   0.02086570
5204.00   1.16573310   0.02074890
5206.00   1.21234500   0.02080854
5208.00   1.23797405   0.02108445
5210.00   1.32931042   0.02163507
5212.00   1.29402578   0.02153068
5214.00   1.27749217   0.02152337
5216.00   1.30970788   0.02169074
5218.00   1.32619965   0.02196687
5220.00   1.29649520   0.02188120
5222.00   1.32988679   0.02205992
5224.00   1.32607794   0.02197008
5226.00   1.34799457   0.02190148
5228.00   1.39220202   0.02216593
5230.00   1.39942825   0.02224579
5232.00   1.43502402   0.02243468
5234.00   1.45195627   0.02252270
5236.00   1.44621158   0.02269577
5238.00   1.47096157   0.02297300
5240.00   1.50842094   0.02320191
5242.00   1.49001873   0.02317650
5244.00   1.56933463   0.02350339
5246.00   1.55850756   0.02339237
5248.00   1.57692277   0.02347299
5250.00   1.59028029   0.02355248
5252.00   1.59229183   0.02355935
5254.00   1.63587058   0.02379236
5256.00   1.60473657   0.02393458
5258.00   1.56704235   0.02385883
5260.00   1.66389930   0.02427190
5262.00   1.67162514   0.02426621
5264.00   1.69639897   0.02431612
5266.00   1.67654741   0.02425657
5268.00   1.63124788   0.02403191
5270.00   1.72527421   0.02445669
5272.00   1.68630898   0.02437426
5274.00   1.72286940   0.02460527
5276.00   1.74073684   0.02479397
5278.00   1.72985303   0.02486606
5280.00   1.76691699   0.02503492
5282.00   1.74746680   0.02498690
5284.00   1.76363802   0.02515765
5286.00   1.81523693   0.02542473
5288.00   1.79212177   0.02545076
5290.00   1.86616123   0.02579007
5292.00   1.88560534   0.02586901
5294.00   1.91382122   0.02603616
5296.00   1.86904061   0.02595097
5298.00   1.94909358   0.02635749
5300.00   1.94716835   0.02661445
5302.00   1.95088363   0.02675155
5304.00   1.92948520   0.02679375
5306.00   1.99038875   0.02715038
5308.00   1.97536671   0.02728375
5310.00   1.98126733   0.02749575
5312.00   2.04015470   0.02790871
5314.00   2.06648612   0.02808399
5316.00   2.04279017   0.02811624
5318.00   2.01104069   0.02799625
5320.00   2.05675507   0.02820554
5322.00   2.08703232   0.02839797
5324.00   2.03792977   0.02831415
5326.00   2.07664680   0.02859051
5328.00   2.11200333   0.02871582
5330.00   2.11390018   0.02887433
5332.00   2.12322760   0.02912191
5334.00   2.11366749   0.02926644
5336.00   2.14235210   0.02948651
5338.00   2.17567205   0.02972499
5340.00   2.17266393   0.02973767
5342.00   2.16460705   0.02980764
5344.00   2.19476604   0.03005383
5346.00   2.13391137   0.02980323
5348.00   2.16112280   0.03013134
5350.00   2.16963816   0.03016974
5352.00   2.20067239   0.03045090
5354.00   2.11285758   0.03019075
5356.00   2.15052032   0.03049367
5358.00   2.14697242   0.03048329
5360.00   2.18082666   0.03052588
5362.00   2.12180948   0.03035123
5364.00   2.09373641   0.03017448
5366.00   2.14680362   0.03032654
5368.00   2.14588022   0.03026277
5370.00   2.12406468   0.03031291
5372.00   2.15185666   0.03038459
5374.00   2.10402632   0.03043221
5376.00   2.13692641   0.03078263
5378.00   2.18540859   0.03102769
5380.00   2.21950078   0.03133411
5382.00   2.22477102   0.03131853
5384.00   2.17624617   0.03115369
5386.00   2.22054458   0.03135307
5388.00   2.22471976   0.03149901
5390.00   2.18197012   0.03140296
5392.00   2.16184044   0.03138144
5394.00   2.25526643   0.03177619
5396.00   2.21919775   0.03165289
5398.00   2.20938730   0.03183551
5400.00   2.29514074   0.03236097
5402.00   2.30572248   0.03245399
5404.00   2.24814272   0.03217663
5406.00   2.26135373   0.03223119
5408.00   2.35601735   0.03275770
5410.00   2.36050272   0.03302139
5412.00   2.33302951   0.03292997
5414.00   2.28080463   0.03288963
5416.00   2.30503631   0.03318294
5418.00   2.33271742   0.03334440
5420.00   2.33291578   0.03337654
5422.00   2.27043319   0.03305982
5424.00   2.28233457   0.03305409
5426.00   2.35533452   0.03329004
5428.00   2.23442173   0.03274150
5430.00   2.25455999   0.03282873
5432.00   2.32337785   0.01621032
5434.00   2.32778025   0.01622306
5436.00   2.29351044   0.01448552
5438.00   2.26258326   0.01256889
5440.00   2.26682496   0.01201400
5442.00   2.29059267   0.01225846
5444.00   2.28580952   0.01267004
5446.00   2.25531054   0.01400108
5448.00   2.24417019   0.01433660
5450.00   2.25100827   0.01348158
5452.00   2.25108171   0.01326275
5454.00   2.22877789   0.01492690
5456.00   2.19824314   0.01704026
5458.00   2.19766927   0.01698560
5460.00   2.24287868   0.01438038
5462.00   2.22763801   0.01414854
5464.00   2.14477921   0.01579184
5466.00   2.10287452   0.01670956
5468.00   2.13679767   0.01662106
5470.00   2.19624233   0.01602666
5472.00   2.21075892   0.01504404
5474.00   2.20108032   0.01272826
5476.00   2.20219564   0.01273974
5478.00   2.19424343   0.01526397
5480.00   2.20382476   0.01631006
5482.00   2.24272132   0.01596695
5484.00   2.28287005   0.01507312
5486.00   2.29163551   0.01410703
5488.00   2.27889729   0.01259067
5490.00   2.28162527   0.01200639
5492.00   2.29516268   0.01225099
5494.00   2.29634738   0.01246155
5496.00   2.27667665   0.01289270
5498.00   2.26501250   0.01324663
5500.00   2.28401899   0.01329311
5502.00   2.32270288   0.01315658
5504.00   2.34910655   0.01296909
5506.00   2.37268043   0.01207497
5508.00   2.39854193   0.01244580
5510.00   2.43218160   0.01406432
5512.00   2.45615578   0.01542901
5514.00   2.46317840   0.01639334
5516.00   2.45847821   0.01706186
5518.00   2.44673872   0.01650051
5520.00   2.41014171   0.01388149
5522.00   2.40550900   0.01280337
5524.00   2.42236209   0.01254032
5526.00   2.44275641   0.01265575
5528.00   2.46483064   0.01326776
5530.00   2.49004579   0.01406678
5532.00   2.51676464   0.01437211
5534.00   2.55404019   0.01450896
5536.00   2.56208587   0.01434522
5538.00   2.53936005   0.01372458
5540.00   2.52706265   0.01318273
5542.00   2.52732801   0.01267862
5544.00   2.53070378   0.01225009
5546.00   2.53128123   0.01202625
5548.00   2.53204441   0.01196297
5550.00   2.52989435   0.01208294
5552.00   2.52039742   0.01262066
5554.00   2.52052593   0.01279750
5556.00   2.52463150   0.01247875
5558.00   2.53981733   0.01229075
5560.00   2.58141756   0.01283892
5562.00   2.64337707   0.01379371
5564.00   2.64649463   0.01371813
5566.00   2.58468914   0.01206380
5568.00   2.56678867   0.01220491
5570.00   2.58031583   0.01391057
5572.00   2.59083843   0.01545483
5574.00   2.58414793   0.01666905
5576.00   2.57059407   0.01764582
5578.00   2.56295753   0.01732456
5580.00   2.56774426   0.01488009
5582.00   2.54575109   0.01432739
5584.00   2.48737884   0.01558447
5586.00   2.45181394   0.01584844
5588.00   2.45699549   0.01409932
5590.00   2.47851419   0.01142366
5592.00   2.48442125   0.01079151
5594.00   2.48829317   0.01191028
5596.00   2.48576856   0.01208479
5598.00   2.47786784   0.01221621
5600.00   2.46557808   0.01213834
5602.00   2.45043921   0.01169600
5604.00   2.42915082   0.01119984
5606.00   2.39669847   0.01109194
5608.00   2.35332608   0.01125255
5610.00   2.31426787   0.01122136
5612.00   2.26748490   0.01113168
5614.00   2.23501205   0.01103328
5616.00   2.22172236   0.01089838
5618.00   2.20820475   0.01077261
5620.00   2.18051434   0.01069877
5622.00   2.14543843   0.01065790
5624.00   2.11313295   0.01059373
5626.00   2.07489610   0.01051447
5628.00   2.04772711   0.01045600
5630.00   2.03233361   0.01042012
5632.00   2.01658583   0.01038125
5634.00   1.99648392   0.01032219
5636.00   1.97433126   0.01025751
5638.00   1.94745040   0.01022978
5640.00   1.91123068   0.01026287
5642.00   1.88511622   0.01022067
5644.00   1.86398029   0.01011217
5646.00   1.84603381   0.01002249
5648.00   1.83173788   0.00991822
5650.00   1.82012558   0.00986604
5652.00   1.80891049   0.01007971
5654.00   1.80231786   0.01066079
5656.00   1.78497350   0.01068595
5658.00   1.76175857   0.01022894
5660.00   1.73233473   0.00992233
5662.00   1.69182730   0.00969796
5664.00   1.65031362   0.00965873
5666.00   1.62081885   0.01012721
5668.00   1.59868491   0.01109874
5670.00   1.57610059   0.01112630
5672.00   1.55357814   0.01024674
5674.00   1.53741777   0.00982925
5676.00   1.52835536   0.00976031
5678.00   1.52244425   0.00991888
5680.00   1.51910281   0.01039572
5682.00   1.51910067   0.01113090
5684.00   1.50595033   0.01114659
5686.00   1.48080146   0.01032272
5688.00   1.45831454   0.01016358
5690.00   1.43814063   0.01033130
5692.00   1.41240788   0.01083413
5694.00   1.37356830   0.01205047
5696.00   1.32866287   0.01338973
5698.00   1.30339622   0.01292110
5700.00   1.29507196   0.00983149
5702.00   1.28061557   0.00864077
5704.00   1.27199054   0.00885871
5706.00   1.25498033   0.00911742
5708.00   1.21879029   0.00926355
5710.00   1.17982411   0.00940182
5712.00   1.17153251   0.00922741
5714.00   1.19130874   0.00869573
5716.00   1.19083607   0.00849564
5718.00   1.18531644   0.00847446
5720.00   1.17403293   0.00849239
5722.00   1.15144837   0.00858193
5724.00   1.12898302   0.00868866
5726.00   1.12273228   0.00874138
5728.00   1.12905896   0.00879836
5730.00   1.12289357   0.00866072
5732.00   1.10559297   0.00820648
5734.00   1.09819686   0.00798088
5736.00   1.10096753   0.00800955
5738.00   1.10604465   0.00808052
5740.00   1.10960472   0.00803697
5742.00   1.11381340   0.00794872
5744.00   1.11081612   0.00806272
5746.00   1.09320998   0.00842562
5748.00   1.09380305   0.00858751
5750.00   1.10915267   0.00866304
5752.00   1.12873292   0.00864240
5754.00   1.15010250   0.00841964
5756.00   1.17411864   0.00809524
5758.00   1.19294691   0.00822899
5760.00   1.20986629   0.00888549
5762.00   1.22341204   0.00909385
5764.00   1.22532535   0.00910009
5766.00   1.23966873   0.00906470
5768.00   1.27654672   0.00898581
5770.00   1.32208729   0.00888369
5772.00   1.35381877   0.00887980
5774.00   1.38193583   0.00898059
5776.00   1.40022635   0.00894291
5778.00   1.40407372   0.00865320
5780.00   1.41270304   0.00866219
5782.00   1.42361867   0.00915363
5784.00   1.44014704   0.00966608
5786.00   1.47052932   0.00971597
5788.00   1.51358795   0.00942206
5790.00   1.55184877   0.00957030
5792.00   1.59293807   0.01009118
5794.00   1.63077211   0.01037055
5796.00   1.66854358   0.01054536
5798.00   1.70085824   0.01053936
5800.00   1.72233093   0.01014683
5802.00   1.73530424   0.00939206
5804.00   1.74908996   0.00933215
5806.00   1.74792755   0.00989252
5808.00   1.77265930   0.01018267
5810.00   1.82308757   0.01051448
5812.00   1.87590539   0.01062629
5814.00   1.92377543   0.01028400
5816.00   1.97045660   0.00966266
5818.00   2.00633860   0.00949910
5820.00   2.03383327   0.00954206
5822.00   2.05661583   0.00979610
5824.00   2.06805348   0.01044969
5826.00   2.08346820   0.01090689
5828.00   2.10748029   0.01112423
5830.00   2.13440275   0.01116156
5832.00   2.15631223   0.01087597
5834.00   2.17121339   0.01002853
5836.00   2.20192456   0.00980918
5838.00   2.25992393   0.00998119
5840.00   2.29083419   0.01023648
5842.00   2.27817535   0.01074134
5844.00   2.25996518   0.01115579
5846.00   2.28127193   0.01097060
5848.00   2.32961559   0.01022978
5850.00   2.35513878   0.01010617
5852.00   2.37184572   0.01034532
5854.00   2.38631916   0.01060190
5856.00   2.39096928   0.01110782
5858.00   2.40126014   0.01141696
5860.00   2.43661213   0.01103745
5862.00   2.48996997   0.01010779
5864.00   2.49657750   0.01024403
5866.00   2.45860243   0.01106157
5868.00   2.44060993   0.01193950
5870.00   2.42381620   0.01355487
5872.00   2.41912484   0.01435750
5874.00   2.44031692   0.01350034
5876.00   2.47518277   0.01156617
5878.00   2.47528958   0.01107605
5880.00   2.44243956   0.01170121
5882.00   2.42997479   0.01188306
5884.00   2.42525840   0.01214000
5886.00   2.41976428   0.01230844
5888.00   2.41018867   0.01232756
5890.00   2.40080738   0.01228310
5892.00   2.39835382   0.01231868
5894.00   2.40014076   0.01242850
5896.00   2.40642405   0.01238859
5898.00   2.42633867   0.01227689
5900.00   2.43288207   0.01206322
5902.00   2.42046285   0.01171978
5904.00   2.40244198   0.01128373
5906.00   2.39205313   0.01077028
5908.00   2.38269782   0.01007162
5910.00   2.38074541   0.00977545
5912.00   2.38862276   0.00979248
5914.00   2.39247894   0.00990842
5916.00   2.39821959   0.01029697
5918.00   2.39662099   0.01060396
5920.00   2.37664914   0.01045280
5922.00   2.34251356   0.00997621
5924.00   2.32269669   0.01029176
5926.00   2.30725980   0.01140099
5928.00   2.29699039   0.01190552
5930.00   2.29373145   0.01227263
5932.00   2.29233384   0.01223063
5934.00   2.29214263   0.01125432
5936.00   2.29289937   0.00963445
5938.00   2.28570652   0.00991083
5940.00   2.27410913   0.01235235
5942.00   2.25700283   0.01271609
5944.00   2.22934747   0.01200798
5946.00   2.20589709   0.01116878
5948.00   2.18917203   0.01024197
5950.00   2.17708039   0.00924359
5952.00   2.17167354   0.00886887
5954.00   2.17829227   0.00876493
5956.00   2.17002845   0.00963283
5958.00   2.15540671   0.01206482
5960.00   2.13372207   0.01296054
5962.00   2.09796834   0.01210334
5964.00   2.06226039   0.01062895
5966.00   2.04695868   0.01003122
5968.00   2.04634833   0.00982851
5970.00   2.03974319   0.00956062
5972.00   2.04117727   0.00946476
5974.00   2.02794790   0.00930450
5976.00   1.99546421   0.00905468
5978.00   1.96142328   0.00884070
5980.00   1.94018734   0.00877650
5982.00   1.92545426   0.00882015
5984.00   1.90148139   0.00878636
5986.00   1.86802518   0.00872328
5988.00   1.84316790   0.00867795
5990.00   1.82519150   0.00864775
5992.00   1.80834031   0.00861342
5994.00   1.78976512   0.00855882
5996.00   1.77143312   0.00849680
5998.00   1.75691378   0.00847667
6000.00   1.75174141   0.00841734
6002.00   1.73287511   0.00853340
6004.00   1.69697189   0.00895616
6006.00   1.67160165   0.00913186
6008.00   1.66776502   0.00884643
6010.00   1.67171180   0.00836776
6012.00   1.66067100   0.00820859
6014.00   1.63914919   0.00815556
6016.00   1.62596786   0.00832801
6018.00   1.62197280   0.00900841
6020.00   1.60779834   0.00921137
6022.00   1.57953155   0.00871950
6024.00   1.54619133   0.00803615
6026.00   1.51609135   0.00783655
6028.00   1.48345041   0.00787397
6030.00   1.46331465   0.00808965
6032.00   1.46078551   0.00879939
6034.00   1.44523275   0.00901869
6036.00   1.41198385   0.00874606
6038.00   1.38112736   0.00833772
6040.00   1.36964881   0.00801658
6042.00   1.37050891   0.00765793
6044.00   1.35886300   0.00754957
6046.00   1.34335577   0.00763378
6048.00   1.32328641   0.00781695
6050.00   1.29046214   0.00826659
6052.00   1.26606309   0.00857298
6054.00   1.26229465   0.00851221
6056.00   1.27074528   0.00825686
6058.00   1.27453160   0.00824803
6060.00   1.28511918   0.00855387
6062.00   1.28435123   0.00841156
6064.00   1.27271664   0.00777952
6066.00   1.26323807   0.00730423
6068.00   1.25943565   0.00725344
6070.00   1.25759816   0.00738461
6072.00   1.25422919   0.00737933
6074.00   1.25077152   0.00735587
6076.00   1.24684691   0.00733584
6078.00   1.24211514   0.00729584
6080.00   1.23790681   0.00728466
6082.00   1.23404300   0.00725991
6084.00   1.23080623   0.00730342
6086.00   1.22931266   0.00756383
6088.00   1.23027778   0.00802838
6090.00   1.22582424   0.00823796
6092.00   1.21233356   0.00838427
6094.00   1.20871794   0.00837204
6096.00   1.21533883   0.00810984
6098.00   1.22574258   0.00782389
6100.00   1.23586512   0.00773155
6102.00   1.24770415   0.00774496
6104.00   1.26072681   0.00768196
6106.00   1.27835655   0.00755027
6108.00   1.29013872   0.00752194
6110.00   1.29741788   0.00761335
6112.00   1.30248582   0.00769073
6114.00   1.30589294   0.00769419
6116.00   1.30743432   0.00766154
6118.00   1.30905783   0.00761752
6120.00   1.31066942   0.00750028
6122.00   1.31022775   0.00748634
6124.00   1.30790055   0.00757181
6126.00   1.30482900   0.00762972
6128.00   1.30020225   0.00764171
6130.00   1.29545712   0.00761955
6132.00   1.29478598   0.00752580
6134.00   1.29536366   0.00730418
6136.00   1.30231237   0.00724260
6138.00   1.32130396   0.00731124
6140.00   1.33126605   0.00734807
6142.00   1.32635653   0.00730996
6144.00   1.31911981   0.00729065
6146.00   1.32452583   0.00741516
6148.00   1.33800030   0.00767126
6150.00   1.34801733   0.00775930
6152.00   1.36501110   0.00777734
6154.00   1.36831307   0.00773182
6156.00   1.35333359   0.00753958
6158.00   1.33652937   0.00738172
6160.00   1.33068526   0.00746167
6162.00   1.32988477   0.00770171
6164.00   1.32971978   0.00770678
6166.00   1.33546376   0.00750399
6168.00   1.33493757   0.00743798
6170.00   1.32617664   0.00748883
6172.00   1.32068074   0.00752676
6174.00   1.32506669   0.00749644
6176.00   1.33490241   0.00743089
6178.00   1.34092724   0.00734141
6180.00   1.34511960   0.00711471
6182.00   1.35199976   0.00711283
6184.00   1.36274529   0.00735883
6186.00   1.37063575   0.00750606
6188.00   1.37371361   0.00745506
6190.00   1.37399638   0.00731874
6192.00   1.37345266   0.00723714
6194.00   1.37026000   0.00713550
6196.00   1.36889434   0.00710202
6198.00   1.36719608   0.00712929
6200.00   1.36745811   0.00716301
6202.00   1.36729586   0.00720929
6204.00   1.37129998   0.00725799
6206.00   1.38872755   0.00728441
6208.00   1.42130053   0.00729692
6210.00   1.43306553   0.00731030
6212.00   1.42636108   0.00732772
6214.00   1.42934549   0.00732505
6216.00   1.44121873   0.00725968
6218.00   1.45586193   0.00723490
6220.00   1.46891844   0.00731895
6222.00   1.48190999   0.00746677
6224.00   1.50436532   0.00783223
6226.00   1.54639971   0.00871733
6228.00   1.56516016   0.00888144
6230.00   1.56350207   0.00834395
6232.00   1.55692315   0.00775953
6234.00   1.55240834   0.00749420
6236.00   1.54573631   0.00736090
6238.00   1.53421497   0.00726822
6240.00   1.50867760   0.00730177
6242.00   1.50315356   0.00729967
6244.00   1.51329815   0.00715726
6246.00   1.52476859   0.00728445
6248.00   1.53475094   0.00798591
6250.00   1.54535437   0.00875451
6252.00   1.55557501   0.00870360
6254.00   1.57087445   0.00788671
6256.00   1.57009614   0.00754546
6258.00   1.55817211   0.00735063
6260.00   1.53955400   0.00721777
6262.00   1.50925469   0.00715141
6264.00   1.47686565   0.00715456
6266.00   1.45721877   0.00722834
6268.00   1.44358706   0.00741580
6270.00   1.43897235   0.00742897
6272.00   1.44805205   0.00728661
6274.00   1.45357370   0.00721549
6276.00   1.45721781   0.00721074
6278.00   1.45990789   0.00722480
6280.00   1.46372318   0.00723082
6282.00   1.46914995   0.00724093
6284.00   1.45272171   0.00726584
6286.00   1.41165590   0.00732801
6288.00   1.38025975   0.00734319
6290.00   1.34619200   0.00726371
6292.00   1.32253444   0.00725350
6294.00   1.32245052   0.00740205
6296.00   1.33632052   0.00764683
6298.00   1.32481205   0.00790591
6300.00   1.29268980   0.00805555
6302.00   1.27111292   0.00858455
6304.00   1.24529111   0.00983328
6306.00   1.23165631   0.01032582
6308.00   1.23984516   0.00943548
6310.00   1.25788212   0.00784276
6312.00   1.26090360   0.00775158
6314.00   1.25725746   0.00910356
6316.00   1.25185287   0.00897891
6318.00   1.24175894   0.00767440
6320.00   1.23112047   0.00671482
6322.00   1.22000980   0.00652546
6324.00   1.20817757   0.00663974
6326.00   1.19567382   0.00663149
6328.00   1.18146038   0.00670739
6330.00   1.17180550   0.00669483
6332.00   1.16676319   0.00661164
6334.00   1.16004837   0.00657091
6336.00   1.14961827   0.00657880
6338.00   1.14175320   0.00659271
6340.00   1.14281487   0.00657531
6342.00   1.15064919   0.00653892
6344.00   1.15214348   0.00656350
6346.00   1.15289021   0.00664301
6348.00   1.14909863   0.00670875
6350.00   1.13750172   0.00678016
6352.00   1.12822568   0.00684370
6354.00   1.12597072   0.00689165
6356.00   1.12809300   0.00692892
6358.00   1.13577104   0.00695684
6360.00   1.15526283   0.00699869
6362.00   1.16419613   0.00697556
6364.00   1.16735685   0.00680498
6366.00   1.16865039   0.00676736
6368.00   1.16798174   0.00695862
6370.00   1.16610754   0.00727114
6372.00   1.16697550   0.00760742
6374.00   1.16580462   0.00825084
6376.00   1.17597079   0.00815280
6378.00   1.20176852   0.00718697
6380.00   1.21901476   0.00653002
6382.00   1.22329617   0.00649399
6384.00   1.22359598   0.00667795
6386.00   1.22884202   0.00671028
6388.00   1.23503816   0.00675523
6390.00   1.24375772   0.00675933
6392.00   1.25484276   0.00660153
6394.00   1.26724410   0.00670330
6396.00   1.28139567   0.00710829
6398.00   1.29659379   0.00756050
6400.00   1.31269693   0.00797067
6402.00   1.33015847   0.00842879
6404.00   1.34343135   0.00826867
6406.00   1.35249233   0.00717815
6408.00   1.36337626   0.00674076
6410.00   1.37466693   0.00696571
6412.00   1.38684416   0.00721904
6414.00   1.40046144   0.00722184
6416.00   1.41514945   0.00714319
6418.00   1.42966628   0.00709038
6420.00   1.44384265   0.00699685
6422.00   1.45972359   0.00695611
6424.00   1.48002887   0.00682710
6426.00   1.49587834   0.00692351
6428.00   1.50254023   0.00740626
6430.00   1.50556397   0.00802418
6432.00   1.51625562   0.00839838
6434.00   1.53121948   0.00886622
6436.00   1.54672992   0.00873766
6438.00   1.56598949   0.00778697
6440.00   1.58303452   0.00715602
6442.00   1.59592891   0.00715410
6444.00   1.60846055   0.00737083
6446.00   1.62615335   0.00741838
6448.00   1.64917970   0.00747779
6450.00   1.66277301   0.00743657
6452.00   1.66784596   0.00706539
6454.00   1.67594850   0.00716613
6456.00   1.68451905   0.00769749
6458.00   1.69639528   0.00845567
6460.00   1.71631837   0.00950378
6462.00   1.74305773   0.01082175
6464.00   1.76286352   0.01088262
6466.00   1.78373170   0.00975861
6468.00   1.79483521   0.00896095
6470.00   1.79341972   0.00805957
6472.00   1.79173803   0.00737979
6474.00   1.79546416   0.00735258
6476.00   1.80147398   0.00776522
6478.00   1.81194699   0.00780214
6480.00   1.82845199   0.00771476
6482.00   1.84316146   0.00763924
6484.00   1.86032915   0.00748892
6486.00   1.87426901   0.00739311
6488.00   1.88096392   0.00740845
6490.00   1.88533652   0.00747803
6492.00   1.89901161   0.00750854
6494.00   1.92056930   0.00751423
6496.00   1.93794012   0.00758075
6498.00   1.95750344   0.00772798
6500.00   1.97145963   0.00781946
6502.00   1.97685683   0.00783339
6504.00   1.97936630   0.00781650
6506.00   1.98697495   0.00781459
6508.00   1.99826145   0.00780969
6510.00   2.00207829   0.00779546
6512.00   1.99580431   0.00775634
6514.00   1.99819314   0.00774559
6516.00   2.00835299   0.00778570
6518.00   2.02371716   0.00781363
6520.00   2.04747200   0.00768183
6522.00   2.08136749   0.00737679
6524.00   2.08280969   0.00789509
6526.00   2.04755044   0.00936561
6528.00   2.03463292   0.00993270
6530.00   2.03484797   0.01000692
6532.00   2.04207563   0.00977073
6534.00   2.05748177   0.00910029
6536.00   2.07969213   0.00799274
6538.00   2.08858466   0.00758304
6540.00   2.09557199   0.00746339
6542.00   2.08637285   0.00792477
6544.00   2.05317378   0.00931827
6546.00   2.02745724   0.01014979
6548.00   2.01847935   0.01017893
6550.00   2.01825380   0.00977583
6552.00   2.02209091   0.00919754
6554.00   2.04014444   0.00785424
6556.00   2.03909993   0.00735217
6558.00   2.02161026   0.00757192
6560.00   2.00910759   0.00776649
6562.00   2.00465178   0.00793556
6564.00   2.00247908   0.00808359
6566.00   1.99830854   0.00800726
6568.00   1.99525940   0.00758408
6570.00   1.98556447   0.00798222
6572.00   1.96869838   0.00906087
6574.00   1.95374680   0.00984894
6576.00   1.93869424   0.01072736
6578.00   1.92587948   0.01119080
6580.00   1.92046392   0.01060975
6582.00   1.92193604   0.00901246
6584.00   1.90639651   0.00815940
6586.00   1.86786103   0.00755543
6588.00   1.85084176   0.00720166
6590.00   1.85359263   0.00731075
6592.00   1.85893381   0.00748291
6594.00   1.86261678   0.00739376
6596.00   1.86619341   0.00724820
6598.00   1.84412849   0.00782221
6600.00   1.78633106   0.00941034
6602.00   1.75652361   0.00972324
6604.00   1.74280381   0.00919746
6606.00   1.73096144   0.00855222
6608.00   1.71823323   0.00789099
6610.00   1.70618820   0.00717403
6612.00   1.69089198   0.00692631
6614.00   1.66992533   0.00693739
6616.00   1.65870798   0.00745344
6618.00   1.66235340   0.00888357
6620.00   1.65279710   0.00949862
6622.00   1.62278092   0.00913728
6624.00   1.58573842   0.00835135
6626.00   1.55730999   0.00777616
6628.00   1.53022480   0.00702804
6630.00   1.50907743   0.00672207
6632.00   1.49510455   0.00690466
6634.00   1.48014152   0.00700354
6636.00   1.46560717   0.00708102
6638.00   1.45022023   0.00713373
6640.00   1.43157697   0.00710870
6642.00   1.41032302   0.00702521
6644.00   1.39216673   0.00694481
6646.00   1.37944663   0.00659615
6648.00   1.35866380   0.00677391
6650.00   1.32686639   0.00768216
6652.00   1.29775345   0.00829434
6654.00   1.28006601   0.00813838
6656.00   1.26864052   0.00752494
6658.00   1.25203776   0.00715526
6660.00   1.23524976   0.00667021
6662.00   1.21510553   0.00644094
6664.00   1.18920124   0.00646851
6666.00   1.16625106   0.00654940
6668.00   1.14974475   0.00666607
6670.00   1.13629270   0.00680379
6672.00   1.12072396   0.00679184
6674.00   1.10554755   0.00664589
6676.00   1.08859658   0.00655720
6678.00   1.06938767   0.00645706
6680.00   1.05118132   0.00637613
6682.00   1.03189194   0.00612879
6684.00   1.01547420   0.00606318
6686.00   1.01109672   0.00689027
6688.00   1.02122664   0.00850469
6690.00   1.01087868   0.00867894
6692.00   0.98588228   0.00776720
6694.00   0.96212876   0.00708070
6696.00   0.93469578   0.00653909
6698.00   0.91093409   0.00612920
6700.00   0.90175468   0.00603554
6702.00   0.90444285   0.00624681
6704.00   0.89180988   0.00624439
6706.00   0.86717552   0.00616694
6708.00   0.84875321   0.00612237
6710.00   0.83535051   0.00608528
6712.00   0.82138616   0.00606862
6714.00   0.80356228   0.00609126
6716.00   0.78380907   0.00614111
6718.00   0.76688558   0.00615758
6720.00   0.74772632   0.00616018
6722.00   0.73759067   0.00615561
6724.00   0.73899531   0.00613790
6726.00   0.73722291   0.00611817
6728.00   0.72765493   0.00610540
6730.00   0.71409917   0.00608907
6732.00   0.69887847   0.00604030
6734.00   0.67645115   0.00594467
6736.00   0.66490006   0.00589720
6738.00   0.66180968   0.00588531
6740.00   0.65846354   0.00586500
6742.00   0.65425670   0.00575613
6744.00   0.65012157   0.00570578
6746.00   0.64567149   0.00600920
6748.00   0.64139742   0.00668582
6750.00   0.63546568   0.00674753
6752.00   0.62920702   0.00631745
6754.00   0.62035370   0.00600857
6756.00   0.60788721   0.00577506
6758.00   0.59452134   0.00561819
6760.00   0.58296639   0.00562554
6762.00   0.57221478   0.00578467
6764.00   0.55955940   0.00581903
6766.00   0.54168725   0.00582069
6768.00   0.53196496   0.00579225
6770.00   0.52966028   0.00570571
6772.00   0.53042388   0.00562625
6774.00   0.53372008   0.00559062
6776.00   0.53961742   0.00558006
6778.00   0.53733855   0.00560668
6780.00   0.53002930   0.00570965
6782.00   0.51982915   0.00574259
6784.00   0.50193322   0.00574312
6786.00   0.48765251   0.00571571
6788.00   0.48134252   0.00563662
6790.00   0.47907495   0.00553720
6792.00   0.47557268   0.00553601
6794.00   0.47244853   0.00564315
6796.00   0.47113404   0.00565010
6798.00   0.47250155   0.00557674
6800.00   0.47283185   0.00554628
6802.00   0.47199801   0.00559959
6804.00   0.47012746   0.00566520
6806.00   0.46607792   0.00564662
6808.00   0.45860773   0.00556236
6810.00   0.45701906   0.00552538
6812.00   0.46174493   0.00550144
6814.00   0.46261993   0.00548736
6816.00   0.45693693   0.00548234
6818.00   0.45268214   0.00548903
6820.00   0.45840943   0.00551106
6822.00   0.47173530   0.00554794
6824.00   0.47594878   0.00558465
6826.00   0.47698048   0.00563527
6828.00   0.47360900   0.00567051
6830.00   0.46194619   0.00570471
6832.00   0.45205221   0.00571667
6834.00   0.45047483   0.00567440
6836.00   0.45355916   0.00559679
6838.00   0.45531687   0.00562094
6840.00   0.45910007   0.00576185
6842.00   0.46076646   0.00580730
6844.00   0.46091041   0.00579536
6846.00   0.46082830   0.00577558
6848.00   0.45977524   0.00575209
6850.00   0.45900401   0.00572790
6852.00   0.46398592   0.00575094
6854.00   0.47665802   0.00585294
6856.00   0.48181361   0.00584276
6858.00   0.48203221   0.00570443
6860.00   0.48302051   0.00564545
6862.00   0.48576853   0.00569877
6864.00   0.48866090   0.00581418
6866.00   0.49023929   0.00597638
6868.00   0.49095145   0.00625821
6870.00   0.49158916   0.00627279
6872.00   0.49052706   0.00605548
6874.00   0.49190682   0.00587121
6876.00   0.49630013   0.00568463
6878.00   0.50165069   0.00552271
6880.00   0.50636709   0.00545103
6882.00   0.51129884   0.00545196
6884.00   0.51515955   0.00544676
6886.00   0.51964259   0.00530509
6888.00   0.52073932   0.00552158
6890.00   0.51577038   0.00627798
6892.00   0.51304871   0.00677741
6894.00   0.51809555   0.00660328
6896.00   0.52785730   0.00600246
6898.00   0.53653961   0.00575243
6900.00   0.54901814   0.00558665
6902.00   0.55587614   0.00554691
6904.00   0.55838722   0.00571281
6906.00   0.55964237   0.00585126
6908.00   0.56033766   0.00590021
6910.00   0.56009310   0.00590739
6912.00   0.55982125   0.00586530
6914.00   0.55953014   0.00572027
6916.00   0.55789757   0.00568046
6918.00   0.54983985   0.00570686
6920.00   0.55092520   0.00573601
6922.00   0.56820649   0.00576708
6924.00   0.58947623   0.00579884
6926.00   0.59568048   0.00580993
6928.00   0.59025633   0.00579697
6930.00   0.59604901   0.00582451
6932.00   0.61312062   0.00590845
6934.00   0.61966187   0.00593852
6936.00   0.61108959   0.00588934
6938.00   0.60144085   0.00583767
6940.00   0.60318816   0.00575269
6942.00   0.61072993   0.00552789
6944.00   0.62333685   0.00632574
6946.00   0.65051657   0.00843431
6948.00   0.66299784   0.00890071
6950.00   0.66289651   0.00792604
6952.00   0.65784395   0.00670548
6954.00   0.64903790   0.00620592
6956.00   0.63600886   0.00604488
6958.00   0.63646537   0.00590115
6960.00   0.65206450   0.00601357
6962.00   0.65686393   0.00601519
6964.00   0.65270066   0.00595970
6966.00   0.65234447   0.00595482
6968.00   0.66234791   0.00607126
6970.00   0.67634606   0.00623030
6972.00   0.68079638   0.00624276
6974.00   0.67873186   0.00613057
6976.00   0.67774898   0.00608179
6978.00   0.67497128   0.00604396
6980.00   0.67207760   0.00600623
6982.00   0.66971070   0.00594738
6984.00   0.66678786   0.00590517
6986.00   0.66114688   0.00595873
6988.00   0.65102786   0.00612180
6990.00   0.65019715   0.00614556
6992.00   0.65987527   0.00605106
6994.00   0.66341072   0.00601318
6996.00   0.65875119   0.00604593
6998.00   0.65333337   0.00608900
7000.00   0.65361786   0.00609308
7002.00   0.65702260   0.00607572
7004.00   0.66015446   0.00608547
7006.00   0.66578668   0.00610472
7008.00   0.66870606   0.00613822
7010.00   0.66664398   0.00612757
7012.00   0.66733193   0.00621176
7014.00   0.67840475   0.00655739
7016.00   0.69566029   0.00704000
7018.00   0.69602555   0.00704640
7020.00   0.68201089   0.00656761
7022.00   0.67191035   0.00635508
7024.00   0.65671796   0.00626540
7026.00   0.64792657   0.00620151
7028.00   0.65196019   0.00613957
7030.00   0.66266048   0.00609492
7032.00   0.66676760   0.00605077
7034.00   0.67100620   0.00600713
7036.00   0.66875076   0.00598813
7038.00   0.65568399   0.00599506
7040.00   0.64964771   0.00600449
7042.00   0.65666252   0.00600581
7044.00   0.66687924   0.00601681
7046.00   0.66584921   0.00607200
7048.00   0.65530330   0.00619046
7050.00   0.65643537   0.00619656
7052.00   0.66710967   0.00609969
7054.00   0.67378962   0.00603753
7056.00   0.67587143   0.00600491
7058.00   0.67699587   0.00599115
7060.00   0.67967552   0.00600320
7062.00   0.68277305   0.00604324
7064.00   0.68632448   0.00605968
7066.00   0.69253767   0.00606314
7068.00   0.69442165   0.00607401
7070.00   0.69148260   0.00600339
7072.00   0.68785524   0.00605762
7074.00   0.68567532   0.00646354
7076.00   0.68381661   0.00705115
7078.00   0.68357372   0.00708533
7080.00   0.68217570   0.00660122
7082.00   0.68726844   0.00636682
7084.00   0.70192784   0.00619991
7086.00   0.71296525   0.00609444
7088.00   0.71391869   0.00607131
7090.00   0.71062207   0.00610965
7092.00   0.71446407   0.00612883
7094.00   0.72427213   0.00615201
7096.00   0.72874850   0.00620375
7098.00   0.73096406   0.00632532
7100.00   0.73181403   0.00637685
7102.00   0.72976434   0.00631318
7104.00   0.72760898   0.00620799
7106.00   0.73120624   0.00616702
7108.00   0.73936731   0.00614817
7110.00   0.74612212   0.00615289
7112.00   0.75477260   0.00601201
7114.00   0.76104176   0.00622989
7116.00   0.76576006   0.00705900
7118.00   0.76786119   0.00772638
7120.00   0.76440501   0.00758182
7122.00   0.75496894   0.00681611
7124.00   0.75574154   0.00647089
7126.00   0.76662302   0.00621736
7128.00   0.77117145   0.00607962
7130.00   0.76997954   0.00612428
7132.00   0.76841092   0.00620516
7134.00   0.76923138   0.00622583
7136.00   0.77098709   0.00623727
7138.00   0.77390546   0.00628879
7140.00   0.77817822   0.00642414
7142.00   0.78291398   0.00644010
7144.00   0.78914374   0.00634177
7146.00   0.79474288   0.00624992
7148.00   0.79860783   0.00614900
7150.00   0.80172902   0.00608361
7152.00   0.80605781   0.00634811
7154.00   0.80928385   0.00709104
7156.00   0.81721246   0.00724430
7158.00   0.83104098   0.00702613
7160.00   0.84249634   0.00679601
7162.00   0.85031319   0.00655813
7164.00   0.85617727   0.00632957
7166.00   0.86098307   0.00628259
7168.00   0.86467856   0.00640022
7170.00   0.86571920   0.00645010
7172.00   0.86060011   0.00651793
7174.00   0.86122948   0.00656447
7176.00   0.87139404   0.00658854
7178.00   0.88115817   0.00659993
7180.00   0.87887847   0.00659962
7182.00   0.86709464   0.00657974
7184.00   0.86992460   0.00660762
7186.00   0.88323164   0.00668976
7188.00   0.89512008   0.00673470
7190.00   0.90968394   0.00675650
7192.00   0.92191684   0.00675982
7194.00   0.92674309   0.00673574
7196.00   0.92675912   0.00668836
7198.00   0.93324602   0.00668407
7200.00   0.94754964   0.00672971
7202.00   0.95237714   0.00672734
7204.00   0.94812733   0.00669651
7206.00   0.94498885   0.00664930
7208.00   0.94569248   0.00656468
7210.00   0.94873589   0.00646981
7212.00   0.95730156   0.00649330
7214.00   0.97638184   0.00666266
7216.00   0.98356926   0.00670243
7218.00   0.97915757   0.00654137
7220.00   0.98116702   0.00661506
7222.00   0.99642819   0.00714966
7224.00   1.01424599   0.00771399
7226.00   1.01786923   0.00770258
7228.00   1.00896072   0.00713587
7230.00   1.01257575   0.00719084
7232.00   1.02508116   0.00774414
7234.00   1.03395951   0.00803733
7236.00   1.03918290   0.00810505
7238.00   1.04269087   0.00804384
7240.00   1.04420352   0.00784256
7242.00   1.04232931   0.00744410
7244.00   1.05039084   0.00727618
7246.00   1.07421994   0.00728285
7248.00   1.08182800   0.00723190
7250.00   1.07242000   0.00714895
7252.00   1.06061053   0.00706386
7254.00   1.05251610   0.00697995
7256.00   1.04481769   0.00689494
7258.00   1.05441749   0.00687215
7260.00   1.08840394   0.00689089
7262.00   1.10429263   0.00694934
7264.00   1.11088753   0.00708614
7266.00   1.11243510   0.00719671
7268.00   1.10732913   0.00723048
7270.00   1.09821868   0.00723325
7272.00   1.09941590   0.00729561
7274.00   1.10822427   0.00743542
7276.00   1.11530900   0.00746422
7278.00   1.12706733   0.00742605
7280.00   1.13336945   0.00735780
7282.00   1.12960029   0.00722976
7284.00   1.12301457   0.00709348
7286.00   1.12530518   0.00707931
7288.00   1.13281858   0.00716891
7290.00   1.14054775   0.00720381
7292.00   1.15671086   0.00725751
7294.00   1.16150510   0.00725885
7296.00   1.14918041   0.00718227
7298.00   1.13468122   0.00709066
7300.00   1.13336551   0.00704604
7302.00   1.13924408   0.00701531
7304.00   1.14520299   0.00705230
7306.00   1.16212344   0.00717196
7308.00   1.16323566   0.00726841
7310.00   1.14394522   0.00736329
7312.00   1.12563789   0.00744689
7314.00   1.12249386   0.00752326
7316.00   1.12729728   0.00759204
7318.00   1.13142002   0.00754591
7320.00   1.13982880   0.00734915
7322.00   1.14602411   0.00723323
7324.00   1.15191579   0.00713582
7326.00   1.15664387   0.00707712
7328.00   1.16113174   0.00708352
7330.00   1.16405320   0.00712900
7332.00   1.15861106   0.00712674
7334.00   1.14296663   0.00708889
7336.00   1.13265657   0.00708646
7338.00   1.11911905   0.00709555
7340.00   1.11335623   0.00712380
7342.00   1.12074685   0.00719903
7344.00   1.13290906   0.00727257
7346.00   1.13571954   0.00724072
7348.00   1.13265455   0.00709700
7350.00   1.13414037   0.00706927
7352.00   1.13856208   0.00709554
7354.00   1.14106286   0.00715131
7356.00   1.14169860   0.00728328
7358.00   1.14100814   0.00739356
7360.00   1.13887489   0.00735533
7362.00   1.13509357   0.00719957
7364.00   1.13180673   0.00713185
7366.00   1.12691939   0.00708467
7368.00   1.12479055   0.00706196
7370.00   1.12586057   0.00708439
7372.00   1.12741864   0.00710200
7374.00   1.12873709   0.00707716
7376.00   1.13030398   0.00702840
7378.00   1.12478733   0.00699091
7380.00   1.11046779   0.00694703
7382.00   1.10125661   0.00691474
7384.00   1.09301412   0.00688477
7386.00   1.08779478   0.00687041
7388.00   1.08637297   0.00688539
7390.00   1.08828866   0.00691595
7392.00   1.09412801   0.00691222
7394.00   1.11017179   0.00669770
7396.00   1.11335921   0.00696218
7398.00   1.10537529   0.00776884
7400.00   1.10071170   0.00823545
7402.00   1.10307813   0.00826538
7404.00   1.10741901   0.00806705
7406.00   1.10807335   0.00775947
7408.00   1.10783875   0.00709996
7410.00   1.10410523   0.00688919
7412.00   1.09350026   0.00706593
7414.00   1.08843374   0.00715486
7416.00   1.09132159   0.00715852
7418.00   1.09553778   0.00713795
7420.00   1.09486198   0.00710514
7422.00   1.09218824   0.00705012
7424.00   1.08627403   0.00700850
7426.00   1.07222235   0.00696613
7428.00   1.06658375   0.00693105
7430.00   1.06984782   0.00678824
7432.00   1.07466519   0.00680749
7434.00   1.07611084   0.00726784
7436.00   1.07660794   0.00798168
7438.00   1.08086348   0.00819303
7440.00   1.08588016   0.00818341
7442.00   1.09615421   0.00799297
7444.00   1.11762571   0.00735580
7446.00   1.13208508   0.00685781
7448.00   1.12998390   0.00688789
7450.00   1.11903870   0.00717935
7452.00   1.11460233   0.00722915
7454.00   1.10800231   0.00720381
7456.00   1.10994470   0.00717531
7458.00   1.12270868   0.00708641
7460.00   1.13105142   0.00703562
7462.00   1.13229263   0.00706325
7464.00   1.12952471   0.00711153
7466.00   1.12323856   0.00706980
7468.00   1.10834980   0.00684735
7470.00   1.10794795   0.00707299
7472.00   1.11774778   0.00777200
7474.00   1.12918961   0.00818638
7476.00   1.14671326   0.00840703
7478.00   1.16211963   0.00842725
7480.00   1.16333532   0.00806214
7482.00   1.15377069   0.00720578
7484.00   1.14845347   0.00692208
7486.00   1.14236856   0.00709220
7488.00   1.13587809   0.00714370
7490.00   1.12805724   0.00714219
7492.00   1.12095690   0.00714588
7494.00   1.11497557   0.00717973
7496.00   1.10971701   0.00723237
7498.00   1.11372316   0.00723381
7500.00   1.13233817   0.00719581
7502.00   1.13853014   0.00715870
7504.00   1.13594902   0.00709781
7506.00   1.13167906   0.00705173
7508.00   1.12814319   0.00704004
7510.00   1.12378049   0.00704848
7512.00   1.11852288   0.00705485
7514.00   1.11282051   0.00706618
7516.00   1.10518634   0.00708622
7518.00   1.09290600   0.00711779
7520.00   1.08476627   0.00714963
7522.00   1.08346105   0.00718740
7524.00   1.08533454   0.00722034
7526.00   1.08574605   0.00722060
7528.00   1.08779132   0.00719584
7530.00   1.08558774   0.00716207
7532.00   1.07823634   0.00709588
7534.00   1.07378924   0.00705078
7536.00   1.07392871   0.00703364
7538.00   1.07427073   0.00702517
7540.00   1.07091379   0.00700916
7542.00   1.06629193   0.00699367
7544.00   1.05475533   0.00697104
7546.00   1.03306770   0.00693589
7548.00   1.01702130   0.00691251
7550.00   1.00193417   0.00689719
7552.00   0.99316591   0.00689026
7554.00   0.99757177   0.00689241
7556.00   1.01220751   0.00690318
7558.00   1.01744425   0.00692759
7560.00   1.02169585   0.00699156
7562.00   1.01950240   0.00700436
7564.00   1.00692165   0.00681740
7566.00   0.99743766   0.00686987
7568.00   0.99832070   0.00735250
7570.00   1.00387633   0.00806231
7572.00   1.00245667   0.00879074
7574.00   1.00493050   0.01012496
7576.00   0.98833174   0.01018896
7578.00   0.94518900   0.00912897
7580.00   0.91519088   0.00809298
7582.00   0.90651637   0.00731623
7584.00   0.90973753   0.00668145
7586.00   0.91962153   0.00646939
7588.00   0.94508159   0.00670801
7590.00   0.95450896   0.00702456
7592.00   0.96305156   0.00740329
7594.00   0.95492256   0.00812205
7596.00   0.91390109   0.00904756
7598.00   0.87501901   0.01019717
7600.00   0.88659459   0.01177366
7602.00   0.94006115   0.01378372
7604.00   0.94055992   0.01432661
7606.00   0.90518713   0.01399728
7608.00   0.87659866   0.01340014
7610.00   0.83932114   0.01205479
7612.00   0.81469309   0.01060600
7614.00   0.82483602   0.00988940
7616.00   0.85984820   0.00966268
7618.00   0.87937421   0.00906562
7620.00   0.91043979   0.00803256
7622.00   0.91009319   0.00764669
7624.00   0.86743122   0.00798757
7626.00   0.83617437   0.00838555
7628.00   0.84261572   0.00865323
7630.00   0.86745769   0.00889558
7632.00   0.87946510   0.00890665
7634.00   0.89672184   0.00868092
7636.00   0.89614034   0.00850399
7638.00   0.87306249   0.00824817
7640.00   0.85936922   0.00802147
7642.00   0.86456078   0.00785361
7644.00   0.87645179   0.00771608
7646.00   0.87930965   0.00758405
7648.00   0.87810236   0.00748227
7650.00   0.87840229   0.00734792
7652.00   0.87649167   0.00715483
7654.00   0.87824011   0.00703370
7656.00   0.88499612   0.00700663
7658.00   0.89342690   0.00702431
7660.00   0.90113783   0.00705276
7662.00   0.91110188   0.00712802
7664.00   0.90895724   0.00708908
7666.00   0.89098030   0.00692942
7668.00   0.88317728   0.00682604
7670.00   0.88205051   0.00674936
7672.00   0.88686341   0.00671224
7674.00   0.89985138   0.00674381
7676.00   0.92033470   0.00683218
7678.00   0.93518817   0.00688483
7680.00   0.94962978   0.00694110
7682.00   0.96129298   0.00697649
7684.00   0.97157449   0.00698363
7686.00   0.97827828   0.00699677
7688.00   0.97888750   0.00703283
7690.00   0.97573406   0.00707928
7692.00   0.97786587   0.00711592
7694.00   0.98121214   0.00715410
7696.00   0.98843962   0.00718036
7698.00   1.00511372   0.00719096
7700.00   1.01365221   0.00720764
7702.00   1.00681722   0.00722369
7704.00   0.99445981   0.00725267
7706.00   0.99235785   0.00733900
7708.00   0.99306864   0.00749641
7710.00   1.00224578   0.00757559
7712.00   1.02416956   0.00762325
7714.00   1.04112029   0.00764241
7716.00   1.05524838   0.00763429
7718.00   1.06376827   0.00759653
7720.00   1.05873096   0.00751964
7722.00   1.03999698   0.00739334
7724.00   1.03359354   0.00731162
7726.00   1.02782822   0.00723184
7728.00   1.03280151   0.00719417
7730.00   1.05568194   0.00722403
7732.00   1.07639146   0.00725032
7734.00   1.07814050   0.00720740
7736.00   1.06853163   0.00712241
7738.00   1.06756473   0.00712611
7740.00   1.06833470   0.00718343
7742.00   1.07108772   0.00726306
7744.00   1.07818806   0.00739254
7746.00   1.08343160   0.00751530
7748.00   1.08149052   0.00761301
7750.00   1.07693374   0.00769640
7752.00   1.08565974   0.00774582
7754.00   1.11240208   0.00778262
7756.00   1.12143505   0.00776142
7758.00   1.12168860   0.00767061
7760.00   1.11765409   0.00757730
7762.00   1.10614014   0.00747239
7764.00   1.09292734   0.00737923
7766.00   1.09426200   0.00739183
7768.00   1.10851038   0.00752491
7770.00   1.11458051   0.00754866
7772.00   1.12240136   0.00751644
7774.00   1.12193775   0.00748138
7776.00   1.10802209   0.00743419
7778.00   1.09195530   0.00738903
7780.00   1.08785117   0.00737328
7782.00   1.09122276   0.00737594
7784.00   1.09068739   0.00739294
7786.00   1.09044468   0.00744048
7788.00   1.08889341   0.00747197
7790.00   1.08224952   0.00747499
7792.00   1.07981884   0.00749402
7794.00   1.09084105   0.00749979
7796.00   1.11154878   0.00748540
7798.00   1.12210596   0.00796796
7800.00   1.13143337   0.00927945
7802.00   1.13253260   0.00952916
7804.00   1.12427390   0.00884395
7806.00   1.11356080   0.00810505
7808.00   1.10329425   0.00776293
7810.00   1.09165466   0.00758582
7812.00   1.07807231   0.00751445
7814.00   1.05692875   0.00769937
7816.00   1.04794133   0.00772524
7818.00   1.05206168   0.00769127
7820.00   1.05067205   0.00766253
7822.00   1.03524268   0.00765529
7824.00   1.01719666   0.00765183
7826.00   1.01728785   0.00763781
7828.00   1.03442585   0.00762718
7830.00   1.03764391   0.00758279
7832.00   1.03490210   0.00748506
7834.00   1.03083801   0.00742289
7836.00   1.02212584   0.00740096
7838.00   1.01512146   0.00740520
7840.00   1.02029061   0.00743197
7842.00   1.03585386   0.00748626
7844.00   1.04284680   0.00754187
7846.00   1.05019999   0.00762489
7848.00   1.04924905   0.00767980
7850.00   1.03809869   0.00771131
7852.00   1.02389717   0.00772759
7854.00   1.01104510   0.00772979
7856.00   0.99712300   0.00771656
7858.00   0.98803031   0.00770683
7860.00   0.98241287   0.00769588
7862.00   0.97815651   0.00767810
7864.00   0.97510558   0.00764617
7866.00   0.97485358   0.00762175
7868.00   0.97978950   0.00762506
7870.00   0.98772401   0.00763929
7872.00   0.98850769   0.00760097
7874.00   0.98481518   0.00748748
7876.00   0.98000950   0.00745057
7878.00   0.97321415   0.00747994
7880.00   0.96413553   0.00748386
7882.00   0.95082909   0.00743175
7884.00   0.93638110   0.00735983
7886.00   0.92828983   0.00731755
7888.00   0.92342746   0.00726843
7890.00   0.92270857   0.00728921
7892.00   0.93190885   0.00743186
7894.00   0.93331587   0.00747333
7896.00   0.92486215   0.00737350
7898.00   0.91189533   0.00722833
7900.00   0.89755380   0.00712598
7902.00   0.87753391   0.00700047
7904.00   0.87209451   0.00704897
7906.00   0.88051891   0.00729190
7908.00   0.88487756   0.00745940
7910.00   0.88944203   0.00760035
7912.00   0.88995165   0.00769390
7914.00   0.88072896   0.00770370
7916.00   0.86398023   0.00764591
7918.00   0.85182089   0.00758341
7920.00   0.84169066   0.00747081
7922.00   0.82856393   0.00738232
7924.00   0.80859739   0.00729500
7926.00   0.79437166   0.00722676
7928.00   0.79324389   0.00719615
7930.00   0.79999584   0.00718915
7932.00   0.80315661   0.00715217
7934.00   0.81527495   0.00710952
7936.00   0.80795825   0.00704341
7938.00   0.77992731   0.00693554
7940.00   0.75730991   0.00684779
7942.00   0.74744791   0.00669623
7944.00   0.74228114   0.00662436
7946.00   0.73287159   0.00706266
7948.00   0.71963799   0.00807409
7950.00   0.71578455   0.00835326
7952.00   0.72070390   0.00829700
7954.00   0.72432405   0.00807287
7956.00   0.72863501   0.00749644
7958.00   0.73027736   0.00684688
7960.00   0.72208834   0.00667272
7962.00   0.70511311   0.00677996
7964.00   0.69285136   0.00717882
7966.00   0.67931932   0.00818124
7968.00   0.66955739   0.00861833
7970.00   0.66317260   0.00866097
7972.00   0.65953726   0.00844075
7974.00   0.65956056   0.00786384
7976.00   0.66331995   0.00682023
7978.00   0.66050178   0.00646318
7980.00   0.65133125   0.00675074
7982.00   0.64636785   0.00681462
7984.00   0.64570516   0.00680385
7986.00   0.64329076   0.00682510
7988.00   0.63531452   0.00694239
7990.00   0.62454754   0.00710237
7992.00   0.61862403   0.00712939
7994.00   0.61692870   0.00706285
7996.00   0.61226881   0.00698856
7998.00   0.60696709   0.00685510
8000.00   0.60034168   0.00673043
8002.00   0.59162652   0.00662190
8004.00   0.58192855   0.00652996
8006.00   0.57379991   0.00649193
8008.00   0.56642210   0.00651751
8010.00   0.55906761   0.00650877
8012.00   0.55101621   0.00647894
8014.00   0.54501688   0.00647701
8016.00   0.54092264   0.00650350
8018.00   0.53887856   0.00655448
8020.00   0.54075134   0.00664373
8022.00   0.54864472   0.00679046
8024.00   0.54346764   0.00681838
8026.00   0.52717429   0.00677999
8028.00   0.51261955   0.00669191
8030.00   0.49402648   0.00643553
8032.00   0.48080897   0.00626625
8034.00   0.48400605   0.00644893
8036.00   0.49958438   0.00685916
8038.00   0.50318146   0.00715368
8040.00   0.50407594   0.00771074
8042.00   0.49894136   0.00768668
8044.00   0.48235396   0.00690555
8046.00   0.46983948   0.00618270
8048.00   0.46968070   0.00613366
8050.00   0.47649989   0.00642824
8052.00   0.48252961   0.00646981
8054.00   0.49562806   0.00626321
8056.00   0.49873382   0.00651726
8058.00   0.49193680   0.00713581
8060.00   0.48833263   0.00770364
8062.00   0.49554861   0.00835756
8064.00   0.50360429   0.00885357
8066.00   0.49147773   0.00841158
8068.00   0.45837614   0.00658001
8070.00   0.44209811   0.00589874
8072.00   0.42971590   0.00612443
8074.00   0.42513916   0.00627576
8076.00   0.43428472   0.00634575
8078.00   0.44530046   0.00640482
8080.00   0.44052187   0.00637827
8082.00   0.42402244   0.00627811
8084.00   0.41787684   0.00622839
8086.00   0.41411397   0.00617814
8088.00   0.41545194   0.00616282
8090.00   0.42626894   0.00618594
8092.00   0.43580410   0.00622967
8094.00   0.43410730   0.00629335
8096.00   0.42532042   0.00638283
8098.00   0.42083636   0.00638703
8100.00   0.41633663   0.00629409
8102.00   0.41332987   0.00626376
8104.00   0.41369802   0.00629172
8106.00   0.41188610   0.00630460
8108.00   0.40414104   0.00625886
8110.00   0.39309150   0.00618372
8112.00   0.38613069   0.00615624
8114.00   0.38070917   0.00616276
8116.00   0.37648517   0.00615793
8118.00   0.37538269   0.00617072
8120.00   0.37242168   0.00615734
8122.00   0.36644423   0.00609345
8124.00   0.35848004   0.00600861
8126.00   0.34851637   0.00596427
8128.00   0.33377075   0.00593996
8130.00   0.32594895   0.00592508
8132.00   0.32566732   0.00591832
8134.00   0.32073623   0.00593334
8136.00   0.30730313   0.00598678
8138.00   0.29339898   0.00604458
8140.00   0.28994557   0.00606049
8142.00   0.29598626   0.00605317
8144.00   0.28828648   0.00603073
8146.00   0.27191734   0.00598956
8148.00   0.25415513   0.00593177
8150.00   0.23085999   0.00584163
8152.00   0.20939387   0.00575220
8154.00   0.19730872   0.00568911
8156.00   0.19149876   0.00563856
8158.00   0.18345940   0.00563978
8160.00   0.17744745   0.00571689
8162.00   0.16900253   0.00574984
8164.00   0.15556812   0.00575138
8166.00   0.14592883   0.00575385
8168.00   0.14648464   0.00576340
8170.00   0.15273057   0.00577876
8172.00   0.15019812   0.00584327
8174.00   0.14001085   0.00597501
8176.00   0.13578224   0.00605550
8178.00   0.13604957   0.00613137
8180.00   0.13434654   0.00616956
8182.00   0.12759218   0.00613911
8184.00   0.11950085   0.00608278
8186.00   0.11736403   0.00610213
8188.00   0.12201323   0.00615096
8190.00   0.11833552   0.00625726
8192.00   0.10219342   0.00625027
8194.00   0.09896154   0.00658928
8196.00   0.11897292   0.00761491
8198.00   0.14126861   0.00844515
8200.00   0.13712685   0.00810791
8202.00   0.11237305   0.00662582
8204.00   0.10613212   0.00597240
8206.00   0.11125033   0.00574975
8208.00   0.11131448   0.00559138
8210.00   0.10634982   0.00562740
8212.00   0.10076801   0.00569608
8214.00   0.09752797   0.00561227
8216.00   0.09537790   0.00544896
8218.00   0.09181268   0.00539809
8220.00   0.08517422   0.00539281
8222.00   0.08349018   0.00544747
8224.00   0.08722484   0.00561044
8226.00   0.09103984   0.00574485
8228.00   0.09292392   0.00579902
8230.00   0.09390807   0.00580400
8232.00   0.09137466   0.00571139
8234.00   0.08233743   0.00543248
8236.00   0.07994573   0.00530142
8238.00   0.08376094   0.00525108
8240.00   0.08498155   0.00522639
8242.00   0.07854428   0.00521929
8244.00   0.07071879   0.00523370
8246.00   0.07495217   0.00525088
8248.00   0.09077999   0.00528024
8250.00   0.09887908   0.00531197
8252.00   0.10530357   0.00536098
8254.00   0.10959885   0.00539236
8256.00   0.11236465   0.00540725
8258.00   0.11244915   0.00540501
8260.00   0.10733235   0.00537240
8262.00   0.09612327   0.00529909
8264.00   0.09078337   0.00527920
8266.00   0.08662092   0.00525529
8268.00   0.08629252   0.00531216
8270.00   0.09077734   0.00546191
8272.00   0.09716641   0.00564466
8274.00   0.10318167   0.00582577
8276.00   0.10995656   0.00602494
8278.00   0.11671992   0.00616824
8280.00   0.12850381   0.00630170
8282.00   0.13001476   0.00636862
8284.00   0.12098939   0.00636359
8286.00   0.10991976   0.00633517
8288.00   0.09899835   0.00629686
8290.00   0.08746637   0.00624320
8292.00   0.08610032   0.00623273
8294.00   0.09536205   0.00626325
8296.00   0.10084159   0.00627298
8298.00   0.10817682   0.00631423
8300.00   0.11294346   0.00629193
8302.00   0.11407278   0.00615823
8304.00   0.11241968   0.00596252
8306.00   0.10771930   0.00580730
8308.00   0.09774260   0.00562685
8310.00   0.09199981   0.00553145
8312.00   0.08674236   0.00551266
8314.00   0.08442539   0.00551011
8316.00   0.08545521   0.00554139
8318.00   0.08900546   0.00557346
8320.00   0.09443568   0.00550458
8322.00   0.10243939   0.00525477
8324.00   0.11044636   0.00554225
8326.00   0.12253986   0.00642067
8328.00   0.12877010   0.00683484
8330.00   0.12806900   0.00689736
8332.00   0.12538770   0.00679121
8334.00   0.12418500   0.00652298
8336.00   0.12266181   0.00600579
8338.00   0.12315322   0.00605066
8340.00   0.12753582   0.00666735
8342.00   0.12729776   0.00693082
8344.00   0.12199256   0.00703108
8346.00   0.11702794   0.00702165
8348.00   0.11481083   0.00688431
8350.00   0.11400787   0.00662861
8352.00   0.11547150   0.00641194
8354.00   0.12122362   0.00613913
8356.00   0.12348798   0.00593183
8358.00   0.12178221   0.00563124
8360.00   0.12320378   0.00559018
8362.00   0.13028935   0.00601275
8364.00   0.14046180   0.00660381
8366.00   0.15055625   0.00691469
8368.00   0.16640198   0.00728854
8370.00   0.16931012   0.00713182
8372.00   0.16038141   0.00620198
8374.00   0.15283535   0.00556244
8376.00   0.14493100   0.00545408
8378.00   0.13986544   0.00565118
8380.00   0.14646712   0.00603075
8382.00   0.16444696   0.00669180
8384.00   0.17366053   0.00704985
8386.00   0.18484581   0.00749177
8388.00   0.18484928   0.00748933
8390.00   0.16645908   0.00674936
8392.00   0.14907324   0.00596040
8394.00   0.15105566   0.00606535
8396.00   0.16512887   0.00673340
8398.00   0.17279668   0.00682934
8400.00   0.18294984   0.00657566
8402.00   0.18698120   0.00652381
8404.00   0.18302022   0.00655762
8406.00   0.17999513   0.00669765
8408.00   0.18324044   0.00708438
8410.00   0.18950151   0.00757527
8412.00   0.19252965   0.00741405
8414.00   0.19394393   0.00636799
8416.00   0.19574580   0.00597649
8418.00   0.19870071   0.00601010
8420.00   0.19926858   0.00612862
8422.00   0.19385777   0.00625783
8424.00   0.18713181   0.00644334
8426.00   0.19132151   0.00664368
8428.00   0.20484361   0.00696601
8430.00   0.21539350   0.00702972
8432.00   0.23108929   0.00691623
8434.00   0.23933513   0.00674088
8436.00   0.23485328   0.00643781
8438.00   0.22774209   0.00611113
8440.00   0.23240867   0.00599873
8442.00   0.24585928   0.00604358
8444.00   0.25059691   0.00607881
8446.00   0.24711560   0.00618881
8448.00   0.25082800   0.00627484
8450.00   0.26439574   0.00634231
8452.00   0.27817580   0.00640462
8454.00   0.28398639   0.00646159
8456.00   0.28526872   0.00650961
8458.00   0.28710330   0.00659909
8460.00   0.28358871   0.00674044
8462.00   0.28813145   0.00684168
8464.00   0.30273300   0.00694437
8466.00   0.31587362   0.00699372
8468.00   0.32146797   0.00695705
8470.00   0.32301673   0.00685304
8472.00   0.32305276   0.00670027
8474.00   0.31000847   0.00636312
8476.00   0.31947374   0.00625113
8478.00   0.35127121   0.00632546
8480.00   0.37988740   0.00641385
8482.00   0.39726061   0.00647144
8484.00   0.41067249   0.00653476
8486.00   0.42708805   0.00661667
8488.00   0.44405273   0.00674482
8490.00   0.46081427   0.00678716
8492.00   0.48225141   0.00669120
8494.00   0.49501130   0.00672650
8496.00   0.49504897   0.00681060
8498.00   0.48997787   0.00709126
8500.00   0.48828700   0.00794710
8502.00   0.48325586   0.00943391
8504.00   0.49332616   0.00948563
8506.00   0.52462786   0.00820429
8508.00   0.54078895   0.00733233
8510.00   0.53759515   0.00691828
8512.00   0.53287965   0.00672541
8514.00   0.54172778   0.00669457
8516.00   0.55817401   0.00689307
8518.00   0.56888777   0.00694898
8520.00   0.57971019   0.00699928
8522.00   0.58621341   0.00700554
8524.00   0.58539921   0.00694614
8526.00   0.58681321   0.00689292
8528.00   0.59844190   0.00689329
8530.00   0.61520630   0.00691925
8532.00   0.61679882   0.00690935
8534.00   0.60300344   0.00687138
8536.00   0.59845901   0.00685147
8538.00   0.59443885   0.00681690
8540.00   0.59655362   0.00682231
8542.00   0.61091226   0.00690154
8544.00   0.62980568   0.00701405
8546.00   0.63212717   0.00707263
8548.00   0.61910760   0.00710332
8550.00   0.61736202   0.00713723
8552.00   0.61868948   0.00716474
8554.00   0.62347555   0.00718685
8556.00   0.63432747   0.00721240
8558.00   0.64634407   0.00722488
8560.00   0.65152520   0.00719335
8562.00   0.65325910   0.00711687
8564.00   0.65106541   0.00707045
8566.00   0.64057660   0.00671480
8568.00   0.63548505   0.00700615
8570.00   0.63656944   0.00829126
8572.00   0.63902164   0.00928253
8574.00   0.63828415   0.00912372
8576.00   0.63549775   0.00815228
8578.00   0.64235789   0.00767190
8580.00   0.66323811   0.00719314
8582.00   0.67182338   0.00695271
8584.00   0.67148429   0.00704310
8586.00   0.66636997   0.00718772
8588.00   0.65531135   0.00724760
8590.00   0.63947260   0.00730008
8592.00   0.63774860   0.00733126
8594.00   0.64967984   0.00734692
8596.00   0.65461314   0.00734530
8598.00   0.65743500   0.00731137
8600.00   0.65983647   0.00728656
8602.00   0.66276133   0.00728481
8604.00   0.66513354   0.00729413
8606.00   0.66423249   0.00730166
8608.00   0.65820831   0.00728827
8610.00   0.65828848   0.00734736
8612.00   0.66337729   0.00750485
8614.00   0.66688854   0.00760063
8616.00   0.66645324   0.00744029
8618.00   0.66638845   0.00738868
8620.00   0.67294222   0.00811208
8622.00   0.68530762   0.00950856
8624.00   0.69362843   0.00983669
8626.00   0.70554024   0.00957210
8628.00   0.70738906   0.00921014
8630.00   0.69593078   0.00850708
8632.00   0.68127602   0.00780423
8634.00   0.67101067   0.00765864
8636.00   0.66064477   0.00792022
8638.00   0.66154706   0.00791086
8640.00   0.67943555   0.00781634
8642.00   0.68412900   0.00776261
8644.00   0.68007827   0.00771930
8646.00   0.67039752   0.00770359
8648.00   0.65152687   0.00773488
8650.00   0.62615740   0.00780107
8652.00   0.62540966   0.00785631
8654.00   0.64670229   0.00793516
8656.00   0.66219628   0.00797591
8658.00   0.68551993   0.00799539
8660.00   0.69997388   0.00799367
8662.00   0.69822007   0.00795500
8664.00   0.68738794   0.00790093
8666.00   0.67916894   0.00790621
8668.00   0.66549546   0.00797526
8670.00   0.66052842   0.00798201
8672.00   0.66202706   0.00797068
8674.00   0.66416889   0.00792406
8676.00   0.66742581   0.00781627
8678.00   0.67078346   0.00769217
8680.00   0.67078948   0.00763107
8682.00   0.66769624   0.00760924
8684.00   0.66791087   0.00758567
8686.00   0.66999114   0.00757969
8688.00   0.67217463   0.00757265
8690.00   0.67504424   0.00756698
8692.00   0.67769319   0.00756129
8694.00   0.67885333   0.00755023
8696.00   0.67888665   0.00753390
8698.00   0.68026406   0.00753842
8700.00   0.68153286   0.00757560
8702.00   0.68469679   0.00758037
8704.00   0.69210726   0.00754355
8706.00   0.69708294   0.00751740
8708.00   0.69476211   0.00753391
8710.00   0.68795812   0.00757501
8712.00   0.68478966   0.00761258
8714.00   0.68157798   0.00767869
8716.00   0.68105847   0.00769928
8718.00   0.68224043   0.00768257
8720.00   0.68584841   0.00765927
8722.00   0.69369882   0.00763182
8724.00   0.70342267   0.00760233
8726.00   0.70736730   0.00759972
8728.00   0.70606762   0.00761468
8730.00   0.70850855   0.00764140
8732.00   0.71064615   0.00768053
8734.00   0.71627623   0.00773453
8736.00   0.72804672   0.00782746
8738.00   0.74118668   0.00791376
8740.00   0.74845451   0.00791053
8742.00   0.75344288   0.00782659
8744.00   0.75273597   0.00780002
8746.00   0.74363744   0.00776410
8748.00   0.73752630   0.00778918
8750.00   0.73250133   0.00785890
8752.00   0.73040885   0.00799219
8754.00   0.73614877   0.00823585
8756.00   0.74959493   0.00858293
8758.00   0.74793160   0.00876896
8760.00   0.72935891   0.00885041
8762.00   0.72354597   0.00895018
8764.00   0.73004067   0.00907988
8766.00   0.73659092   0.00915658
8768.00   0.73571354   0.00911232
8770.00   0.73161107   0.00898658
8772.00   0.73343605   0.00896257
8774.00   0.74042088   0.00902826
8776.00   0.74446929   0.00901233
8778.00   0.74611247   0.00896637
8780.00   0.74954873   0.00887086
8782.00   0.75657678   0.00867484
8784.00   0.76551139   0.00843665
8786.00   0.77378106   0.00837242
8788.00   0.78769499   0.00849732
8790.00   0.78692633   0.00846117
8792.00   0.76844198   0.00832256
8794.00   0.75829506   0.00821131
8796.00   0.76209903   0.00814427
8798.00   0.77052623   0.00809862
8800.00   0.77317005   0.00806458
8802.00   0.77256227   0.00803796
8804.00   0.77786595   0.00806423
8806.00   0.79354012   0.00819128
8808.00   0.79747158   0.00822997
8810.00   0.78418821   0.00813781
8812.00   0.76988029   0.00804487
8814.00   0.77016866   0.00804962
8816.00   0.77922219   0.00808563
8818.00   0.78353316   0.00837718
8820.00   0.78781891   0.00895912
8822.00   0.79130739   0.00940052
8824.00   0.79637343   0.00983247
8826.00   0.79757291   0.01015262
8828.00   0.78913409   0.01031512
8830.00   0.77439523   0.01035647
8832.00   0.77184176   0.01018010
8834.00   0.78208888   0.00963761
8836.00   0.78168368   0.00927905
8838.00   0.77344251   0.00895987
8840.00   0.76597172   0.00870566
8842.00   0.76188123   0.00854267
8844.00   0.75922686   0.00845460
8846.00   0.75742382   0.00839287
8848.00   0.75737864   0.00841099
8850.00   0.75649774   0.00838193
8852.00   0.75408304   0.00832363
8854.00   0.75433254   0.00829330
8856.00   0.75915468   0.00828906
8858.00   0.76525724   0.00831744
8860.00   0.76793110   0.00841397
8862.00   0.76976120   0.00859903
8864.00   0.76721442   0.00867633
8866.00   0.75783402   0.00872438
8868.00   0.75234300   0.00869885
8870.00   0.75411451   0.00855357
8872.00   0.75384861   0.00839225
8874.00   0.74120122   0.00829303
8876.00   0.71887648   0.00818591
8878.00   0.70701194   0.00843392
8880.00   0.69680858   0.00913872
8882.00   0.69502831   0.00950793
8884.00   0.70622998   0.00972484
8886.00   0.71640199   0.00975919
8888.00   0.71742362   0.00950515
8890.00   0.71363747   0.00900382
8892.00   0.70507419   0.00871604
8894.00   0.68472660   0.00842070
8896.00   0.67570966   0.00834726
8898.00   0.67295349   0.00856888
8900.00   0.67420322   0.00874864
8902.00   0.68165368   0.00879226
8904.00   0.69202775   0.00877079
8906.00   0.69158834   0.00867544
8908.00   0.68062806   0.00833637
8910.00   0.67724347   0.00838860
8912.00   0.67960781   0.00874688
8914.00   0.67748445   0.00909169
8916.00   0.66523170   0.00947295
8918.00   0.65253967   0.00978901
8920.00   0.65570110   0.00978153
8922.00   0.67303556   0.00950100
8924.00   0.67890757   0.00925248
8926.00   0.68054831   0.00884164
8928.00   0.68043804   0.00853603
8930.00   0.67631972   0.00833355
8932.00   0.67260998   0.00821834
8934.00   0.67526162   0.00821170
8936.00   0.68285179   0.00832141
8938.00   0.68294817   0.00839522
8940.00   0.67896897   0.00850579
8942.00   0.67307514   0.00858057
8944.00   0.66481209   0.00860462
8946.00   0.65435821   0.00864717
8948.00   0.63989288   0.00874249
8950.00   0.62246019   0.00887102
8952.00   0.61677366   0.00906239
8954.00   0.62263960   0.00939995
8956.00   0.62376064   0.00955822
8958.00   0.62643248   0.00966059
8960.00   0.62496054   0.00961773
8962.00   0.61502981   0.00932981
8964.00   0.60113519   0.00888843
8966.00   0.59533244   0.00863245
8968.00   0.59540081   0.00844264
8970.00   0.59291291   0.00832885
8972.00   0.59052545   0.00835403
8974.00   0.58787990   0.00834549
8976.00   0.58321065   0.00821864
8978.00   0.57966763   0.00811358
8980.00   0.58385140   0.00825672
8982.00   0.59649140   0.00856663
8984.00   0.60013765   0.00894134
8986.00   0.59950036   0.00963773
8988.00   0.59687591   0.00992813
8990.00   0.58982849   0.00974657
8992.00   0.58318740   0.00942286
8994.00   0.58379024   0.00923436
8996.00   0.59035659   0.00903139
8998.00   0.58578366   0.00906803
9000.00   0.56926364   0.00948363
9002.00   0.56108433   0.00956758
9004.00   0.56046462   0.00933748
9006.00   0.56078869   0.00905610
9008.00   0.55944073   0.00886419
9010.00   0.55779266   0.00869024
9012.00   0.54989958   0.00860661
9014.00   0.53100544   0.00866371
9016.00   0.52360106   0.00862300
9018.00   0.52861494   0.00849657
9020.00   0.52868998   0.00840810
9022.00   0.51561594   0.00843924
9024.00   0.49669614   0.00850997
9026.00   0.48538202   0.00841449
9028.00   0.47171050   0.00813758
9030.00   0.47395453   0.00800041
9032.00   0.49556893   0.00790352
9034.00   0.51134378   0.00786585
9036.00   0.51942521   0.00791297
9038.00   0.52154088   0.00800107
9040.00   0.51255697   0.00805096
9042.00   0.48922387   0.00808513
9044.00   0.47850281   0.00815248
9046.00   0.47231644   0.00829766
9048.00   0.46955040   0.00833920
9050.00   0.47218296   0.00825180
9052.00   0.47617370   0.00812028
9054.00   0.47688434   0.00800754
9056.00   0.47624299   0.00786695
9058.00   0.47567195   0.00786433
9060.00   0.47722587   0.00799531
9062.00   0.47297448   0.00810268
9064.00   0.45702788   0.00825052
9066.00   0.44681925   0.00834836
9068.00   0.45748514   0.00829410
9070.00   0.48115191   0.00814006
9072.00   0.48395899   0.00821893
9074.00   0.47399274   0.00835100
9076.00   0.46337178   0.00872995
9078.00   0.44058865   0.00964997
9080.00   0.42793626   0.01010363
9082.00   0.43875542   0.00965094
9084.00   0.46047658   0.00868212
9086.00   0.46318877   0.00827709
9088.00   0.45244762   0.00816193
9090.00   0.44848287   0.00803789
9092.00   0.44461051   0.00800949
9094.00   0.44259813   0.00805236
9096.00   0.44347772   0.00818807
9098.00   0.44554457   0.00837132
9100.00   0.44650954   0.00852840
9102.00   0.44980034   0.00875864
9104.00   0.44286880   0.00871323
9106.00   0.41845313   0.00834991
9108.00   0.40994668   0.00810553
9110.00   0.42364320   0.00797882
9112.00   0.44095418   0.00792692
9114.00   0.44380245   0.00797108
9116.00   0.43875363   0.00813036
9118.00   0.43942529   0.00814008
9120.00   0.44152123   0.00799776
9122.00   0.44448626   0.00798535
9124.00   0.44951323   0.00807542
9126.00   0.45396504   0.00821918
9128.00   0.45643958   0.00842350
9130.00   0.45768145   0.00868044
9132.00   0.45537612   0.00877866
9134.00   0.44347990   0.00880158
9136.00   0.44448858   0.00873225
9138.00   0.45941898   0.00848960
9140.00   0.47103024   0.00828581
9142.00   0.47186497   0.00818587
9144.00   0.46797654   0.00816069
9146.00   0.46855250   0.00829072
9148.00   0.47406414   0.00863185
9150.00   0.47047892   0.00884447
9152.00   0.45517191   0.00909667
9154.00   0.44731516   0.00920920
9156.00   0.45215490   0.00912841
9158.00   0.46191096   0.00894155
9160.00   0.46699908   0.00876296
9162.00   0.47139356   0.00849532
9164.00   0.47443846   0.00837719
9166.00   0.47679466   0.00831928
9168.00   0.47710389   0.00838056
9170.00   0.47127068   0.00865878
9172.00   0.46815982   0.00892392
9174.00   0.48035404   0.00892770
9176.00   0.50619304   0.00875763
9178.00   0.51123005   0.00865511
9180.00   0.49870071   0.00851089
9182.00   0.49387076   0.00841712
9184.00   0.49668682   0.00801214
9186.00   0.49728104   0.00812932
9188.00   0.48668081   0.00962858
9190.00   0.46928686   0.01167037
9192.00   0.47222286   0.01182894
9194.00   0.49601400   0.01034463
9196.00   0.50811744   0.00956839
9198.00   0.51425910   0.00894358
9200.00   0.52030689   0.00855209
9202.00   0.52906954   0.00857225
9204.00   0.53809458   0.00885198
9206.00   0.54209000   0.00885914
9208.00   0.54279935   0.00870814
9210.00   0.54097939   0.00869717
9212.00   0.53215754   0.00877699
9214.00   0.52824730   0.00883651
9216.00   0.53006411   0.00884387
9218.00   0.53715044   0.00884684
9220.00   0.55364436   0.00890998
9222.00   0.58450973   0.00902143
9224.00   0.59744525   0.00910826
9226.00   0.59593832   0.00922329
9228.00   0.59959745   0.00927732
9230.00   0.61210972   0.00915619
9232.00   0.62294918   0.00911441
9234.00   0.62089926   0.00951281
9236.00   0.60880768   0.01026613
9238.00   0.60479069   0.01041279
9240.00   0.60122842   0.01017342
9242.00   0.60340405   0.00990999
9244.00   0.61630279   0.00944810
9246.00   0.62599599   0.00903123
9248.00   0.62081003   0.00889066
9250.00   0.60649312   0.00892842
9252.00   0.60398805   0.00895954
9254.00   0.60757637   0.00908142
9256.00   0.61227530   0.00918145
9258.00   0.62183219   0.00933071
9260.00   0.62962633   0.00941405
9262.00   0.63141108   0.00935561
9264.00   0.63102156   0.00922571
9266.00   0.63835108   0.00921843
9268.00   0.65587741   0.00928099
9270.00   0.66174132   0.00934791
9272.00   0.65894485   0.00942690
9274.00   0.65733165   0.00954868
9276.00   0.65726602   0.00973545
9278.00   0.65897286   0.00994593
9280.00   0.66671008   0.01011400
9282.00   0.68175727   0.01028080
9284.00   0.68976110   0.01038186
9286.00   0.69757527   0.01039312
9288.00   0.69812965   0.01045205
9290.00   0.68872619   0.01055666
9292.00   0.67596155   0.01069033
9294.00   0.66562885   0.01077501
9296.00   0.65350074   0.01072759
9298.00   0.65340644   0.01150611
9300.00   0.67105478   0.01290162
9302.00   0.67447990   0.01416230
9304.00   0.66157889   0.01566868
9306.00   0.64949322   0.01679429
9308.00   0.65039647   0.01708556
9310.00   0.65829825   0.01684832
9312.00   0.65805197   0.01718116
9314.00   0.65066397   0.01791535
9316.00   0.64994127   0.01830883
9318.00   0.65492952   0.01856495
9320.00   0.65947890   0.01865680
9322.00   0.66185606   0.01858279
9324.00   0.66298717   0.01833593
9326.00   0.66080779   0.01782494
9328.00   0.65310651   0.01665881
9330.00   0.65040958   0.01622721
9332.00   0.65070075   0.01603955
9334.00   0.65085560   0.01641885
9336.00   0.65284371   0.01772790
9338.00   0.65299392   0.01918964
9340.00   0.64038682   0.01967624
9342.00   0.60756856   0.01987888
9344.00   0.61073619   0.01900318
9346.00   0.65127885   0.01592900
9348.00   0.67324501   0.01394488
9350.00   0.67694545   0.01402713
9352.00   0.66876763   0.01474077
9354.00   0.64301217   0.01482049
9356.00   0.59177130   0.01482991
9358.00   0.59939235   0.01475082
9360.00   0.66944581   0.01417550
9362.00   0.70489645   0.01438765
9364.00   0.70974255   0.01491999
9366.00   0.71063215   0.01628282
9368.00   0.72594190   0.01895968
9370.00   0.74697268   0.02224393
9372.00   0.74040818   0.02404914
9374.00   0.70010161   0.02572085
9376.00   0.68362945   0.02609320
9378.00   0.68732727   0.02538948
9380.00   0.68514293   0.02388214
9382.00   0.66243947   0.02104531
9384.00   0.63159657   0.01682887
9386.00   0.62218684   0.01430695
9388.00   0.62000597   0.01354700
9390.00   0.63686341   0.01253606
9392.00   0.68828785   0.01216911
9394.00   0.72118551   0.01206010
9396.00   0.72048652   0.01224467
9398.00   0.70662862   0.01262048
9400.00   0.70601207   0.01284198
9402.00   0.71368182   0.01308350
9404.00   0.70369327   0.01317847
9406.00   0.66887087   0.01310081
9408.00   0.65430278   0.01309057
9410.00   0.66765231   0.01310329
9412.00   0.68768394   0.01320287
9414.00   0.69396025   0.01352893
9416.00   0.69452286   0.01406504
9418.00   0.69667619   0.01433986
9420.00   0.70538032   0.01438937
9422.00   0.69776762   0.01461080
9424.00   0.65992862   0.01497559
9426.00   0.63301319   0.01538721
9428.00   0.64848965   0.01573001
9430.00   0.69112951   0.01605126
9432.00   0.73037231   0.01688711
9434.00   0.81771034   0.01820686
9436.00   0.81941068   0.01928409
9438.00   0.72705555   0.02088829
9440.00   0.64401996   0.02150056
9442.00   0.60756058   0.02022184
9444.00   0.59414536   0.01763783
9446.00   0.60737753   0.01614114
9448.00   0.67399037   0.01465515
9450.00   0.69601703   0.01431356
9452.00   0.69660687   0.01531502
9454.00   0.69230282   0.01636502
9456.00   0.68224216   0.01758292
9458.00   0.66960520   0.01863478
9460.00   0.66803581   0.01849534
9462.00   0.67602259   0.01723724
9464.00   0.67549413   0.01642459
9466.00   0.67137879   0.01518312
9468.00   0.66568136   0.01462568
9470.00   0.65381902   0.01501439
9472.00   0.64503527   0.01580766
9474.00   0.65442020   0.01664522
9476.00   0.68153703   0.01784535
9478.00   0.67880076   0.01788261
9480.00   0.64456338   0.01693277
9482.00   0.63210922   0.01601769
9484.00   0.64152700   0.01458152
9486.00   0.65361130   0.01344879
9488.00   0.65693337   0.01354579
9490.00   0.65721780   0.01448311
9492.00   0.65577477   0.01557832
9494.00   0.65104610   0.01756183
9496.00   0.64664412   0.01845911
9498.00   0.63962293   0.01883925
9500.00   0.63541269   0.01874620
9502.00   0.63757664   0.01798495
9504.00   0.64314216   0.01668788
9506.00   0.64423138   0.01584554
9508.00   0.64076740   0.01502062
9510.00   0.64299279   0.01457717
9512.00   0.65277243   0.01447009
9514.00   0.65649152   0.01463471
9516.00   0.64925647   0.01511312
9518.00   0.63777369   0.01578821
9520.00   0.63221395   0.01648073
9522.00   0.62989563   0.01760895
9524.00   0.62470710   0.01751134
9526.00   0.61616689   0.01617754
9528.00   0.61127895   0.01507112
9530.00   0.60617840   0.01408870
9532.00   0.60808575   0.01339886
9534.00   0.62889302   0.01354067
9536.00   0.66695040   0.01437716
9538.00   0.69559687   0.01520033
9540.00   0.72729546   0.01664504
9542.00   0.75023735   0.01729870
9544.00   0.77043569   0.01721431
9546.00   0.77791691   0.01694635
9548.00   0.76053357   0.01676560
9550.00   0.72324216   0.01651704
9552.00   0.70311666   0.01677024
9554.00   0.70059538   0.01768918
9556.00   0.67293018   0.01804155
9558.00   0.61274105   0.01801584
9560.00   0.56446224   0.01791593
9562.00   0.54910970   0.01791590
9564.00   0.55158311   0.01787350
9566.00   0.55000496   0.01740228
9568.00   0.55099618   0.01639907
9570.00   0.55921155   0.01556582
9572.00   0.58149511   0.01442533
9574.00   0.59505910   0.01368556
9576.00   0.59163362   0.01372047
9578.00   0.58233643   0.01412491
9580.00   0.58378524   0.01424251
9582.00   0.58914530   0.01430649
9584.00   0.59978908   0.01443641
9586.00   0.62957329   0.01458686
9588.00   0.63645720   0.01477892
9590.00   0.60840970   0.01516382
9592.00   0.57405812   0.01542268
9594.00   0.56524754   0.01510356
9596.00   0.57070965   0.01424233
9598.00   0.57160342   0.01383417
9600.00   0.57927901   0.01359830
9602.00   0.57748926   0.01346410
9604.00   0.56321013   0.01350423
9606.00   0.54904169   0.01358360
9608.00   0.54351401   0.01358280
9610.00   0.54238468   0.01355665
9612.00   0.54534853   0.01364758
9614.00   0.55996776   0.01369650
9616.00   0.56201041   0.01405451
9618.00   0.55270666   0.01477676
9620.00   0.54312581   0.01544226
9622.00   0.53469604   0.01603440
9624.00   0.52782941   0.01652103
9626.00   0.53817016   0.01626043
9628.00   0.57571888   0.01500595
9630.00   0.58683527   0.01427017
9632.00   0.58557677   0.01351092
9634.00   0.57694620   0.01303842
9636.00   0.55610424   0.01307129
9638.00   0.53162509   0.01334532
9640.00   0.52684844   0.01335929
9642.00   0.54147553   0.01329566
9644.00   0.53564584   0.01322110
9646.00   0.51400471   0.01307065
9648.00   0.49908996   0.01297197
9650.00   0.48754522   0.01288316
9652.00   0.48420897   0.01288096
9654.00   0.50246412   0.01307351
9656.00   0.54423714   0.01339055
9658.00   0.55370897   0.01393951
9660.00   0.54416704   0.01495146
9662.00   0.53043830   0.01549816
9664.00   0.49729085   0.01580130
9666.00   0.47523427   0.01575773
9668.00   0.49565053   0.01507611
9670.00   0.54551452   0.01376453
9672.00   0.55712199   0.01324404
9674.00   0.54708767   0.01327390
9676.00   0.53648514   0.01326038
9678.00   0.51430434   0.01344828
9680.00   0.49653944   0.01355732
9682.00   0.49088451   0.01340781
9684.00   0.49221519   0.01313493
9686.00   0.49573955   0.01309234
9688.00   0.51010162   0.01310656
9690.00   0.51185697   0.01333723
9692.00   0.50123930   0.01392030
9694.00   0.49671668   0.01431033
9696.00   0.50869459   0.01441400
9698.00   0.52250069   0.01435307
9700.00   0.50915104   0.01417689
9702.00   0.46847102   0.01376615
9704.00   0.45172617   0.01353490
9706.00   0.44613481   0.01332602
9708.00   0.44279552   0.01323821
9710.00   0.44609061   0.01327824
9712.00   0.44787017   0.01342851
9714.00   0.43307126   0.01370448
9716.00   0.40194681   0.01414403
9718.00   0.39870927   0.01436624
9720.00   0.41759884   0.01452084
9722.00   0.43222833   0.01454742
9724.00   0.44834772   0.01438123
9726.00   0.46120432   0.01419158
9728.00   0.46582893   0.01404361
9730.00   0.46467996   0.01388190
9732.00   0.45758894   0.01428622
9734.00   0.44067925   0.01535375
9736.00   0.42669722   0.01598787
9738.00   0.40836936   0.01668870
9740.00   0.39699149   0.01688050
9742.00   0.39954916   0.01605109
9744.00   0.41086873   0.01452373
9746.00   0.41899833   0.01396591
9748.00   0.43116686   0.01422739
9750.00   0.43755820   0.01403822
9752.00   0.44656199   0.01367624
9754.00   0.44302002   0.01339133
9756.00   0.41489533   0.01322377
9758.00   0.37968776   0.01315541
9760.00   0.37449417   0.01326178
9762.00   0.39170259   0.01362895
9764.00   0.40109131   0.01373035
9766.00   0.41782427   0.01366254
9768.00   0.42476171   0.01362815
9770.00   0.41396204   0.01364379
9772.00   0.40267542   0.01366154
9774.00   0.41486597   0.01363433
9776.00   0.44780728   0.01355077
9778.00   0.44896141   0.01362905
9780.00   0.42391130   0.01377453
9782.00   0.40777677   0.01405408
9784.00   0.39534885   0.01450848
9786.00   0.38751760   0.01499370
9788.00   0.38565534   0.01542862
9790.00   0.38861138   0.01586084
9792.00   0.40714186   0.01615982
9794.00   0.46482202   0.01615531
9796.00   0.47353834   0.01656695
9798.00   0.42610538   0.01776314
9800.00   0.39055502   0.01831381
9802.00   0.40147656   0.01735581
9804.00   0.43514982   0.01542885
9806.00   0.45305815   0.01474337
9808.00   0.48373988   0.01503324
9810.00   0.47778925   0.01487164
9812.00   0.42433619   0.01458268
9814.00   0.39288986   0.01441845
9816.00   0.40883577   0.01448914
9818.00   0.44087523   0.01465877
9820.00   0.44036695   0.01470528
9822.00   0.41499898   0.01471294
9824.00   0.41377139   0.01469405
9826.00   0.42834193   0.01461708
9828.00   0.43903148   0.01456251
9830.00   0.44816285   0.01455023
9832.00   0.45238635   0.01453565
9834.00   0.44081393   0.01444525
9836.00   0.41094249   0.01425174
9838.00   0.41156468   0.01434767
9840.00   0.44323575   0.01463321
9842.00   0.45577469   0.01501010
9844.00   0.44407913   0.01560149
9846.00   0.43543118   0.01612352
9848.00   0.45287156   0.01626300
9850.00   0.48701197   0.01613989
9852.00   0.49885365   0.01677179
9854.00   0.50018501   0.01857880
9856.00   0.49570063   0.01888116
9858.00   0.47788128   0.01764915
9860.00   0.46322545   0.01652247
9862.00   0.46022233   0.01639128
9864.00   0.46329471   0.01677227
9866.00   0.46540359   0.01737638
9868.00   0.47077268   0.01867806
9870.00   0.47371420   0.01926703
9872.00   0.47029567   0.01901086
9874.00   0.47582272   0.01951067
9876.00   0.50100166   0.02177831
9878.00   0.53096789   0.02405975
9880.00   0.53336251   0.02356328
9882.00   0.50785625   0.02022831
9884.00   0.51007545   0.01867447
9886.00   0.54088026   0.01768368
9888.00   0.54789782   0.01712160
9890.00   0.51720101   0.01720569
9892.00   0.47961652   0.01760426
9894.00   0.47112387   0.01786024
9896.00   0.48059478   0.01825982
9898.00   0.47988343   0.01817521
9900.00   0.46568957   0.01688544
9902.00   0.47604105   0.01720959
9904.00   0.52495855   0.01962137
9906.00   0.56880295   0.02173883
9908.00   0.57164252   0.02228751
9910.00   0.54948741   0.02203669
9912.00   0.53064793   0.02189739
9914.00   0.49532369   0.02144282
9916.00   0.47643822   0.02103361
9918.00   0.46935976   0.02062964
9920.00   0.46775633   0.02012604
9922.00   0.47181842   0.01939026
9924.00   0.48045716   0.01850639
9926.00   0.47852087   0.01799469
9928.00   0.46234444   0.01762496
9930.00   0.46265963   0.01763580
9932.00   0.47265741   0.01800359
9934.00   0.48676538   0.01859806
9936.00   0.50859082   0.01944325
9938.00   0.53166288   0.02042687
9940.00   0.53624445   0.02123650
9942.00   0.52710342   0.02160189
9944.00   0.51650864   0.02321202
9946.00   0.49120981   0.02662189
9948.00   0.47883654   0.02809957
9950.00   0.48082671   0.02685471
9952.00   0.49290553   0.02514780
9954.00   0.51570237   0.02627506
9956.00   0.55375463   0.02940452
9958.00   0.57553667   0.02981900
9960.00   0.59680343   0.02879794
9962.00   0.60027599   0.02733200
9964.00   0.57706928   0.02447741
9966.00   0.55257046   0.02158980
9968.00   0.54796910   0.02068317
9970.00   0.55377203   0.02123321
9972.00   0.55619532   0.02093982
9974.00   0.57256281   0.01996310
9976.00   0.56208777   0.02027888
9978.00   0.51328188   0.02229236
9980.00   0.47726253   0.02368125
9982.00   0.48352399   0.02353900
9984.00   0.51213670   0.02253938
9986.00   0.52162892   0.02152422
9988.00   0.52850252   0.01933748
9990.00   0.52734667   0.01858667
9992.00   0.50787753   0.01905599
9994.00   0.50239754   0.01961796
9996.00   0.52458006   0.02006404
9998.00   0.55793858   0.02055807
10000.00   0.57459718   0.02099432
10002.00   0.58631188   0.02121609
10004.00   0.58887196   0.02205985
10006.00   0.58091509   0.02341837
10008.00   0.57015222   0.02467710
10010.00   0.55196798   0.02608176
10012.00   0.53511292   0.02720011
10014.00   0.53430545   0.02733687
10016.00   0.54526156   0.02666640
10018.00   0.55542874   0.02621007
10020.00   0.57466090   0.02545704
10022.00   0.58508670   0.02493776
10024.00   0.58384848   0.02471497
10026.00   0.58256674   0.02452770
10028.00   0.59314072   0.02417245
10030.00   0.61168110   0.02373553
10032.00   0.60647553   0.02333270
10034.00   0.57001972   0.02276353
10036.00   0.56091523   0.02254615
10038.00   0.56973022   0.02270233
10040.00   0.58897501   0.02292203
10042.00   0.62131613   0.02307799
10044.00   0.66338503   0.02324257
10046.00   0.68335032   0.02337671
10048.00   0.68658179   0.02344462
10050.00   0.69337952   0.02361512
10052.00   0.70752037   0.02389485
10054.00   0.70302314   0.02412983
10056.00   0.66434532   0.02426801
10058.00   0.61149216   0.02437038
10060.00   0.58586407   0.02452230
10062.00   0.57351357   0.02468543
10064.00   0.56608599   0.02488048
10066.00   0.57253492   0.02515605
10068.00   0.57429403   0.02534985
10070.00   0.56328344   0.02535684
10072.00   0.55602342   0.02539365
10074.00   0.57675743   0.02574550
10076.00   0.62423801   0.02628513
10078.00   0.64160240   0.02698662
10080.00   0.64403993   0.02826930
10082.00   0.64082295   0.02881247
10084.00   0.62813234   0.02863317
10086.00   0.61205202   0.02814122
10088.00   0.59779584   0.02755892
10090.00   0.58255666   0.02673899
10092.00   0.57140917   0.02606817
10094.00   0.56221646   0.02446237
10096.00   0.55634648   0.02499381
10098.00   0.55739087   0.02790172
10100.00   0.55560076   0.03047579
10102.00   0.54296303   0.03221267
10104.00   0.52526093   0.03346594
10106.00   0.52376121   0.03225219
10108.00   0.54524875   0.02655555
10110.00   0.54141104   0.02429820
10112.00   0.50430292   0.02436543
10114.00   0.49251100   0.02507432
10116.00   0.53993696   0.02612079
10118.00   0.60400152   0.02759431
10120.00   0.59375280   0.02906107
10122.00   0.50972182   0.03108565
10124.00   0.49467850   0.03189258
10126.00   0.52750677   0.03216876
10128.00   0.54302776   0.03173067
10130.00   0.53186023   0.03006462
10132.00   0.51423818   0.02798868
10134.00   0.50741547   0.02703268
10136.00   0.50217241   0.02676211
10138.00   0.51071489   0.02649249
10140.00   0.54797947   0.02654023
10142.00   0.55635720   0.02664171
10144.00   0.52105296   0.02666792
10146.00   0.49108598   0.02697933
10148.00   0.51316512   0.02799908
10150.00   0.57029450   0.02954969
10152.00   0.58092993   0.03023029
10154.00   0.55771315   0.03063097
10156.00   0.54814357   0.03051448
10158.00   0.54413271   0.02939248
10160.00   0.54134703   0.02856833
10162.00   0.54172856   0.02866261
10164.00   0.54317671   0.02936100
10166.00   0.52573985   0.03108624
10168.00   0.47693068   0.03445591
10170.00   0.46248913   0.03623996
10172.00   0.46908924   0.03789034
10174.00   0.48303667   0.03831096
10176.00   0.50750726   0.03642343
10178.00   0.53555334   0.03351810
10180.00   0.53948253   0.03369684
10182.00   0.52135587   0.03696780
10184.00   0.51631540   0.03693222
10186.00   0.51714504   0.03430970
10188.00   0.51371002   0.03259309
10190.00   0.50448453   0.03256742
10192.00   0.49265641   0.03296190
10194.00   0.48039776   0.03244550
10196.00   0.46478137   0.03125716
10198.00   0.45814052   0.03121820
10200.00   0.45616683   0.03194599
10202.00   0.45998728   0.03284053
10204.00   0.47169766   0.03412149
10206.00   0.48628363   0.03538054
10208.00   0.49887249   0.03634150
10210.00   0.51139861   0.03720304
10212.00   0.52941585   0.03730844
10214.00   0.57415354   0.03662630
10216.00   0.57163078   0.03599207
10218.00   0.51062489   0.03479330
10220.00   0.45695400   0.03410092
10222.00   0.44492778   0.03463403
10224.00   0.45396763   0.03593109
10226.00   0.46328995   0.03719344
10228.00   0.48657429   0.03951450
10230.00   0.50281119   0.04006599
10232.00   0.51813513   0.03939827
10234.00   0.53171611   0.03829623
10236.00   0.54956645   0.03664575
10238.00   0.56252724   0.03463792
10240.00   0.54144722   0.03357520
10242.00   0.47447738   0.03316589
10244.00   0.45524308   0.03288368
10246.00   0.48106286   0.03321205
10248.00   0.47735280   0.03325335
10250.00   0.41528782   0.03264694
10252.00   0.35155258   0.03209077
10254.00   0.36304590   0.03261418
10256.00   0.42990306   0.03400659
10258.00   0.47831094   0.03476262
10260.00   0.57693374   0.03536180
10262.00   0.58823955   0.03585406
10264.00   0.45817697   0.03557530
10266.00   0.34301648   0.03602246
10268.00   0.40247411   0.03925767
10270.00   0.58285159   0.04434955
10272.00   0.57894748   0.04391091
10274.00   0.40483004   0.03626882
10276.00   0.34299371   0.03424962
10278.00   0.37480599   0.03768786
10280.00   0.40470546   0.04163427
10282.00   0.37592453   0.04462457
10284.00   0.32460159   0.04750953
10286.00   0.34434637   0.04893605
10288.00   0.44435701   0.04935788
10290.00   0.48260200   0.04935566
10292.00   0.49345297   0.04899195
10294.00   0.48967159   0.04766409
10296.00   0.46823159   0.04431898
10298.00   0.43556654   0.03994939
10300.00   0.41755086   0.03860238
10302.00   0.40511650   0.03950748
10304.00   0.39504898   0.04071691
10306.00   0.38892823   0.04465121
10308.00   0.38502005   0.04569307
10310.00   0.39071661   0.04211750
10312.00   0.39188644   0.03707411
10314.00   0.35748485   0.03639458
10316.00   0.27453610   0.03902108
10318.00   0.29637215   0.03869226
10320.00   0.43973982   0.03646888
10322.00   0.50509936   0.03505102
10324.00   0.48363701   0.03454866
10326.00   0.44434422   0.03423791
10328.00   0.43452695   0.03355011
10330.00   0.43154392   0.03266922
10332.00   0.44088262   0.03256632
10334.00   0.48263377   0.03322109
10336.00   0.48675835   0.03368404
10338.00   0.45293975   0.03405741
10340.00   0.41663197   0.03455709
10342.00   0.39467001   0.03531852
10344.00   0.37752694   0.03623535
10346.00   0.36430201   0.03696674
10348.00   0.34468308   0.03780898
10350.00   0.35416874   0.03819841
10352.00   0.40723276   0.03839905
10354.00   0.43874717   0.03815157
10356.00   0.42905051   0.03695841
10358.00   0.39571032   0.03543023
10360.00   0.35161287   0.03557076
10362.00   0.27335072   0.03716616
10364.00   0.23492098   0.03802902
10366.00   0.19826704   0.03862124
10368.00   0.20817421   0.03954478
10370.00   0.29796883   0.04125994
10372.00   0.40416864   0.04280123
10374.00   0.43095151   0.04277022
10376.00   0.40663207   0.04131524
10378.00   0.39804772   0.04110850
10380.00   0.38940650   0.04119138
10382.00   0.36412090   0.04192250
10384.00   0.28772071   0.04421545
10386.00   0.24087006   0.04580212
10388.00   0.31808698   0.04431113
10390.00   0.49242780   0.04021258
10392.00   0.54135621   0.03950490
10394.00   0.49909735   0.04184190
10396.00   0.49379221   0.04231667
10398.00   0.52294999   0.04133307
10400.00   0.53031087   0.04034830
10402.00   0.46901524   0.04016871
10404.00   0.36989442   0.04033977
10406.00   0.36804280   0.04019004
10408.00   0.45591709   0.03863627
10410.00   0.49914151   0.04007196
10412.00   0.53380704   0.04421537
10414.00   0.56078625   0.04781654
10416.00   0.59923929   0.05119139
10418.00   0.62134683   0.05369884
10420.00   0.53388065   0.05166491
10422.00   0.28536233   0.04308687
10424.00   0.21995617   0.03919278
10426.00   0.28656319   0.03788120
10428.00   0.33215213   0.03724294
10430.00   0.34415552   0.03725025
10432.00   0.34558380   0.03800781
10434.00   0.33643076   0.03943247
10436.00   0.30347639   0.04227225
10438.00   0.32255673   0.04190401
10440.00   0.41984305   0.03803326
10442.00   0.44292399   0.03571944
10444.00   0.36627117   0.03520438
10446.00   0.28174290   0.03536449
10448.00   0.26312637   0.03556166
10450.00   0.27574372   0.03612249
10452.00   0.32341018   0.03660985
10454.00   0.45865449   0.03747444
10456.00   0.51013279   0.03773160
10458.00   0.47115618   0.03722493
10460.00   0.44041047   0.03683350
10462.00   0.48248976   0.03707843
10464.00   0.55822414   0.03765521
10466.00   0.55980718   0.03815668
10468.00   0.48196918   0.03795823
10470.00   0.46914151   0.03959750
10472.00   0.51241970   0.04383570
10474.00   0.53153276   0.04620410
10476.00   0.48179439   0.04549967
10478.00   0.41301709   0.04311654
10480.00   0.43535858   0.04094786
10482.00   0.54230851   0.03689829
10484.00   0.59566832   0.03588906
10486.00   0.67503238   0.03869257
10488.00   0.67233688   0.03932860
10490.00   0.52690303   0.03621703
10492.00   0.35145855   0.03196853
10494.00   0.31288868   0.03114850
10496.00   0.35604256   0.03272359
10498.00   0.40346426   0.03354469
10500.00   0.52221316   0.03493278
10502.00   0.58357513   0.03582813
10504.00   0.58517486   0.03637274
10506.00   0.56105530   0.03657237
10508.00   0.52537978   0.03622390
10510.00   0.46451887   0.03530108
10512.00   0.46245316   0.03509427
10514.00   0.51424634   0.03520993
10516.00   0.54660428   0.03555881
10518.00   0.58038068   0.03628819
10520.00   0.59876448   0.03704533
10522.00   0.58015597   0.03752110
10524.00   0.53841144   0.03791832
10526.00   0.54637086   0.03909182
10528.00   0.61591458   0.04226530
10530.00   0.62208897   0.04216463
10532.00   0.57767773   0.03852769
10534.00   0.53764832   0.03556663
10536.00   0.51442003   0.03531829
10538.00   0.50017494   0.03627000
10540.00   0.50544363   0.03643685
10542.00   0.52937341   0.03647082
10544.00   0.55980134   0.03675422
10546.00   0.62185949   0.03712231
10548.00   0.65421069   0.03770112
10550.00   0.64691758   0.03859507
10552.00   0.61739612   0.03957864
10554.00   0.57843399   0.04044058
10556.00   0.51633763   0.04164080
10558.00   0.47803921   0.04112843
10560.00   0.44033277   0.03823962
10562.00   0.42846218   0.03671738
10564.00   0.44955796   0.03671587
10566.00   0.48249492   0.03740721
10568.00   0.50968313   0.03834340
10570.00   0.53999257   0.03973567
10572.00   0.56485105   0.04105415
10574.00   0.59696829   0.04345232
10576.00   0.60504127   0.04378244
10578.00   0.58718485   0.04163674
10580.00   0.56255347   0.03946413
10582.00   0.53880930   0.03890027
10584.00   0.51208991   0.03912689
10586.00   0.49721503   0.03921539
10588.00   0.48489663   0.03966330
10590.00   0.48865145   0.03989755
10592.00   0.51233619   0.04005753
10594.00   0.53610688   0.04017996
10596.00   0.55261254   0.04029616
10598.00   0.56848109   0.04036824
10600.00   0.59323519   0.04026376
10602.00   0.64069980   0.03960655
10604.00   0.64365560   0.04003543
10606.00   0.61188209   0.04153672
10608.00   0.57543266   0.04264531
10610.00   0.51963079   0.04363323
10612.00   0.47245362   0.04403413
10614.00   0.49614507   0.04245428
10616.00   0.59022856   0.03829104
10618.00   0.61731732   0.03682901
10620.00   0.60936999   0.03734370
10622.00   0.60099572   0.03756163
10624.00   0.58107793   0.03763746
10626.00   0.56674117   0.03771538
10628.00   0.58151007   0.03776025
10630.00   0.61817616   0.03780806
10632.00   0.63685864   0.03764045
10634.00   0.67075270   0.03725399
10636.00   0.65660226   0.03687954
10638.00   0.57608062   0.03640324
10640.00   0.50293475   0.03599413
10642.00   0.47755367   0.03566220
10644.00   0.47788081   0.03541852
10646.00   0.50057143   0.03594777
10648.00   0.58463633   0.03764389
10650.00   0.60460037   0.03829204
10652.00   0.57055467   0.03876400
10654.00   0.54329723   0.03837522
10656.00   0.53711993   0.03622389
10658.00   0.54336953   0.03315365
10660.00   0.57637852   0.03261843
10662.00   0.65569752   0.03441795
10664.00   0.68587017   0.03483978
10666.00   0.70028663   0.03504027
10668.00   0.68588054   0.03495776
10670.00   0.62304378   0.03447156
10672.00   0.54748803   0.03378613
10674.00   0.51667422   0.03308694
10676.00   0.49935770   0.03156293
10678.00   0.53744632   0.03312271
10680.00   0.66190344   0.03811294
10682.00   0.73956764   0.04071284
10684.00   0.77683938   0.04173931
10686.00   0.78646880   0.04149489
10688.00   0.76218623   0.03922664
10690.00   0.69940227   0.03436136
10692.00   0.67781228   0.03256389
10694.00   0.68127805   0.03338739
10696.00   0.67723113   0.03332091
10698.00   0.66848212   0.03286447
10700.00   0.66277146   0.03237611
10702.00   0.66423595   0.03194983
10704.00   0.67057252   0.03153813
10706.00   0.67753190   0.03128453
10708.00   0.69361186   0.03129283
10710.00   0.69560510   0.03106708
10712.00   0.68417966   0.03069456
10714.00   0.67360330   0.03027573
10716.00   0.66918331   0.02984848
10718.00   0.66633230   0.02937652
10720.00   0.65958959   0.02876461
10722.00   0.65536141   0.02721061
10724.00   0.63710189   0.02785418
10726.00   0.59720719   0.03115754
10728.00   0.57146883   0.03272478
10730.00   0.56199235   0.03202233
10732.00   0.56629956   0.03029053
10734.00   0.59207362   0.02870380
10736.00   0.64787030   0.02619803
10738.00   0.67137903   0.02546928
10740.00   0.68761045   0.02669926
10742.00   0.68039864   0.02714234
10744.00   0.63364416   0.02677107
10746.00   0.58540463   0.02622852
10748.00   0.57354903   0.02593786
10750.00   0.58135378   0.02570303
10752.00   0.60322946   0.02560151
10754.00   0.66329479   0.02571394
10756.00   0.69115013   0.02571103
10758.00   0.68489093   0.02559011
10760.00   0.68017405   0.02550235
10762.00   0.70235163   0.02561992
10764.00   0.73724920   0.02584129
10766.00   0.73787266   0.02550674
10768.00   0.70253623   0.02286353
10770.00   0.69122338   0.02439397
10772.00   0.69388872   0.03054931
10774.00   0.69614893   0.03392023
10776.00   0.69109297   0.03296104
10778.00   0.68543684   0.02972327
10780.00   0.69325298   0.02751612
10782.00   0.71586478   0.02435470
10784.00   0.72847116   0.02276700
10786.00   0.73251653   0.02227911
10788.00   0.74507862   0.02284787
10790.00   0.78358042   0.02534405
10792.00   0.81711817   0.02777775
10794.00   0.78659314   0.02723366
10796.00   0.68573725   0.02401025
10798.00   0.67381287   0.02257240
10800.00   0.71659023   0.02096218
10802.00   0.76635158   0.02121002
10804.00   0.85950673   0.02407757
10806.00   0.92620695   0.02701009
10808.00   0.86943102   0.02849911
10810.00   0.71021557   0.02961037
10812.00   0.67900121   0.02877186
10814.00   0.74207157   0.02468815
10816.00   0.76545018   0.02230813
10818.00   0.76738554   0.02170722
10820.00   0.76157677   0.02149147
10822.00   0.74642128   0.02067030
10824.00   0.72310889   0.01976325
10826.00   0.73322982   0.02062808
10828.00   0.78154755   0.02368612
10830.00   0.80433494   0.02482796
10832.00   0.82357657   0.02540534
10834.00   0.82422012   0.02506270
10836.00   0.78348094   0.02285255
10838.00   0.72843713   0.01947729
10840.00   0.74938238   0.01933989
10842.00   0.88778311   0.02226668
10844.00   0.86294514   0.02324699
10846.00   0.67547679   0.02432862
10848.00   0.56253308   0.02421031
10850.00   0.57796365   0.02184170
10852.00   0.63673848   0.01856440
10854.00   0.64299715   0.01811688
10856.00   0.62337899   0.02017631
10858.00   0.64120454   0.01989512
10860.00   0.69806850   0.01787060
