# File created by shivutils (I.Shivvers)
# wl(A)   flm    er(optional)
3622.00   0.77392244   0.05387615
3624.00   0.73040122   0.05419754
3626.00   0.64607376   0.05328773
3628.00   0.64638913   0.05346463
3630.00   0.76549596   0.05452561
3632.00   0.75809366   0.05368072
3634.00   0.78967625   0.05292071
3636.00   0.72176874   0.05248044
3638.00   0.67242295   0.05228136
3640.00   0.65354323   0.05258192
3642.00   0.70575786   0.05273833
3644.00   0.62938899   0.05149471
3646.00   0.64631122   0.05132808
3648.00   0.62011975   0.05342087
3650.00   0.70201647   0.06046883
3652.00   0.63488710   0.05993919
3654.00   0.66841495   0.05715173
3656.00   0.65950227   0.05602965
3658.00   0.64034164   0.05336376
3660.00   0.69833416   0.05251273
3662.00   0.65040141   0.05399218
3664.00   0.66043293   0.05402850
3666.00   0.56933278   0.05069466
3668.00   0.58070689   0.04856988
3670.00   0.59929478   0.04813427
3672.00   0.61933154   0.04856506
3674.00   0.71404320   0.04992711
3676.00   0.67279768   0.04817763
3678.00   0.70941091   0.04818600
3680.00   0.61824834   0.04640252
3682.00   0.71047539   0.04730483
3684.00   0.69784963   0.04743395
3686.00   0.66359663   0.04613191
3688.00   0.67786431   0.04584150
3690.00   0.78395408   0.04777571
3692.00   0.72108722   0.04814520
3694.00   0.67000830   0.04687656
3696.00   0.55813700   0.04473420
3698.00   0.69241399   0.04670241
3700.00   0.66991693   0.04733695
3702.00   0.65944934   0.04703043
3704.00   0.57732946   0.04428057
3706.00   0.61236316   0.04362285
3708.00   0.57996565   0.04252936
3710.00   0.62163770   0.04365976
3712.00   0.65599960   0.04480184
3714.00   0.62588757   0.04551984
3716.00   0.57917738   0.04452865
3718.00   0.60813814   0.04347597
3720.00   0.56806630   0.04077343
3722.00   0.54727471   0.03978670
3724.00   0.53286594   0.04032741
3726.00   0.52880716   0.04150795
3728.00   0.55787224   0.04134841
3730.00   0.57827294   0.04156081
3732.00   0.54245943   0.04021194
3734.00   0.49504966   0.03793472
3736.00   0.50359833   0.03721624
3738.00   0.54703242   0.03888178
3740.00   0.46593016   0.03913394
3742.00   0.45310885   0.03920970
3744.00   0.46635622   0.03793436
3746.00   0.49591479   0.03716971
3748.00   0.44832724   0.03518302
3750.00   0.46435049   0.03593707
3752.00   0.43517974   0.03643364
3754.00   0.41272688   0.03791075
3756.00   0.40129662   0.03747860
3758.00   0.46729773   0.03716537
3760.00   0.43307999   0.03575471
3762.00   0.43713623   0.03622528
3764.00   0.40343618   0.03548466
3766.00   0.39913064   0.03513836
3768.00   0.44524446   0.03544337
3770.00   0.50977135   0.03628453
3772.00   0.44578174   0.03639031
3774.00   0.43202752   0.03674875
3776.00   0.43571278   0.03678069
3778.00   0.48415172   0.03724745
3780.00   0.43140766   0.03677353
3782.00   0.43385643   0.03681027
3784.00   0.44980958   0.03704514
3786.00   0.44994143   0.03579624
3788.00   0.43764773   0.03469259
3790.00   0.40230051   0.03425589
3792.00   0.48712647   0.03544261
3794.00   0.45489073   0.03458777
3796.00   0.49897906   0.03424380
3798.00   0.44633046   0.03299391
3800.00   0.49220431   0.03385969
3802.00   0.45432842   0.03435745
3804.00   0.56571382   0.03624434
3806.00   0.52724057   0.03555283
3808.00   0.54838324   0.03559715
3810.00   0.56310761   0.03595619
3812.00   0.51125801   0.03500136
3814.00   0.53079045   0.03417016
3816.00   0.54305440   0.03362006
3818.00   0.56251711   0.03374067
3820.00   0.60776842   0.03374435
3822.00   0.65245605   0.03410158
3824.00   0.63736308   0.03359729
3826.00   0.66165257   0.03329155
3828.00   0.64445782   0.03320131
3830.00   0.68318021   0.03395294
3832.00   0.70047975   0.03384000
3834.00   0.77040720   0.03428480
3836.00   0.74171829   0.03404313
3838.00   0.75704229   0.03407510
3840.00   0.82752204   0.03449028
3842.00   0.75055856   0.03450422
3844.00   0.89730394   0.03682734
3846.00   0.96241838   0.03759973
3848.00   0.97006649   0.03740885
3850.00   0.96927947   0.03719800
3852.00   0.99532217   0.03724447
3854.00   1.08447731   0.03799263
3856.00   1.07787907   0.03778106
3858.00   1.09144735   0.03715631
3860.00   1.09532118   0.03697633
3862.00   1.12143731   0.03797670
3864.00   1.22570825   0.03939361
3866.00   1.21860325   0.03915069
3868.00   1.28739393   0.03918231
3870.00   1.29255772   0.03858069
3872.00   1.28075945   0.03827441
3874.00   1.28140354   0.03898892
3876.00   1.34593832   0.03999963
3878.00   1.41649497   0.03995399
3880.00   1.41599345   0.03955158
3882.00   1.53708076   0.04036714
3884.00   1.53453553   0.04056223
3886.00   1.61201155   0.04109317
3888.00   1.53745759   0.04004219
3890.00   1.58019483   0.04065692
3892.00   1.60952699   0.04122110
3894.00   1.61214912   0.04144118
3896.00   1.62696409   0.04162766
3898.00   1.67739367   0.04206447
3900.00   1.69311726   0.04207264
3902.00   1.72112989   0.04198642
3904.00   1.76749337   0.04234537
3906.00   1.75531983   0.04286008
3908.00   1.80174005   0.04389676
3910.00   1.83016276   0.04438664
3912.00   1.84276521   0.04519897
3914.00   1.85630238   0.04501355
3916.00   1.84458017   0.04392635
3918.00   1.92157412   0.04309761
3920.00   1.96150625   0.04265485
3922.00   1.90686083   0.04200764
3924.00   1.95687521   0.04215921
3926.00   2.00556898   0.04215259
3928.00   2.00928140   0.04146552
3930.00   2.02465892   0.04082832
3932.00   1.95885110   0.03991688
3934.00   2.03412104   0.04039677
3936.00   1.99306238   0.04012437
3938.00   2.10421348   0.04112514
3940.00   2.01386857   0.04107304
3942.00   1.99341333   0.04115213
3944.00   2.07895041   0.04208569
3946.00   2.16206098   0.04264006
3948.00   2.04748082   0.04196147
3950.00   2.03288865   0.04197018
3952.00   2.02052331   0.04171396
3954.00   2.02306795   0.04157754
3956.00   2.10204816   0.04198962
3958.00   2.07290196   0.04160862
3960.00   2.02137542   0.04117881
3962.00   2.01266980   0.04057762
3964.00   2.08472848   0.04038233
3966.00   2.04056430   0.03923442
3968.00   1.91809452   0.03789354
3970.00   2.03824162   0.03841529
3972.00   2.01315403   0.03875972
3974.00   1.94922853   0.03890822
3976.00   2.02228332   0.03974355
3978.00   2.02989841   0.04030343
3980.00   2.00419784   0.04038491
3982.00   2.03873324   0.04058043
3984.00   2.02072072   0.04033396
3986.00   1.87902033   0.03922978
3988.00   1.85467196   0.03911866
3990.00   1.94912732   0.04015399
3992.00   1.95669985   0.03995801
3994.00   1.91136694   0.03983726
3996.00   1.86626267   0.03930816
3998.00   1.80584598   0.03881255
4000.00   1.83789217   0.03898112
4002.00   1.90574884   0.03925638
4004.00   1.85307097   0.03874698
4006.00   1.73691404   0.03756097
4008.00   1.72044694   0.03762060
4010.00   1.69032228   0.03752778
4012.00   1.69733107   0.03775392
4014.00   1.66308141   0.03729498
4016.00   1.63115299   0.03690974
4018.00   1.61604464   0.03701790
4020.00   1.56949162   0.03737501
4022.00   1.62138271   0.03799359
4024.00   1.53162670   0.03730683
4026.00   1.54033756   0.03695765
4028.00   1.57748222   0.03669515
4030.00   1.55955386   0.03624779
4032.00   1.43100369   0.03467530
4034.00   1.41688788   0.03452215
4036.00   1.40637648   0.03454440
4038.00   1.45330572   0.03501040
4040.00   1.36253202   0.03418244
4042.00   1.33652008   0.03408039
4044.00   1.32503068   0.03627086
4046.00   1.35786557   0.04094507
4048.00   1.34274793   0.04150597
4050.00   1.30144048   0.03711435
4052.00   1.25167072   0.03397148
4054.00   1.24689734   0.03290896
4056.00   1.22195995   0.03257591
4058.00   1.22653341   0.03215066
4060.00   1.24096227   0.03205614
4062.00   1.16877294   0.03109442
4064.00   1.16201901   0.03086505
4066.00   1.15727007   0.03083625
4068.00   1.14344859   0.03094249
4070.00   1.14997852   0.03093599
4072.00   1.11072898   0.03059280
4074.00   1.10646737   0.03064412
4076.00   1.11459374   0.03115206
4078.00   1.09811723   0.03128009
4080.00   1.08923781   0.03124601
4082.00   1.06344235   0.03080319
4084.00   1.09978342   0.03060634
4086.00   1.11360013   0.03053377
4088.00   1.05491757   0.03015360
4090.00   1.08394289   0.03007856
4092.00   1.05635488   0.02970671
4094.00   1.10788500   0.02971669
4096.00   1.10276341   0.02947168
4098.00   1.09693539   0.02927107
4100.00   1.03329551   0.02838675
4102.00   1.03369379   0.02796383
4104.00   1.01833773   0.02802080
4106.00   1.03037143   0.02829419
4108.00   1.05157828   0.02868167
4110.00   1.01137471   0.02837120
4112.00   1.04462087   0.02878728
4114.00   1.06465983   0.02909583
4116.00   1.06253409   0.02904261
4118.00   1.05099940   0.02890208
4120.00   1.04563713   0.02860037
4122.00   1.09576380   0.02882422
4124.00   1.09722459   0.02896252
4126.00   1.07066548   0.02870204
4128.00   1.05403018   0.02836998
4130.00   1.06241071   0.02826986
4132.00   1.09969079   0.02865028
4134.00   1.10200369   0.02864144
4136.00   1.08013594   0.02853617
4138.00   1.08456361   0.02871994
4140.00   1.08715570   0.02882563
4142.00   1.06587422   0.02837978
4144.00   1.09753811   0.02818336
4146.00   1.08761394   0.02806970
4148.00   1.08386564   0.02825671
4150.00   1.06036103   0.02816008
4152.00   1.11551368   0.02863102
4154.00   1.15551603   0.02883614
4156.00   1.13319337   0.02849926
4158.00   1.10373676   0.02821700
4160.00   1.12556553   0.02835043
4162.00   1.13409543   0.02859805
4164.00   1.09694731   0.02875946
4166.00   1.11547685   0.02885637
4168.00   1.09012282   0.02832853
4170.00   1.15070057   0.02831157
4172.00   1.12683952   0.02783618
4174.00   1.17056859   0.02794480
4176.00   1.16526008   0.02796200
4178.00   1.21947086   0.02829383
4180.00   1.15954101   0.02792181
4182.00   1.16619241   0.02787153
4184.00   1.13594437   0.02759108
4186.00   1.16199565   0.02767436
4188.00   1.22275770   0.02801364
4190.00   1.18647432   0.02776262
4192.00   1.16632068   0.02766484
4194.00   1.14801002   0.02754730
4196.00   1.17971849   0.02753924
4198.00   1.19527054   0.02739435
4200.00   1.15862775   0.02696764
4202.00   1.16770542   0.02705419
4204.00   1.21786439   0.02760278
4206.00   1.19855177   0.02759411
4208.00   1.24609756   0.02795236
4210.00   1.20783520   0.02783800
4212.00   1.18253672   0.02771940
4214.00   1.21766555   0.02775140
4216.00   1.24346066   0.02765834
4218.00   1.22648251   0.02747725
4220.00   1.25340748   0.02781372
4222.00   1.27319753   0.02789260
4224.00   1.21487308   0.02720280
4226.00   1.26136184   0.02707723
4228.00   1.24860859   0.02698231
4230.00   1.27772427   0.02747263
4232.00   1.27733016   0.02775939
4234.00   1.27506483   0.02763496
4236.00   1.32576191   0.02773880
4238.00   1.26064432   0.02738137
4240.00   1.26271689   0.02732591
4242.00   1.29285383   0.02747582
4244.00   1.28171098   0.02761840
4246.00   1.27156687   0.02789900
4248.00   1.30593359   0.02801450
4250.00   1.30006969   0.02761012
4252.00   1.26425922   0.02705233
4254.00   1.26667738   0.02696319
4256.00   1.25612152   0.02685653
4258.00   1.26846731   0.02687375
4260.00   1.34342337   0.02722564
4262.00   1.25531065   0.02658706
4264.00   1.29899526   0.02699870
4266.00   1.33360398   0.02728637
4268.00   1.29304385   0.02688756
4270.00   1.31650126   0.02672544
4272.00   1.33352852   0.02657589
4274.00   1.34361458   0.02667422
4276.00   1.27276742   0.02651981
4278.00   1.29143262   0.02676095
4280.00   1.30893207   0.02674317
4282.00   1.30181766   0.02667872
4284.00   1.35118198   0.02684390
4286.00   1.32662630   0.02658774
4288.00   1.31437981   0.02640220
4290.00   1.30091882   0.02621884
4292.00   1.31493497   0.02631127
4294.00   1.37277377   0.02681137
4296.00   1.33812368   0.02652054
4298.00   1.32815170   0.02611893
4300.00   1.37136292   0.02604276
4302.00   1.38234138   0.02597561
4304.00   1.33126330   0.02556631
4306.00   1.29655731   0.02542261
4308.00   1.31092680   0.02541576
4310.00   1.27683163   0.02521183
4312.00   1.28291821   0.02568355
4314.00   1.31531489   0.02643050
4316.00   1.28626478   0.02660005
4318.00   1.30711889   0.02684648
4320.00   1.25329590   0.02655893
4322.00   1.27649200   0.02653577
4324.00   1.31707072   0.02628374
4326.00   1.28062427   0.02600463
4328.00   1.24292934   0.02565905
4330.00   1.27373695   0.02602909
4332.00   1.22721493   0.02582309
4334.00   1.23648751   0.02577674
4336.00   1.20760310   0.02551278
4338.00   1.19853497   0.02520682
4340.00   1.20822430   0.02511461
4342.00   1.17667973   0.02486798
4344.00   1.18441629   0.02524915
4346.00   1.15860415   0.02549079
4348.00   1.08713281   0.02527588
4350.00   1.10882235   0.02518303
4352.00   1.11000574   0.02491859
4354.00   1.09700823   0.02526038
4356.00   1.08136868   0.03029830
4358.00   1.09423935   0.03476583
4360.00   1.00615811   0.03426731
4362.00   1.05794108   0.03051706
4364.00   1.08217669   0.02730045
4366.00   1.04697800   0.02517018
4368.00   0.98217893   0.02443982
4370.00   1.00358450   0.02441441
4372.00   0.98181325   0.02417932
4374.00   1.02983570   0.02448823
4376.00   0.98748451   0.02421423
4378.00   0.95006144   0.02385839
4380.00   0.94501215   0.02356467
4382.00   0.96185946   0.02330568
4384.00   0.87569720   0.02258044
4386.00   0.85904771   0.02227799
4388.00   0.89656639   0.02258180
4390.00   0.87324488   0.02247999
4392.00   0.83674031   0.02227944
4394.00   0.82212186   0.02223579
4396.00   0.83433503   0.02232236
4398.00   0.85414052   0.02248572
4400.00   0.80586487   0.02240399
4402.00   0.78847480   0.02215486
4404.00   0.76889837   0.02188316
4406.00   0.74402058   0.02157932
4408.00   0.81790179   0.02208498
4410.00   0.78912961   0.02219317
4412.00   0.76865554   0.02208909
4414.00   0.74250013   0.02203741
4416.00   0.73507422   0.02184366
4418.00   0.73650724   0.02193176
4420.00   0.79673934   0.02230932
4422.00   0.76839256   0.02198638
4424.00   0.73140228   0.02179073
4426.00   0.66275388   0.02118153
4428.00   0.74402386   0.02164840
4430.00   0.73811781   0.02162366
4432.00   0.75033629   0.02162536
4434.00   0.71828616   0.02137336
4436.00   0.74088806   0.02143261
4438.00   0.72451031   0.02142926
4440.00   0.71982139   0.02145518
4442.00   0.75720435   0.02153840
4444.00   0.74811256   0.02145660
4446.00   0.75340647   0.02145870
4448.00   0.74604613   0.02149062
4450.00   0.76366550   0.02158724
4452.00   0.76226264   0.02144490
4454.00   0.80210280   0.02164096
4456.00   0.74700075   0.02111295
4458.00   0.79964292   0.02142994
4460.00   0.79396206   0.02135598
4462.00   0.81847739   0.02155307
4464.00   0.81048232   0.02162388
4466.00   0.86313069   0.02199587
4468.00   0.85602552   0.02187563
4470.00   0.86815012   0.02192622
4472.00   0.88746810   0.02203370
4474.00   0.88594991   0.02205753
4476.00   0.89717317   0.02216571
4478.00   0.87068361   0.02192982
4480.00   0.92241514   0.02203773
4482.00   0.93482560   0.02197653
4484.00   0.91246068   0.02194897
4486.00   0.93446177   0.02223322
4488.00   0.98222065   0.02248103
4490.00   1.01804435   0.02266599
4492.00   1.02305937   0.02274517
4494.00   1.03343332   0.02276073
4496.00   1.03029799   0.02280159
4498.00   1.05557203   0.02288857
4500.00   1.06882608   0.02297377
4502.00   1.07345402   0.02299027
4504.00   1.13875508   0.02339317
4506.00   1.12736416   0.02333552
4508.00   1.15081191   0.02341274
4510.00   1.17646563   0.02345413
4512.00   1.16658235   0.02340374
4514.00   1.16491759   0.02335241
4516.00   1.16997361   0.02330534
4518.00   1.26351714   0.02374178
4520.00   1.26147747   0.02374109
4522.00   1.30351746   0.02390081
4524.00   1.31484616   0.02392533
4526.00   1.33248448   0.02374289
4528.00   1.34256160   0.02379543
4530.00   1.33223629   0.02367268
4532.00   1.37485409   0.02383540
4534.00   1.37715769   0.02383849
4536.00   1.44083273   0.02424960
4538.00   1.46299362   0.02441028
4540.00   1.49508476   0.02459804
4542.00   1.48653913   0.02453034
4544.00   1.49793231   0.02466211
4546.00   1.57251036   0.02488984
4548.00   1.61060321   0.02503770
4550.00   1.56965744   0.02469807
4552.00   1.63219213   0.02496155
4554.00   1.60631263   0.02491389
4556.00   1.67849433   0.02513205
4558.00   1.73676574   0.02544508
4560.00   1.71130490   0.02535238
4562.00   1.69539750   0.02528092
4564.00   1.79828084   0.02564280
4566.00   1.78083169   0.02556510
4568.00   1.80423009   0.02567453
4570.00   1.88960171   0.02594735
4572.00   1.88941121   0.02597536
4574.00   1.96576440   0.02628869
4576.00   1.97356534   0.02627832
4578.00   1.98411274   0.02627977
4580.00   2.00933409   0.02627574
4582.00   2.08094382   0.02648339
4584.00   2.11923218   0.02657273
4586.00   2.14335036   0.02674307
4588.00   2.14600801   0.02679914
4590.00   2.23398614   0.02715689
4592.00   2.22172976   0.02712578
4594.00   2.24694610   0.02721701
4596.00   2.29915357   0.02732113
4598.00   2.33732748   0.02747476
4600.00   2.36668062   0.02756561
4602.00   2.39492297   0.02763467
4604.00   2.41790533   0.02771981
4606.00   2.46432495   0.02788479
4608.00   2.50029230   0.02818218
4610.00   2.53823209   0.02828495
4612.00   2.56077051   0.02830179
4614.00   2.55190873   0.02826751
4616.00   2.54593611   0.02820886
4618.00   2.61435461   0.02853185
4620.00   2.58525395   0.02835220
4622.00   2.59052658   0.02841339
4624.00   2.64165497   0.02859840
4626.00   2.71907592   0.02885745
4628.00   2.68554401   0.02873405
4630.00   2.62872148   0.02844747
4632.00   2.70952368   0.02869846
4634.00   2.60977030   0.02829346
4636.00   2.67787695   0.02852578
4638.00   2.63580513   0.02833145
4640.00   2.65433908   0.02835449
4642.00   2.66858673   0.02845128
4644.00   2.61698556   0.02823261
4646.00   2.58230853   0.02802966
4648.00   2.55710030   0.02791291
4650.00   2.52381301   0.02785094
4652.00   2.50770044   0.02782498
4654.00   2.49458647   0.02775898
4656.00   2.47835875   0.02770942
4658.00   2.36977410   0.02734973
4660.00   2.39433575   0.02745699
4662.00   2.39012265   0.02747136
4664.00   2.35686207   0.02726109
4666.00   2.30708003   0.02699452
4668.00   2.30205774   0.02697857
4670.00   2.26215315   0.02682714
4672.00   2.21351409   0.02663264
4674.00   2.18778658   0.02648882
4676.00   2.14543700   0.02625369
4678.00   2.06502223   0.02576694
4680.00   2.00148249   0.02546681
4682.00   1.99508226   0.02532153
4684.00   1.92926252   0.02504551
4686.00   1.90906131   0.02492050
4688.00   1.88900399   0.02481994
4690.00   1.85059536   0.02454857
4692.00   1.80866742   0.02429354
4694.00   1.79381537   0.02421555
4696.00   1.73633683   0.02393273
4698.00   1.71798337   0.02386155
4700.00   1.63537812   0.02328828
4702.00   1.61870813   0.02315962
4704.00   1.58633399   0.02300942
4706.00   1.54119337   0.02283887
4708.00   1.50795615   0.02262926
4710.00   1.50305808   0.02266310
4712.00   1.45533276   0.02245159
4714.00   1.41476667   0.02217804
4716.00   1.36620522   0.02194862
4718.00   1.34058976   0.02176136
4720.00   1.31601048   0.02163278
4722.00   1.28192878   0.02149051
4724.00   1.25677609   0.02137249
4726.00   1.19338965   0.02099265
4728.00   1.20465040   0.02116634
4730.00   1.19561470   0.02106230
4732.00   1.18016589   0.02102587
4734.00   1.14056325   0.02086250
4736.00   1.09111595   0.02060973
4738.00   1.08789718   0.02063690
4740.00   1.10261524   0.02083449
4742.00   1.09190726   0.02097605
4744.00   1.06051445   0.02071654
4746.00   1.05252397   0.02043266
4748.00   1.02948093   0.02013326
4750.00   1.01772499   0.01995245
4752.00   0.99258256   0.01973917
4754.00   0.99018919   0.01966329
4756.00   0.96453017   0.01944695
4758.00   0.97761011   0.01942961
4760.00   0.98321992   0.01935853
4762.00   0.95156455   0.01904794
4764.00   0.94347274   0.01886455
4766.00   0.93628365   0.01889403
4768.00   0.91911775   0.01878797
4770.00   0.95675516   0.01897886
4772.00   0.91923124   0.01871235
4774.00   0.91643214   0.01882810
4776.00   0.89311028   0.01864877
4778.00   0.87946874   0.01870793
4780.00   0.88402951   0.01873518
4782.00   0.87091714   0.01859860
4784.00   0.88419986   0.01849468
4786.00   0.90926301   0.01940030
4788.00   0.86627704   0.01833537
4790.00   0.88168764   0.01833195
4792.00   0.90592146   0.01849477
4794.00   0.88168627   0.01836289
4796.00   0.87586945   0.01831096
4798.00   0.87330377   0.01831094
4800.00   0.89615208   0.01834983
4802.00   0.91804814   0.01847026
4804.00   0.87517208   0.01817937
4806.00   0.85049951   0.01802749
4808.00   0.89182734   0.01828522
4810.00   0.90248382   0.01840006
4812.00   0.86805356   0.01818315
4814.00   0.89865834   0.01837316
4816.00   0.90933836   0.01843706
4818.00   0.89550138   0.01842853
4820.00   0.90674829   0.01849900
4822.00   0.89149016   0.01842862
4824.00   0.93714327   0.01861269
4826.00   0.91458029   0.01855027
4828.00   0.96419197   0.01889273
4830.00   0.92356139   0.01855355
4832.00   0.94466579   0.01882154
4834.00   0.95686978   0.01886407
4836.00   0.96031559   0.01884315
4838.00   0.99019861   0.01905776
4840.00   0.97952658   0.01902080
4842.00   0.98613751   0.01896257
4844.00   0.97424465   0.01893677
4846.00   1.00619829   0.01913365
4848.00   1.00082028   0.01902268
4850.00   0.99678576   0.01902119
4852.00   1.03125441   0.01921866
4854.00   1.03410578   0.01914028
4856.00   1.04241216   0.01915787
4858.00   1.06225610   0.01916317
4860.00   1.06245816   0.01903767
4862.00   1.06506681   0.01904968
4864.00   1.08462477   0.01916133
4866.00   1.12060726   0.01947028
4868.00   1.13362193   0.01958227
4870.00   1.12050712   0.01952719
4872.00   1.13247240   0.01955206
4874.00   1.10671806   0.01947564
4876.00   1.09579825   0.01940938
4878.00   1.12304306   0.01960125
4880.00   1.15270233   0.01985976
4882.00   1.16046870   0.01982477
4884.00   1.15365398   0.01974146
4886.00   1.18756723   0.01986459
4888.00   1.16145146   0.01957899
4890.00   1.19077134   0.01974082
4892.00   1.17815781   0.01971161
4894.00   1.23625505   0.02003008
4896.00   1.21936750   0.02007161
4898.00   1.22641397   0.02017013
4900.00   1.26116002   0.02033013
4902.00   1.30425787   0.02049321
4904.00   1.26049876   0.02024996
4906.00   1.30336475   0.02050273
4908.00   1.30456078   0.02046586
4910.00   1.30469811   0.02040872
4912.00   1.29498994   0.02044722
4914.00   1.31250286   0.02058931
4916.00   1.33028889   0.02056829
4918.00   1.34870124   0.02052115
4920.00   1.34304595   0.02047782
4922.00   1.35010242   0.02049737
4924.00   1.39250016   0.02067992
4926.00   1.36392963   0.02059948
4928.00   1.37480700   0.02067332
4930.00   1.40325892   0.02078149
4932.00   1.40767813   0.02076738
4934.00   1.41868985   0.02079596
4936.00   1.41665542   0.02073166
4938.00   1.43318582   0.02080187
4940.00   1.40601313   0.02070598
4942.00   1.43673611   0.02085117
4944.00   1.40416539   0.02071878
4946.00   1.39273739   0.02064227
4948.00   1.40230477   0.02065450
4950.00   1.37180579   0.02055053
4952.00   1.40269375   0.02070953
4954.00   1.37942469   0.02066489
4956.00   1.36032271   0.02047433
4958.00   1.43270040   0.02070154
4960.00   1.42437887   0.02070389
4962.00   1.41252840   0.02069731
4964.00   1.40251052   0.02066017
4966.00   1.38960254   0.02056387
4968.00   1.41313028   0.02078016
4970.00   1.41422570   0.02082011
4972.00   1.39262283   0.02081699
4974.00   1.38008142   0.02088525
4976.00   1.40346599   0.02113068
4978.00   1.41704571   0.02138188
4980.00   1.40123487   0.02149158
4982.00   1.39775538   0.02153448
4984.00   1.36883235   0.02141557
4986.00   1.39107049   0.02139575
4988.00   1.40465391   0.02139502
4990.00   1.36272192   0.02099362
4992.00   1.36338592   0.02087043
4994.00   1.36869764   0.02093319
4996.00   1.37750471   0.02116262
4998.00   1.35476983   0.02041469
5000.00   1.30963159   0.02004584
5002.00   1.31504571   0.02002066
5004.00   1.30536449   0.01989429
5006.00   1.28861368   0.01970008
5008.00   1.30654347   0.01970385
5010.00   1.26091897   0.01948844
5012.00   1.27810955   0.01956142
5014.00   1.28458524   0.01953004
5016.00   1.24421716   0.01936213
5018.00   1.21520925   0.01916592
5020.00   1.22325528   0.01926910
5022.00   1.19862843   0.01909428
5024.00   1.14354146   0.01876311
5026.00   1.17276669   0.01889334
5028.00   1.17091966   0.01891276
5030.00   1.16726625   0.01890520
5032.00   1.12396145   0.01865358
5034.00   1.11185706   0.01854683
5036.00   1.12876427   0.01854095
5038.00   1.15436649   0.01871003
5040.00   1.10377872   0.01835513
5042.00   1.11739087   0.01836934
5044.00   1.09167850   0.01831870
5046.00   1.11296511   0.01848515
5048.00   1.05945146   0.01821133
5050.00   1.09817016   0.01838062
5052.00   1.09635699   0.01835282
5054.00   1.08522213   0.01828821
5056.00   1.07358646   0.01829114
5058.00   1.07572222   0.01835980
5060.00   1.09686577   0.01846691
5062.00   1.08176708   0.01846438
5064.00   1.10939431   0.01865759
5066.00   1.08392692   0.01854809
5068.00   1.06848073   0.01855555
5070.00   1.09078741   0.01864119
5072.00   1.10360169   0.01870294
5074.00   1.10099876   0.01864509
5076.00   1.06180847   0.01836251
5078.00   1.08776081   0.01856102
5080.00   1.08113849   0.01879901
5082.00   1.10941768   0.01925991
5084.00   1.12145615   0.01961705
5086.00   1.09163117   0.01948231
5088.00   1.07584155   0.01922893
5090.00   1.07801425   0.01903879
5092.00   1.10691106   0.01892777
5094.00   1.09497404   0.01871456
5096.00   1.06963074   0.01852271
5098.00   1.12062097   0.01884645
5100.00   1.09008980   0.01868694
5102.00   1.06354773   0.01845337
5104.00   1.07456052   0.01851422
5106.00   1.15104103   0.01881220
5108.00   1.10772216   0.01855543
5110.00   1.11307585   0.01855453
5112.00   1.11161637   0.01848699
5114.00   1.10297358   0.01854034
5116.00   1.11288750   0.01865024
5118.00   1.07138348   0.01839360
5120.00   1.07737947   0.01836482
5122.00   1.11346412   0.01849294
5124.00   1.11426997   0.01841806
5126.00   1.08819616   0.01826148
5128.00   1.10511684   0.01833804
5130.00   1.12758493   0.01849087
5132.00   1.12237191   0.01848792
5134.00   1.07825708   0.01820858
5136.00   1.08351946   0.01825039
5138.00   1.11384118   0.01840623
5140.00   1.08805275   0.01824570
5142.00   1.11071134   0.01834680
5144.00   1.12657905   0.01845118
5146.00   1.11323190   0.01844927
5148.00   1.11510706   0.01854640
5150.00   1.15607417   0.01881876
5152.00   1.12914073   0.01881499
5154.00   1.14278102   0.01896525
5156.00   1.13375843   0.01886835
5158.00   1.13295734   0.01881400
5160.00   1.13657033   0.01874393
5162.00   1.13547075   0.01861092
5164.00   1.14575171   0.01852405
5166.00   1.16785300   0.01853818
5168.00   1.16505647   0.01845130
5170.00   1.19709039   0.01855827
5172.00   1.17846560   0.01845329
5174.00   1.16299176   0.01841390
5176.00   1.18658531   0.01863015
5178.00   1.20716763   0.01879939
5180.00   1.20969820   0.01877799
5182.00   1.24064839   0.01884059
5184.00   1.26151276   0.01897233
5186.00   1.25771105   0.01896872
5188.00   1.23249984   0.01884095
5190.00   1.25273848   0.01897106
5192.00   1.29363358   0.01921255
5194.00   1.32101548   0.01931367
5196.00   1.33564568   0.01944241
5198.00   1.31309032   0.01943368
5200.00   1.32828450   0.01954151
5202.00   1.38326037   0.01974971
5204.00   1.35777140   0.01958960
5206.00   1.37114930   0.01962779
5208.00   1.39960408   0.01978131
5210.00   1.40927398   0.01989732
5212.00   1.43636084   0.02005371
5214.00   1.48444784   0.02020347
5216.00   1.49219513   0.02027912
5218.00   1.46759963   0.02018357
5220.00   1.47464120   0.02022171
5222.00   1.51761615   0.02040051
5224.00   1.54724348   0.02047379
5226.00   1.56090367   0.02045892
5228.00   1.60898077   0.02074155
5230.00   1.58275235   0.02055799
5232.00   1.63046598   0.02077357
5234.00   1.62118399   0.02067148
5236.00   1.65512443   0.02089790
5238.00   1.66608286   0.02100125
5240.00   1.68612063   0.02106438
5242.00   1.71092391   0.02115583
5244.00   1.73788047   0.02125210
5246.00   1.73694694   0.02120236
5248.00   1.78140426   0.02138911
5250.00   1.77815974   0.02134249
5252.00   1.84680581   0.02165022
5254.00   1.83658230   0.02162713
5256.00   1.88126421   0.02188546
5258.00   1.89417505   0.02194369
5260.00   1.92849600   0.02202678
5262.00   1.93626893   0.02198884
5264.00   1.93527460   0.02193224
5266.00   1.96008217   0.02199582
5268.00   2.01510334   0.02219152
5270.00   2.00673699   0.02215472
5272.00   1.99767196   0.02209917
5274.00   2.03706050   0.02226425
5276.00   2.09504342   0.02256680
5278.00   2.12916303   0.02271868
5280.00   2.10176349   0.02261435
5282.00   2.12692308   0.02273551
5284.00   2.13656783   0.02277772
5286.00   2.16319132   0.02290577
5288.00   2.16839314   0.02293174
5290.00   2.20691681   0.02309688
5292.00   2.24093032   0.02319654
5294.00   2.24898767   0.02325694
5296.00   2.24122739   0.02322495
5298.00   2.27781892   0.02334633
5300.00   2.26724219   0.02331548
5302.00   2.30151987   0.02342943
5304.00   2.29874563   0.02342898
5306.00   2.30109906   0.02342846
5308.00   2.39946461   0.02386390
5310.00   2.41299868   0.02390253
5312.00   2.40465307   0.02387926
5314.00   2.44440031   0.02403827
5316.00   2.44781280   0.02405777
5318.00   2.43642688   0.02399899
5320.00   2.44615507   0.02406553
5322.00   2.45195913   0.02407235
5324.00   2.46221590   0.02407376
5326.00   2.48682117   0.02416074
5328.00   2.50298357   0.02426226
5330.00   2.49548221   0.02424708
5332.00   2.51264596   0.02433686
5334.00   2.56902575   0.02458703
5336.00   2.61925745   0.02477505
5338.00   2.60267067   0.02477393
5340.00   2.59422016   0.02479259
5342.00   2.61381841   0.02486040
5344.00   2.64731598   0.02501360
5346.00   2.65072417   0.02505846
5348.00   2.68662071   0.02529945
5350.00   2.64694881   0.02519579
5352.00   2.74097776   0.02553761
5354.00   2.74247241   0.02558726
5356.00   2.76422524   0.02572424
5358.00   2.75195765   0.02567776
5360.00   2.75304866   0.02562183
5362.00   2.80737829   0.02579561
5364.00   2.83074045   0.02582764
5366.00   2.84093928   0.02587028
5368.00   2.85877013   0.02593091
5370.00   2.85481787   0.02594745
5372.00   2.84623837   0.02596069
5374.00   2.86954665   0.02610849
5376.00   2.89755130   0.02627309
5378.00   2.92566872   0.02642377
5380.00   2.92643452   0.02646126
5382.00   2.95489120   0.02660342
5384.00   2.93741441   0.02659409
5386.00   2.98634768   0.02683373
5388.00   2.98537207   0.02687772
5390.00   3.02515888   0.02715033
5392.00   3.02940249   0.02726050
5394.00   3.06611800   0.02750328
5396.00   3.05861044   0.02751274
5398.00   3.08804750   0.02772041
5400.00   3.16217709   0.02812845
5402.00   3.13518310   0.02811836
5404.00   3.13961864   0.02822581
5406.00   3.15351963   0.02840895
5408.00   3.17289424   0.02861605
5410.00   3.19087219   0.02884097
5412.00   3.18558288   0.02902565
5414.00   3.24223351   0.02945329
5416.00   3.19312549   0.02949613
5418.00   3.27408195   0.02994404
5420.00   3.24960351   0.03003182
5422.00   3.26530266   0.03020953
5424.00   3.29352403   0.03044825
5426.00   3.24368358   0.03036442
5428.00   3.27114463   0.03056291
5430.00   3.25009680   0.03059953
5432.00   3.30240464   0.03090919
5434.00   3.31161952   0.03112605
5436.00   3.32955050   0.03131478
5438.00   3.32901454   0.03142555
5440.00   3.37539887   0.03172975
5442.00   3.34728599   0.03174164
5444.00   3.33320284   0.03180600
5446.00   3.36310625   0.03203177
5448.00   3.31909609   0.03205673
5450.00   3.31174636   0.03209161
5452.00   3.32470250   0.03229414
5454.00   3.39872766   0.03261776
5456.00   3.28334570   0.03273089
5458.00   3.30724907   0.03460977
5460.00   3.33642507   0.03617065
5462.00   3.31704521   0.03608425
5464.00   3.27724552   0.03533847
5466.00   3.34560919   0.03507601
5468.00   3.34984899   0.03460266
5470.00   3.34607172   0.03418902
5472.00   3.36485720   0.03387724
5474.00   3.39884353   0.03379210
5476.00   3.39097571   0.03366657
5478.00   3.47829819   0.03411748
5480.00   3.32044101   0.03364094
5482.00   3.46383119   0.03436029
5484.00   3.46146655   0.03454182
5486.00   3.58210111   0.03509106
5488.00   3.55440617   0.03502773
5490.00   3.50684738   0.03481302
5492.00   3.60235071   0.03516338
5494.00   3.59404516   0.03521163
5496.00   3.55887747   0.03541489
5498.00   3.59081745   0.03796604
5500.00   3.70115781   0.03566560
5502.00   3.73202038   0.03604377
5504.00   3.81085634   0.03642554
5506.00   3.76764083   0.03633617
5508.00   3.78551078   0.03645605
5510.00   3.80728292   0.03658717
5512.00   3.92437339   0.03719370
5514.00   3.90628147   0.03725260
5516.00   3.92709064   0.03739002
5518.00   4.05487728   0.03801998
5520.00   4.03894806   0.03804600
5522.00   4.02426147   0.03801989
5524.00   4.11606789   0.03834280
5526.00   4.13270283   0.03849523
5528.00   4.24191189   0.03887963
5530.00   4.23477173   0.03890577
5532.00   4.27610254   0.03917343
5534.00   4.29237938   0.03922540
5536.00   4.41037464   0.03975161
5538.00   4.36687613   0.03962796
5540.00   4.44704151   0.04009245
5542.00   4.49693775   0.04048019
5544.00   4.84611464   0.07684606
5546.00   4.87502432   0.07631115
5548.00   4.87744141   0.07552711
5550.00   4.96751451   0.07546601
5552.00   5.02851295   0.07513439
5554.00   5.03771257   0.07452815
5556.00   5.05372477   0.07401290
5558.00   5.11983490   0.07390118
5560.00   5.12114191   0.07350203
5562.00   5.14008188   0.07321320
5564.00   5.17074776   0.07305542
5566.00   5.22903585   0.07309564
5568.00   5.28735971   0.07309880
5570.00   5.27801085   0.07280890
5572.00   5.26091051   0.07264227
5574.00   5.27398539   0.07291453
5576.00   5.31113434   0.07337289
5578.00   5.30961752   0.07311744
5580.00   5.34844398   0.07251640
5582.00   5.38715601   0.07152424
5584.00   5.39889908   0.07005940
5586.00   5.38085699   0.06825989
5588.00   5.43913412   0.06721751
5590.00   5.43939066   0.06655081
5592.00   5.38754892   0.06582717
5594.00   5.36172915   0.06527030
5596.00   5.42390299   0.06520050
5598.00   5.51732874   0.06527201
5600.00   5.53519249   0.06497703
5602.00   5.48008204   0.06449237
5604.00   5.41888094   0.06397709
5606.00   5.36576033   0.06303165
5608.00   5.40851593   0.06285721
5610.00   5.43063736   0.06262422
5612.00   5.38486242   0.06205424
5614.00   5.33893347   0.06148161
5616.00   5.34230661   0.06114237
5618.00   5.27814245   0.06032865
5620.00   5.29401731   0.06043388
5622.00   5.30901289   0.06064336
5624.00   5.26026773   0.06005080
5626.00   5.18658733   0.05858572
5628.00   5.19377089   0.05831929
5630.00   5.18809938   0.05808182
5632.00   5.14909220   0.05757797
5634.00   5.09518480   0.05695723
5636.00   5.06286001   0.05643395
5638.00   5.00533295   0.05588190
5640.00   5.00220537   0.05560338
5642.00   4.98054647   0.05522325
5644.00   4.91815710   0.05465431
5646.00   4.90492105   0.05431010
5648.00   4.86710882   0.05384915
5650.00   4.79873800   0.05327250
5652.00   4.72651386   0.05268880
5654.00   4.72528601   0.05248090
5656.00   4.73704481   0.05241156
5658.00   4.68143034   0.05217127
5660.00   4.64825106   0.05242895
5662.00   4.62605476   0.05311850
5664.00   4.64107275   0.05344699
5666.00   4.66604042   0.05294309
5668.00   4.54511261   0.05601033
5670.00   4.42963982   0.05898169
5672.00   4.41901159   0.05905476
5674.00   4.43553209   0.05755888
5676.00   4.42720747   0.05709568
5678.00   4.47183275   0.05821274
5680.00   4.48657370   0.06003668
5682.00   4.47747469   0.06053360
5684.00   4.37058115   0.05714118
5686.00   4.29557037   0.05471606
5688.00   4.25079966   0.05317173
5690.00   4.27191305   0.05152104
5692.00   4.26026297   0.04968994
5694.00   4.22213602   0.04835511
5696.00   4.14636087   0.04735961
5698.00   4.10951567   0.04666492
5700.00   4.09007692   0.04604438
5702.00   4.02329969   0.04534544
5704.00   3.99470592   0.04493096
5706.00   3.94534683   0.04443172
5708.00   3.91033387   0.04403127
5710.00   3.89116955   0.04376397
5712.00   3.87136054   0.04351681
5714.00   3.80735135   0.04308010
5716.00   3.75436473   0.04267834
5718.00   3.72169685   0.04232539
5720.00   3.67982936   0.04192206
5722.00   3.63452053   0.04157935
5724.00   3.61427236   0.04136140
5726.00   3.60211730   0.04116302
5728.00   3.57863164   0.04091876
5730.00   3.53991008   0.04060989
5732.00   3.49921632   0.04030750
5734.00   3.47799611   0.04008816
5736.00   3.45106816   0.03986632
5738.00   3.43420696   0.03970727
5740.00   3.43081546   0.03962061
5742.00   3.40433669   0.03942712
5744.00   3.40141106   0.03920549
5746.00   3.42349601   0.03967932
5748.00   3.42850232   0.04206129
5750.00   3.38368440   0.03845914
5752.00   3.35209918   0.03817604
5754.00   3.33474088   0.04365413
5756.00   3.33375573   0.04094916
5758.00   3.34855080   0.03935763
5760.00   3.35934091   0.03906568
5762.00   3.32275081   0.03892349
5764.00   3.31169391   0.03898154
5766.00   3.31602454   0.03916120
5768.00   3.30458140   0.03924766
5770.00   3.27882481   0.03916588
5772.00   3.30746341   0.03918993
5774.00   3.28958821   0.03891110
5776.00   3.26962686   0.03854763
5778.00   3.28225327   0.03830297
5780.00   3.28810239   0.03815559
5782.00   3.26031876   0.03802224
5784.00   3.26012993   0.03809932
5786.00   3.27453041   0.03830051
5788.00   3.29776263   0.03856331
5790.00   3.29488182   0.03863420
5792.00   3.30070949   0.03861803
5794.00   3.29685473   0.03847222
5796.00   3.30395961   0.03828416
5798.00   3.34427929   0.03816226
5800.00   3.35454059   0.03793140
5802.00   3.36429858   0.03782200
5804.00   3.37573624   0.03779083
5806.00   3.39616704   0.03781908
5808.00   3.44052005   0.03797052
5810.00   3.46487737   0.03804781
5812.00   3.45629144   0.03796558
5814.00   3.46631837   0.03799610
5816.00   3.49201012   0.03812172
5818.00   3.51599956   0.03821340
5820.00   3.52710128   0.03822021
5822.00   3.53657269   0.03825659
5824.00   3.55566382   0.03834606
5826.00   3.56943393   0.03839683
5828.00   3.57693124   0.03843307
5830.00   3.59393096   0.03851257
5832.00   3.61457992   0.03860404
5834.00   3.63603997   0.03870355
5836.00   3.65367031   0.03879022
5838.00   3.66925502   0.03887476
5840.00   3.72395253   0.03914085
5842.00   3.76502800   0.03931982
5844.00   3.76519990   0.03931914
5846.00   3.74870491   0.03927998
5848.00   3.79222369   0.03949418
5850.00   3.80539131   0.03957560
5852.00   3.82574296   0.03967121
5854.00   3.86526370   0.03984515
5856.00   3.90321040   0.04004040
5858.00   3.89696479   0.04003916
5860.00   3.88578153   0.04002362
5862.00   3.89664936   0.04011403
5864.00   3.92195630   0.04027180
5866.00   3.93607903   0.04035528
5868.00   3.96180654   0.04045716
5870.00   3.96015191   0.04048212
5872.00   3.94969463   0.04052284
5874.00   3.94859600   0.04065626
5876.00   3.94056249   0.04086861
5878.00   3.95545387   0.04146644
5880.00   3.94786382   0.04221221
5882.00   3.91203880   0.04313111
5884.00   3.85461307   0.04441540
5886.00   3.80205321   0.04656345
5888.00   3.76645684   0.04887801
5890.00   3.76266193   0.05057658
5892.00   3.77342796   0.05163497
5894.00   3.77348781   0.05225336
5896.00   3.77337527   0.05136661
5898.00   3.75328422   0.04893621
5900.00   3.75947165   0.04628486
5902.00   3.79659295   0.04404899
5904.00   3.84472871   0.04187838
5906.00   3.85827088   0.04002208
5908.00   3.86860967   0.03937787
5910.00   3.84395719   0.03927045
5912.00   3.81831264   0.03922917
5914.00   3.82202911   0.03925633
5916.00   3.79504108   0.03913302
5918.00   3.78846288   0.03910673
5920.00   3.78817058   0.03911024
5922.00   3.76557541   0.03901189
5924.00   3.73658729   0.03888994
5926.00   3.74000859   0.03892346
5928.00   3.73217034   0.03891335
5930.00   3.70971942   0.03880638
5932.00   3.69961071   0.03872488
5934.00   3.68688893   0.03866104
5936.00   3.66993403   0.03851870
5938.00   3.64277005   0.03830949
5940.00   3.60406184   0.03804000
5942.00   3.54875064   0.03769735
5944.00   3.52487016   0.03749553
5946.00   3.49999690   0.03735104
5948.00   3.46034884   0.03715697
5950.00   3.41255307   0.03697245
5952.00   3.35880828   0.03701736
5954.00   3.42174268   0.03711997
5956.00   3.40830922   0.03687860
5958.00   3.37140965   0.03665125
5960.00   3.36503291   0.03660506
5962.00   3.35970140   0.03654093
5964.00   3.31622696   0.03628293
5966.00   3.27650380   0.03606394
5968.00   3.27121997   0.03601223
5970.00   3.26912880   0.03597250
5972.00   3.19036984   0.03559004
5974.00   3.17142868   0.03547615
5976.00   3.15544510   0.03539424
5978.00   3.14002681   0.03530312
5980.00   3.14339328   0.03526168
5982.00   3.12085891   0.03511382
5984.00   3.06003261   0.03480371
5986.00   3.03427696   0.03464915
5988.00   3.03998923   0.03464028
5990.00   3.04871941   0.03463524
5992.00   3.01028728   0.03442927
5994.00   2.95912838   0.03416343
5996.00   2.93012905   0.03400166
5998.00   2.91822505   0.03391202
6000.00   2.88335872   0.03371333
6002.00   2.85251594   0.03353791
6004.00   2.82397914   0.03337483
6006.00   2.79980636   0.03319918
6008.00   2.77990890   0.03302922
6010.00   2.76780701   0.03296357
6012.00   2.73006320   0.03273235
6014.00   2.69278789   0.03248918
6016.00   2.66263938   0.03230433
6018.00   2.64716029   0.03219995
6020.00   2.64169526   0.03213269
6022.00   2.58058667   0.03176684
6024.00   2.53531981   0.03149911
6026.00   2.52414441   0.03142921
6028.00   2.51166201   0.03136238
6030.00   2.49660158   0.03126340
6032.00   2.45380330   0.03102105
6034.00   2.43226337   0.03088404
6036.00   2.42155933   0.03079604
6038.00   2.38877368   0.03056528
6040.00   2.36510682   0.03040548
6042.00   2.36314750   0.03036600
6044.00   2.36371422   0.03033844
6046.00   2.34292912   0.03018957
6048.00   2.30839443   0.02995641
6050.00   2.28524590   0.02980146
6052.00   2.25185728   0.02960786
6054.00   2.22729874   0.02946106
6056.00   2.22585011   0.02942520
6058.00   2.24206471   0.02950758
6060.00   2.22166538   0.02937806
6062.00   2.18613696   0.02917558
6064.00   2.15040612   0.02896760
6066.00   2.14114308   0.02889705
6068.00   2.17574954   0.02908061
6070.00   2.16437650   0.02900752
6072.00   2.13757849   0.02882054
6074.00   2.11235714   0.02864819
6076.00   2.09675193   0.02856424
6078.00   2.09803557   0.02854430
6080.00   2.10207152   0.02853707
6082.00   2.10071349   0.02851569
6084.00   2.08721280   0.02844703
6086.00   2.08047175   0.02843161
6088.00   2.08439636   0.02844996
6090.00   2.07300401   0.02838883
6092.00   2.06056571   0.02833820
6094.00   2.06571007   0.02839260
6096.00   2.08171153   0.02851187
6098.00   2.05172706   0.02841520
6100.00   2.02394652   0.02832973
6102.00   2.02278876   0.02842733
6104.00   2.03494096   0.02863750
6106.00   2.03505158   0.02877921
6108.00   1.99954379   0.02877542
6110.00   1.99099445   0.02893265
6112.00   1.99402773   0.02909001
6114.00   1.99720156   0.02912197
6116.00   1.99039686   0.02902117
6118.00   1.97427857   0.02875197
6120.00   1.99509656   0.02864554
6122.00   2.02622318   0.02859927
6124.00   2.01351333   0.02831580
6126.00   1.97518981   0.02795732
6128.00   1.98707950   0.02793665
6130.00   1.99426806   0.02792440
6132.00   1.97771454   0.02779956
6134.00   1.96953344   0.02773836
6136.00   1.98324203   0.02779090
6138.00   1.98477423   0.02779062
6140.00   1.96859276   0.02769299
6142.00   1.95486403   0.02761140
6144.00   1.95690787   0.02765137
6146.00   1.96651399   0.02771111
6148.00   1.97164118   0.02774767
6150.00   1.96884763   0.02777933
6152.00   1.96254158   0.02783116
6154.00   1.95400584   0.02785140
6156.00   1.96922719   0.02800168
6158.00   1.97231114   0.02807076
6160.00   1.96114051   0.02800575
6162.00   1.95354688   0.02786565
6164.00   1.95726395   0.02773129
6166.00   1.97042894   0.02766594
6168.00   1.98177481   0.02755154
6170.00   1.98095524   0.02736320
6172.00   1.96704328   0.02716669
6174.00   1.96971893   0.02714946
6176.00   1.97582114   0.02714787
6178.00   1.98256457   0.02715923
6180.00   1.98929298   0.02717293
6182.00   2.00672150   0.02723023
6184.00   2.02165914   0.02729931
6186.00   2.02651715   0.02732604
6188.00   2.02584648   0.02732174
6190.00   2.02238536   0.02729925
6192.00   2.01924396   0.02725697
6194.00   2.05164790   0.02742978
6196.00   2.07061386   0.02753077
6198.00   2.08252740   0.02760251
6200.00   2.08637023   0.02763758
6202.00   2.09873509   0.02769864
6204.00   2.11857295   0.02779961
6206.00   2.13014030   0.02787434
6208.00   2.13725901   0.02792418
6210.00   2.16050410   0.02803122
6212.00   2.16191459   0.02800962
6214.00   2.17685199   0.02804857
6216.00   2.17929196   0.02802170
6218.00   2.17791533   0.02798938
6220.00   2.19905162   0.02805693
6222.00   2.23142934   0.02818670
6224.00   2.25789976   0.02832549
6226.00   2.27358365   0.02840865
6228.00   2.28058171   0.02844659
6230.00   2.28609872   0.02851094
6232.00   2.30519748   0.02865686
6234.00   2.33065319   0.02888860
6236.00   2.33151126   0.02899550
6238.00   2.31531525   0.02895900
6240.00   2.31733775   0.02894226
6242.00   2.35725665   0.02906622
6244.00   2.39452958   0.02916308
6246.00   2.41143441   0.02915195
6248.00   2.40545464   0.02904597
6250.00   2.41496491   0.02905325
6252.00   2.42904353   0.02914066
6254.00   2.43622375   0.02924296
6256.00   2.43018723   0.02927696
6258.00   2.43509603   0.02932907
6260.00   2.46222425   0.02947732
6262.00   2.46717715   0.02950605
6264.00   2.46549535   0.02942448
6266.00   2.47166181   0.02933847
6268.00   2.48960471   0.02934035
6270.00   2.48427486   0.02926692
6272.00   2.47915196   0.02918652
6274.00   2.47810626   0.02917022
6276.00   2.48168278   0.02964360
6278.00   2.46563435   0.03039521
6280.00   2.46495605   0.03009866
6282.00   2.48152733   0.02994121
6284.00   2.47826576   0.02972080
6286.00   2.44980717   0.02936970
6288.00   2.43891621   0.02919406
6290.00   2.42251873   0.02918142
6292.00   2.41208363   0.02926657
6294.00   2.41618252   0.02952463
6296.00   2.42716098   0.02994033
6298.00   2.39613748   0.03019455
6300.00   2.39616108   0.03029208
6302.00   2.38599586   0.03027311
6304.00   2.36689162   0.03006413
6306.00   2.34431124   0.02956426
6308.00   2.33232999   0.02908901
6310.00   2.31339908   0.02875827
6312.00   2.29994798   0.02846516
6314.00   2.29289699   0.02819500
6316.00   2.27754855   0.02796889
6318.00   2.24011898   0.02773142
6320.00   2.23857117   0.02769511
6322.00   2.24013972   0.02767595
6324.00   2.22879100   0.02759514
6326.00   2.18833613   0.02734723
6328.00   2.18948388   0.02743638
6330.00   2.19035101   0.02744975
6332.00   2.17380762   0.02730935
6334.00   2.15227675   0.02711898
6336.00   2.14852786   0.02703536
6338.00   2.13995981   0.02692034
6340.00   2.13729978   0.02687494
6342.00   2.14123702   0.02690895
6344.00   2.14309764   0.02693257
6346.00   2.12685513   0.02680640
6348.00   2.10724163   0.02667487
6350.00   2.11385250   0.02675360
6352.00   2.13133121   0.02689207
6354.00   2.13638997   0.02689205
6356.00   2.09941268   0.02662134
6358.00   2.08981776   0.02667864
6360.00   2.11065173   0.02693755
6362.00   2.13290000   0.02714360
6364.00   2.13164163   0.02712395
6366.00   2.12935805   0.02702400
6368.00   2.15188408   0.02703779
6370.00   2.16732430   0.02696932
6372.00   2.16306663   0.02679310
6374.00   2.15555882   0.02668916
6376.00   2.17594695   0.02681001
6378.00   2.19810796   0.02693755
6380.00   2.21286845   0.02701779
6382.00   2.22935653   0.02710561
6384.00   2.25442481   0.02723312
6386.00   2.27339172   0.02731892
6388.00   2.29226255   0.02738875
6390.00   2.31746578   0.02748021
6392.00   2.33812213   0.02755124
6394.00   2.34181190   0.02755603
6396.00   2.35248637   0.02759050
6398.00   2.38652730   0.02777146
6400.00   2.42857790   0.02800353
6402.00   2.45098329   0.02811114
6404.00   2.45479608   0.02811808
6406.00   2.45720601   0.02812176
6408.00   2.47847009   0.02820484
6410.00   2.50592828   0.02831423
6412.00   2.53886676   0.02847807
6414.00   2.57964373   0.02864669
6416.00   2.61467957   0.02880473
6418.00   2.64588284   0.02894264
6420.00   2.66750646   0.02903617
6422.00   2.68568039   0.02911110
6424.00   2.71188378   0.02921378
6426.00   2.73185182   0.02928886
6428.00   2.74179077   0.02931976
6430.00   2.76092029   0.02939367
6432.00   2.80142856   0.02957229
6434.00   2.84498668   0.02976889
6436.00   2.87303162   0.02988053
6438.00   2.89779091   0.02998274
6440.00   2.92489624   0.03010074
6442.00   2.95117211   0.03021809
6444.00   2.96311307   0.03027038
6446.00   2.98498917   0.03037249
6448.00   3.02267957   0.03054088
6450.00   3.05382562   0.03066662
6452.00   3.05856705   0.03068973
6454.00   3.06885719   0.03071770
6456.00   3.08274865   0.03076768
6458.00   3.11294436   0.03091049
6460.00   3.16219401   0.03115915
6462.00   3.18204045   0.03125112
6464.00   3.19610023   0.03131680
6466.00   3.22014499   0.03143071
6468.00   3.23443794   0.03150896
6470.00   3.24825096   0.03155918
6472.00   3.25197482   0.03151463
6474.00   3.27357316   0.03154684
6476.00   3.30080867   0.03162294
6478.00   3.32884574   0.03171099
6480.00   3.36055374   0.03180100
6482.00   3.38316941   0.03186586
6484.00   3.42065907   0.03200867
6486.00   3.46480966   0.03218239
6488.00   3.49707794   0.03230282
6490.00   3.53397250   0.03245518
6492.00   3.57754350   0.03266937
6494.00   3.59691739   0.03281200
6496.00   3.60117459   0.03289886
6498.00   3.62571716   0.03305418
6500.00   3.66196084   0.03324378
6502.00   3.70997548   0.03345841
6504.00   3.75530124   0.03361484
6506.00   3.78795362   0.03368207
6508.00   3.79716682   0.03364706
6510.00   3.80541015   0.03361644
6512.00   3.82344055   0.03362384
6514.00   3.81593013   0.03353163
6516.00   3.79133344   0.03338910
6518.00   3.80669665   0.03344241
6520.00   3.82680511   0.03353509
6522.00   3.87203479   0.03373358
6524.00   3.93099713   0.03398285
6526.00   3.98634815   0.03421920
6528.00   4.01693487   0.03437116
6530.00   4.01934481   0.03441823
6532.00   4.01960039   0.03443106
6534.00   4.05154085   0.03454119
6536.00   4.09917736   0.03468990
6538.00   4.09612131   0.03463833
6540.00   4.12110519   0.03467807
6542.00   4.12570429   0.03465480
6544.00   4.11260176   0.03459107
6546.00   4.11668825   0.03460343
6548.00   4.13332605   0.03466482
6550.00   4.13013411   0.03468563
6552.00   4.15665102   0.03481474
6554.00   4.20615578   0.03500555
6556.00   4.20759916   0.03500611
6558.00   4.21581507   0.03505004
6560.00   4.22923088   0.03510937
6562.00   4.24307775   0.03514231
6564.00   4.22885704   0.03504993
6566.00   4.22546625   0.03501126
6568.00   4.26059437   0.03509877
6570.00   4.27066088   0.03508494
6572.00   4.25597572   0.03499515
6574.00   4.25542116   0.03498828
6576.00   4.26862669   0.03507045
6578.00   4.26637030   0.03505274
6580.00   4.28951788   0.03511709
6582.00   4.29988146   0.03511607
6584.00   4.27492189   0.03495742
6586.00   4.25567293   0.03484109
6588.00   4.26886034   0.03487251
6590.00   4.27310514   0.03488402
6592.00   4.27815723   0.03489294
6594.00   4.29765940   0.03496354
6596.00   4.27992868   0.03490551
6598.00   4.27333736   0.03487179
6600.00   4.27040768   0.03485538
6602.00   4.26595068   0.03483624
6604.00   4.26654673   0.03482107
6606.00   4.25505877   0.03475070
6608.00   4.25490999   0.03472893
6610.00   4.24804735   0.03466882
6612.00   4.21708965   0.03451569
6614.00   4.19461489   0.03441183
6616.00   4.20068979   0.03442165
6618.00   4.18934917   0.03436209
6620.00   4.17696905   0.03430403
6622.00   4.17532206   0.03428914
6624.00   4.16606760   0.03424253
6626.00   4.16838598   0.03424093
6628.00   4.17819738   0.03427344
6630.00   4.17142534   0.03423981
6632.00   4.14367867   0.03411283
6634.00   4.11768150   0.03399548
6636.00   4.10735369   0.03393872
6638.00   4.09818411   0.03389208
6640.00   4.08854866   0.03383626
6642.00   4.07889605   0.03376742
6644.00   4.07445478   0.03372058
6646.00   4.06234360   0.03366131
6648.00   4.04298449   0.03357874
6650.00   4.03007746   0.03352100
6652.00   4.04532862   0.03357910
6654.00   4.03853226   0.03354323
6656.00   4.00843430   0.03341252
6658.00   3.98313069   0.03329735
6660.00   3.97347736   0.03324892
6662.00   3.95288491   0.03316690
6664.00   3.89482570   0.03294154
6666.00   3.85956836   0.03278982
6668.00   3.84421921   0.03270335
6670.00   3.83649731   0.03265089
6672.00   3.80732512   0.03254169
6674.00   3.79174042   0.03247753
6676.00   3.77991486   0.03241492
6678.00   3.76987433   0.03236200
6680.00   3.75867295   0.03231889
6682.00   3.74746442   0.03225880
6684.00   3.70955491   0.03209463
6686.00   3.68044209   0.03196779
6688.00   3.66362548   0.03188658
6690.00   3.63780379   0.03176078
6692.00   3.61360455   0.03164482
6694.00   3.57577157   0.03148814
6696.00   3.54962087   0.03139312
6698.00   3.52227879   0.03129018
6700.00   3.48337555   0.03112722
6702.00   3.45993829   0.03103562
6704.00   3.44013381   0.03098325
6706.00   3.40985298   0.03087781
6708.00   3.37956548   0.03074961
6710.00   3.35393977   0.03062711
6712.00   3.33225322   0.03050901
6714.00   3.30815387   0.03037625
6716.00   3.28164029   0.03023510
6718.00   3.24870706   0.03007817
6720.00   3.22687697   0.02997436
6722.00   3.18640327   0.02979682
6724.00   3.14499450   0.02959264
6726.00   3.11828542   0.02945055
6728.00   3.08937144   0.02931676
6730.00   3.04769492   0.02914486
6732.00   3.03344250   0.02908548
6734.00   2.99850273   0.02893041
6736.00   2.94281578   0.02867908
6738.00   2.90481281   0.02849824
6740.00   2.86726880   0.02833907
6742.00   2.83507824   0.02818481
6744.00   2.80031276   0.02801481
6746.00   2.76682091   0.02784755
6748.00   2.74637604   0.02774070
6750.00   2.70093989   0.02752166
6752.00   2.66952491   0.02736552
6754.00   2.64127183   0.02722609
6756.00   2.61161256   0.02708671
6758.00   2.58245397   0.02695504
6760.00   2.56194043   0.02682238
6762.00   2.53029132   0.02666991
6764.00   2.49027085   0.02648006
6766.00   2.45756626   0.02630604
6768.00   2.42497039   0.02614209
6770.00   2.41331911   0.02608937
6772.00   2.39780593   0.02601417
6774.00   2.37094808   0.02587843
6776.00   2.33937764   0.02573047
6778.00   2.31452656   0.02560868
6780.00   2.30512500   0.02556287
6782.00   2.27695274   0.02541688
6784.00   2.24027133   0.02521887
6786.00   2.22646546   0.02513738
6788.00   2.20590162   0.02502195
6790.00   2.16835380   0.02483184
6792.00   2.15492225   0.02475480
6794.00   2.16087890   0.02477475
6796.00   2.14972425   0.02470982
6798.00   2.13324666   0.02462953
6800.00   2.11550689   0.02453814
6802.00   2.09840226   0.02445047
6804.00   2.08900142   0.02440934
6806.00   2.08442783   0.02438689
6808.00   2.07303882   0.02433264
6810.00   2.05857444   0.02424943
6812.00   2.04719329   0.02417476
6814.00   2.04642439   0.02416317
6816.00   2.04655051   0.02418250
6818.00   2.04211688   0.02416297
6820.00   2.03395152   0.02412735
6822.00   2.02149200   0.02410282
6824.00   2.00995612   0.02413636
6826.00   1.99693549   0.02422517
6828.00   2.00953102   0.02443744
6830.00   2.03218627   0.02468135
6832.00   2.04214120   0.02480397
6834.00   2.02578402   0.02469356
6836.00   2.01655006   0.02452292
6838.00   2.02696395   0.02443656
6840.00   2.04688501   0.02441176
6842.00   2.06065917   0.02438039
6844.00   2.04871774   0.02423940
6846.00   2.04527259   0.02418117
6848.00   2.03953123   0.02413595
6850.00   2.03822303   0.02412374
6852.00   2.04919028   0.02416855
6854.00   2.07625890   0.02429488
6856.00   2.07502151   0.02430528
6858.00   2.07101941   0.02441034
6860.00   2.07518101   0.02465367
6862.00   2.08528543   0.02495938
6864.00   2.08126259   0.02511340
6866.00   2.07474875   0.02559857
6868.00   2.07193017   0.02655230
6870.00   2.09187579   0.02790109
6872.00   2.13603473   0.02921897
6874.00   2.15669537   0.02946292
6876.00   2.15606284   0.02869542
6878.00   2.14420962   0.02761749
6880.00   2.12916875   0.02662567
6882.00   2.12309003   0.02587450
6884.00   2.13878036   0.02559888
6886.00   2.13199973   0.02556367
6888.00   2.12435985   0.02579327
6890.00   2.13712335   0.02621069
6892.00   2.15863085   0.02651598
6894.00   2.15956688   0.02650697
6896.00   2.17095637   0.02649924
6898.00   2.17237258   0.02640700
6900.00   2.15617752   0.02618240
6902.00   2.16484237   0.02608752
6904.00   2.17386007   0.02602114
6906.00   2.17129302   0.02599052
6908.00   2.16402793   0.02592739
6910.00   2.16226578   0.02579363
6912.00   2.17062688   0.02564484
6914.00   2.17021322   0.02596318
6916.00   2.15718484   0.02624893
6918.00   2.15310073   0.02620764
6920.00   2.16795802   0.02576167
6922.00   2.15859079   0.02552986
6924.00   2.15269303   0.02552585
6926.00   2.13089013   0.02541150
6928.00   2.10484958   0.02519215
6930.00   2.10119510   0.02510966
6932.00   2.11051393   0.02507859
6934.00   2.10473847   0.02501992
6936.00   2.08918548   0.02495258
6938.00   2.07507229   0.02491282
6940.00   2.06723809   0.02493441
6942.00   2.04512048   0.02497103
6944.00   2.03509307   0.02507825
6946.00   2.03289199   0.02506843
6948.00   2.02453542   0.02485907
6950.00   2.00764751   0.02469664
6952.00   2.00858116   0.02466164
6954.00   2.00729179   0.02453891
6956.00   1.99380076   0.02432925
6958.00   1.97278976   0.02413723
6960.00   1.96164238   0.02404792
6962.00   1.95941198   0.02401985
6964.00   1.95448220   0.02393458
6966.00   1.94325209   0.02378525
6968.00   1.93242419   0.02363397
6970.00   1.94139493   0.02358154
6972.00   1.91739213   0.02346686
6974.00   1.89637077   0.02340183
6976.00   1.89433682   0.02341518
6978.00   1.90329134   0.02345375
6980.00   1.89568770   0.02340551
6982.00   1.87203038   0.02324929
6984.00   1.84980690   0.02314551
6986.00   1.83873892   0.02315138
6988.00   1.83918011   0.02322897
6990.00   1.82719457   0.02332113
6992.00   1.81554174   0.02330295
6994.00   1.80830801   0.02318520
6996.00   1.80394423   0.02302716
6998.00   1.80773866   0.02297854
7000.00   1.80624282   0.02293919
7002.00   1.79703331   0.02292175
7004.00   1.78402269   0.02289094
7006.00   1.77692652   0.02288307
7008.00   1.75705087   0.02286020
7010.00   1.76374578   0.02286967
7012.00   1.76607335   0.02277914
7014.00   1.75455534   0.02262587
7016.00   1.74053669   0.02254953
7018.00   1.72368109   0.02246972
7020.00   1.72695923   0.02249476
7022.00   1.73149812   0.02251133
7024.00   1.73556173   0.02253063
7026.00   1.75048399   0.02265286
7028.00   1.72412074   0.02255895
7030.00   1.71116078   0.02242642
7032.00   1.70911217   0.02229793
7034.00   1.70769370   0.02219317
7036.00   1.69729424   0.02209348
7038.00   1.72119534   0.02230025
7040.00   1.72591877   0.02238471
7042.00   1.71462286   0.02233984
7044.00   1.70825875   0.02228475
7046.00   1.71581399   0.02227797
7048.00   1.70665967   0.02218729
7050.00   1.69421923   0.02219461
7052.00   1.68896067   0.02225978
7054.00   1.69110489   0.02227561
7056.00   1.68895066   0.02225837
7058.00   1.67358744   0.02205640
7060.00   1.68314898   0.02207301
7062.00   1.70514357   0.02221799
7064.00   1.70494545   0.02218510
7066.00   1.68103254   0.02200817
7068.00   1.66541350   0.02190364
7070.00   1.66479146   0.02182517
7072.00   1.67416728   0.02220784
7074.00   1.68732011   0.02330527
7076.00   1.69731510   0.02476348
7078.00   1.68673551   0.02372022
7080.00   1.66410959   0.02335022
7082.00   1.64156282   0.02356068
7084.00   1.64573967   0.02266570
7086.00   1.65637267   0.02196137
7088.00   1.64955986   0.02175671
7090.00   1.63741338   0.02172419
7092.00   1.62305486   0.02162835
7094.00   1.62504733   0.02162935
7096.00   1.63304865   0.02163505
7098.00   1.62676334   0.02157300
7100.00   1.61858892   0.02150892
7102.00   1.61634505   0.02149227
7104.00   1.63096035   0.02159540
7106.00   1.62835217   0.02157541
7108.00   1.60702932   0.02143165
7110.00   1.58978224   0.02130885
7112.00   1.59767425   0.02134936
7114.00   1.60008466   0.02139247
7116.00   1.59221649   0.02136155
7118.00   1.58241904   0.02130892
7120.00   1.57787371   0.02128188
7122.00   1.58152628   0.02129736
7124.00   1.56926620   0.02124335
7126.00   1.55992711   0.02118829
7128.00   1.55489826   0.02116013
7130.00   1.55841482   0.02118644
7132.00   1.55567968   0.02116721
7134.00   1.54897881   0.02108550
7136.00   1.54801607   0.02105320
7138.00   1.56198442   0.02112367
7140.00   1.56551647   0.02117432
7142.00   1.56633747   0.02129917
7144.00   1.53452790   0.02115389
7146.00   1.52836990   0.02108956
7148.00   1.53044665   0.02107752
7150.00   1.52317297   0.02105501
7152.00   1.54899919   0.02123888
7154.00   1.53986347   0.02115631
7156.00   1.51356733   0.02100413
7158.00   1.50084162   0.02093877
7160.00   1.51608050   0.02099825
7162.00   1.50995636   0.02096965
7164.00   1.50589657   0.02104712
7166.00   1.50289500   0.02118523
7168.00   1.49314547   0.02138001
7170.00   1.48264825   0.02175640
7172.00   1.48642254   0.02219372
7174.00   1.49005949   0.02249897
7176.00   1.49202287   0.02271376
7178.00   1.50975192   0.02292176
7180.00   1.51811469   0.02280014
7182.00   1.53661931   0.02271769
7184.00   1.54374278   0.02281412
7186.00   1.54416084   0.02313934
7188.00   1.54049110   0.02348521
7190.00   1.53957283   0.02345700
7192.00   1.55312788   0.02324183
7194.00   1.56630552   0.02313806
7196.00   1.55858099   0.02311271
7198.00   1.55216634   0.02318142
7200.00   1.55344522   0.02304464
7202.00   1.56534684   0.02321501
7204.00   1.59020293   0.02349955
7206.00   1.61331642   0.02356313
7208.00   1.60747898   0.02307191
7210.00   1.61825609   0.02264530
7212.00   1.61643839   0.02215660
7214.00   1.62118578   0.02187214
7216.00   1.63451731   0.02181114
7218.00   1.65106666   0.02182564
7220.00   1.66722775   0.02204525
7222.00   1.66345596   0.02202117
7224.00   1.65880299   0.02199273
7226.00   1.66205740   0.02211080
7228.00   1.69118512   0.02240796
7230.00   1.70529115   0.02262078
7232.00   1.70518637   0.02292532
7234.00   1.71006775   0.02356266
7236.00   1.73135185   0.02453103
7238.00   1.74980199   0.02535061
7240.00   1.75257838   0.02551877
7242.00   1.77063704   0.02577638
7244.00   1.78083217   0.02597088
7246.00   1.76903439   0.02573987
7248.00   1.77535307   0.02510327
7250.00   1.79582036   0.02473494
7252.00   1.80424440   0.02446470
7254.00   1.81408632   0.02438052
7256.00   1.81769228   0.02442891
7258.00   1.82523930   0.02425046
7260.00   1.83114004   0.02391849
7262.00   1.84153700   0.02383715
7264.00   1.85396183   0.02409236
7266.00   1.88627970   0.02452463
7268.00   1.90022469   0.02454042
7270.00   1.90073240   0.02446710
7272.00   1.90305221   0.02468865
7274.00   1.92079008   0.02538715
7276.00   1.91045380   0.02611614
7278.00   1.93302107   0.02672476
7280.00   1.95293105   0.02682453
7282.00   1.97118855   0.02626674
7284.00   1.97078097   0.02516966
7286.00   1.99767590   0.02480898
7288.00   1.99732816   0.02484453
7290.00   2.00075650   0.02515437
7292.00   2.02015758   0.02553709
7294.00   2.03837228   0.02570500
7296.00   2.00424194   0.02517788
7298.00   1.99638784   0.02473482
7300.00   2.00215316   0.02460781
7302.00   2.01422048   0.02481409
7304.00   2.03314805   0.02520725
7306.00   2.04038143   0.02546794
7308.00   2.06485653   0.02544830
7310.00   2.08155990   0.02536932
7312.00   2.08039021   0.02552391
7314.00   2.09047198   0.02614403
7316.00   2.08639455   0.02620330
7318.00   2.09141994   0.02619406
7320.00   2.11125183   0.02615643
7322.00   2.13329458   0.02592958
7324.00   2.12456894   0.02521657
7326.00   2.12760520   0.02486865
7328.00   2.12246919   0.02476548
7330.00   2.12343574   0.02485591
7332.00   2.12412190   0.02495734
7334.00   2.12045574   0.02493812
7336.00   2.13134933   0.02516243
7338.00   2.14415932   0.02547661
7340.00   2.15533471   0.02562904
7342.00   2.16114426   0.02549281
7344.00   2.15937996   0.02549965
7346.00   2.14348674   0.02523083
7348.00   2.12860990   0.02484759
7350.00   2.13230872   0.02458752
7352.00   2.13541126   0.02448681
7354.00   2.14412737   0.02455716
7356.00   2.14449048   0.02468543
7358.00   2.14366746   0.02475216
7360.00   2.14343119   0.02477994
7362.00   2.14590645   0.02491823
7364.00   2.14970660   0.02501563
7366.00   2.13054895   0.02504069
7368.00   2.11978984   0.02506415
7370.00   2.12651253   0.02510687
7372.00   2.14749146   0.02520090
7374.00   2.13437581   0.02490116
7376.00   2.12286687   0.02452582
7378.00   2.12029243   0.02422458
7380.00   2.13239956   0.02414281
7382.00   2.13036561   0.02421027
7384.00   2.14772463   0.02434998
7386.00   2.12830949   0.02428187
7388.00   2.09368324   0.02413796
7390.00   2.11114240   0.02428549
7392.00   2.13599324   0.02452245
7394.00   2.13329601   0.02455661
7396.00   2.12912822   0.02457157
7398.00   2.12977242   0.02463813
7400.00   2.11913490   0.02463965
7402.00   2.10844135   0.02457042
7404.00   2.11651230   0.02452865
7406.00   2.13372207   0.02452570
7408.00   2.14100575   0.02445917
7410.00   2.12111855   0.02417983
7412.00   2.12216926   0.02406104
7414.00   2.13468409   0.02412965
7416.00   2.13901496   0.02419352
7418.00   2.12898278   0.02413977
7420.00   2.12505221   0.02407651
7422.00   2.12718177   0.02396993
7424.00   2.11457825   0.02390734
7426.00   2.11240315   0.02396996
7428.00   2.13216567   0.02412060
7430.00   2.12440372   0.02409821
7432.00   2.12688899   0.02414067
7434.00   2.13761353   0.02425695
7436.00   2.15167260   0.02437783
7438.00   2.16593885   0.02444759
7440.00   2.17594910   0.02449386
7442.00   2.18101954   0.02448306
7444.00   2.17567348   0.02437517
7446.00   2.17690158   0.02427964
7448.00   2.20388484   0.02434538
7450.00   2.20782757   0.02434413
7452.00   2.19755864   0.02429717
7454.00   2.20798159   0.02436360
7456.00   2.22889590   0.02448457
7458.00   2.23197484   0.02450852
7460.00   2.23923874   0.02457364
7462.00   2.24211097   0.02462185
7464.00   2.24434114   0.02466294
7466.00   2.25701523   0.02475545
7468.00   2.26723266   0.02487931
7470.00   2.28464103   0.02504108
7472.00   2.29195905   0.02510693
7474.00   2.29186273   0.02512460
7476.00   2.29624677   0.02519208
7478.00   2.31101584   0.02529412
7480.00   2.32743239   0.02538542
7482.00   2.33611870   0.02541653
7484.00   2.33465123   0.02537373
7486.00   2.34413791   0.02535805
7488.00   2.35979486   0.02533072
7490.00   2.36625266   0.02526953
7492.00   2.36637807   0.02520994
7494.00   2.36627889   0.02518981
7496.00   2.37233281   0.02521665
7498.00   2.39028621   0.02529102
7500.00   2.38556743   0.02525343
7502.00   2.38848686   0.02525683
7504.00   2.40434647   0.02533195
7506.00   2.41682863   0.02538208
7508.00   2.42879844   0.02542993
7510.00   2.43409872   0.02544490
7512.00   2.43244052   0.02543802
7514.00   2.43803906   0.02549004
7516.00   2.42964530   0.02549339
7518.00   2.42663932   0.02562563
7520.00   2.42300534   0.02584037
7522.00   2.42700839   0.02606511
7524.00   2.44062877   0.02621102
7526.00   2.45429015   0.02631780
7528.00   2.44140387   0.02621672
7530.00   2.43650055   0.02600461
7532.00   2.44845176   0.02582007
7534.00   2.45347762   0.02572319
7536.00   2.43430996   0.02560699
7538.00   2.43704677   0.02555755
7540.00   2.45206785   0.02557185
7542.00   2.44939637   0.02554013
7544.00   2.42825818   0.02544553
7546.00   2.40125132   0.02529048
7548.00   2.40882874   0.02530452
7550.00   2.41654825   0.02533596
7552.00   2.40015602   0.02528124
7554.00   2.38230777   0.02526043
7556.00   2.37439823   0.02525917
7558.00   2.37839603   0.02527724
7560.00   2.38595033   0.02529505
7562.00   2.38707042   0.02528352
7564.00   2.35863590   0.02513050
7566.00   2.33269691   0.02507790
7568.00   2.31779742   0.02515586
7570.00   2.31232715   0.02526651
7572.00   2.30357862   0.02528900
7574.00   2.30143929   0.02537877
7576.00   2.30284333   0.02534947
7578.00   2.29784369   0.02515841
7580.00   2.27355266   0.02485257
7582.00   2.24187303   0.02462103
7584.00   2.22711682   0.02453699
7586.00   2.21341634   0.02445640
7588.00   2.19968152   0.02441464
7590.00   2.18973589   0.02452146
7592.00   2.18231869   0.02494071
7594.00   2.15280151   0.02604216
7596.00   2.14131856   0.02888370
7598.00   2.14709449   0.03378373
7600.00   2.15967894   0.03990735
7602.00   2.15884709   0.04574740
7604.00   2.17477441   0.05007303
7606.00   2.16272807   0.05248123
7608.00   2.12570381   0.05185525
7610.00   2.08896351   0.04801224
7612.00   2.08115745   0.04323473
7614.00   2.07862949   0.03825940
7616.00   2.05310559   0.03338831
7618.00   2.00760365   0.02930155
7620.00   1.96543825   0.02684812
7622.00   1.95393670   0.02639257
7624.00   1.96967793   0.02806831
7626.00   1.99455166   0.03070938
7628.00   2.01163864   0.03290691
7630.00   2.01543903   0.03372901
7632.00   2.02362442   0.03384623
7634.00   2.02980351   0.03343418
7636.00   2.01885891   0.03264226
7638.00   1.99865019   0.03174113
7640.00   1.99088764   0.03099435
7642.00   1.98794162   0.03035272
7644.00   1.99330294   0.02975373
7646.00   1.99346220   0.02913688
7648.00   1.98921454   0.02851481
7650.00   1.99394739   0.02799015
7652.00   2.00586677   0.02755058
7654.00   2.01750898   0.02722255
7656.00   2.02731204   0.02695338
7658.00   2.03228116   0.02669445
7660.00   2.02899575   0.02646147
7662.00   2.03300238   0.02603271
7664.00   2.03437352   0.02569096
7666.00   2.03719711   0.02545312
7668.00   2.04826903   0.02523001
7670.00   2.04179597   0.02495006
7672.00   2.04709911   0.02468801
7674.00   2.05789161   0.02460377
7676.00   2.07845688   0.02467312
7678.00   2.10291481   0.02468654
7680.00   2.11454988   0.02466115
7682.00   2.12399840   0.02465154
7684.00   2.14355063   0.02468346
7686.00   2.15496731   0.02468892
7688.00   2.13963866   0.02463625
7690.00   2.16659760   0.02473032
7692.00   2.20238304   0.02488531
7694.00   2.21918654   0.02499653
7696.00   2.21468663   0.02501392
7698.00   2.21958256   0.02495816
7700.00   2.23001790   0.02492925
7702.00   2.26709747   0.02510581
7704.00   2.30478024   0.02528946
7706.00   2.30943418   0.02530080
7708.00   2.29893899   0.02546171
7710.00   2.31912065   0.02593685
7712.00   2.35163093   0.02657405
7714.00   2.37400317   0.02712196
7716.00   2.37217164   0.02731981
7718.00   2.39279008   0.02713657
7720.00   2.40785336   0.02691008
7722.00   2.42177868   0.02661975
7724.00   2.43920493   0.02631387
7726.00   2.45510697   0.02607024
7728.00   2.51230264   0.02631124
7730.00   2.53792763   0.02638475
7732.00   2.54162526   0.02632757
7734.00   2.55149817   0.02630874
7736.00   2.58854222   0.02646768
7738.00   2.59417224   0.02644612
7740.00   2.59549165   0.02638001
7742.00   2.61915183   0.02651568
7744.00   2.65481782   0.02691831
7746.00   2.65079093   0.02742274
7748.00   2.67945194   0.02810350
7750.00   2.71195769   0.02847098
7752.00   2.71873879   0.02849857
7754.00   2.71003509   0.02839551
7756.00   2.73585057   0.02831532
7758.00   2.75211501   0.02797411
7760.00   2.76066470   0.02773475
7762.00   2.78601098   0.02779767
7764.00   2.81256485   0.02793846
7766.00   2.83119273   0.02790789
7768.00   2.86972642   0.02799890
7770.00   2.89604831   0.02805563
7772.00   2.88248634   0.02796121
7774.00   2.84388471   0.02779925
7776.00   2.83623147   0.02776792
7778.00   2.87435913   0.02798960
7780.00   2.89847445   0.02814835
7782.00   2.88975644   0.02810056
7784.00   2.87633586   0.02793490
7786.00   2.91161609   0.02805465
7788.00   2.93599248   0.02826241
7790.00   2.93609357   0.02856894
7792.00   2.91788197   0.02887732
7794.00   2.90452504   0.02889655
7796.00   2.92807698   0.02902965
7798.00   2.95059586   0.02900265
7800.00   2.96466184   0.02876653
7802.00   2.98558497   0.02850477
7804.00   2.98063350   0.02844408
7806.00   2.98051834   0.02853245
7808.00   2.98460412   0.02863825
7810.00   2.97944999   0.02863969
7812.00   2.98029590   0.02860485
7814.00   2.97421670   0.02850115
7816.00   2.97471833   0.02870176
7818.00   2.98031735   0.02910737
7820.00   2.99484253   0.02952405
7822.00   3.00109792   0.02968321
7824.00   3.01881409   0.03009864
7826.00   3.00866389   0.03060813
7828.00   2.98982811   0.03077059
7830.00   2.97861695   0.03020001
7832.00   2.96374321   0.02867707
7834.00   2.96786427   0.02810703
7836.00   2.97041893   0.02817767
7838.00   2.97495437   0.02850281
7840.00   2.97315764   0.02865770
7842.00   2.97971845   0.02866020
7844.00   2.96580243   0.02859797
7846.00   2.95034909   0.02853498
7848.00   2.93342090   0.02860850
7850.00   2.92736530   0.02897279
7852.00   2.95885658   0.02954044
7854.00   2.95049357   0.02968154
7856.00   2.90692234   0.02955877
7858.00   2.87732983   0.02932731
7860.00   2.88527751   0.02898117
7862.00   2.88262963   0.02866138
7864.00   2.86567497   0.02850818
7866.00   2.85524654   0.02852181
7868.00   2.85236430   0.02858909
7870.00   2.84220886   0.02857967
7872.00   2.85128665   0.02862372
7874.00   2.84882474   0.02863572
7876.00   2.83564162   0.02853793
7878.00   2.81473613   0.02835738
7880.00   2.78008342   0.02825491
7882.00   2.75043607   0.02783732
7884.00   2.73888397   0.02889931
#7886.00   2.78536153   0.03209238
#7888.00   2.74006343   0.03503788
#7890.00   2.87674832   0.03309312
#7892.00   2.73830795   0.02979616
7894.00   2.65233159   0.02797653
7896.00   2.64628816   0.02758579
7898.00   2.62024045   0.02715443
7900.00   2.60742545   0.02695027
7902.00   2.59944916   0.02688507
7904.00   2.57045221   0.02671088
7906.00   2.54023814   0.02662341
7908.00   2.53609252   0.02697244
7910.00   2.54286575   0.02776902
7912.00   2.51402092   0.02817346
7914.00   2.48091125   0.02825468
7916.00   2.45707440   0.02818482
7918.00   2.44763207   0.02814614
7920.00   2.44455743   0.02772429
7922.00   2.44763494   0.02720516
7924.00   2.43101788   0.02683471
7926.00   2.39513087   0.02665860
7928.00   2.36827922   0.02644901
7930.00   2.38629413   0.02640876
7932.00   2.38576698   0.02641648
7934.00   2.35118556   0.02622582
7936.00   2.30571961   0.02577540
7938.00   2.28685069   0.02528022
7940.00   2.27932954   0.02512838
7942.00   2.26938462   0.02513094
7944.00   2.24887943   0.02511718
7946.00   2.21344924   0.02500828
7948.00   2.15429664   0.02491560
7950.00   2.12085223   0.02480409
7952.00   2.11465001   0.02468620
7954.00   2.10611916   0.02449936
7956.00   2.07317162   0.02425176
7958.00   2.05737758   0.02423557
7960.00   2.02498603   0.02462524
7962.00   1.98754692   0.02523296
7964.00   1.95940006   0.02560408
7966.00   1.95469952   0.02530590
7968.00   1.92140687   0.02487466
7970.00   1.89106691   0.02422502
7972.00   1.87812912   0.02359907
7974.00   1.86583698   0.02321443
7976.00   1.81623900   0.02310737
7978.00   1.86861324   0.02352817
7980.00   1.81714332   0.02511706
7982.00   1.77848744   0.02662666
7984.00   1.75371933   0.02650920
7986.00   1.80221128   0.02443232
7988.00   1.69436109   0.02310438
7990.00   1.67391026   0.02293886
7992.00   1.66161144   0.02337657
7994.00   1.63934934   0.02336988
7996.00   1.59059680   0.02301416
7998.00   1.55625343   0.02260113
8000.00   1.53558540   0.02191332
8002.00   1.50979805   0.02113675
8004.00   1.47701299   0.02080672
8006.00   1.45531940   0.02059633
8008.00   1.43341923   0.02054146
8010.00   1.42020071   0.02067708
8012.00   1.40444887   0.02077536
8014.00   1.37654781   0.02056251
8016.00   1.32775128   0.02019999
8018.00   1.29824734   0.02002170
8020.00   1.28041875   0.02003886
8022.00   1.25819969   0.02016435
8024.00   1.22401083   0.02026326
8026.00   1.19083035   0.02021731
8028.00   1.16380441   0.02007595
8030.00   1.13743591   0.01972651
8032.00   1.10478628   0.01907256
8034.00   1.08001626   0.01833185
8036.00   1.06192291   0.01792547
8038.00   1.04269111   0.01774301
8040.00   1.01671267   0.01757940
8042.00   0.98232955   0.01728708
8044.00   0.96683598   0.01713498
8046.00   0.94232219   0.01697225
8048.00   0.91633224   0.01712183
8050.00   0.89636040   0.01755892
8052.00   0.88405681   0.01772743
8054.00   0.85956448   0.01736420
8056.00   0.82483786   0.01688066
8058.00   0.79875427   0.01651103
8060.00   0.78763944   0.01640651
8062.00   0.78070855   0.01649521
8064.00   0.76339102   0.01640160
8066.00   0.74392945   0.01609067
8068.00   0.73028916   0.01561676
8070.00   0.71534222   0.01509176
8072.00   0.69501311   0.01480443
8074.00   0.67422062   0.01464620
8076.00   0.65980417   0.01449559
8078.00   0.64415878   0.01432688
8080.00   0.62814742   0.01422099
8082.00   0.61488789   0.01415191
8084.00   0.60477901   0.01403038
8086.00   0.59662485   0.01393519
8088.00   0.58424008   0.01384362
8090.00   0.56668323   0.01372674
8092.00   0.55556995   0.01364526
8094.00   0.54009372   0.01350752
8096.00   0.52364677   0.01335387
8098.00   0.50967979   0.01328438
8100.00   0.49663767   0.01329905
8102.00   0.48578548   0.01324759
8104.00   0.48523247   0.01322662
8106.00   0.48230705   0.01314466
8108.00   0.47124818   0.01295509
8110.00   0.45979926   0.01276131
8112.00   0.45465747   0.01268509
8114.00   0.44538245   0.01257388
8116.00   0.43036938   0.01241229
8118.00   0.41439912   0.01224190
8120.00   0.40774235   0.01214447
8122.00   0.40446076   0.01209745
8124.00   0.39747384   0.01204997
8126.00   0.38565972   0.01196089
8128.00   0.37302545   0.01183357
8130.00   0.36353731   0.01171806
8132.00   0.35820389   0.01174807
8134.00   0.34904346   0.01187766
8136.00   0.34589911   0.01206933
8138.00   0.34957281   0.01215236
8140.00   0.33692649   0.01185597
8142.00   0.31809953   0.01161794
8144.00   0.31366435   0.01162841
8146.00   0.31650522   0.01172309
8148.00   0.31332526   0.01169730
8150.00   0.29937947   0.01162302
8152.00   0.29479373   0.01161378
8154.00   0.29118562   0.01152971
8156.00   0.28861272   0.01138052
8158.00   0.28256610   0.01121310
8160.00   0.28003442   0.01123205
8162.00   0.27176985   0.01132148
8164.00   0.26584768   0.01150234
8166.00   0.26917973   0.01172277
8168.00   0.26747456   0.01164540
8170.00   0.26575622   0.01147784
8172.00   0.25756744   0.01125727
8174.00   0.24727513   0.01105428
8176.00   0.24435765   0.01117135
8178.00   0.25413451   0.01212316
8180.00   0.24927519   0.01331932
8182.00   0.24436259   0.01397116
8184.00   0.24504507   0.01400130
8186.00   0.24431074   0.01369530
8188.00   0.23098128   0.01349215
8190.00   0.23035447   0.01377501
8192.00   0.23498927   0.01428463
8194.00   0.23282154   0.01460390
8196.00   0.20737664   0.01430444
8198.00   0.21425188   0.01418568
8200.00   0.21594910   0.01369069
8202.00   0.21229018   0.01272009
8204.00   0.20878492   0.01160617
8206.00   0.21122134   0.01099268
8208.00   0.21364431   0.01071224
8210.00   0.21182889   0.01048193
8212.00   0.21018137   0.01030334
8214.00   0.20784567   0.01016909
8216.00   0.21033883   0.01009482
8218.00   0.20787109   0.00996566
8220.00   0.20318522   0.00978476
8222.00   0.19527324   0.00961649
8224.00   0.18842576   0.00963022
8226.00   0.19821827   0.01006150
8228.00   0.19533379   0.01059998
8230.00   0.18921597   0.01110683
8232.00   0.18425404   0.01121612
8234.00   0.18304753   0.01071091
8236.00   0.18002613   0.01002511
8238.00   0.17763346   0.00948802
8240.00   0.17745370   0.00921997
8242.00   0.17630625   0.00916252
8244.00   0.16946723   0.00912145
8246.00   0.17841703   0.00931113
8248.00   0.17471214   0.00915758
8250.00   0.17246847   0.00898578
8252.00   0.17559113   0.00896536
8254.00   0.17494732   0.00899112
8256.00   0.17599100   0.00907823
8258.00   0.17759629   0.00920439
8260.00   0.17664872   0.00927058
8262.00   0.17512614   0.00923547
8264.00   0.17598684   0.00907547
8266.00   0.17585175   0.00894415
8268.00   0.17550997   0.00888445
8270.00   0.17590688   0.00888683
8272.00   0.17587884   0.00900922
8274.00   0.18155994   0.00968354
8276.00   0.18351384   0.01067297
8278.00   0.18276696   0.01147472
8280.00   0.17973058   0.01194462
8282.00   0.17928599   0.01225923
8284.00   0.18284522   0.01289560
8286.00   0.18227528   0.01305965
8288.00   0.18035994   0.01281701
8290.00   0.18121922   0.01256836
8292.00   0.18346167   0.01281806
8294.00   0.18995874   0.01311675
8296.00   0.19639991   0.01325205
8298.00   0.19519436   0.01319525
8300.00   0.18970047   0.01301036
8302.00   0.19733368   0.01277234
8304.00   0.20412947   0.01211875
8306.00   0.20599188   0.01132493
8308.00   0.20578766   0.01077531
8310.00   0.20880449   0.01066555
8312.00   0.21826114   0.01067500
8314.00   0.22353266   0.01064825
8316.00   0.21846645   0.01044926
8318.00   0.21739590   0.01024712
8320.00   0.22435802   0.01018295
8322.00   0.22669590   0.01028309
8324.00   0.22853343   0.01019860
8326.00   0.23237400   0.01001052
8328.00   0.23734652   0.00987785
8330.00   0.24210002   0.00994606
8332.00   0.24266897   0.01004430
8334.00   0.24350375   0.01003875
8336.00   0.25340638   0.01031757
8338.00   0.26784888   0.01146712
8340.00   0.27220383   0.01374101
8342.00   0.26679185   0.01581281
8344.00   0.26910794   0.01644056
8346.00   0.27886423   0.01651013
8348.00   0.29316869   0.01652729
8350.00   0.29699185   0.01586846
8352.00   0.28717139   0.01407792
8354.00   0.29049143   0.01302326
8356.00   0.30044714   0.01277394
8358.00   0.31121954   0.01261148
8360.00   0.31754252   0.01205579
8362.00   0.32421705   0.01189293
8364.00   0.33326173   0.01196819
8366.00   0.34408316   0.01207922
8368.00   0.35165715   0.01204028
8370.00   0.36977854   0.01200660
8372.00   0.36890677   0.01162604
8374.00   0.36632702   0.01143997
8376.00   0.37622499   0.01179788
8378.00   0.39666405   0.01260647
8380.00   0.39855874   0.01315454
8382.00   0.41014290   0.01341624
8384.00   0.42184827   0.01348578
8386.00   0.42704371   0.01337634
8388.00   0.43095922   0.01304882
8390.00   0.43286514   0.01239405
8392.00   0.44754207   0.01251198
8394.00   0.46144998   0.01374953
8396.00   0.47167289   0.01546023
8398.00   0.48012996   0.01636083
8400.00   0.51113671   0.01674517
8402.00   0.52474350   0.01673147
8404.00   0.52888364   0.01609886
8406.00   0.53024703   0.01474403
8408.00   0.52708912   0.01354041
8410.00   0.54244423   0.01374699
8412.00   0.56366634   0.01444495
8414.00   0.58027983   0.01493357
8416.00   0.59131509   0.01501731
8418.00   0.59906000   0.01507561
8420.00   0.60633504   0.01490023
8422.00   0.62237501   0.01459376
8424.00   0.64068919   0.01486588
8426.00   0.65114594   0.01632362
8428.00   0.67182302   0.01766567
8430.00   0.68257219   0.01820194
8432.00   0.69546908   0.01835045
8434.00   0.71366620   0.01812654
8436.00   0.73871273   0.01713689
8438.00   0.74548954   0.01579747
8440.00   0.76558667   0.01521248
8442.00   0.79244345   0.01526911
8444.00   0.82066315   0.01556795
8446.00   0.83831602   0.01585707
8448.00   0.87914753   0.01656996
8450.00   0.90890026   0.01714075
8452.00   0.92807978   0.01745559
8454.00   0.95351619   0.01764768
8456.00   1.00235176   0.01790615
8458.00   1.03273833   0.01793498
8460.00   1.05796003   0.01836720
8462.00   1.09043884   0.01924703
8464.00   1.13557208   0.02017353
8466.00   1.17607796   0.02052295
8468.00   1.20377457   0.02067390
8470.00   1.22807586   0.02042266
8472.00   1.26174819   0.01986072
8474.00   1.29837835   0.01929099
8476.00   1.32563186   0.01927150
8478.00   1.34863985   0.01939964
8480.00   1.37590837   0.01957196
8482.00   1.41236210   0.01977004
8484.00   1.46222413   0.02005551
8486.00   1.49343407   0.02026520
8488.00   1.50437784   0.02048179
8490.00   1.53098631   0.02086234
8492.00   1.57158709   0.02128007
8494.00   1.58936536   0.02140081
8496.00   1.61332226   0.02154173
8498.00   1.64396286   0.02174141
8500.00   1.66512334   0.02200941
8502.00   1.67880738   0.02235178
8504.00   1.70545948   0.02263916
8506.00   1.73544228   0.02282290
8508.00   1.75449264   0.02284189
8510.00   1.76829207   0.02265824
8512.00   1.79782546   0.02237253
8514.00   1.82664299   0.02222201
8516.00   1.84698546   0.02225688
8518.00   1.87715769   0.02244813
8520.00   1.90674388   0.02262832
8522.00   1.92109144   0.02269865
8524.00   1.92609489   0.02272256
8526.00   1.95443153   0.02287173
8528.00   1.98478472   0.02301864
8530.00   2.00565648   0.02310675
8532.00   2.03093147   0.02324310
8534.00   2.04096389   0.02338248
8536.00   2.04909158   0.02349724
8538.00   2.05854678   0.02356761
8540.00   2.06732249   0.02360694
8542.00   2.08242869   0.02371856
8544.00   2.10680270   0.02395337
8546.00   2.13435149   0.02416612
8548.00   2.16098309   0.02432835
8550.00   2.18223739   0.02444709
8552.00   2.18758273   0.02446547
8554.00   2.19664240   0.02437940
8556.00   2.21171975   0.02428378
8558.00   2.23959804   0.02429766
8560.00   2.27048993   0.02441871
8562.00   2.27253723   0.02442953
8564.00   2.28477502   0.02448942
8566.00   2.30545807   0.02459636
8568.00   2.32222414   0.02469087
8570.00   2.34761715   0.02481663
8572.00   2.34323239   0.02479860
8574.00   2.34299922   0.02480040
8576.00   2.34718442   0.02482777
8578.00   2.35943604   0.02488361
8580.00   2.37272763   0.02491814
8582.00   2.37036681   0.02490123
8584.00   2.38007140   0.02498706
8586.00   2.39875031   0.02512080
8588.00   2.41181493   0.02519771
8590.00   2.41569614   0.02521675
8592.00   2.41756678   0.02527139
8594.00   2.42147064   0.02531795
8596.00   2.42267871   0.02531190
8598.00   2.42566895   0.02529214
8600.00   2.43644238   0.02533589
8602.00   2.44184732   0.02531495
8604.00   2.44974136   0.02528880
8606.00   2.46007729   0.02528802
8608.00   2.46203256   0.02529507
8610.00   2.43662143   0.02521720
8612.00   2.43910336   0.02530278
8614.00   2.46458411   0.02551623
8616.00   2.48272133   0.02571549
8618.00   2.47200227   0.02580346
8620.00   2.45522809   0.02589165
8622.00   2.46063256   0.02608326
8624.00   2.46908569   0.02628376
8626.00   2.46564007   0.02641165
8628.00   2.44347692   0.02641508
8630.00   2.44999576   0.02650277
8632.00   2.46079636   0.02654701
8634.00   2.46692204   0.02650213
8636.00   2.46419239   0.02634947
8638.00   2.47328067   0.02621094
8640.00   2.49734616   0.02611460
8642.00   2.48879838   0.02590373
8644.00   2.46160889   0.02569010
8646.00   2.45315266   0.02567819
8648.00   2.47393394   0.02591060
8650.00   2.48110867   0.02612172
8652.00   2.47164369   0.02626896
8654.00   2.45380068   0.02633981
8656.00   2.45063615   0.02639115
8658.00   2.46247435   0.02643744
8660.00   2.45859122   0.02640240
8662.00   2.45640683   0.02634956
8664.00   2.46470094   0.02630647
8666.00   2.47848630   0.02629011
8668.00   2.47366118   0.02618025
8670.00   2.45116615   0.02597959
8672.00   2.45294094   0.02588698
8674.00   2.48731422   0.02593384
8676.00   2.49097729   0.02582995
8678.00   2.49456000   0.02574617
8680.00   2.48299694   0.02560542
8682.00   2.47822881   0.02550363
8684.00   2.49109650   0.02548704
8686.00   2.50143218   0.02544755
8688.00   2.48208594   0.02529378
8690.00   2.47600079   0.02522929
8692.00   2.48556471   0.02524999
8694.00   2.50003767   0.02528912
8696.00   2.49866080   0.02527506
8698.00   2.48291779   0.02520099
8700.00   2.47344375   0.02514762
8702.00   2.47377276   0.02513688
8704.00   2.47982883   0.02517273
8706.00   2.48751950   0.02520859
8708.00   2.49396491   0.02520590
8710.00   2.50513840   0.02522501
8712.00   2.51192069   0.02523076
8714.00   2.49102712   0.02509081
8716.00   2.49219298   0.02505809
8718.00   2.50016952   0.02508291
8720.00   2.50296855   0.02509809
8722.00   2.49867463   0.02508245
8724.00   2.49486828   0.02506957
8726.00   2.50012779   0.02509345
8728.00   2.50060654   0.02508661
8730.00   2.49687958   0.02505752
8732.00   2.49399471   0.02503902
8734.00   2.48688436   0.02500537
8736.00   2.47796917   0.02497148
8738.00   2.48052001   0.02498643
8740.00   2.48891926   0.02502589
8742.00   2.49497771   0.02505866
8744.00   2.50549459   0.02511745
8746.00   2.51040459   0.02513606
8748.00   2.50988197   0.02511581
8750.00   2.50991082   0.02510143
8752.00   2.51159215   0.02513536
8754.00   2.51398087   0.02535226
8756.00   2.51750779   0.02587681
8758.00   2.51391482   0.02640234
8760.00   2.50544047   0.02680553
8762.00   2.50133944   0.02722654
8764.00   2.49664688   0.02780063
8766.00   2.49734855   0.02791217
8768.00   2.50412464   0.02763137
8770.00   2.50703931   0.02728369
8772.00   2.50015378   0.02729624
8774.00   2.49965310   0.02739383
8776.00   2.49704385   0.02740335
8778.00   2.50307727   0.02741694
8780.00   2.51288414   0.02739955
8782.00   2.50894570   0.02706003
8784.00   2.49499512   0.02626038
8786.00   2.50307107   0.02571399
8788.00   2.51560736   0.02561444
8790.00   2.52167964   0.02581220
8792.00   2.53202176   0.02586913
8794.00   2.52532220   0.02580432
8796.00   2.52564692   0.02563307
8798.00   2.52792406   0.02535749
8800.00   2.51449800   0.02503124
8802.00   2.51220155   0.02497197
8804.00   2.51995373   0.02501209
8806.00   2.52168441   0.02505316
8808.00   2.51882529   0.02507739
8810.00   2.53422904   0.02516523
8812.00   2.54004478   0.02522110
8814.00   2.53208709   0.02520114
8816.00   2.52087426   0.02510700
8818.00   2.52879572   0.02516367
8820.00   2.54405093   0.02564554
8822.00   2.51796222   0.02689047
8824.00   2.52114558   0.02843951
8826.00   2.51870465   0.02937832
8828.00   2.51173687   0.02954132
8830.00   2.53566766   0.02978967
8832.00   2.57301641   0.02955228
8834.00   2.57690310   0.02856053
8836.00   2.55489087   0.02744176
8838.00   2.54507160   0.02700666
8840.00   2.55141449   0.02691720
8842.00   2.56067538   0.02649782
8844.00   2.58399487   0.02613357
8846.00   2.60521960   0.02605274
8848.00   2.61168194   0.02625474
8850.00   2.63882565   0.02662623
8852.00   2.65500259   0.02681649
8854.00   2.67728782   0.02692215
8856.00   2.69681382   0.02695085
8858.00   2.69257188   0.02684462
8860.00   2.65952706   0.02651986
8862.00   2.64030004   0.02654552
8864.00   2.62484670   0.02677406
8866.00   2.60636783   0.02689805
8868.00   2.57727838   0.02662230
8870.00   2.57549167   0.02649128
8872.00   2.55640340   0.02614918
8874.00   2.53686976   0.02563924
8876.00   2.54042554   0.02522359
8878.00   2.54580474   0.02517611
8880.00   2.55634642   0.02603480
8882.00   2.56748557   0.02737534
8884.00   2.57060122   0.02836145
8886.00   2.55735683   0.02845376
8888.00   2.56747508   0.02845123
8890.00   2.57182884   0.02800354
8892.00   2.56416726   0.02691372
8894.00   2.54966331   0.02566057
8896.00   2.53019834   0.02511493
8898.00   2.52432084   0.02554579
8900.00   2.53454971   0.02618150
8902.00   2.54792047   0.02659893
8904.00   2.55242062   0.02668729
8906.00   2.54961300   0.02663955
8908.00   2.53345776   0.02619160
8910.00   2.52624989   0.02554245
8912.00   2.53902125   0.02539693
8914.00   2.55155945   0.02613677
8916.00   2.52575469   0.02738926
8918.00   2.49939275   0.02815124
8920.00   2.49579167   0.02853625
8922.00   2.50081515   0.02855649
8924.00   2.49709892   0.02805931
8926.00   2.50676346   0.02675089
8928.00   2.50121951   0.02566083
8930.00   2.48386836   0.02532257
8932.00   2.46057224   0.02542072
8934.00   2.44920683   0.02539968
8936.00   2.46251059   0.02538219
8938.00   2.45653105   0.02562373
8940.00   2.43646836   0.02594640
8942.00   2.41584086   0.02619484
8944.00   2.40400243   0.02630608
8946.00   2.41671681   0.02656466
8948.00   2.42148519   0.02649807
8950.00   2.40021205   0.02623319
8952.00   2.36512828   0.02633428
8954.00   2.35607362   0.02753324
8956.00   2.34129977   0.02848909
8958.00   2.33710170   0.02890436
8960.00   2.34292221   0.02896715
8962.00   2.35248685   0.02881769
8964.00   2.34529519   0.02823845
8966.00   2.30560064   0.02737436
8968.00   2.30267835   0.02693078
8970.00   2.32291341   0.02676674
8972.00   2.30771923   0.02645524
8974.00   2.25582910   0.02619022
8976.00   2.22513914   0.02611768
8978.00   2.23035359   0.02590273
8980.00   2.24370980   0.02554680
8982.00   2.24885106   0.02548161
8984.00   2.26438236   0.02640393
8986.00   2.27093768   0.02751530
8988.00   2.22469783   0.02865029
8990.00   2.13522935   0.02958421
8992.00   2.05756378   0.02991174
8994.00   2.12936425   0.02869445
8996.00   2.19195652   0.02740368
8998.00   2.20295048   0.02668020
9000.00   2.16756797   0.02673185
9002.00   2.13881469   0.02746565
9004.00   2.13163257   0.02873196
9006.00   2.14182854   0.02873022
9008.00   2.15798569   0.02780019
9010.00   2.16789007   0.02680331
9012.00   2.15492082   0.02636185
9014.00   2.11297345   0.02577792
9016.00   2.07751465   0.02538482
9018.00   2.05191445   0.02520488
9020.00   2.02174473   0.02505807
9022.00   2.02341533   0.02497534
9024.00   2.00501084   0.02476981
9026.00   1.96963251   0.02454097
9028.00   1.93644142   0.02426144
9030.00   1.93237984   0.02390590
9032.00   1.91869688   0.02338383
9034.00   1.91932428   0.02314843
9036.00   1.93457890   0.02302694
9038.00   1.95050275   0.02295876
9040.00   1.94222677   0.02298195
9042.00   1.91013658   0.02302486
9044.00   1.87474382   0.02304952
9046.00   1.86879766   0.02325881
9048.00   1.89463723   0.02359207
9050.00   1.90629089   0.02363982
9052.00   1.87465513   0.02352533
9054.00   1.86210859   0.02334455
9056.00   1.85779321   0.02301370
9058.00   1.84850729   0.02260471
9060.00   1.84327257   0.02250727
9062.00   1.82043397   0.02263019
9064.00   1.79369581   0.02286328
9066.00   1.79242980   0.02319034
9068.00   1.82827997   0.02360805
9070.00   1.83342397   0.02392350
9072.00   1.78815126   0.02402051
9074.00   1.76681042   0.02405550
9076.00   1.78803253   0.02403958
9078.00   1.80574465   0.02379638
9080.00   1.78756320   0.02352975
9082.00   1.74697244   0.02355591
9084.00   1.73042619   0.02374751
9086.00   1.74755096   0.02382343
9088.00   1.77244151   0.02360387
9090.00   1.76401961   0.02383158
9092.00   1.73453522   0.02359907
9094.00   1.73037088   0.02328155
9096.00   1.73704004   0.02319956
9098.00   1.71944869   0.02358035
9100.00   1.72174394   0.02374248
9102.00   1.72248650   0.02392113
9104.00   1.72561896   0.02410928
9106.00   1.73390210   0.02413519
9108.00   1.69331038   0.02345566
9110.00   1.67638218   0.02309564
9112.00   1.71509647   0.02272746
9114.00   1.76350272   0.02243371
9116.00   1.76355541   0.02238487
9118.00   1.68525112   0.02237261
9120.00   1.65301573   0.02257425
9122.00   1.67239475   0.02270244
9124.00   1.72017574   0.02265175
9126.00   1.75904787   0.02256798
9128.00   1.72707498   0.02283499
9130.00   1.69594872   0.02336367
9132.00   1.68156099   0.02419133
9134.00   1.68413723   0.02489004
9136.00   1.68757153   0.02482651
9138.00   1.67377126   0.02440160
9140.00   1.68701470   0.02376674
9142.00   1.70088768   0.02288418
9144.00   1.70136344   0.02200586
9146.00   1.69740975   0.02172941
9148.00   1.69734132   0.02201797
9150.00   1.69428432   0.02264699
9152.00   1.67898524   0.02353962
9154.00   1.65781748   0.02456108
9156.00   1.65006447   0.02536959
9158.00   1.67105377   0.02522615
9160.00   1.70148289   0.02439866
9162.00   1.71923828   0.02335733
9164.00   1.72068405   0.02265926
9166.00   1.71864271   0.02236863
9168.00   1.71391964   0.02226434
9170.00   1.71212661   0.02257777
9172.00   1.71232510   0.02326384
9174.00   1.70056236   0.02398084
9176.00   1.65183866   0.02413666
9178.00   1.65277207   0.02414010
9180.00   1.68287563   0.02377222
9182.00   1.70423138   0.02307026
9184.00   1.69696712   0.02246592
9186.00   1.69431877   0.02244457
9188.00   1.69507730   0.02235822
9190.00   1.71754992   0.02226468
9192.00   1.74640930   0.02226598
9194.00   1.72162282   0.02231388
9196.00   1.70462835   0.02239840
9198.00   1.70752144   0.02241003
9200.00   1.73180521   0.02232439
9202.00   1.77063930   0.02220160
9204.00   1.78855419   0.02204438
9206.00   1.77594376   0.02207864
9208.00   1.74856472   0.02215514
9210.00   1.73488176   0.02230114
9212.00   1.75255811   0.02260160
9214.00   1.77447701   0.02303152
9216.00   1.77738106   0.02343781
9218.00   1.80409288   0.02404258
9220.00   1.86720502   0.02469521
9222.00   1.93119621   0.02493229
9224.00   1.90748024   0.02430443
9226.00   1.87268162   0.02369513
9228.00   1.81748950   0.02310359
9230.00   1.75832689   0.02260687
9232.00   1.74534035   0.02247542
9234.00   1.73306048   0.02243879
9236.00   1.71453989   0.02240486
9238.00   1.70125818   0.02241665
9240.00   1.69522965   0.02246238
9242.00   1.70707643   0.02257040
9244.00   1.71052587   0.02264790
9246.00   1.70792687   0.02258403
9248.00   1.70954001   0.02260219
9250.00   1.72198665   0.02276411
9252.00   1.72627676   0.02261086
9254.00   1.71135747   0.02229928
9256.00   1.70050335   0.02207015
9258.00   1.69742548   0.02201234
9260.00   1.68498099   0.02200637
9262.00   1.66733837   0.02195496
9264.00   1.65842783   0.02198769
9266.00   1.67501640   0.02192949
9268.00   1.69484150   0.02178209
9270.00   1.68854558   0.02172157
9272.00   1.67628419   0.02186070
9274.00   1.67656958   0.02227700
9276.00   1.67014408   0.02276208
9278.00   1.65069389   0.02320920
9280.00   1.62614107   0.02363458
9282.00   1.63217318   0.02429220
9284.00   1.63633835   0.02452286
9286.00   1.62662065   0.02442932
9288.00   1.61202300   0.02433481
9290.00   1.63315713   0.02464617
9292.00   1.65894282   0.02483671
9294.00   1.65428734   0.02497822
9296.00   1.62908041   0.02535965
9298.00   1.60574007   0.02612801
9300.00   1.57081890   0.02686857
9302.00   1.59672415   0.02845108
9304.00   1.64811039   0.03027145
9306.00   1.67566144   0.03192176
9308.00   1.64877892   0.03349681
9310.00   1.60326290   0.03579197
9312.00   1.60803735   0.03783147
9314.00   1.65135062   0.03882281
9316.00   1.66901243   0.03910704
9318.00   1.59348357   0.03956384
9320.00   1.59306049   0.04121681
9322.00   1.61664593   0.04064519
9324.00   1.56499958   0.03876910
9326.00   1.45575774   0.03704792
9328.00   1.43250620   0.03654860
9330.00   1.52421284   0.03428295
9332.00   1.58137977   0.03268993
9334.00   1.56565857   0.03342804
9336.00   1.48489511   0.03602136
9338.00   1.41434240   0.03832618
9340.00   1.46980178   0.04079430
9342.00   1.47820473   0.04173289
9344.00   1.41168034   0.04024968
9346.00   1.33557749   0.03650676
9348.00   1.39934528   0.03312216
9350.00   1.53026056   0.03032119
9352.00   1.56500876   0.02845318
9354.00   1.46355689   0.02786670
9356.00   1.29389548   0.02887193
9358.00   1.25360882   0.03226541
9360.00   1.41505384   0.03372463
9362.00   1.55134487   0.03296977
9364.00   1.56467283   0.03085924
9366.00   1.48593378   0.02942585
9368.00   1.35140049   0.03071688
9370.00   1.30031681   0.03960191
9372.00   1.32335126   0.04930383
9374.00   1.39178360   0.05509061
9376.00   1.51298678   0.05479789
9378.00   1.47877121   0.05205860
9380.00   1.29380333   0.04797951
9382.00   1.19363475   0.04190989
9384.00   1.28347242   0.03438687
9386.00   1.41514492   0.03033451
9388.00   1.43171406   0.02684916
9390.00   1.39635181   0.02459088
9392.00   1.38066423   0.02331480
9394.00   1.40127647   0.02247936
9396.00   1.40699530   0.02263794
9398.00   1.40267372   0.02382231
9400.00   1.38635194   0.02511867
9402.00   1.35745096   0.02610382
9404.00   1.33347762   0.02674828
9406.00   1.40308428   0.02745832
9408.00   1.42635214   0.02709579
9410.00   1.38144553   0.02609852
9412.00   1.32532394   0.02559495
9414.00   1.31730795   0.02643088
9416.00   1.35840356   0.02760824
9418.00   1.36804569   0.02793211
9420.00   1.35726452   0.02805192
9422.00   1.35256374   0.02856172
9424.00   1.38537455   0.02958598
9426.00   1.38695240   0.02981298
9428.00   1.29881704   0.02941783
9430.00   1.20161283   0.02854170
9432.00   1.21221626   0.02789748
9434.00   1.39688587   0.02890200
9436.00   1.48738539   0.03033477
9438.00   1.41803014   0.03134590
9440.00   1.24464083   0.03403354
9442.00   1.08575809   0.03857547
9444.00   1.07729781   0.03953225
9446.00   1.19959879   0.03369513
9448.00   1.31506848   0.02774007
9450.00   1.35691583   0.02514648
9452.00   1.32653904   0.02512849
9454.00   1.29130340   0.02714789
9456.00   1.27073967   0.03111606
9458.00   1.23612082   0.03480333
9460.00   1.21326697   0.03656183
9462.00   1.25376439   0.03546956
9464.00   1.32891142   0.03318572
9466.00   1.34229362   0.02953578
9468.00   1.29989028   0.02632466
9470.00   1.23876894   0.02560762
9472.00   1.22478211   0.02800811
9474.00   1.25884235   0.03043325
9476.00   1.30078900   0.03183654
9478.00   1.33090806   0.03355306
9480.00   1.31983912   0.03523180
9482.00   1.27478564   0.03362161
9484.00   1.25010431   0.03009295
9486.00   1.26890600   0.02692268
9488.00   1.31889760   0.02500116
9490.00   1.36276293   0.02416311
9492.00   1.36889994   0.02464348
9494.00   1.32999671   0.02544253
9496.00   1.27081454   0.02918921
9498.00   1.23673618   0.03469493
9500.00   1.24755442   0.03892396
9502.00   1.25371158   0.03726105
9504.00   1.34160197   0.03482068
9506.00   1.41444671   0.03095506
9508.00   1.40433502   0.02594677
9510.00   1.33346784   0.02253383
9512.00   1.31589615   0.02227209
9514.00   1.32510531   0.02341236
9516.00   1.33304310   0.02569264
9518.00   1.32660210   0.02856211
9520.00   1.29041541   0.03098895
9522.00   1.28937662   0.03208183
9524.00   1.32180560   0.03190704
9526.00   1.36093247   0.03080773
9528.00   1.38591146   0.02923454
9530.00   1.38188601   0.02743957
9532.00   1.42549026   0.02721178
9534.00   1.47980738   0.02727425
9536.00   1.50749719   0.02721784
9538.00   1.50074852   0.02737445
9540.00   1.54558277   0.02871323
9542.00   1.54240131   0.02914733
9544.00   1.46937311   0.02859618
9546.00   1.38527024   0.02810409
9548.00   1.40919745   0.02920478
9550.00   1.49282873   0.03000772
9552.00   1.50523031   0.02979348
9554.00   1.42620528   0.02945960
9556.00   1.32861233   0.02938484
9558.00   1.32004786   0.02917167
9560.00   1.47052193   0.02982018
9562.00   1.53367102   0.03052929
9564.00   1.48102999   0.03106886
9566.00   1.38072062   0.03172451
9568.00   1.34877717   0.03302329
9570.00   1.37693369   0.03215714
9572.00   1.44297206   0.02965462
9574.00   1.51082230   0.02695566
9576.00   1.55013752   0.02551910
9578.00   1.51854467   0.02487946
9580.00   1.45169485   0.02486601
9582.00   1.41555262   0.02565221
9584.00   1.44902384   0.02700725
9586.00   1.53484011   0.02829972
9588.00   1.54885638   0.02841715
9590.00   1.45589197   0.02847507
9592.00   1.38801575   0.02937192
9594.00   1.40777493   0.03022591
9596.00   1.47869122   0.02945279
9598.00   1.50639427   0.02784969
9600.00   1.52994597   0.02697207
9602.00   1.54699707   0.02683686
9604.00   1.54263008   0.02701638
9606.00   1.51239479   0.02709579
9608.00   1.47680807   0.02728979
9610.00   1.49728501   0.02744499
9612.00   1.55050814   0.02726281
9614.00   1.59719789   0.02690107
9616.00   1.60988343   0.02711665
9618.00   1.59843779   0.02803462
9620.00   1.56953466   0.02867177
9622.00   1.52590072   0.02900639
9624.00   1.48487318   0.02913919
9626.00   1.48975337   0.02874617
9628.00   1.51943409   0.02745863
9630.00   1.57221782   0.02634409
9632.00   1.62041342   0.02584721
9634.00   1.64025640   0.02587773
9636.00   1.58958352   0.02576296
9638.00   1.51721346   0.02619907
9640.00   1.50472212   0.02710260
9642.00   1.57099903   0.02794362
9644.00   1.64775431   0.02794968
9646.00   1.57438886   0.02678608
9648.00   1.54508221   0.02683999
9650.00   1.57236302   0.02736913
9652.00   1.59709871   0.02756731
9654.00   1.55929995   0.02731141
9656.00   1.59629250   0.02647486
9658.00   1.62262785   0.02648017
9660.00   1.60300529   0.02685553
9662.00   1.54718792   0.02712888
9664.00   1.49901140   0.02765794
9666.00   1.50585425   0.02848821
9668.00   1.54015791   0.02838126
9670.00   1.56275213   0.02743267
9672.00   1.56103504   0.02622009
9674.00   1.59396935   0.02553985
9676.00   1.61522615   0.02529054
9678.00   1.60722494   0.02534462
9680.00   1.57330048   0.02555062
9682.00   1.52943897   0.02577576
9684.00   1.50820863   0.02598588
9686.00   1.53298962   0.02577711
9688.00   1.55162942   0.02511638
9690.00   1.54632580   0.02441475
9692.00   1.53519809   0.02430779
9694.00   1.53382862   0.02494330
9696.00   1.54283893   0.02579607
9698.00   1.54538107   0.02634180
9700.00   1.52920544   0.02639847
9702.00   1.48563468   0.02609639
9704.00   1.47007179   0.02556569
9706.00   1.50350463   0.02504512
9708.00   1.53085983   0.02458509
9710.00   1.51256704   0.02424799
9712.00   1.47257519   0.02427565
9714.00   1.48193216   0.02525865
9716.00   1.47726762   0.02621558
9718.00   1.47433519   0.02681741
9720.00   1.49104631   0.02702268
9722.00   1.49232638   0.02694462
9724.00   1.42544830   0.02608681
9726.00   1.38955653   0.02513045
9728.00   1.39936793   0.02445594
9730.00   1.42212546   0.02424936
9732.00   1.43117654   0.02467369
9734.00   1.42236233   0.02538908
9736.00   1.38189030   0.02579328
9738.00   1.34413064   0.02600469
9740.00   1.35886002   0.02643459
9742.00   1.37474430   0.02617405
9744.00   1.36355484   0.02534451
9746.00   1.34740019   0.02468686
9748.00   1.34107101   0.02446995
9750.00   1.34278262   0.02429135
9752.00   1.35402334   0.02429139
9754.00   1.34070575   0.02415040
9756.00   1.30878305   0.02393802
9758.00   1.27902567   0.02386143
9760.00   1.27384698   0.02406765
9762.00   1.26891387   0.02395608
9764.00   1.25875330   0.02367973
9766.00   1.24621570   0.02329179
9768.00   1.24848020   0.02291824
9770.00   1.26935494   0.02255753
9772.00   1.27942455   0.02233936
9774.00   1.26488304   0.02220044
9776.00   1.23986876   0.02219941
9778.00   1.22527981   0.02240723
9780.00   1.23167312   0.02282820
9782.00   1.22849715   0.02309977
9784.00   1.22988093   0.02369074
9786.00   1.23672605   0.02467635
9788.00   1.24875319   0.02579827
9790.00   1.21781421   0.02612877
9792.00   1.17600393   0.02613485
9794.00   1.14842176   0.02615407
9796.00   1.16464818   0.02624596
9798.00   1.20378053   0.02586413
9800.00   1.20669067   0.02519538
9802.00   1.18640697   0.02470441
9804.00   1.16677320   0.02429830
9806.00   1.16238320   0.02381930
9808.00   1.17606127   0.02338199
9810.00   1.17966902   0.02322796
9812.00   1.18028200   0.02323867
9814.00   1.18165815   0.02334573
9816.00   1.17831361   0.02337036
9818.00   1.17128456   0.02303449
9820.00   1.18138933   0.02292494
9822.00   1.18676507   0.02289028
9824.00   1.16301858   0.02269194
9826.00   1.12487197   0.02237507
9828.00   1.12303257   0.02253028
9830.00   1.15990818   0.02281988
9832.00   1.18287694   0.02285395
9834.00   1.17537832   0.02254456
9836.00   1.17222893   0.02224891
9838.00   1.17719924   0.02217161
9840.00   1.18068445   0.02217570
9842.00   1.18415463   0.02271471
9844.00   1.19265950   0.02380823
9846.00   1.20202875   0.02480333
9848.00   1.20363235   0.02514728
9850.00   1.20490348   0.02517635
9852.00   1.21014345   0.02487852
9854.00   1.22938478   0.02432265
9856.00   1.23401594   0.02352594
9858.00   1.21727693   0.02286507
9860.00   1.21702659   0.02268503
9862.00   1.23228848   0.02287664
9864.00   1.24376619   0.02333993
9866.00   1.23145640   0.02456901
9868.00   1.24232566   0.02683263
9870.00   1.25490701   0.02885116
9872.00   1.25692558   0.02996529
9874.00   1.25455463   0.03006948
9876.00   1.28255117   0.02955962
9878.00   1.29324913   0.02784174
9880.00   1.29759753   0.02586086
9882.00   1.30605936   0.02462957
9884.00   1.31839776   0.02457533
9886.00   1.31343806   0.02443261
9888.00   1.31929982   0.02484276
9890.00   1.32739341   0.02576150
9892.00   1.34568918   0.02686504
9894.00   1.36964953   0.02748024
9896.00   1.37349904   0.02769542
9898.00   1.37820530   0.02761695
9900.00   1.37527025   0.02706174
9902.00   1.37288725   0.02618751
9904.00   1.39431393   0.02575568
9906.00   1.42548120   0.02595462
9908.00   1.45008886   0.02714044
9910.00   1.44958293   0.02895307
9912.00   1.42915165   0.03069953
9914.00   1.43308794   0.03141437
9916.00   1.43445814   0.03173508
9918.00   1.45304883   0.03148397
9920.00   1.47638130   0.03034624
9922.00   1.48723412   0.02828910
9924.00   1.46475136   0.02682375
9926.00   1.48165357   0.02659041
9928.00   1.49974060   0.02671473
9930.00   1.50202620   0.02673058
9932.00   1.51328468   0.02689076
9934.00   1.53784227   0.02741407
9936.00   1.57165873   0.02860219
9938.00   1.59742725   0.03036610
9940.00   1.60614622   0.03246175
9942.00   1.57029057   0.03455608
9944.00   1.57480562   0.03658986
9946.00   1.61817217   0.03752436
9948.00   1.66454136   0.03737945
9950.00   1.69117105   0.03671648
9952.00   1.65093660   0.03611047
9954.00   1.67446947   0.03592452
9956.00   1.72376072   0.03654310
9958.00   1.73298156   0.03742532
9960.00   1.69640446   0.03777925
9962.00   1.73490179   0.03716030
9964.00   1.75842512   0.03585845
9966.00   1.76158440   0.03465599
9968.00   1.75487196   0.03373145
9970.00   1.77487123   0.03309656
9972.00   1.80641234   0.03307250
9974.00   1.80009735   0.03312248
9976.00   1.80290711   0.03312894
9978.00   1.83262241   0.03298499
9980.00   1.85103643   0.03252785
9982.00   1.87929535   0.03246976
9984.00   1.87882245   0.03231083
9986.00   1.89959586   0.03235532
9988.00   1.94940853   0.03267462
9990.00   1.94303858   0.03267420
9992.00   1.92293036   0.03263680
9994.00   1.94167006   0.03308606
9996.00   1.97104740   0.03377571
9998.00   1.99183333   0.03439930
10000.00   2.00468326   0.03478115
10002.00   2.01242352   0.03502507
10004.00   2.01966643   0.03536648
10006.00   2.04348016   0.03688980
10008.00   2.07106614   0.04007502
10010.00   2.08244038   0.04367359
10012.00   2.06213689   0.04542254
10014.00   2.04454017   0.04588192
10016.00   2.05156159   0.04554882
10018.00   2.08992577   0.04518731
10020.00   2.09413075   0.04225931
10022.00   2.10776806   0.04182878
10024.00   2.06773543   0.04252067
10026.00   2.12292814   0.04204625
10028.00   2.16100812   0.03964287
10030.00   2.17089510   0.03999838
10032.00   2.11037183   0.03961958
10034.00   2.20498490   0.03857279
10036.00   2.15757346   0.03801859
10038.00   2.17255783   0.03822297
10040.00   2.18463540   0.03874819
10042.00   2.20494485   0.03928114
10044.00   2.22376895   0.03961688
10046.00   2.23192906   0.03968537
10048.00   2.20164514   0.03929286
10050.00   2.23561859   0.03915023
10052.00   2.27925825   0.03925218
10054.00   2.28681636   0.03963786
10056.00   2.26369429   0.04045970
10058.00   2.27602816   0.04166655
10060.00   2.25996852   0.04218604
10062.00   2.24332595   0.04251819
10064.00   2.25497246   0.04287647
10066.00   2.28041768   0.04293049
10068.00   2.33188128   0.04285222
10070.00   2.32366633   0.04253942
10072.00   2.31293964   0.04236344
10074.00   2.32266235   0.04258445
10076.00   2.33236909   0.04344663
10078.00   2.33573699   0.04578838
10080.00   2.34189034   0.04808037
10082.00   2.34163189   0.04938305
10084.00   2.35209870   0.04971882
10086.00   2.33034635   0.04930066
10088.00   2.33080792   0.04746298
10090.00   2.32049966   0.04502845
10092.00   2.31718731   0.04340437
10094.00   2.34672618   0.04342214
10096.00   2.34439158   0.04361482
10098.00   2.35513520   0.04456047
10100.00   2.33662677   0.04568949
10102.00   2.33092046   0.04671511
10104.00   2.35718250   0.04728724
10106.00   2.37335777   0.04751820
10108.00   2.39733410   0.04736276
10110.00   2.39544678   0.04644921
10112.00   2.37815309   0.04539447
10114.00   2.37233138   0.04523030
10116.00   2.40440965   0.04595159
10118.00   2.41760349   0.04820797
10120.00   2.41108918   0.05141340
10122.00   2.38544750   0.05417342
10124.00   2.38435721   0.05538084
10126.00   2.41359711   0.05599217
10128.00   2.38278699   0.05500850
10130.00   2.37240982   0.05272409
10132.00   2.38645244   0.04991946
10134.00   2.36451912   0.04845427
10136.00   2.36723042   0.04827534
10138.00   2.39931083   0.04862274
10140.00   2.42763495   0.04903832
10142.00   2.40553999   0.04921791
10144.00   2.35913610   0.04930906
10146.00   2.35758948   0.04995150
10148.00   2.36528540   0.05111256
10150.00   2.35196042   0.05219966
10152.00   2.32540679   0.05282925
10154.00   2.30841327   0.05328544
10156.00   2.31986213   0.05370808
10158.00   2.35819173   0.05372876
10160.00   2.36933351   0.05315331
10162.00   2.33060932   0.05241680
10164.00   2.30934429   0.05251146
10166.00   2.29628038   0.05462480
10168.00   2.30021882   0.05797963
10170.00   2.30434322   0.06089462
10172.00   2.29430389   0.06186533
10174.00   2.27320290   0.06201939
10176.00   2.27365804   0.06115973
10178.00   2.28438878   0.05902475
10180.00   2.30522609   0.05644004
10182.00   2.29707265   0.05529737
10184.00   2.27657843   0.05640448
10186.00   2.27028108   0.05830554
10188.00   2.25739574   0.05966564
10190.00   2.22722912   0.05992033
10192.00   2.17543507   0.05963614
10194.00   2.17645621   0.05892678
10196.00   2.20342660   0.05775758
10198.00   2.21753979   0.05674340
10200.00   2.15926480   0.05635555
10202.00   2.14449048   0.05719874
10204.00   2.18123674   0.05940235
10206.00   2.19769096   0.06251600
10208.00   2.16689229   0.06529222
10210.00   2.13069797   0.06657892
10212.00   2.10428882   0.06649440
10214.00   2.10556388   0.06578606
10216.00   2.09711337   0.06416240
10218.00   2.06597114   0.06202858
10220.00   2.08016467   0.06120150
10222.00   2.08131289   0.06108452
10224.00   2.07347655   0.06214751
10226.00   2.07121730   0.06366119
10228.00   2.05833936   0.06456869
10230.00   2.00762534   0.06432687
10232.00   2.03669715   0.06348591
10234.00   2.03649235   0.06188663
10236.00   2.01231718   0.06011298
10238.00   1.99562871   0.05872716
10240.00   1.98033702   0.05758839
10242.00   1.95602894   0.05712171
10244.00   1.97007573   0.05730790
10246.00   1.97894156   0.05747583
10248.00   1.93569660   0.05717513
10250.00   1.92027152   0.05731725
10252.00   1.94194794   0.05800612
10254.00   1.90407515   0.05792364
10256.00   1.84725010   0.05764763
10258.00   1.88234234   0.05867502
10260.00   1.90575743   0.05943085
10262.00   1.88285065   0.05959558
10264.00   1.87154806   0.06011843
10266.00   1.86109304   0.06097418
10268.00   1.80852091   0.06160454
10270.00   1.79593647   0.06237068
10272.00   1.78831673   0.06294876
10274.00   1.79542220   0.06353399
10276.00   1.81118190   0.06420597
10278.00   1.80588961   0.06513344
10280.00   1.81107080   0.06995895
10282.00   1.80695295   0.08024891
10284.00   1.82612288   0.09071385
10286.00   1.83914709   0.09658846
10288.00   1.76051283   0.09789196
10290.00   1.72971249   0.09825039
10292.00   1.73649228   0.09477653
10294.00   1.76142967   0.08839855
10296.00   1.74429834   0.08245806
10298.00   1.81007063   0.08149359
10300.00   1.76714897   0.07933641
10302.00   1.74466670   0.07613942
10304.00   1.77580070   0.07342067
10306.00   1.81555998   0.07343713
10308.00   1.77602863   0.07341411
10310.00   1.73061419   0.07304255
10312.00   1.71363258   0.07282018
10314.00   1.71649933   0.07255801
10316.00   1.69973814   0.07107059
10318.00   1.70425069   0.07057178
10320.00   1.71583402   0.07064730
10322.00   1.70879257   0.07099517
10324.00   1.69177496   0.07144938
10326.00   1.67553961   0.07175675
10328.00   1.64365065   0.07182157
10330.00   1.61211669   0.07184651
10332.00   1.61944401   0.07240321
10334.00   1.65638697   0.07347447
10336.00   1.69188488   0.07499659
10338.00   1.62842047   0.07509700
10340.00   1.63627803   0.07668274
10342.00   1.69221342   0.08014981
10344.00   1.72069228   0.08449287
10346.00   1.65063441   0.08618800
10348.00   1.62261593   0.08744228
10350.00   1.61428928   0.08842023
10352.00   1.62385118   0.08848736
10354.00   1.63171482   0.08651928
10356.00   1.61204207   0.08423430
10358.00   1.56035519   0.08262056
10360.00   1.53489411   0.08209898
10362.00   1.55906916   0.08250865
10364.00   1.59219742   0.08344946
10366.00   1.60556519   0.08720828
10368.00   1.67421401   0.09759918
10370.00   1.72720277   0.10886676
10372.00   1.68295467   0.11552491
10374.00   1.60201848   0.11657474
10376.00   1.62722063   0.11758134
10378.00   1.63723373   0.11316734
10380.00   1.62094975   0.10431226
10382.00   1.62461185   0.09612336
10384.00   1.67548311   0.09438122
10386.00   1.65179574   0.09299088
10388.00   1.64235878   0.09302274
10390.00   1.67984521   0.09557446
10392.00   1.70196211   0.10013463
10394.00   1.63104784   0.10373014
10396.00   1.59874022   0.10634703
10398.00   1.59924030   0.10798021
10400.00   1.58829820   0.10795373
10402.00   1.60234070   0.10613865
10404.00   1.69726288   0.10444202
10406.00   1.66435230   0.10186702
10408.00   1.60771978   0.10058063
10410.00   1.63981533   0.10303437
10412.00   1.70710170   0.10966863
10414.00   1.62829125   0.11979458
10416.00   1.64111173   0.13162406
10418.00   1.69056475   0.14007588
10420.00   1.69164550   0.14287446
10422.00   1.65641487   0.14154601
10424.00   1.65062904   0.13457811
10426.00   1.61178362   0.12329489
10428.00   1.55657351   0.11306288
10430.00   1.56030214   0.11025160
10432.00   1.67320836   0.11171052
10434.00   1.83092749   0.11403275
10436.00   1.78131819   0.11255762
10438.00   1.67046678   0.11016148
10440.00   1.67341697   0.10990676
10442.00   1.72089338   0.11158898
10444.00   1.74306154   0.11432979
10446.00   1.66463757   0.11651491
10448.00   1.54709041   0.11867439
10450.00   1.72941375   0.12305412
10452.00   1.67538106   0.12574099
10454.00   1.67464125   0.12570113
10456.00   1.61834967   0.12296925
10458.00   1.64372456   0.12033642
10460.00   1.76970673   0.12066779
10462.00   1.71961224   0.12110541
10464.00   1.66955602   0.12734173
10466.00   1.58233798   0.13524000
10468.00   1.48833323   0.14099075
10470.00   1.67200315   0.14681210
10472.00   1.70028627   0.14735231
10474.00   1.65871012   0.14261454
10476.00   1.61061490   0.13386433
10478.00   1.61062813   0.12509596
10480.00   1.71542740   0.12469461
10482.00   1.63168752   0.12122502
10484.00   1.61370528   0.12091330
10486.00   1.66437685   0.12336311
10488.00   1.62142372   0.12308743
10490.00   1.59314120   0.12206336
10492.00   1.59259570   0.12145063
10494.00   1.60425937   0.12185130
10496.00   1.61775398   0.12313104
10498.00   1.62825072   0.12440517
10500.00   1.64123583   0.12546836
10502.00   1.69215286   0.12747608
10504.00   1.73688781   0.13047133
10506.00   1.70036936   0.13223433
10508.00   1.63818061   0.13275892
10510.00   1.55423963   0.13265805
10512.00   1.56129944   0.13425735
10514.00   1.61051083   0.13516746
10516.00   1.56547356   0.13211526
10518.00   1.59775007   0.13240847
10520.00   1.64037097   0.13684954
10522.00   1.67914927   0.14359879
10524.00   1.70678651   0.14788480
10526.00   1.69580877   0.14849232
10528.00   1.46547520   0.14705418
10530.00   1.66406596   0.14591740
10532.00   1.71427965   0.14158089
10534.00   1.67153692   0.13550852
10536.00   1.58917391   0.13181128
10538.00   1.57431924   0.13202490
10540.00   1.62285721   0.13360840
10542.00   1.64363432   0.13479121
10544.00   1.63657916   0.13551386
10546.00   1.64044893   0.13582774
10548.00   1.70929301   0.13753746
10550.00   1.63555396   0.13607478
10552.00   1.55603075   0.13490777
10554.00   1.57958853   0.13635884
10556.00   1.60326660   0.13679677
10558.00   1.73589551   0.14144462
10560.00   1.74187291   0.14313281
10562.00   1.68881428   0.14233053
10564.00   1.81162858   0.14139415
10566.00   1.63466299   0.14131576
10568.00   1.66423750   0.14462720
10570.00   1.71588850   0.14843115
10572.00   1.76766860   0.15107338
10574.00   1.72287655   0.15015635
10576.00   1.67040431   0.14902385
10578.00   1.60885179   0.14709921
10580.00   1.66940463   0.14894767
10582.00   1.74270260   0.15278198
10584.00   1.72585523   0.15579760
10586.00   1.71151078   0.15769471
10588.00   1.74572194   0.15958045
10590.00   1.76356888   0.16002345
10592.00   1.74216282   0.15848334
10594.00   1.69308031   0.15589698
10596.00   1.74372995   0.15742765
10598.00   1.72696102   0.15753289
10600.00   1.69494581   0.15674804
10602.00   1.72900009   0.15747134
10604.00   1.88998592   0.16246682
10606.00   1.79782045   0.16179456
10608.00   1.70350873   0.16069274
10610.00   1.69323146   0.16085748
10612.00   1.75816584   0.16254094
10614.00   1.89653170   0.16673207
10616.00   2.13944530   0.17648423
10618.00   1.99172115   0.16958302
10620.00   1.78530121   0.16824979
10622.00   1.78276622   0.16723943
10624.00   1.74878895   0.16755269
10626.00   1.78798807   0.17047918
10628.00   1.78286600   0.17165160
10630.00   1.73353767   0.17139737
10632.00   1.76171243   0.17357008
10634.00   1.88462961   0.17849720
10636.00   1.88327086   0.17944878
10638.00   1.81641614   0.17866479
10640.00   1.76631129   0.17892568
10642.00   1.74319685   0.18093449
10644.00   1.85064304   0.18516444
10646.00   1.96439075   0.18859880
10648.00   2.02418208   0.19203158
10650.00   1.97606850   0.19365145
10652.00   1.82540691   0.19042963
10654.00   1.79285276   0.19207062
10656.00   1.79648590   0.18981075
10658.00   1.80169487   0.19428520
10660.00   1.83837521   0.19089212
10662.00   1.82639229   0.19299848
10664.00   1.74357903   0.19273870
10666.00   1.89461696   0.19958216
10668.00   2.00096846   0.20473112
10670.00   1.88152921   0.20281662
10672.00   2.11974478   0.20717669
10674.00   2.01176929   0.21219118
10676.00   1.96503830   0.21237616
10678.00   1.99700069   0.21081533
10680.00   1.86981046   0.21572071
10682.00   2.02110100   0.22096603
10684.00   2.09815192   0.22608657
10686.00   2.08901000   0.22501437
10688.00   1.71184373   0.21805812
10690.00   1.50427866   0.22123952
10692.00   1.91453707   0.23058718
10694.00   1.87960088   0.24033804
10696.00   1.84946775   0.23588592
10698.00   1.78265893   0.24247056
10700.00   1.86848259   0.24285801
10702.00   1.91779232   0.25210634
10704.00   2.01744008   0.25850430
10706.00   2.06241918   0.26398969
10708.00   1.72052336   0.26728085
10710.00   1.30930543   0.25794420
10712.00   1.59270775   0.27070868
10714.00   1.93141007   0.28264391
10716.00   1.85753882   0.28520617
10718.00   1.85902166   0.28382155
10720.00   1.72875500   0.28260997
10722.00   1.77520275   0.28633344
