# File created by shivutils (I.Shivvers)
# wl(A)   flm    er(optional)
3620.00   0.91523772   0.03887234
3622.00   0.90308374   0.03815191
3624.00   0.89179748   0.03812667
3626.00   0.92831093   0.03827064
3628.00   0.92792118   0.03926169
3630.00   0.95163244   0.03993632
3632.00   0.90739584   0.03901441
3634.00   0.95355302   0.03907778
3636.00   0.93749106   0.03906535
3638.00   0.98265612   0.03905355
3640.00   0.89811820   0.03862929
3642.00   0.93352133   0.03963900
3644.00   0.95834607   0.03992271
3646.00   0.87727880   0.04274273
3648.00   0.95788753   0.05053499
3650.00   0.94634473   0.05046959
3652.00   0.95519942   0.04658468
3654.00   0.91519731   0.04410430
3656.00   0.94128454   0.04082222
3658.00   0.91806722   0.03847735
3660.00   0.95464194   0.04110346
3662.00   1.02195227   0.04299814
3664.00   0.94146550   0.03934776
3666.00   0.95219302   0.03688647
3668.00   1.02400947   0.03690093
3670.00   0.98099679   0.03620743
3672.00   0.99657506   0.03604219
3674.00   1.02431369   0.03625659
3676.00   1.03063929   0.03591555
3678.00   0.98798966   0.03508958
3680.00   0.95982569   0.03458023
3682.00   0.99783492   0.03483503
3684.00   0.93550825   0.03394895
3686.00   0.94774979   0.03370347
3688.00   0.97926527   0.03419350
3690.00   0.93966144   0.03416220
3692.00   0.90750188   0.03343003
3694.00   0.94940394   0.03381748
3696.00   1.00972044   0.03454702
3698.00   1.01782870   0.03511905
3700.00   0.91556245   0.03402038
3702.00   1.04017293   0.03497337
3704.00   1.03843808   0.03474789
3706.00   1.04980433   0.03489842
3708.00   1.06347835   0.03458052
3710.00   1.03140354   0.03410765
3712.00   1.08023453   0.03449939
3714.00   1.09716141   0.03426776
3716.00   1.12466311   0.03459898
3718.00   1.09001184   0.03430937
3720.00   1.09828925   0.03398380
3722.00   1.11840916   0.03395965
3724.00   1.13583803   0.03422976
3726.00   1.15077305   0.03470391
3728.00   1.13833284   0.03448447
3730.00   1.13348508   0.03444787
3732.00   1.11174893   0.03409162
3734.00   1.14302146   0.03443469
3736.00   1.21489310   0.03511468
3738.00   1.13679302   0.03472888
3740.00   1.12258732   0.03425998
3742.00   1.13289034   0.03377630
3744.00   1.16682744   0.03381384
3746.00   1.22706604   0.03430053
3748.00   1.15821481   0.03338341
3750.00   1.19197512   0.03370453
3752.00   1.17909420   0.03358560
3754.00   1.21493816   0.03358713
3756.00   1.19722152   0.03313641
3758.00   1.17083359   0.03277842
3760.00   1.25016510   0.03338822
3762.00   1.16554654   0.03246056
3764.00   1.20338893   0.03266798
3766.00   1.20941186   0.03230485
3768.00   1.17311752   0.03206115
3770.00   1.17034960   0.03221911
3772.00   1.19322991   0.03223272
3774.00   1.14086294   0.03146267
3776.00   1.12722313   0.03114535
3778.00   1.21207821   0.03211562
3780.00   1.20528400   0.03180822
3782.00   1.18247616   0.03164721
3784.00   1.18833601   0.03149255
3786.00   1.19668841   0.03134898
3788.00   1.22242582   0.03173393
3790.00   1.22252905   0.03180039
3792.00   1.21913517   0.03152920
3794.00   1.21687603   0.03129417
3796.00   1.20939374   0.03099882
3798.00   1.25826609   0.03119214
3800.00   1.29789627   0.03171479
3802.00   1.28339434   0.03151929
3804.00   1.28240669   0.03137713
3806.00   1.28992271   0.03124066
3808.00   1.31365597   0.03134698
3810.00   1.25757349   0.03095400
3812.00   1.29732931   0.03134053
3814.00   1.30833328   0.03116464
3816.00   1.33625066   0.03142777
3818.00   1.27823627   0.03092295
3820.00   1.30851579   0.03107199
3822.00   1.31186569   0.03085364
3824.00   1.31669176   0.03074268
3826.00   1.36371756   0.03136871
3828.00   1.33186340   0.03148562
3830.00   1.26387823   0.03086019
3832.00   1.30134642   0.03095645
3834.00   1.30391753   0.03059986
3836.00   1.34829175   0.03098801
3838.00   1.28368914   0.03024121
3840.00   1.31776965   0.03037854
3842.00   1.27327561   0.02985612
3844.00   1.27474034   0.02979132
3846.00   1.27151811   0.02935064
3848.00   1.23869312   0.02900523
3850.00   1.20703614   0.02863074
3852.00   1.21917164   0.02854213
3854.00   1.20223522   0.02835722
3856.00   1.17271399   0.02791343
3858.00   1.19543362   0.02792440
3860.00   1.21747029   0.02821359
3862.00   1.22253549   0.02817404
3864.00   1.20992362   0.02787063
3866.00   1.19669735   0.02763541
3868.00   1.21737802   0.02752202
3870.00   1.17855012   0.02730824
3872.00   1.13745618   0.02719302
3874.00   1.16307676   0.02760341
3876.00   1.16034770   0.02700691
3878.00   1.12242997   0.02647997
3880.00   1.10501349   0.02619525
3882.00   1.10047591   0.02601902
3884.00   1.10200500   0.02606846
3886.00   1.06760252   0.02560750
3888.00   1.14432061   0.02610419
3890.00   1.09796190   0.02573194
3892.00   1.12169147   0.02607599
3894.00   1.13016307   0.02616187
3896.00   1.15014720   0.02633015
3898.00   1.14247608   0.02615047
3900.00   1.14100373   0.02617980
3902.00   1.14684737   0.02659042
3904.00   1.13681710   0.02746708
3906.00   1.15114534   0.02846513
3908.00   1.22932470   0.02940140
3910.00   1.14695168   0.02879788
3912.00   1.22125196   0.02888321
3914.00   1.15206480   0.02726716
3916.00   1.13900256   0.02653755
3918.00   1.09621346   0.02577676
3920.00   1.11055553   0.02550689
3922.00   1.06406915   0.02488206
3924.00   1.06150818   0.02469926
3926.00   0.98619622   0.02377228
3928.00   0.94892055   0.02342728
3930.00   0.91763961   0.02358447
3932.00   0.89301056   0.02356128
3934.00   0.87541944   0.02299185
3936.00   0.91260159   0.02272903
3938.00   0.90233541   0.02274807
3940.00   0.92435384   0.02336794
3942.00   0.96619856   0.02409636
3944.00   0.89795357   0.02352759
3946.00   0.93018597   0.02331564
3948.00   0.94735318   0.02315210
3950.00   0.94643700   0.02307468
3952.00   0.96565551   0.02306487
3954.00   0.98204273   0.02306847
3956.00   1.01928997   0.02328123
3958.00   1.00253332   0.02360113
3960.00   1.07223177   0.02445356
3962.00   1.02377331   0.02369196
3964.00   1.05138385   0.02309757
3966.00   1.04761052   0.02299157
3968.00   1.07744074   0.02307514
3970.00   1.10998476   0.02340057
3972.00   1.15006244   0.02381730
3974.00   1.16105521   0.02391358
3976.00   1.15048862   0.02379044
3978.00   1.16470683   0.02384315
3980.00   1.17539203   0.02393420
3982.00   1.16894960   0.02384336
3984.00   1.12466455   0.02336550
3986.00   1.07560480   0.02298238
3988.00   1.09536505   0.02325485
3990.00   1.06240857   0.02286979
3992.00   1.03354788   0.02261811
3994.00   1.04062438   0.02317703
3996.00   0.99031806   0.02286876
3998.00   0.96051824   0.02221219
4000.00   0.96006227   0.02189544
4002.00   0.94427925   0.02157867
4004.00   0.93250120   0.02149653
4006.00   0.89725441   0.02141060
4008.00   0.88220578   0.02141907
4010.00   0.90716940   0.02176454
4012.00   0.90923846   0.02164800
4014.00   0.87337446   0.02108480
4016.00   0.89375538   0.02180564
4018.00   0.87265289   0.02307338
4020.00   0.93190730   0.02431081
4022.00   0.90662831   0.02408287
4024.00   0.94089025   0.02369087
4026.00   0.90735197   0.02237984
4028.00   0.91747373   0.02209894
4030.00   0.94123477   0.02220760
4032.00   0.96581072   0.02218434
4034.00   0.98832214   0.02217992
4036.00   0.98461497   0.02197200
4038.00   0.96690780   0.02178066
4040.00   1.00840032   0.02234277
4042.00   0.99799609   0.02499631
4044.00   1.05900049   0.03361975
4046.00   1.07085860   0.03563908
4048.00   1.09039271   0.02930707
4050.00   1.01819122   0.02354466
4052.00   1.03267896   0.02314095
4054.00   1.03603816   0.02317322
4056.00   1.04632783   0.02269347
4058.00   1.04847097   0.02221507
4060.00   1.09555781   0.02231395
4062.00   1.13365817   0.02263837
4064.00   1.13561821   0.02260398
4066.00   1.16636336   0.02273205
4068.00   1.18803787   0.02267698
4070.00   1.21004808   0.02265453
4072.00   1.23908627   0.02279903
4074.00   1.24819267   0.02391824
4076.00   1.32912743   0.02554299
4078.00   1.36572576   0.02564874
4080.00   1.32194793   0.02460818
4082.00   1.38493526   0.02465943
4084.00   1.37039459   0.02434579
4086.00   1.39010680   0.02428293
4088.00   1.38004601   0.02371123
4090.00   1.34444618   0.02311269
4092.00   1.36549437   0.02313499
4094.00   1.37731504   0.02315227
4096.00   1.36184299   0.02299584
4098.00   1.37352300   0.02313673
4100.00   1.35431421   0.02282945
4102.00   1.33809662   0.02255393
4104.00   1.33394110   0.02251697
4106.00   1.34691823   0.02270916
4108.00   1.32603192   0.02248566
4110.00   1.28977454   0.02223670
4112.00   1.30090570   0.02225226
4114.00   1.31273222   0.02231982
4116.00   1.35022509   0.02248309
4118.00   1.30678499   0.02207823
4120.00   1.28631639   0.02183404
4122.00   1.24819326   0.02165003
4124.00   1.27085614   0.02189253
4126.00   1.27111471   0.02191046
4128.00   1.22997510   0.02166005
4130.00   1.20557594   0.02171287
4132.00   1.22081113   0.02197275
4134.00   1.21627200   0.02180744
4136.00   1.23196578   0.02171353
4138.00   1.25770044   0.02209142
4140.00   1.24122238   0.02196566
4142.00   1.20144999   0.02130312
4144.00   1.26200855   0.02147165
4146.00   1.23251247   0.02131781
4148.00   1.22229254   0.02127980
4150.00   1.26457095   0.02196696
4152.00   1.26436019   0.02216405
4154.00   1.28208137   0.02194578
4156.00   1.28093433   0.02167847
4158.00   1.24673235   0.02145412
4160.00   1.26893854   0.02165049
4162.00   1.27862978   0.02228813
4164.00   1.29763377   0.02274349
4166.00   1.24804497   0.02200531
4168.00   1.28955173   0.02178276
4170.00   1.28704953   0.02150511
4172.00   1.27877378   0.02125730
4174.00   1.26320589   0.02117665
4176.00   1.22310603   0.02101525
4178.00   1.27955759   0.02129407
4180.00   1.23595405   0.02089419
4182.00   1.19749713   0.02050542
4184.00   1.21576428   0.02060052
4186.00   1.20862484   0.02050971
4188.00   1.18302858   0.02028439
4190.00   1.21031952   0.02049224
4192.00   1.20050478   0.02043906
4194.00   1.14487660   0.01997530
4196.00   1.14940906   0.01985519
4198.00   1.13193381   0.01968678
4200.00   1.11876440   0.01962014
4202.00   1.10384464   0.01952998
4204.00   1.08929622   0.01948721
4206.00   1.11629927   0.01974211
4208.00   1.12503886   0.01986473
4210.00   1.10251129   0.01979923
4212.00   1.11054289   0.01978410
4214.00   1.09252226   0.01958361
4216.00   1.09895515   0.01954345
4218.00   1.10744083   0.01959930
4220.00   1.07009470   0.01926843
4222.00   1.11676919   0.01952402
4224.00   1.09864771   0.01944931
4226.00   1.09246135   0.01932642
4228.00   1.10973859   0.01951380
4230.00   1.07991326   0.01942791
4232.00   1.11594260   0.01973202
4234.00   1.16745746   0.02008333
4236.00   1.16100204   0.02019617
4238.00   1.15974736   0.02011969
4240.00   1.13946223   0.01961676
4242.00   1.13533092   0.01972653
4244.00   1.20793021   0.02116070
4246.00   1.19504547   0.02162762
4248.00   1.19081151   0.02077479
4250.00   1.22759247   0.02037232
4252.00   1.17709565   0.01989494
4254.00   1.18215084   0.01994673
4256.00   1.23310649   0.02020407
4258.00   1.21260798   0.01996073
4260.00   1.22570479   0.02001628
4262.00   1.20808101   0.01987545
4264.00   1.23218060   0.01999012
4266.00   1.23483503   0.01999149
4268.00   1.22237086   0.01989480
4270.00   1.25590467   0.02008849
4272.00   1.24068892   0.02002672
4274.00   1.28745914   0.02026995
4276.00   1.25195348   0.02014599
4278.00   1.22142434   0.01994019
4280.00   1.24502075   0.02011205
4282.00   1.22583520   0.01999247
4284.00   1.23532474   0.02001710
4286.00   1.25794613   0.02002728
4288.00   1.24664712   0.01991779
4290.00   1.20987535   0.01971953
4292.00   1.26700270   0.02010980
4294.00   1.22497344   0.01987409
4296.00   1.20714211   0.01974557
4298.00   1.24827731   0.01988259
4300.00   1.23672271   0.01970922
4302.00   1.23680913   0.01978444
4304.00   1.23637140   0.01986053
4306.00   1.22165453   0.01983588
4308.00   1.23480678   0.01989699
4310.00   1.21569133   0.02010277
4312.00   1.20891595   0.02059857
4314.00   1.18258035   0.02046187
4316.00   1.18273282   0.02015678
4318.00   1.18184078   0.02026669
4320.00   1.20073581   0.02038697
4322.00   1.16109455   0.02008841
4324.00   1.17543793   0.02001411
4326.00   1.15480256   0.01967858
4328.00   1.13736463   0.01931469
4330.00   1.11557424   0.01909115
4332.00   1.11326480   0.01910841
4334.00   1.11291814   0.01913108
4336.00   1.07831585   0.01914626
4338.00   1.14428544   0.01961699
4340.00   1.14925802   0.01962445
4342.00   1.14817691   0.01970397
4344.00   1.11439967   0.01986804
4346.00   1.10303676   0.02014382
4348.00   1.11440909   0.02007134
4350.00   1.14193714   0.01992375
4352.00   1.12466991   0.01982709
4354.00   1.14438558   0.02444980
4356.00   1.19263840   0.03263304
4358.00   1.11833811   0.03428286
4360.00   1.12580931   0.02817043
4362.00   1.06275284   0.02228859
4364.00   1.06298220   0.02013011
4366.00   1.04693711   0.01963093
4368.00   1.07499218   0.01950217
4370.00   1.08959043   0.01964705
4372.00   1.10715342   0.01995333
4374.00   1.08889139   0.02003016
4376.00   1.09893930   0.01964477
4378.00   1.10281444   0.01951955
4380.00   1.11568868   0.01937639
4382.00   1.09770358   0.01915083
4384.00   1.13714850   0.01926660
4386.00   1.14649272   0.01928039
4388.00   1.16101718   0.01940729
4390.00   1.14133286   0.01937562
4392.00   1.15525174   0.01940735
4394.00   1.16096640   0.01940705
4396.00   1.16669917   0.01952406
4398.00   1.20110881   0.01987467
4400.00   1.19651759   0.01998226
4402.00   1.21142817   0.01987894
4404.00   1.21037650   0.01968135
4406.00   1.21848583   0.01977594
4408.00   1.22901869   0.01980966
4410.00   1.17883229   0.01956890
4412.00   1.21009898   0.01987241
4414.00   1.18834829   0.01992304
4416.00   1.18193007   0.01980485
4418.00   1.18759644   0.01996258
4420.00   1.15939844   0.01939551
4422.00   1.09319115   0.01908224
4424.00   1.09058857   0.01905145
4426.00   1.11555243   0.01908176
4428.00   1.10646260   0.01903152
4430.00   1.08013487   0.01893640
4432.00   1.09396040   0.01895074
4434.00   1.05131733   0.01866412
4436.00   1.03585052   0.01860902
4438.00   1.02347827   0.01852895
4440.00   1.02860153   0.01852460
4442.00   0.99100989   0.01830421
4444.00   0.99677467   0.01832650
4446.00   1.01397252   0.01844185
4448.00   1.02927136   0.01843635
4450.00   0.98369211   0.01823507
4452.00   0.94889748   0.01799595
4454.00   1.00443447   0.01825186
4456.00   0.96844977   0.01808013
4458.00   0.94123900   0.01794033
4460.00   0.90266079   0.01774755
4462.00   0.97986698   0.01806145
4464.00   0.96082968   0.01793097
4466.00   0.93429071   0.01782290
4468.00   0.95849407   0.01792459
4470.00   0.95961660   0.01786079
4472.00   0.93244898   0.01781261
4474.00   0.91637927   0.01767183
4476.00   0.91231751   0.01766634
4478.00   0.93635523   0.01769222
4480.00   0.92839634   0.01767355
4482.00   0.92253709   0.01765198
4484.00   0.92054975   0.01770750
4486.00   0.89903480   0.01750552
4488.00   0.88606614   0.01748509
4490.00   0.89705062   0.01753549
4492.00   0.88336134   0.01754375
4494.00   0.88952231   0.01756315
4496.00   0.88189125   0.01745042
4498.00   0.86951864   0.01740674
4500.00   0.86779583   0.01725996
4502.00   0.87533724   0.01724372
4504.00   0.83979762   0.01700454
4506.00   0.86110437   0.01709300
4508.00   0.83895737   0.01693930
4510.00   0.83722240   0.01688025
4512.00   0.85410017   0.01693849
4514.00   0.82709593   0.01668194
4516.00   0.82623631   0.01668592
4518.00   0.81154197   0.01661286
4520.00   0.83331674   0.01661452
4522.00   0.82262200   0.01657657
4524.00   0.80502242   0.01640216
4526.00   0.76126176   0.01609012
4528.00   0.78952485   0.01623598
4530.00   0.77540171   0.01618901
4532.00   0.75433207   0.01598107
4534.00   0.74022192   0.01589085
4536.00   0.71353018   0.01566288
4538.00   0.71314406   0.01560895
4540.00   0.76068115   0.01587607
4542.00   0.72213995   0.01577302
4544.00   0.72698539   0.01572171
4546.00   0.69685745   0.01543876
4548.00   0.70783931   0.01538736
4550.00   0.69505399   0.01525256
4552.00   0.72134334   0.01533296
4554.00   0.71576387   0.01536988
4556.00   0.73299223   0.01543253
4558.00   0.76846933   0.01549990
4560.00   0.73314261   0.01529667
4562.00   0.75201136   0.01533989
4564.00   0.79115540   0.01551121
4566.00   0.78976762   0.01546130
4568.00   0.77179474   0.01528653
4570.00   0.80420411   0.01547019
4572.00   0.79449689   0.01550439
4574.00   0.82646781   0.01558524
4576.00   0.82672119   0.01553661
4578.00   0.84670150   0.01556270
4580.00   0.83171469   0.01542381
4582.00   0.83009368   0.01534970
4584.00   0.84409189   0.01537771
4586.00   0.83368880   0.01530586
4588.00   0.85719365   0.01544675
4590.00   0.87247783   0.01552857
4592.00   0.89100790   0.01563100
4594.00   0.86799479   0.01547010
4596.00   0.88777214   0.01550841
4598.00   0.91906309   0.01560689
4600.00   0.90257645   0.01542361
4602.00   0.93186802   0.01552096
4604.00   0.95284420   0.01565713
4606.00   0.94164562   0.01564756
4608.00   0.94681329   0.01568605
4610.00   0.93972713   0.01558020
4612.00   0.94928098   0.01557394
4614.00   0.94353580   0.01542390
4616.00   0.96429038   0.01555883
4618.00   0.95685738   0.01549915
4620.00   0.96950805   0.01552080
4622.00   0.94106817   0.01536879
4624.00   0.98722559   0.01563573
4626.00   0.97110242   0.01552776
4628.00   0.96593457   0.01544840
4630.00   0.97855949   0.01554174
4632.00   0.97837228   0.01553021
4634.00   1.00114429   0.01562270
4636.00   1.01812553   0.01562433
4638.00   1.00629735   0.01558573
4640.00   1.00985718   0.01565177
4642.00   1.00486302   0.01553471
4644.00   1.01437879   0.01558882
4646.00   1.02611494   0.01564033
4648.00   1.01137412   0.01557462
4650.00   1.00978816   0.01557534
4652.00   1.02207899   0.01565544
4654.00   1.02374876   0.01565004
4656.00   1.01918149   0.01571782
4658.00   0.99858844   0.01564910
4660.00   0.98655432   0.01566000
4662.00   0.99070865   0.01576078
4664.00   0.94790405   0.01565248
4666.00   0.96338415   0.01579941
4668.00   0.95211703   0.01583465
4670.00   0.99146581   0.01604517
4672.00   0.95706391   0.01578598
4674.00   0.95126635   0.01565800
4676.00   0.95896930   0.01550927
4678.00   0.99006677   0.01555699
4680.00   0.95834273   0.01537315
4682.00   0.97125220   0.01536624
4684.00   0.95430404   0.01518858
4686.00   0.98796850   0.01535244
4688.00   0.99171895   0.01532760
4690.00   1.00890541   0.01537041
4692.00   0.99825883   0.01530594
4694.00   1.01038623   0.01533782
4696.00   1.03334737   0.01544928
4698.00   1.03272426   0.01536330
4700.00   1.04203498   0.01539371
4702.00   1.02398050   0.01532994
4704.00   1.02978885   0.01546905
4706.00   1.08316541   0.01573862
4708.00   1.07292199   0.01574754
4710.00   1.06526077   0.01570236
4712.00   1.09676015   0.01581150
4714.00   1.14272821   0.01601717
4716.00   1.11538911   0.01581351
4718.00   1.12651479   0.01583736
4720.00   1.11893940   0.01579646
4722.00   1.12152302   0.01577348
4724.00   1.10898733   0.01574542
4726.00   1.10981917   0.01605034
4728.00   1.14057040   0.01637741
4730.00   1.11761189   0.01627865
4732.00   1.13886368   0.01643110
4734.00   1.11523402   0.01649056
4736.00   1.14424455   0.01666630
4738.00   1.13360214   0.01679815
4740.00   1.12116587   0.01697787
4742.00   1.10377717   0.01693086
4744.00   1.15416718   0.01684311
4746.00   1.11686778   0.01616551
4748.00   1.05939019   0.01561843
4750.00   1.11725354   0.01588216
4752.00   1.11002755   0.01593940
4754.00   1.10812628   0.01576874
4756.00   1.08465588   0.01544136
4758.00   1.10306692   0.01543767
4760.00   1.06990182   0.01516742
4762.00   1.07221901   0.01511753
4764.00   1.06993186   0.01507391
4766.00   1.06989563   0.01505357
4768.00   1.05234385   0.01497075
4770.00   1.05538404   0.01494703
4772.00   1.06262982   0.01500541
4774.00   1.04368639   0.01492502
4776.00   1.06603730   0.01522184
4778.00   1.03471828   0.01516383
4780.00   1.03882635   0.01516940
4782.00   1.04507530   0.01507049
4784.00   1.05127609   0.01504102
4786.00   1.04483402   0.01495836
4788.00   1.03739631   0.01489800
4790.00   1.03759432   0.01495452
4792.00   1.03415775   0.01494020
4794.00   1.05462694   0.01495638
4796.00   1.01894200   0.01476021
4798.00   1.02262592   0.01472603
4800.00   1.03020132   0.01479620
4802.00   1.02324641   0.01478492
4804.00   1.04200053   0.01489221
4806.00   1.03192937   0.01488379
4808.00   1.05440712   0.01500258
4810.00   1.03545749   0.01489312
4812.00   1.04409850   0.01492947
4814.00   1.03165162   0.01489111
4816.00   1.05081332   0.01503511
4818.00   1.04536092   0.01503298
4820.00   1.05738497   0.01513925
4822.00   1.05638576   0.01517886
4824.00   1.07065833   0.01527956
4826.00   1.08596146   0.01532758
4828.00   1.06205833   0.01520195
4830.00   1.06849408   0.01533273
4832.00   1.06812906   0.01533701
4834.00   1.05730569   0.01525463
4836.00   1.06969237   0.01537173
4838.00   1.08041370   0.01553487
4840.00   1.09138381   0.01555635
4842.00   1.10795534   0.01557269
4844.00   1.09079015   0.01540756
4846.00   1.10524189   0.01547217
4848.00   1.09085739   0.01542038
4850.00   1.09397745   0.01544500
4852.00   1.07574403   0.01533967
4854.00   1.08112681   0.01529394
4856.00   1.07183766   0.01520271
4858.00   1.07346129   0.01519807
4860.00   1.05779612   0.01515657
4862.00   1.02417374   0.01501345
4864.00   1.06544435   0.01522005
4866.00   1.04294932   0.01506711
4868.00   1.03641546   0.01501880
4870.00   1.07377589   0.01518084
4872.00   1.04503274   0.01502073
4874.00   1.03090525   0.01494403
4876.00   1.00803888   0.01486708
4878.00   1.01058042   0.01489326
4880.00   1.01388085   0.01486776
4882.00   0.99035197   0.01473326
4884.00   0.98559964   0.01469979
4886.00   0.99501282   0.01467202
4888.00   0.95114362   0.01441203
4890.00   0.96368682   0.01446133
4892.00   0.97575694   0.01454897
4894.00   0.98357278   0.01456677
4896.00   1.00066566   0.01463353
4898.00   0.92689025   0.01423172
4900.00   0.94543642   0.01429140
4902.00   0.93888986   0.01426487
4904.00   0.92082828   0.01410736
4906.00   0.91692567   0.01418111
4908.00   0.90924066   0.01412365
4910.00   0.89994270   0.01405492
4912.00   0.86759889   0.01389387
4914.00   0.88236010   0.01399795
4916.00   0.85931110   0.01384062
4918.00   0.84351009   0.01371279
4920.00   0.82537699   0.01358612
4922.00   0.82050747   0.01350949
4924.00   0.83331877   0.01352808
4926.00   0.82633692   0.01346837
4928.00   0.80582267   0.01333312
4930.00   0.79710358   0.01327097
4932.00   0.80580831   0.01332919
4934.00   0.82396477   0.01347687
4936.00   0.79638469   0.01330039
4938.00   0.79521251   0.01332206
4940.00   0.80329758   0.01334131
4942.00   0.80435020   0.01329246
4944.00   0.80470103   0.01331037
4946.00   0.82952678   0.01341601
4948.00   0.82397264   0.01336127
4950.00   0.80132121   0.01335447
4952.00   0.80963445   0.01350299
4954.00   0.82176095   0.01354174
4956.00   0.82746226   0.01353649
4958.00   0.82156849   0.01344981
4960.00   0.81290710   0.01340361
4962.00   0.81433403   0.01346988
4964.00   0.83429354   0.01362689
4966.00   0.83043605   0.01363661
4968.00   0.83304530   0.01376506
4970.00   0.83290946   0.01392060
4972.00   0.83964014   0.01411500
4974.00   0.84563386   0.01435372
4976.00   0.83562827   0.01459135
4978.00   0.85240412   0.01503681
4980.00   0.86787039   0.01540458
4982.00   0.88472670   0.01563679
4984.00   0.85606647   0.01541383
4986.00   0.83335602   0.01504967
4988.00   0.84382933   0.01479388
4990.00   0.85906655   0.01464538
4992.00   0.84844631   0.01439270
4994.00   0.84107989   0.01410441
4996.00   0.80472922   0.01373931
4998.00   0.81688899   0.01363595
5000.00   0.81157959   0.01345219
5002.00   0.80359697   0.01343210
5004.00   0.75981933   0.01307817
5006.00   0.77352148   0.01310495
5008.00   0.77257615   0.01305364
5010.00   0.76375031   0.01297796
5012.00   0.73939198   0.01279136
5014.00   0.75135654   0.01287827
5016.00   0.75189465   0.01294995
5018.00   0.75739098   0.01304642
5020.00   0.74186897   0.01297605
5022.00   0.73223138   0.01285541
5024.00   0.72181386   0.01269641
5026.00   0.72844225   0.01268441
5028.00   0.72996575   0.01282532
5030.00   0.71152681   0.01275154
5032.00   0.72460926   0.01277907
5034.00   0.72449237   0.01272100
5036.00   0.73528230   0.01272608
5038.00   0.72671998   0.01262813
5040.00   0.73184985   0.01265776
5042.00   0.72593540   0.01264236
5044.00   0.74120390   0.01279410
5046.00   0.73716056   0.01273200
5048.00   0.74190766   0.01276068
5050.00   0.72073781   0.01265884
5052.00   0.74319053   0.01279034
5054.00   0.75360948   0.01285381
5056.00   0.75612140   0.01288056
5058.00   0.77696574   0.01300670
5060.00   0.73579156   0.01283440
5062.00   0.75836056   0.01309808
5064.00   0.76970172   0.01323439
5066.00   0.75648361   0.01330508
5068.00   0.78588974   0.01359699
5070.00   0.76694232   0.01346867
5072.00   0.75645810   0.01334672
5074.00   0.76565683   0.01334449
5076.00   0.78569382   0.01338071
5078.00   0.78746659   0.01366497
5080.00   0.79306746   0.01433680
5082.00   0.76627266   0.01474981
5084.00   0.75910157   0.01496255
5086.00   0.76518703   0.01481593
5088.00   0.77422518   0.01439238
5090.00   0.75080568   0.01375338
5092.00   0.74543792   0.01337346
5094.00   0.72027254   0.01311650
5096.00   0.73636568   0.01332283
5098.00   0.72069305   0.01340652
5100.00   0.72282505   0.01329373
5102.00   0.72334039   0.01308651
5104.00   0.70832062   0.01286187
5106.00   0.72361517   0.01287953
5108.00   0.70431167   0.01271230
5110.00   0.71619898   0.01274892
5112.00   0.73164701   0.01289241
5114.00   0.69408071   0.01272384
5116.00   0.67187089   0.01262683
5118.00   0.68011284   0.01249919
5120.00   0.68067789   0.01245661
5122.00   0.66434652   0.01235099
5124.00   0.68706053   0.01241848
5126.00   0.69826615   0.01245931
5128.00   0.66823453   0.01230415
5130.00   0.65161383   0.01225349
5132.00   0.68736172   0.01242458
5134.00   0.68095642   0.01239925
5136.00   0.64473194   0.01220371
5138.00   0.67345452   0.01232762
5140.00   0.64789981   0.01226480
5142.00   0.66029453   0.01228350
5144.00   0.64906645   0.01232171
5146.00   0.64214528   0.01239718
5148.00   0.66832811   0.01268463
5150.00   0.67736620   0.01289264
5152.00   0.69287747   0.01316644
5154.00   0.68579859   0.01311490
5156.00   0.65730578   0.01281341
5158.00   0.65290511   0.01266452
5160.00   0.68564075   0.01268476
5162.00   0.68951184   0.01256752
5164.00   0.68938404   0.01246947
5166.00   0.68524623   0.01238247
5168.00   0.69709861   0.01243407
5170.00   0.69904852   0.01243974
5172.00   0.69251561   0.01244039
5174.00   0.71709996   0.01258399
5176.00   0.72292066   0.01259591
5178.00   0.69608748   0.01248899
5180.00   0.71237093   0.01255906
5182.00   0.70748854   0.01250136
5184.00   0.71864522   0.01257614
5186.00   0.69882005   0.01252578
5188.00   0.69505376   0.01245766
5190.00   0.70842719   0.01249623
5192.00   0.70679045   0.01254755
5194.00   0.70685542   0.01255605
5196.00   0.71309519   0.01264144
5198.00   0.68170249   0.01244745
5200.00   0.68286544   0.01247755
5202.00   0.68262291   0.01244212
5204.00   0.65739715   0.01222701
5206.00   0.64662874   0.01221655
5208.00   0.64730030   0.01234392
5210.00   0.66134709   0.01245616
5212.00   0.63813192   0.01224499
5214.00   0.65345228   0.01225856
5216.00   0.65783608   0.01235195
5218.00   0.66863281   0.01239821
5220.00   0.62389284   0.01214018
5222.00   0.64305604   0.01215752
5224.00   0.65272975   0.01217019
5226.00   0.62121958   0.01194824
5228.00   0.63539851   0.01204474
5230.00   0.63714689   0.01204047
5232.00   0.63718206   0.01205380
5234.00   0.63972729   0.01201015
5236.00   0.64643097   0.01212547
5238.00   0.64580506   0.01213575
5240.00   0.63501740   0.01205991
5242.00   0.65102041   0.01206378
5244.00   0.66312093   0.01209050
5246.00   0.66535908   0.01211096
5248.00   0.62565637   0.01187265
5250.00   0.64345360   0.01199233
5252.00   0.62721509   0.01188254
5254.00   0.61918688   0.01195611
5256.00   0.63135797   0.01205832
5258.00   0.62250745   0.01208635
5260.00   0.60388595   0.01184582
5262.00   0.60283589   0.01176473
5264.00   0.59391838   0.01165375
5266.00   0.59358281   0.01165131
5268.00   0.61686945   0.01177260
5270.00   0.62290716   0.01180293
5272.00   0.61336410   0.01176178
5274.00   0.62057960   0.01187116
5276.00   0.63019532   0.01187992
5278.00   0.64166933   0.01196197
5280.00   0.61328506   0.01178913
5282.00   0.63901711   0.01200502
5284.00   0.63825357   0.01201251
5286.00   0.63551849   0.01202274
5288.00   0.63122517   0.01200420
5290.00   0.65376443   0.01203026
5292.00   0.65195727   0.01203219
5294.00   0.65931612   0.01205698
5296.00   0.66305453   0.01208013
5298.00   0.66610605   0.01213321
5300.00   0.67477500   0.01220350
5302.00   0.67214578   0.01220624
5304.00   0.66963279   0.01216442
5306.00   0.69371235   0.01228031
5308.00   0.69997561   0.01235108
5310.00   0.71276063   0.01240966
5312.00   0.69357836   0.01235291
5314.00   0.72285473   0.01251106
5316.00   0.71079671   0.01242611
5318.00   0.71011281   0.01241567
5320.00   0.72118294   0.01245169
5322.00   0.70807391   0.01237001
5324.00   0.68726820   0.01229541
5326.00   0.71567941   0.01247052
5328.00   0.71926701   0.01250048
5330.00   0.72448593   0.01259021
5332.00   0.72137707   0.01258720
5334.00   0.73234540   0.01263581
5336.00   0.73847431   0.01270898
5338.00   0.72603273   0.01269961
5340.00   0.72824013   0.01276961
5342.00   0.74242830   0.01289364
5344.00   0.74311042   0.01288654
5346.00   0.74706548   0.01304864
5348.00   0.74542230   0.01314658
5350.00   0.78487074   0.01334785
5352.00   0.76317418   0.01331181
5354.00   0.75861138   0.01337072
5356.00   0.80003089   0.01357444
5358.00   0.79630005   0.01342517
5360.00   0.77726859   0.01318793
5362.00   0.80004430   0.01324471
5364.00   0.79719102   0.01317402
5366.00   0.79295325   0.01314867
5368.00   0.81453663   0.01329036
5370.00   0.83151799   0.01334925
5372.00   0.82163709   0.01342753
5374.00   0.83184433   0.01359689
5376.00   0.81069517   0.01353026
5378.00   0.81581151   0.01358098
5380.00   0.80775440   0.01353479
5382.00   0.80607283   0.01349587
5384.00   0.83959013   0.01369218
5386.00   0.81700897   0.01365013
5388.00   0.83425945   0.01384605
5390.00   0.82528383   0.01395381
5392.00   0.83018744   0.01405574
5394.00   0.83853930   0.01409657
5396.00   0.85326660   0.01420472
5398.00   0.81676549   0.01403867
5400.00   0.83755976   0.01417329
5402.00   0.83224422   0.01420828
5404.00   0.83000243   0.01429383
5406.00   0.84059691   0.01445891
5408.00   0.82089859   0.01446793
5410.00   0.80997598   0.01459656
5412.00   0.82902157   0.01490761
5414.00   0.83993548   0.01518953
5416.00   0.81804395   0.01524958
5418.00   0.81981438   0.01537935
5420.00   0.81187254   0.01540671
5422.00   0.80722976   0.01547373
5424.00   0.80873895   0.01547977
5426.00   0.77895373   0.01537830
5428.00   0.78647989   0.01544884
5430.00   0.77997458   0.01549019
5432.00   0.76890928   0.01552929
5434.00   0.73540264   0.01545663
5436.00   0.76365417   0.01562811
5438.00   0.76977259   0.01580531
5440.00   0.76500893   0.01583952
5442.00   0.74554312   0.01585542
5444.00   0.75893146   0.01612607
5446.00   0.79071450   0.01635000
5448.00   0.76111591   0.01620367
5450.00   0.75510138   0.01619771
5452.00   0.77487904   0.01641246
5454.00   0.74852157   0.01653366
5456.00   0.75847518   0.01903165
5458.00   0.76632446   0.02258572
5460.00   0.73737901   0.02382606
5462.00   0.74052328   0.02259111
5464.00   0.76514047   0.02129688
5466.00   0.71156746   0.01981752
5468.00   0.73922467   0.01884862
5470.00   0.75248015   0.01792481
5472.00   0.74847490   0.01724004
5474.00   0.75212294   0.01698635
5476.00   0.78205371   0.01703691
5478.00   0.79811925   0.01723559
5480.00   0.78956109   0.01751163
5482.00   0.76637942   0.01757707
5484.00   0.74445069   0.01735293
5486.00   0.77970892   0.01738865
5488.00   0.76105708   0.01709056
5490.00   0.76652616   0.01699889
5492.00   0.77378666   0.01687616
5494.00   0.75932521   0.01682070
5496.00   0.74095392   0.01660867
5498.00   0.75060755   0.01665508
5500.00   0.77220911   0.01678086
5502.00   0.72994769   0.01651217
5504.00   0.75153828   0.01667603
5506.00   0.72518122   0.01648032
5508.00   0.74940920   0.01660385
5510.00   0.74588549   0.01681184
5512.00   0.73250288   0.01687923
5514.00   0.75505871   0.01705639
5516.00   0.74823546   0.01706913
5518.00   0.69098300   0.01693702
5520.00   0.75001246   0.01720654
5522.00   0.70228022   0.01677734
5524.00   0.68915755   0.01667671
5526.00   0.67705381   0.01657825
5528.00   0.69677246   0.01650122
5530.00   0.66992444   0.01633083
5532.00   0.67017543   0.01628510
5534.00   0.68363297   0.01634434
5536.00   0.65173805   0.01612542
5538.00   0.65612322   0.01627764
5540.00   0.67842084   0.01643689
5542.00   0.64966971   0.01634492
5544.00   0.62673253   0.01619183
5546.00   0.61663127   0.01613878
5548.00   0.61800081   0.01613057
5550.00   0.58741492   0.01586470
5552.00   0.63001597   0.01624903
5554.00   0.60685575   0.01604203
5556.00   0.62009901   0.01620957
5558.00   0.59477603   0.01604013
5560.00   0.57535332   0.01592990
5562.00   0.59423327   0.01627825
5564.00   0.59604102   0.01630109
5566.00   0.58624649   0.02632878
5568.00   0.58554697   0.02727105
5570.00   0.58158463   0.02837870
5572.00   0.58873433   0.02997576
5574.00   0.56483525   0.03224557
5576.00   0.56432623   0.03380040
5578.00   0.55017287   0.03378959
5580.00   0.51992339   0.03232266
5582.00   0.52933973   0.03017622
5584.00   0.54234177   0.02704624
5586.00   0.54381806   0.02343328
5588.00   0.54646748   0.02071497
5590.00   0.55867356   0.02014731
5592.00   0.56330186   0.01992539
5594.00   0.56748664   0.01975942
5596.00   0.56116754   0.01954315
5598.00   0.55677658   0.01937069
5600.00   0.56646824   0.01930237
5602.00   0.57895708   0.01923413
5604.00   0.57270354   0.01903445
5606.00   0.56604946   0.01890873
5608.00   0.56948143   0.01889950
5610.00   0.56874841   0.01875506
5612.00   0.56609321   0.01862010
5614.00   0.56565642   0.01850807
5616.00   0.56523907   0.01840176
5618.00   0.56323844   0.01831941
5620.00   0.56808072   0.01829974
5622.00   0.56989235   0.01825376
5624.00   0.57021219   0.01845612
5626.00   0.56432134   0.01832378
5628.00   0.56154054   0.01800357
5630.00   0.56401145   0.01789529
5632.00   0.56981826   0.01790075
5634.00   0.58165342   0.01793385
5636.00   0.58048421   0.01786106
5638.00   0.56574559   0.01774083
5640.00   0.57720512   0.01781162
5642.00   0.58655089   0.01788738
5644.00   0.57939607   0.01779187
5646.00   0.56388932   0.01760564
5648.00   0.57210952   0.01765536
5650.00   0.58416933   0.01770649
5652.00   0.57063138   0.01758003
5654.00   0.56876963   0.01755267
5656.00   0.58783942   0.01769225
5658.00   0.59653836   0.01781266
5660.00   0.57651174   0.01776748
5662.00   0.56780404   0.01784345
5664.00   0.57862777   0.01809071
5666.00   0.58374834   0.01830556
5668.00   0.57929802   0.01853900
5670.00   0.59126282   0.01893066
5672.00   0.58825821   0.01914310
5674.00   0.57885766   0.01929054
5676.00   0.57028878   0.01952641
5678.00   0.56855935   0.01985111
5680.00   0.57246852   0.02041077
5682.00   0.57575196   0.02099218
5684.00   0.57470816   0.02143862
5686.00   0.57262391   0.02175804
5688.00   0.56332034   0.02175277
5690.00   0.57217067   0.02148346
5692.00   0.56296152   0.02084949
5694.00   0.54524821   0.02000561
5696.00   0.55140018   0.01922743
5698.00   0.55303466   0.01855829
5700.00   0.56059766   0.01808826
5702.00   0.55845261   0.01766814
5704.00   0.55279994   0.01733040
5706.00   0.55068678   0.01711132
5708.00   0.55470461   0.01701097
5710.00   0.54888517   0.01684340
5712.00   0.54933411   0.01679393
5714.00   0.55610418   0.01692715
5716.00   0.55394793   0.01709625
5718.00   0.55767894   0.01696598
5720.00   0.55209774   0.01658830
5722.00   0.53817344   0.01609103
5724.00   0.52277970   0.01567012
5726.00   0.52927631   0.01601061
5728.00   0.53194547   0.01582601
5730.00   0.52823192   0.01544904
5732.00   0.52208781   0.01519585
5734.00   0.52666658   0.01520667
5736.00   0.52244216   0.01509347
5738.00   0.50774270   0.01495529
5740.00   0.49450433   0.01484583
5742.00   0.49759197   0.01485221
5744.00   0.49574086   0.01481694
5746.00   0.49582827   0.01481292
5748.00   0.48666942   0.01473079
5750.00   0.47649336   0.01466419
5752.00   0.47262681   0.01468858
5754.00   0.47713646   0.01480355
5756.00   0.47602370   0.01487373
5758.00   0.48113278   0.01503257
5760.00   0.47771239   0.01523428
5762.00   0.47192594   0.01553425
5764.00   0.47865906   0.01593863
5766.00   0.48381162   0.01640266
5768.00   0.47645035   0.01669263
5770.00   0.47094402   0.01675634
5772.00   0.47633561   0.01660553
5774.00   0.46339658   0.01615304
5776.00   0.46315995   0.01566325
5778.00   0.47094157   0.01531190
5780.00   0.48060670   0.01519217
5782.00   0.47788545   0.01524301
5784.00   0.47610831   0.01555454
5786.00   0.48693070   0.01602657
5788.00   0.50121242   0.01647619
5790.00   0.50972599   0.01674993
5792.00   0.50790972   0.01674243
5794.00   0.50630248   0.01649588
5796.00   0.51543945   0.01616631
5798.00   0.52611184   0.01577516
5800.00   0.53240228   0.01540465
5802.00   0.53367245   0.01524423
5804.00   0.53300315   0.01520493
5806.00   0.53835720   0.01520723
5808.00   0.54545486   0.01523469
5810.00   0.54704422   0.01521432
5812.00   0.54783916   0.01520397
5814.00   0.54492819   0.01520359
5816.00   0.56133252   0.01532269
5818.00   0.58080858   0.01545798
5820.00   0.58264297   0.01550420
5822.00   0.56735164   0.01541881
5824.00   0.55357742   0.01535640
5826.00   0.54980803   0.01537237
5828.00   0.55777812   0.01547284
5830.00   0.57073402   0.01560544
5832.00   0.55958515   0.01555604
5834.00   0.55505991   0.01555550
5836.00   0.55559582   0.01559957
5838.00   0.55567217   0.01564797
5840.00   0.54684126   0.01562849
5842.00   0.54612201   0.01566776
5844.00   0.54884696   0.01572479
5846.00   0.55223674   0.01580692
5848.00   0.55111551   0.01586846
5850.00   0.56218141   0.01596608
5852.00   0.55868697   0.01599630
5854.00   0.55865431   0.01606440
5856.00   0.55808705   0.01613257
5858.00   0.55716449   0.01620480
5860.00   0.56375742   0.01636212
5862.00   0.56700665   0.01649543
5864.00   0.55749398   0.01656735
5866.00   0.55356818   0.01664850
5868.00   0.56759661   0.01674509
5870.00   0.57177991   0.01681893
5872.00   0.54837310   0.01667917
5874.00   0.53957921   0.01667219
5876.00   0.54037428   0.01689555
5878.00   0.53152895   0.01738458
5880.00   0.52958339   0.01836315
5882.00   0.52416283   0.02015373
5884.00   0.51250643   0.02297484
5886.00   0.50303888   0.02647042
5888.00   0.51372337   0.02996639
5890.00   0.54361248   0.03222978
5892.00   0.53621924   0.03356574
5894.00   0.51498389   0.03369507
5896.00   0.51750118   0.03224761
5898.00   0.53103787   0.02892256
5900.00   0.53064913   0.02563860
5902.00   0.53520840   0.02233283
5904.00   0.54504788   0.01919980
5906.00   0.54798687   0.01682996
5908.00   0.54084891   0.01621376
5910.00   0.54175466   0.01624166
5912.00   0.54146785   0.01635017
5914.00   0.53679943   0.01639176
5916.00   0.54872859   0.01648194
5918.00   0.54911608   0.01646317
5920.00   0.54451567   0.01642827
5922.00   0.54460460   0.01645181
5924.00   0.54267579   0.01645864
5926.00   0.53627515   0.01643214
5928.00   0.52449983   0.01641865
5930.00   0.51166815   0.01641340
5932.00   0.51359624   0.01642138
5934.00   0.52141482   0.01638407
5936.00   0.51290894   0.01623898
5938.00   0.50944304   0.01604556
5940.00   0.51182562   0.01590163
5942.00   0.50840187   0.01573663
5944.00   0.49652401   0.01554131
5946.00   0.48323452   0.01541466
5948.00   0.48831412   0.01546699
5950.00   0.49206266   0.01552196
5952.00   0.49223343   0.01553071
5954.00   0.48841837   0.01546853
5956.00   0.48263395   0.01535200
5958.00   0.48520315   0.01527508
5960.00   0.48290277   0.01515726
5962.00   0.47795963   0.01502831
5964.00   0.47346035   0.01492321
5966.00   0.47504234   0.01489243
5968.00   0.47599354   0.01490631
5970.00   0.47095299   0.01488540
5972.00   0.46861795   0.01485811
5974.00   0.47952199   0.01489188
5976.00   0.49100134   0.01488725
5978.00   0.48873302   0.01480893
5980.00   0.48347846   0.01473165
5982.00   0.48012111   0.01468787
5984.00   0.47102880   0.01456819
5986.00   0.47366798   0.01453349
5988.00   0.47288385   0.01449345
5990.00   0.47963646   0.01449541
5992.00   0.48826185   0.01450041
5994.00   0.47779408   0.01441874
5996.00   0.48477700   0.01441195
5998.00   0.48486838   0.01437657
6000.00   0.47689283   0.01429619
6002.00   0.47982693   0.01428907
6004.00   0.48487821   0.01426857
6006.00   0.48080477   0.01417882
6008.00   0.47920728   0.01409668
6010.00   0.47947583   0.01403911
6012.00   0.47851637   0.01401980
6014.00   0.48763523   0.01400747
6016.00   0.48838389   0.01396417
6018.00   0.49381819   0.01395809
6020.00   0.49050441   0.01390975
6022.00   0.48308733   0.01383141
6024.00   0.49624565   0.01389791
6026.00   0.49531534   0.01386497
6028.00   0.49116483   0.01379967
6030.00   0.48792148   0.01376021
6032.00   0.48871657   0.01375150
6034.00   0.49793467   0.01377730
6036.00   0.50472689   0.01377442
6038.00   0.50508523   0.01372659
6040.00   0.50717014   0.01369975
6042.00   0.51223123   0.01370325
6044.00   0.51303393   0.01367625
6046.00   0.51352000   0.01364610
6048.00   0.51333261   0.01361346
6050.00   0.50609136   0.01353572
6052.00   0.50815421   0.01352737
6054.00   0.51955611   0.01358222
6056.00   0.52275127   0.01358547
6058.00   0.51353866   0.01351266
6060.00   0.51129985   0.01347633
6062.00   0.51500833   0.01348685
6064.00   0.52154851   0.01350590
6066.00   0.52642417   0.01351683
6068.00   0.53091711   0.01353814
6070.00   0.52314228   0.01347797
6072.00   0.52275091   0.01347216
6074.00   0.53300244   0.01350408
6076.00   0.53813559   0.01353216
6078.00   0.52953959   0.01349256
6080.00   0.52070028   0.01345024
6082.00   0.52214164   0.01343735
6084.00   0.52637035   0.01346077
6086.00   0.53158468   0.01349552
6088.00   0.53085542   0.01348328
6090.00   0.52799505   0.01349470
6092.00   0.54447514   0.01362340
6094.00   0.54746372   0.01368594
6096.00   0.53636658   0.01368097
6098.00   0.53727335   0.01377530
6100.00   0.54414028   0.01393092
6102.00   0.54900676   0.01407699
6104.00   0.54773188   0.01424776
6106.00   0.54495502   0.01449500
6108.00   0.54912943   0.01486650
6110.00   0.56076342   0.01522794
6112.00   0.56947678   0.01545725
6114.00   0.57063347   0.01548689
6116.00   0.56755656   0.01534191
6118.00   0.57080990   0.01511057
6120.00   0.56953198   0.01480757
6122.00   0.56799769   0.01446874
6124.00   0.56911010   0.01419214
6126.00   0.56876987   0.01402246
6128.00   0.57295221   0.01396261
6130.00   0.57888538   0.01394574
6132.00   0.59233731   0.01398748
6134.00   0.59209424   0.01395558
6136.00   0.57812071   0.01386365
6138.00   0.57821709   0.01391523
6140.00   0.58566040   0.01394433
6142.00   0.58116788   0.01388910
6144.00   0.57684308   0.01385218
6146.00   0.58431906   0.01391313
6148.00   0.59054106   0.01397293
6150.00   0.58583283   0.01402633
6152.00   0.58574516   0.01412845
6154.00   0.58876133   0.01425339
6156.00   0.57694632   0.01428946
6158.00   0.56645542   0.01436641
6160.00   0.57499987   0.01440905
6162.00   0.58743083   0.01436437
6164.00   0.58307165   0.01413839
6166.00   0.57016969   0.01385069
6168.00   0.56891900   0.01360362
6170.00   0.57045299   0.01344799
6172.00   0.56993109   0.01334268
6174.00   0.56442028   0.01323361
6176.00   0.55092996   0.01308679
6178.00   0.55390173   0.01318454
6180.00   0.55522090   0.01331429
6182.00   0.55599093   0.01334917
6184.00   0.55430001   0.01322136
6186.00   0.54632860   0.01317244
6188.00   0.55381566   0.01337040
6190.00   0.55624533   0.01348484
6192.00   0.55291182   0.01345313
6194.00   0.54371929   0.01340414
6196.00   0.55451375   0.01371612
6198.00   0.54055244   0.01378570
6200.00   0.53891873   0.01372832
6202.00   0.55257815   0.01368997
6204.00   0.54627776   0.01380184
6206.00   0.52847761   0.01278503
6208.00   0.53337193   0.01281860
6210.00   0.54559767   0.01404789
6212.00   0.54266763   0.01407012
6214.00   0.53315473   0.01380529
6216.00   0.53075880   0.01284548
6218.00   0.53588027   0.01247274
6220.00   0.54197460   0.01287477
6222.00   0.54525381   0.01336264
6224.00   0.55072337   0.01374311
6226.00   0.54448950   0.01341200
6228.00   0.54511029   0.01311096
6230.00   0.55269933   0.01311791
6232.00   0.56002706   0.01318858
6234.00   0.54707140   0.01317306
6236.00   0.53964239   0.01337548
6238.00   0.53672487   0.01351498
6240.00   0.52798337   0.01337700
6242.00   0.52338988   0.01308403
6244.00   0.53905952   0.01289162
6246.00   0.53590560   0.01272400
6248.00   0.52673841   0.01256036
6250.00   0.52983528   0.01246560
6252.00   0.54213506   0.01256131
6254.00   0.53470951   0.01271699
6256.00   0.53082818   0.01282885
6258.00   0.52669901   0.01288941
6260.00   0.51890332   0.01289266
6262.00   0.52199751   0.01290014
6264.00   0.51511687   0.01266773
6266.00   0.50851613   0.01241000
6268.00   0.50826222   0.01226674
6270.00   0.50277209   0.01217720
6272.00   0.49187064   0.01209381
6274.00   0.50265408   0.01220412
6276.00   0.51255018   0.01229332
6278.00   0.51232666   0.01231008
6280.00   0.51103514   0.01234660
6282.00   0.50850236   0.01239750
6284.00   0.50945544   0.01245127
6286.00   0.50373930   0.01241777
6288.00   0.50123143   0.01237012
6290.00   0.50419813   0.01235977
6292.00   0.50801951   0.01245116
6294.00   0.51055276   0.01282743
6296.00   0.50827509   0.01337942
6298.00   0.50316679   0.01391072
6300.00   0.51262170   0.01427932
6302.00   0.51404005   0.01440772
6304.00   0.51197374   0.01420882
6306.00   0.50897104   0.01372418
6308.00   0.50485754   0.01310716
6310.00   0.50851256   0.01270007
6312.00   0.51350999   0.01242535
6314.00   0.51072502   0.01216066
6316.00   0.50323266   0.01194892
6318.00   0.50043106   0.01188809
6320.00   0.49907175   0.01187371
6322.00   0.49085346   0.01181276
6324.00   0.48598850   0.01183046
6326.00   0.48596081   0.01190410
6328.00   0.48699379   0.01195582
6330.00   0.48153058   0.01187980
6332.00   0.47113928   0.01175782
6334.00   0.47033000   0.01165076
6336.00   0.47341886   0.01153466
6338.00   0.46658292   0.01135407
6340.00   0.45242378   0.01120588
6342.00   0.44767156   0.01115522
6344.00   0.45331749   0.01119474
6346.00   0.45507416   0.01122283
6348.00   0.44803444   0.01121343
6350.00   0.45349970   0.01127630
6352.00   0.45314583   0.01129778
6354.00   0.44593593   0.01126710
6356.00   0.43856099   0.01123245
6358.00   0.44367537   0.01134882
6360.00   0.44069424   0.01152328
6362.00   0.43905756   0.01160888
6364.00   0.43793479   0.01155788
6366.00   0.42859173   0.01137454
6368.00   0.42557493   0.01118309
6370.00   0.43076101   0.01099518
6372.00   0.42884982   0.01078645
6374.00   0.42306781   0.01067366
6376.00   0.41844511   0.01072571
6378.00   0.41666594   0.01074714
6380.00   0.41669741   0.01076226
6382.00   0.41678488   0.01078413
6384.00   0.41483364   0.01076623
6386.00   0.40546802   0.01064322
6388.00   0.40321612   0.01055092
6390.00   0.39439771   0.01041458
6392.00   0.39025283   0.01031314
6394.00   0.39776599   0.01031582
6396.00   0.39623937   0.01030333
6398.00   0.39259088   0.01031462
6400.00   0.39926484   0.01038308
6402.00   0.40288746   0.01040948
6404.00   0.39790800   0.01035590
6406.00   0.38923213   0.01027129
6408.00   0.39002565   0.01024045
6410.00   0.39030346   0.01023378
6412.00   0.39008984   0.01021813
6414.00   0.38840759   0.01017450
6416.00   0.39106044   0.01018414
6418.00   0.38666585   0.01012790
6420.00   0.38350260   0.01005185
6422.00   0.38151559   0.00999356
6424.00   0.37217975   0.00990763
6426.00   0.37121177   0.00984956
6428.00   0.36955082   0.00978895
6430.00   0.36783662   0.00975961
6432.00   0.37182164   0.00979117
6434.00   0.37548497   0.00979438
6436.00   0.36021385   0.00966897
6438.00   0.35834980   0.00964773
6440.00   0.36405087   0.00966675
6442.00   0.35997555   0.00961672
6444.00   0.35052583   0.00955919
6446.00   0.34301844   0.00949396
6448.00   0.34139833   0.00947223
6450.00   0.34270635   0.00949280
6452.00   0.34427056   0.00952965
6454.00   0.34087646   0.00950034
6456.00   0.33202025   0.00943051
6458.00   0.33280116   0.00948835
6460.00   0.33629847   0.00960353
6462.00   0.33487168   0.00968104
6464.00   0.32920590   0.00970786
6466.00   0.33058086   0.00979064
6468.00   0.32891989   0.00978591
6470.00   0.32294604   0.00968672
6472.00   0.32061568   0.00956416
6474.00   0.32193458   0.00946828
6476.00   0.32412264   0.00935128
6478.00   0.32281449   0.00922963
6480.00   0.31975397   0.00914327
6482.00   0.31782463   0.00909964
6484.00   0.32224512   0.00908643
6486.00   0.32030776   0.00902503
6488.00   0.31946471   0.00900585
6490.00   0.32493371   0.00908203
6492.00   0.33248368   0.00923252
6494.00   0.32734081   0.00938212
6496.00   0.32398441   0.00955657
6498.00   0.32628477   0.00971728
6500.00   0.33942571   0.00988591
6502.00   0.34766099   0.00995538
6504.00   0.34396777   0.00982812
6506.00   0.34287515   0.00965935
6508.00   0.34382820   0.00953068
6510.00   0.34517661   0.00946570
6512.00   0.34817576   0.00937140
6514.00   0.34861931   0.00928639
6516.00   0.35086188   0.00926454
6518.00   0.36036924   0.00935868
6520.00   0.36989355   0.00947972
6522.00   0.36838737   0.00950047
6524.00   0.37785542   0.00959088
6526.00   0.38621655   0.00970948
6528.00   0.38985267   0.00984775
6530.00   0.38812542   0.00994953
6532.00   0.39605597   0.01004300
6534.00   0.39744815   0.01004949
6536.00   0.40137342   0.01004347
6538.00   0.40890443   0.01003249
6540.00   0.40972558   0.00992310
6542.00   0.40706608   0.00984661
6544.00   0.40898028   0.00985666
6546.00   0.41340235   0.00991343
6548.00   0.42139542   0.01003355
6550.00   0.42047355   0.01015632
6552.00   0.41812161   0.01020444
6554.00   0.41900113   0.01022643
6556.00   0.42256472   0.01024165
6558.00   0.42183402   0.01019300
6560.00   0.41966057   0.01006540
6562.00   0.41987029   0.00999591
6564.00   0.42146578   0.00999368
6566.00   0.42293665   0.01001257
6568.00   0.42700419   0.01001760
6570.00   0.42561713   0.00995331
6572.00   0.43176341   0.01004015
6574.00   0.43877700   0.01017781
6576.00   0.44056109   0.01024509
6578.00   0.43374372   0.01017616
6580.00   0.44068733   0.01020255
6582.00   0.43866935   0.01009489
6584.00   0.43664512   0.00994855
6586.00   0.43694088   0.00985219
6588.00   0.43308759   0.00980872
6590.00   0.43148366   0.00978547
6592.00   0.43727848   0.00985291
6594.00   0.44090095   0.00990015
6596.00   0.43513998   0.00985687
6598.00   0.42361465   0.00981099
6600.00   0.42475513   0.00986712
6602.00   0.42681924   0.00989905
6604.00   0.42774820   0.00988492
6606.00   0.42881164   0.00985142
6608.00   0.43241462   0.00980203
6610.00   0.43170595   0.00971499
6612.00   0.42722812   0.00961712
6614.00   0.42234039   0.00954915
6616.00   0.41471228   0.00948695
6618.00   0.40673891   0.00941435
6620.00   0.41001567   0.00943086
6622.00   0.41852459   0.00950922
6624.00   0.42278314   0.00957103
6626.00   0.41386661   0.00950720
6628.00   0.41753659   0.00952871
6630.00   0.42050242   0.00956930
6632.00   0.42013147   0.00958502
6634.00   0.41593060   0.00954158
6636.00   0.42307857   0.00957154
6638.00   0.42408809   0.00955245
6640.00   0.42154238   0.00950102
6642.00   0.41927242   0.00945316
6644.00   0.41519871   0.00940615
6646.00   0.40574208   0.00931911
6648.00   0.40630949   0.00930574
6650.00   0.41017652   0.00932681
6652.00   0.41260931   0.00933918
6654.00   0.40879560   0.00930747
6656.00   0.40584847   0.00928757
6658.00   0.40275550   0.00927362
6660.00   0.40355662   0.00929361
6662.00   0.40254685   0.00930102
6664.00   0.39942321   0.00927975
6666.00   0.39913344   0.00929365
6668.00   0.40207180   0.00930663
6670.00   0.40161517   0.00926852
6672.00   0.39808354   0.00922094
6674.00   0.40015689   0.00924585
6676.00   0.39787444   0.00922441
6678.00   0.39401770   0.00919022
6680.00   0.39018714   0.00916107
6682.00   0.39118907   0.00915216
6684.00   0.38896176   0.00910666
6686.00   0.39082539   0.00912307
6688.00   0.38949978   0.00909593
6690.00   0.38429952   0.00904008
6692.00   0.37901726   0.00899452
6694.00   0.37684372   0.00899482
6696.00   0.37915078   0.00902056
6698.00   0.37803793   0.00901703
6700.00   0.37372062   0.00901601
6702.00   0.37818393   0.00912576
6704.00   0.37511039   0.00919821
6706.00   0.37366584   0.00921073
6708.00   0.37805906   0.00924210
6710.00   0.37984395   0.00924642
6712.00   0.37326875   0.00917883
6714.00   0.36756098   0.00907233
6716.00   0.36841154   0.00901787
6718.00   0.36861172   0.00897122
6720.00   0.36380351   0.00890134
6722.00   0.36729541   0.00889001
6724.00   0.36554098   0.00884565
6726.00   0.36083421   0.00880665
6728.00   0.35969368   0.00880412
6730.00   0.36186329   0.00882488
6732.00   0.35878018   0.00879134
6734.00   0.35715839   0.00878231
6736.00   0.36154711   0.00882023
6738.00   0.36854872   0.00886414
6740.00   0.36953473   0.00886934
6742.00   0.36643028   0.00883013
6744.00   0.37058184   0.00886299
6746.00   0.36751878   0.00882742
6748.00   0.36474776   0.00877935
6750.00   0.37027565   0.00881514
6752.00   0.37528905   0.00883733
6754.00   0.37936881   0.00884892
6756.00   0.38064364   0.00885851
6758.00   0.38160697   0.00887625
6760.00   0.37505212   0.00882265
6762.00   0.37956300   0.00884711
6764.00   0.38126454   0.00884819
6766.00   0.38101754   0.00883763
6768.00   0.38192144   0.00885238
6770.00   0.37563202   0.00880044
6772.00   0.37716207   0.00880343
6774.00   0.38110080   0.00882512
6776.00   0.38513887   0.00885222
6778.00   0.38536298   0.00885332
6780.00   0.38017011   0.00881769
6782.00   0.37762180   0.00880785
6784.00   0.37995657   0.00883936
6786.00   0.38047600   0.00883575
6788.00   0.37395930   0.00875570
6790.00   0.37526110   0.00876836
6792.00   0.37863743   0.00877524
6794.00   0.38100418   0.00877743
6796.00   0.37875548   0.00874881
6798.00   0.37946382   0.00874636
6800.00   0.38002613   0.00874694
6802.00   0.37657177   0.00872423
6804.00   0.37492263   0.00870967
6806.00   0.37450838   0.00869107
6808.00   0.37483025   0.00868438
6810.00   0.37515017   0.00868952
6812.00   0.37468472   0.00868702
6814.00   0.37365565   0.00868306
6816.00   0.37508881   0.00869934
6818.00   0.38211274   0.00877129
6820.00   0.38171935   0.00878267
6822.00   0.37482047   0.00888487
6824.00   0.37321317   0.00916801
6826.00   0.38264224   0.00959929
6828.00   0.38625631   0.00993092
6830.00   0.38266745   0.01017940
6832.00   0.38204518   0.01028210
6834.00   0.38639531   0.01019447
6836.00   0.38694254   0.00989966
6838.00   0.38540569   0.00961987
6840.00   0.38708317   0.00936505
6842.00   0.38873219   0.00913753
6844.00   0.38697410   0.00895499
6846.00   0.38397220   0.00887665
6848.00   0.38889763   0.00885713
6850.00   0.39118147   0.00881937
6852.00   0.38761008   0.00876403
6854.00   0.38434306   0.00875135
6856.00   0.39012456   0.00885620
6858.00   0.38834843   0.00919335
6860.00   0.38751402   0.00964677
6862.00   0.38498196   0.01000464
6864.00   0.37819162   0.01027510
6866.00   0.36973131   0.01085586
6868.00   0.37948871   0.01143689
6870.00   0.38443521   0.01134035
6872.00   0.38338935   0.01084910
6874.00   0.38773474   0.01054566
6876.00   0.39479050   0.01032500
6878.00   0.39309132   0.00994612
6880.00   0.38830099   0.00960377
6882.00   0.38385618   0.00943331
6884.00   0.37904283   0.00941684
6886.00   0.37767711   0.00953080
6888.00   0.37761486   0.00961438
6890.00   0.37712607   0.00964922
6892.00   0.37955764   0.00966652
6894.00   0.38100025   0.00962026
6896.00   0.38348350   0.00958059
6898.00   0.38280794   0.00951722
6900.00   0.37751427   0.00942278
6902.00   0.37536263   0.00935353
6904.00   0.38362965   0.00937627
6906.00   0.38369668   0.00934710
6908.00   0.38326862   0.00937444
6910.00   0.38011393   0.00941329
6912.00   0.37404332   0.00940744
6914.00   0.36791098   0.00930235
6916.00   0.36891624   0.00927162
6918.00   0.37084630   0.00931446
6920.00   0.37142393   0.00938957
6922.00   0.36895409   0.00942395
6924.00   0.36416149   0.00940531
6926.00   0.36670968   0.00940478
6928.00   0.36606994   0.00921763
6930.00   0.36473945   0.00890641
6932.00   0.36611143   0.00870608
6934.00   0.36241487   0.00873112
6936.00   0.36150134   0.00888293
6938.00   0.35818210   0.00898034
6940.00   0.35605493   0.00902897
6942.00   0.35311523   0.00908310
6944.00   0.35741413   0.00929024
6946.00   0.35687074   0.00940006
6948.00   0.35493946   0.00941033
6950.00   0.35026383   0.00934738
6952.00   0.35182688   0.00933092
6954.00   0.35551921   0.00912985
6956.00   0.35141316   0.00877793
6958.00   0.34561244   0.00848992
6960.00   0.34894803   0.00843737
6962.00   0.35427096   0.00847645
6964.00   0.35456023   0.00853403
6966.00   0.35017893   0.00857384
6968.00   0.34483734   0.00858558
6970.00   0.33603609   0.00853002
6972.00   0.33976650   0.00863750
6974.00   0.33863318   0.00879226
6976.00   0.33547011   0.00884164
6978.00   0.33054397   0.00877072
6980.00   0.32780778   0.00868917
6982.00   0.32348493   0.00863476
6984.00   0.32651559   0.00849783
6986.00   0.32862931   0.00832975
6988.00   0.32839236   0.00822529
6990.00   0.32980686   0.00822405
6992.00   0.32847121   0.00821801
6994.00   0.32410559   0.00815579
6996.00   0.31910875   0.00810009
6998.00   0.32229578   0.00815497
7000.00   0.32311526   0.00822734
7002.00   0.32754633   0.00828692
7004.00   0.32702506   0.00832095
7006.00   0.32163501   0.00836660
7008.00   0.31854820   0.00842597
7010.00   0.31876686   0.00839922
7012.00   0.31793579   0.00834794
7014.00   0.31558332   0.00828431
7016.00   0.31534040   0.00821880
7018.00   0.31421623   0.00809586
7020.00   0.31644654   0.00802568
7022.00   0.31114462   0.00794185
7024.00   0.30656350   0.00791069
7026.00   0.30700707   0.00794920
7028.00   0.31118038   0.00802170
7030.00   0.30908355   0.00801917
7032.00   0.31014603   0.00803417
7034.00   0.30767080   0.00802883
7036.00   0.30380502   0.00802585
7038.00   0.30268237   0.00801072
7040.00   0.30217293   0.00799679
7042.00   0.30531824   0.00804168
7044.00   0.30703285   0.00812544
7046.00   0.30440041   0.00820564
7048.00   0.30296418   0.00822857
7050.00   0.30399287   0.00823946
7052.00   0.30258355   0.00818344
7054.00   0.30055675   0.00807867
7056.00   0.29798150   0.00795952
7058.00   0.30071881   0.00796461
7060.00   0.30397615   0.00800824
7062.00   0.30172360   0.00801417
7064.00   0.29802170   0.00800719
7066.00   0.29781374   0.00802427
7068.00   0.30342031   0.00809538
7070.00   0.30021122   0.00808238
7072.00   0.29702646   0.00802459
7074.00   0.29913911   0.00798959
7076.00   0.30246773   0.00800535
7078.00   0.30248380   0.00801559
7080.00   0.29818282   0.00796555
7082.00   0.29878190   0.00798640
7084.00   0.30257952   0.00807241
7086.00   0.29255241   0.00803599
7088.00   0.29147819   0.00802848
7090.00   0.29727933   0.00804883
7092.00   0.30141041   0.00804082
7094.00   0.30142996   0.00799858
7096.00   0.30092594   0.00792119
7098.00   0.29631308   0.00782975
7100.00   0.29494378   0.00781726
7102.00   0.29724327   0.00784730
7104.00   0.30118373   0.00786065
7106.00   0.29704794   0.00780379
7108.00   0.29683828   0.00777103
7110.00   0.29744244   0.00776633
7112.00   0.29456374   0.00775783
7114.00   0.29302290   0.00776098
7116.00   0.29397747   0.00779449
7118.00   0.29023334   0.00777429
7120.00   0.28779712   0.00775640
7122.00   0.29122922   0.00779495
7124.00   0.29292512   0.00785355
7126.00   0.28911725   0.00781746
7128.00   0.28633702   0.00778584
7130.00   0.28613749   0.00777155
7132.00   0.28887460   0.00777882
7134.00   0.29028764   0.00777237
7136.00   0.28384319   0.00771618
7138.00   0.27487326   0.00768141
7140.00   0.27451700   0.00773485
7142.00   0.28626311   0.00786396
7144.00   0.28924409   0.00788801
7146.00   0.28135294   0.00779843
7148.00   0.27436361   0.00771287
7150.00   0.27218345   0.00765817
7152.00   0.27376521   0.00763282
7154.00   0.27884316   0.00765466
7156.00   0.27875152   0.00762285
7158.00   0.27450201   0.00756944
7160.00   0.27264392   0.00756869
7162.00   0.27110499   0.00759452
7164.00   0.26566064   0.00761450
7166.00   0.26941785   0.00770475
7168.00   0.27268836   0.00777394
7170.00   0.26868090   0.00778714
7172.00   0.26873246   0.00787510
7174.00   0.26657781   0.00791047
7176.00   0.26417348   0.00788593
7178.00   0.26509577   0.00787880
7180.00   0.26715371   0.00790094
7182.00   0.26304829   0.00786038
7184.00   0.27072605   0.00799550
7186.00   0.27090788   0.00800901
7188.00   0.26534900   0.00792430
7190.00   0.26590988   0.00789408
7192.00   0.27532160   0.00795952
7194.00   0.27029118   0.00786645
7196.00   0.26489785   0.00780173
7198.00   0.26405573   0.00780531
7200.00   0.26283562   0.00780232
7202.00   0.26461151   0.00783566
7204.00   0.26961014   0.00789112
7206.00   0.27188304   0.00787356
7208.00   0.26860258   0.00774348
7210.00   0.27080020   0.00759452
7212.00   0.27333954   0.00754651
7214.00   0.27060947   0.00749694
7216.00   0.27153260   0.00751314
7218.00   0.27629900   0.00757539
7220.00   0.27449861   0.00757962
7222.00   0.27362359   0.00759851
7224.00   0.27209592   0.00760037
7226.00   0.26820186   0.00757942
7228.00   0.26500955   0.00758486
7230.00   0.27019191   0.00770163
7232.00   0.26910675   0.00798876
7234.00   0.27212039   0.00867832
7236.00   0.27543733   0.00960066
7238.00   0.27494982   0.01050430
7240.00   0.27331784   0.01124565
7242.00   0.27188912   0.01174601
7244.00   0.26714587   0.01165546
7246.00   0.26440516   0.01107256
7248.00   0.26600608   0.01032648
7250.00   0.27201653   0.00976653
7252.00   0.27108270   0.00911616
7254.00   0.27030623   0.00863879
7256.00   0.26966250   0.00839616
7258.00   0.26061600   0.00814268
7260.00   0.26081821   0.00791220
7262.00   0.26580301   0.00784682
7264.00   0.26978984   0.00787416
7266.00   0.27073374   0.00793218
7268.00   0.26988682   0.00802387
7270.00   0.26610103   0.00854446
7272.00   0.26998138   0.00965276
7274.00   0.27523866   0.01061408
7276.00   0.27125946   0.01097216
7278.00   0.26829776   0.01105995
7280.00   0.26533064   0.01092971
7282.00   0.26120546   0.01022336
7284.00   0.26405326   0.00936331
7286.00   0.26883712   0.00896890
7288.00   0.27164078   0.00895736
7290.00   0.26745486   0.00868481
7292.00   0.25795278   0.00829567
7294.00   0.25114563   0.00801781
7296.00   0.25169444   0.00799399
7298.00   0.25420555   0.00810282
7300.00   0.25283971   0.00832793
7302.00   0.25242969   0.00845785
7304.00   0.25546816   0.00845856
7306.00   0.25169244   0.00837749
7308.00   0.25195011   0.00833047
7310.00   0.25422445   0.00855142
7312.00   0.25405565   0.00911687
7314.00   0.25423300   0.00975716
7316.00   0.25450969   0.00993004
7318.00   0.25314072   0.00984496
7320.00   0.25210461   0.00944220
7322.00   0.25491416   0.00879310
7324.00   0.25656304   0.00817340
7326.00   0.25627229   0.00830873
7328.00   0.25601295   0.00846381
7330.00   0.25450552   0.00852068
7332.00   0.25517854   0.00851672
7334.00   0.25503445   0.00855919
7336.00   0.25122249   0.00905841
7338.00   0.25547087   0.00970030
7340.00   0.25652367   0.01002113
7342.00   0.25155550   0.01000813
7344.00   0.25357929   0.00986704
7346.00   0.25603250   0.00916172
7348.00   0.25533536   0.00820320
7350.00   0.25099361   0.00756160
7352.00   0.24869740   0.00758239
7354.00   0.24722314   0.00796802
7356.00   0.24946479   0.00825443
7358.00   0.24525213   0.00831752
7360.00   0.24336612   0.00831382
7362.00   0.24670072   0.00842562
7364.00   0.25051618   0.00875754
7366.00   0.24710160   0.00913821
7368.00   0.24032289   0.00930462
7370.00   0.24100323   0.00934434
7372.00   0.24456596   0.00924741
7374.00   0.24368410   0.00879729
7376.00   0.24361606   0.00798231
7378.00   0.24612622   0.00743315
7380.00   0.24799001   0.00728594
7382.00   0.24086325   0.00723573
7384.00   0.23644976   0.00720249
7386.00   0.23588578   0.00735848
7388.00   0.23972993   0.00768864
7390.00   0.24106407   0.00795582
7392.00   0.23862471   0.00797737
7394.00   0.23717873   0.00799619
7396.00   0.24247082   0.00827411
7398.00   0.24416655   0.00856415
7400.00   0.24280703   0.00868981
7402.00   0.24473964   0.00867114
7404.00   0.24398635   0.00863800
7406.00   0.24339585   0.00834959
7408.00   0.23859607   0.00779747
7410.00   0.23002310   0.00719306
7412.00   0.23069625   0.00707519
7414.00   0.23390359   0.00711335
7416.00   0.23655136   0.00715402
7418.00   0.23561375   0.00713631
7420.00   0.23654790   0.00713453
7422.00   0.23517251   0.00711078
7424.00   0.23490737   0.00721085
7426.00   0.23359467   0.00736269
7428.00   0.23564942   0.00750591
7430.00   0.24719818   0.00763535
7432.00   0.24752557   0.00777735
7434.00   0.24298181   0.00797406
7436.00   0.24024437   0.00806125
7438.00   0.23802780   0.00799450
7440.00   0.23759149   0.00791996
7442.00   0.24345267   0.00789722
7444.00   0.24674712   0.00764840
7446.00   0.24607645   0.00732925
7448.00   0.24508350   0.00713585
7450.00   0.24665697   0.00713979
7452.00   0.24406679   0.00712814
7454.00   0.24299115   0.00714463
7456.00   0.24304046   0.00719200
7458.00   0.24422085   0.00728550
7460.00   0.24465752   0.00739264
7462.00   0.24781509   0.00755218
7464.00   0.24799906   0.00767934
7466.00   0.24751906   0.00782243
7468.00   0.24845128   0.00800691
7470.00   0.24500056   0.00813445
7472.00   0.24757142   0.00819688
7474.00   0.24251276   0.00822463
7476.00   0.23720813   0.00828382
7478.00   0.24355263   0.00839186
7480.00   0.24132304   0.00837074
7482.00   0.24249876   0.00834415
7484.00   0.24146460   0.00820682
7486.00   0.23862737   0.00796146
7488.00   0.24143815   0.00774829
7490.00   0.24388731   0.00755923
7492.00   0.24445020   0.00743245
7494.00   0.24405695   0.00737900
7496.00   0.24357402   0.00736709
7498.00   0.24560319   0.00734204
7500.00   0.24591851   0.00726095
7502.00   0.24306898   0.00718289
7504.00   0.24137521   0.00714769
7506.00   0.24188058   0.00714667
7508.00   0.24337506   0.00713864
7510.00   0.24231751   0.00713480
7512.00   0.23792155   0.00714481
7514.00   0.23768868   0.00721372
7516.00   0.24572803   0.00741919
7518.00   0.24572849   0.00786904
7520.00   0.24565244   0.00850842
7522.00   0.24560994   0.00892530
7524.00   0.24537832   0.00907611
7526.00   0.24399386   0.00911777
7528.00   0.24037056   0.00894797
7530.00   0.24520421   0.00845823
7532.00   0.24552505   0.00793885
7534.00   0.24168222   0.00764636
7536.00   0.24449350   0.00757508
7538.00   0.24620490   0.00743468
7540.00   0.24224579   0.00730877
7542.00   0.24005888   0.00725587
7544.00   0.24430270   0.00728213
7546.00   0.24779671   0.00726518
7548.00   0.24454498   0.00720851
7550.00   0.24030297   0.00719207
7552.00   0.23813188   0.00726815
7554.00   0.23787899   0.00741172
7556.00   0.24278390   0.00755524
7558.00   0.24415946   0.00758930
7560.00   0.24564035   0.00757312
7562.00   0.24597298   0.00751820
7564.00   0.24408251   0.00748361
7566.00   0.24010129   0.00770700
7568.00   0.24020140   0.00815127
7570.00   0.23853344   0.00845239
7572.00   0.23612571   0.00852197
7574.00   0.24082176   0.00847586
7576.00   0.24128063   0.00821556
7578.00   0.23972256   0.00776732
7580.00   0.23930554   0.00747124
7582.00   0.24026920   0.00748450
7584.00   0.23780316   0.00760620
7586.00   0.23689120   0.00761553
7588.00   0.23448478   0.00756931
7590.00   0.23328346   0.00765481
7592.00   0.23639043   0.00820410
7594.00   0.24381755   0.00953120
7596.00   0.24477275   0.01129725
7598.00   0.24013746   0.01329476
7600.00   0.23507421   0.01558326
7602.00   0.23831713   0.01768693
7604.00   0.24425365   0.01794274
7606.00   0.24391973   0.01705120
7608.00   0.23245186   0.01548191
7610.00   0.22875686   0.01390030
7612.00   0.23142727   0.01256080
7614.00   0.23302363   0.01111861
7616.00   0.23065384   0.00981272
7618.00   0.22811067   0.00916791
7620.00   0.22738390   0.00932663
7622.00   0.22916788   0.00993342
7624.00   0.23327889   0.01070783
7626.00   0.23222078   0.01135475
7628.00   0.22530805   0.01164617
7630.00   0.21931328   0.01159195
7632.00   0.23066449   0.01146441
7634.00   0.24219368   0.01102124
7636.00   0.23472248   0.01032698
7638.00   0.22403280   0.00976099
7640.00   0.22144450   0.00952183
7642.00   0.21825741   0.00929489
7644.00   0.21878488   0.00909166
7646.00   0.22347629   0.00894882
7648.00   0.22944653   0.00890719
7650.00   0.23057014   0.00889838
7652.00   0.23271368   0.00877052
7654.00   0.22780631   0.00857510
7656.00   0.22439329   0.00850893
7658.00   0.22313105   0.00856520
7660.00   0.22071226   0.00859865
7662.00   0.21870452   0.00847889
7664.00   0.21664102   0.00832787
7666.00   0.22015582   0.00814280
7668.00   0.22423273   0.00790111
7670.00   0.22464430   0.00765003
7672.00   0.22094049   0.00742263
7674.00   0.22356285   0.00730276
7676.00   0.22482337   0.00726166
7678.00   0.22224475   0.00723391
7680.00   0.21867977   0.00718606
7682.00   0.22097270   0.00723567
7684.00   0.22008586   0.00724750
7686.00   0.21649481   0.00723747
7688.00   0.21584880   0.00727819
7690.00   0.21864069   0.00732930
7692.00   0.21910934   0.00737280
7694.00   0.21844292   0.00749414
7696.00   0.21533090   0.00761747
7698.00   0.21160345   0.00764161
7700.00   0.20793617   0.00755328
7702.00   0.21159554   0.00748211
7704.00   0.21309817   0.00741671
7706.00   0.21033199   0.00762566
7708.00   0.21202801   0.00848230
7710.00   0.21263294   0.00966100
7712.00   0.21036930   0.01075306
7714.00   0.20709950   0.01148625
7716.00   0.20340951   0.01165176
7718.00   0.20697927   0.01116930
7720.00   0.20691280   0.01039529
7722.00   0.20538497   0.00950049
7724.00   0.20246811   0.00860662
7726.00   0.19975780   0.00796419
7728.00   0.19797845   0.00780210
7730.00   0.19657405   0.00760068
7732.00   0.19547784   0.00733542
7734.00   0.19683592   0.00714873
7736.00   0.19936572   0.00712827
7738.00   0.19735540   0.00709785
7740.00   0.19861026   0.00703204
7742.00   0.19834179   0.00708033
7744.00   0.19737321   0.00773603
7746.00   0.19796206   0.00910839
7748.00   0.19339354   0.01015685
7750.00   0.19473551   0.01051645
7752.00   0.19703151   0.01056329
7754.00   0.19669300   0.01040047
7756.00   0.19030495   0.00984517
7758.00   0.18573259   0.00876807
7760.00   0.18957229   0.00828591
7762.00   0.19229273   0.00813754
7764.00   0.18906634   0.00789436
7766.00   0.18940872   0.00741263
7768.00   0.19012803   0.00714085
7770.00   0.19289219   0.00722312
7772.00   0.19312549   0.00738284
7774.00   0.18378033   0.00746214
7776.00   0.18230617   0.00778026
7778.00   0.18177938   0.00790438
7780.00   0.18389241   0.00782714
7782.00   0.18443163   0.00769850
7784.00   0.18486570   0.00764172
7786.00   0.17991030   0.00740940
7788.00   0.17869240   0.00787173
7790.00   0.17990792   0.00878032
7792.00   0.18663196   0.00953600
7794.00   0.19416565   0.00971689
7796.00   0.18777637   0.00958566
7798.00   0.17937772   0.00904800
7800.00   0.17727093   0.00808985
7802.00   0.17867203   0.00724654
7804.00   0.18244131   0.00750138
7806.00   0.18134393   0.00789703
7808.00   0.18290649   0.00807336
7810.00   0.18312418   0.00808265
7812.00   0.17955135   0.00796200
7814.00   0.17330162   0.00766980
7816.00   0.17042482   0.00833868
7818.00   0.17152452   0.00934965
7820.00   0.17608340   0.01002625
7822.00   0.18005477   0.01013384
7824.00   0.17726000   0.00998146
7826.00   0.17382921   0.00918731
7828.00   0.17409366   0.00796290
7830.00   0.17483772   0.00690413
7832.00   0.17115848   0.00658865
7834.00   0.17092098   0.00668735
7836.00   0.17130703   0.00713871
7838.00   0.16610147   0.00756116
7840.00   0.15969014   0.00775647
7842.00   0.16281660   0.00777517
7844.00   0.17018120   0.00791877
7846.00   0.16590506   0.00813824
7848.00   0.16072267   0.00888143
7850.00   0.15893443   0.00990610
7852.00   0.16441132   0.01065474
7854.00   0.16781507   0.01096023
7856.00   0.16806944   0.01112186
7858.00   0.16729303   0.01065371
7860.00   0.16558334   0.00952369
7862.00   0.15449816   0.00862052
7864.00   0.15220167   0.00865849
7866.00   0.15706547   0.00884547
7868.00   0.16179349   0.00889465
7870.00   0.15795191   0.00878638
7872.00   0.15102085   0.00874929
7874.00   0.15189908   0.00876229
7876.00   0.15757303   0.00862289
7878.00   0.15911987   0.00837287
7880.00   0.15458366   0.00821051
7882.00   0.15465283   0.00829912
7884.00   0.15696959   0.00857191
7886.00   0.15224935   0.00881027
7888.00   0.14356321   0.00885950
7890.00   0.14146268   0.00871979
7892.00   0.14677320   0.00871217
7894.00   0.14457485   0.00827929
7896.00   0.14262848   0.00747756
7898.00   0.14595921   0.00668632
7900.00   0.14703275   0.00642794
7902.00   0.14577812   0.00637330
7904.00   0.14683509   0.00637041
7906.00   0.14552914   0.00688739
7908.00   0.14056869   0.00817169
7910.00   0.14115673   0.00997495
7912.00   0.14600186   0.01078191
7914.00   0.14785095   0.01122513
7916.00   0.14720134   0.01150792
7918.00   0.14344914   0.01139301
7920.00   0.13691367   0.01012579
7922.00   0.14281927   0.00906422
7924.00   0.14890756   0.00865575
7926.00   0.14845075   0.00857200
7928.00   0.14515790   0.00832980
7930.00   0.14853285   0.00815640
7932.00   0.14901759   0.00811442
7934.00   0.14676668   0.00793340
7936.00   0.14415427   0.00748723
7938.00   0.14569950   0.00685438
7940.00   0.14816396   0.00649118
7942.00   0.15191643   0.00660734
7944.00   0.15352501   0.00703798
7946.00   0.15598650   0.00751532
7948.00   0.15682738   0.00770806
7950.00   0.16187160   0.00774877
7952.00   0.16158301   0.00759446
7954.00   0.15537721   0.00717159
7956.00   0.14986072   0.00670568
7958.00   0.15017696   0.00696921
7960.00   0.14970337   0.00840610
7962.00   0.15312904   0.00953678
7964.00   0.15685196   0.01004414
7966.00   0.16038559   0.01005299
7968.00   0.16663475   0.00987608
7970.00   0.16151614   0.00881004
7972.00   0.15765846   0.00777358
7974.00   0.15872328   0.00754507
7976.00   0.16152026   0.00814207
7978.00   0.15948476   0.00842244
7980.00   0.16165268   0.00849815
7982.00   0.16328445   0.00834727
7984.00   0.16402619   0.00796980
7986.00   0.16797931   0.00757287
7988.00   0.16349925   0.00841815
7990.00   0.16127484   0.00962752
7992.00   0.16268773   0.01031685
7994.00   0.16930826   0.01040330
7996.00   0.17088763   0.01027781
7998.00   0.16937451   0.00951506
8000.00   0.17151906   0.00815009
8002.00   0.17235933   0.00696255
8004.00   0.17201571   0.00666844
8006.00   0.16857456   0.00665416
8008.00   0.16546257   0.00694394
8010.00   0.16679490   0.00746677
8012.00   0.16604020   0.00782004
8014.00   0.16263410   0.00784916
8016.00   0.16137218   0.00787917
8018.00   0.16484953   0.00790587
8020.00   0.16769706   0.00832154
8022.00   0.16878779   0.00903450
8024.00   0.17214620   0.00965270
8026.00   0.16869451   0.00975786
8028.00   0.16487385   0.00965856
8030.00   0.16329153   0.00911369
8032.00   0.16556813   0.00813186
8034.00   0.16740042   0.00710055
8036.00   0.16527134   0.00666059
8038.00   0.16980684   0.00658694
8040.00   0.16940467   0.00655445
8042.00   0.16248630   0.00646434
8044.00   0.16198221   0.00650226
8046.00   0.16860045   0.00685240
8048.00   0.17271249   0.00720098
8050.00   0.17486930   0.00741886
8052.00   0.17339945   0.00745552
8054.00   0.16957383   0.00742881
8056.00   0.17053050   0.00764160
8058.00   0.17210388   0.00796778
8060.00   0.17211328   0.00818584
8062.00   0.17095996   0.00820323
8064.00   0.16727681   0.00816057
8066.00   0.16564168   0.00788574
8068.00   0.16791616   0.00732748
8070.00   0.17128253   0.00674365
8072.00   0.17172885   0.00653133
8074.00   0.17109644   0.00655240
8076.00   0.17082578   0.00656166
8078.00   0.17248003   0.00661572
8080.00   0.17587918   0.00672265
8082.00   0.17833948   0.00678778
8084.00   0.17677081   0.00675604
8086.00   0.17319341   0.00672172
8088.00   0.17206295   0.00678575
8090.00   0.17480262   0.00693963
8092.00   0.17813216   0.00705234
8094.00   0.17185223   0.00700628
8096.00   0.16733687   0.00709480
8098.00   0.16658188   0.00729613
8100.00   0.17003913   0.00748114
8102.00   0.17062426   0.00743462
8104.00   0.17180584   0.00748481
8106.00   0.17205910   0.00744311
8108.00   0.17521645   0.00724098
8110.00   0.18065518   0.00690012
8112.00   0.18018235   0.00681480
8114.00   0.17732990   0.00676769
8116.00   0.17682880   0.00672588
8118.00   0.17862390   0.00671495
8120.00   0.17448115   0.00667893
8122.00   0.17327182   0.00665214
8124.00   0.17310695   0.00662820
8126.00   0.17339718   0.00664641
8128.00   0.17326181   0.00669942
8130.00   0.17725928   0.00682795
8132.00   0.17828684   0.00697686
8134.00   0.18029696   0.00710517
8136.00   0.18077058   0.00718190
8138.00   0.17851515   0.00720482
8140.00   0.17555149   0.00724916
8142.00   0.17873251   0.00737011
8144.00   0.18378603   0.00746381
8146.00   0.18378974   0.00744290
8148.00   0.18415920   0.00739200
8150.00   0.17861229   0.00732712
8152.00   0.17768300   0.00721798
8154.00   0.17998140   0.00710999
8156.00   0.18254186   0.00706418
8158.00   0.18060410   0.00708664
8160.00   0.18377560   0.00722789
8162.00   0.18837298   0.00740522
8164.00   0.18879098   0.00745813
8166.00   0.18824363   0.00746015
8168.00   0.19450545   0.00757190
8170.00   0.19686191   0.00759661
8172.00   0.19154336   0.00757286
8174.00   0.19049644   0.00772569
8176.00   0.19597685   0.00822399
8178.00   0.20130508   0.00908250
8180.00   0.20491393   0.00992726
8182.00   0.19928862   0.01029453
8184.00   0.19356976   0.01041442
8186.00   0.19320531   0.01047950
8188.00   0.20488064   0.01059663
8190.00   0.20291078   0.01079854
8192.00   0.19584370   0.01098356
8194.00   0.19787616   0.01115048
8196.00   0.20853524   0.01121643
8198.00   0.21419573   0.01105920
8200.00   0.20616920   0.01029117
8202.00   0.19322462   0.00930162
8204.00   0.19136870   0.00857823
8206.00   0.20518805   0.00837918
8208.00   0.20505498   0.00813497
8210.00   0.20534980   0.00795766
8212.00   0.20805584   0.00783939
8214.00   0.20991080   0.00773036
8216.00   0.20309956   0.00755873
8218.00   0.20645666   0.00754862
8220.00   0.20474528   0.00748589
8222.00   0.20199709   0.00742524
8224.00   0.20308261   0.00752956
8226.00   0.20414309   0.00788243
8228.00   0.20536773   0.00811798
8230.00   0.20958914   0.00808170
8232.00   0.21058013   0.00781706
8234.00   0.20657326   0.00749495
8236.00   0.20122874   0.00731709
8238.00   0.19790806   0.00720337
8240.00   0.19825979   0.00721365
8242.00   0.20087503   0.00728402
8244.00   0.20226897   0.00730754
8246.00   0.20842546   0.00731066
8248.00   0.21073513   0.00728037
8250.00   0.20905960   0.00722537
8252.00   0.20594044   0.00717004
8254.00   0.20297273   0.00712481
8256.00   0.20201994   0.00712572
8258.00   0.20525415   0.00718667
8260.00   0.20792979   0.00720855
8262.00   0.20589258   0.00713159
8264.00   0.20348929   0.00704058
8266.00   0.20271169   0.00698969
8268.00   0.20219284   0.00694859
8270.00   0.20281214   0.00701530
8272.00   0.20511685   0.00737577
8274.00   0.20308201   0.00812257
8276.00   0.20295857   0.00923095
8278.00   0.20617740   0.01020604
8280.00   0.20773767   0.01086746
8282.00   0.20013319   0.01129280
8284.00   0.20129937   0.01194098
8286.00   0.20689915   0.01210482
8288.00   0.20700128   0.01167646
8290.00   0.19941218   0.01121407
8292.00   0.19940923   0.01134090
8294.00   0.19813530   0.01152895
8296.00   0.19970953   0.01154026
8298.00   0.19503868   0.01145565
8300.00   0.18979923   0.01126720
8302.00   0.19519357   0.01085099
8304.00   0.19668598   0.00980885
8306.00   0.19615968   0.00881192
8308.00   0.19657290   0.00836631
8310.00   0.19501722   0.00837148
8312.00   0.19454645   0.00829687
8314.00   0.19942601   0.00829290
8316.00   0.19803965   0.00793946
8318.00   0.19502831   0.00748182
8320.00   0.19387524   0.00719227
8322.00   0.19882272   0.00717986
8324.00   0.19340380   0.00699292
8326.00   0.19408625   0.00687227
8328.00   0.19549774   0.00682037
8330.00   0.19624281   0.00683840
8332.00   0.20151643   0.00694359
8334.00   0.19649677   0.00690915
8336.00   0.18886514   0.00719122
8338.00   0.18995319   0.00883667
8340.00   0.20506549   0.01167451
8342.00   0.20408654   0.01358176
8344.00   0.19588085   0.01403758
8346.00   0.19327497   0.01416197
8348.00   0.19406839   0.01399403
8350.00   0.18686838   0.01282480
8352.00   0.18662260   0.01083228
8354.00   0.18969722   0.00989648
8356.00   0.19440842   0.00958299
8358.00   0.19360380   0.00910127
8360.00   0.19157040   0.00828339
8362.00   0.18823166   0.00813378
8364.00   0.19017315   0.00817205
8366.00   0.18784158   0.00810925
8368.00   0.18239991   0.00784237
8370.00   0.18552665   0.00744915
8372.00   0.18599063   0.00696711
8374.00   0.18470490   0.00684220
8376.00   0.18682337   0.00738610
8378.00   0.18911864   0.00831689
8380.00   0.18950875   0.00888198
8382.00   0.18241908   0.00896192
8384.00   0.18051775   0.00892769
8386.00   0.18231462   0.00864700
8388.00   0.18113236   0.00784659
8390.00   0.18576597   0.00705655
8392.00   0.19185625   0.00757164
8394.00   0.19448511   0.00944290
8396.00   0.19044976   0.01131364
8398.00   0.18140440   0.01205513
8400.00   0.18585543   0.01208592
8402.00   0.19410570   0.01185660
8404.00   0.19258635   0.01060510
8406.00   0.18375583   0.00836599
8408.00   0.18243305   0.00704682
8410.00   0.18922527   0.00779981
8412.00   0.18971618   0.00874759
8414.00   0.18664788   0.00921088
8416.00   0.18323024   0.00917090
8418.00   0.18243884   0.00910232
8420.00   0.18324764   0.00841619
8422.00   0.18292667   0.00788007
8424.00   0.18490899   0.00871259
8426.00   0.18762876   0.01085175
8428.00   0.18368645   0.01245001
8430.00   0.17839713   0.01275607
8432.00   0.18161343   0.01264469
8434.00   0.18590611   0.01190304
8436.00   0.18162577   0.00984233
8438.00   0.18098943   0.00755228
8440.00   0.18257117   0.00658539
8442.00   0.18440981   0.00648689
8444.00   0.18391602   0.00663940
8446.00   0.18435691   0.00714599
8448.00   0.18115990   0.00809957
8450.00   0.18023014   0.00871820
8452.00   0.18314905   0.00896582
8454.00   0.18805075   0.00892082
8456.00   0.18244064   0.00857104
8458.00   0.18886077   0.00875993
8460.00   0.18716072   0.00994557
8462.00   0.17743415   0.01106377
8464.00   0.17457545   0.01124340
8466.00   0.17586271   0.01128313
8468.00   0.17022504   0.01103590
8470.00   0.16656505   0.00997066
8472.00   0.16647977   0.00824137
8474.00   0.17228001   0.00669726
8476.00   0.16945951   0.00645579
8478.00   0.17220199   0.00647532
8480.00   0.17078048   0.00641973
8482.00   0.16633597   0.00631305
8484.00   0.16742027   0.00632990
8486.00   0.16767775   0.00655827
8488.00   0.16039371   0.00697074
8490.00   0.15619333   0.00750576
8492.00   0.16053885   0.00791234
8494.00   0.17118289   0.00808117
8496.00   0.16878927   0.00820107
8498.00   0.16030625   0.00810461
8500.00   0.15909769   0.00845740
8502.00   0.16421874   0.00913449
8504.00   0.16899173   0.00942325
8506.00   0.16816391   0.00941889
8508.00   0.16143988   0.00908781
8510.00   0.15701626   0.00821303
8512.00   0.16123812   0.00687220
8514.00   0.16426578   0.00626503
8516.00   0.16217126   0.00616011
8518.00   0.16073795   0.00621610
8520.00   0.16214128   0.00627112
8522.00   0.16475894   0.00631488
8524.00   0.16583957   0.00633221
8526.00   0.16451330   0.00624034
8528.00   0.16159815   0.00613384
8530.00   0.16177475   0.00613263
8532.00   0.16382720   0.00625953
8534.00   0.16316362   0.00664087
8536.00   0.16302083   0.00689776
8538.00   0.16179425   0.00699917
8540.00   0.16373487   0.00706338
8542.00   0.16755371   0.00723546
8544.00   0.16747461   0.00754194
8546.00   0.16693030   0.00775378
8548.00   0.16654991   0.00783758
8550.00   0.16285177   0.00779764
8552.00   0.16369717   0.00768900
8554.00   0.16601558   0.00714958
8556.00   0.16864966   0.00656651
8558.00   0.16781394   0.00619264
8560.00   0.16703431   0.00612372
8562.00   0.16888143   0.00614375
8564.00   0.16601670   0.00612818
8566.00   0.16245402   0.00611089
8568.00   0.16342944   0.00614635
8570.00   0.16824611   0.00623627
8572.00   0.16594940   0.00627130
8574.00   0.16506782   0.00630084
8576.00   0.16610624   0.00631424
8578.00   0.16748361   0.00629909
8580.00   0.16496287   0.00624384
8582.00   0.16261238   0.00627502
8584.00   0.16063415   0.00639002
8586.00   0.16131642   0.00652571
8588.00   0.16392010   0.00663785
8590.00   0.16712321   0.00675686
8592.00   0.16277172   0.00684398
8594.00   0.16098364   0.00688820
8596.00   0.16182242   0.00687612
8598.00   0.16374302   0.00683158
8600.00   0.16325134   0.00679576
8602.00   0.16787376   0.00667903
8604.00   0.16670668   0.00645389
8606.00   0.16171756   0.00630695
8608.00   0.15791069   0.00640390
8610.00   0.15751143   0.00664026
8612.00   0.15865324   0.00698435
8614.00   0.16505533   0.00744069
8616.00   0.16753711   0.00791436
8618.00   0.15969476   0.00834640
8620.00   0.15868823   0.00885266
8622.00   0.15833747   0.00930188
8624.00   0.15943094   0.00970041
8626.00   0.15853341   0.01000571
8628.00   0.15531777   0.01019063
8630.00   0.15348889   0.01023052
8632.00   0.15486385   0.01013305
8634.00   0.15799439   0.00987225
8636.00   0.15913369   0.00944231
8638.00   0.15479834   0.00889792
8640.00   0.15531796   0.00832620
8642.00   0.16157176   0.00794102
8644.00   0.16038652   0.00781586
8646.00   0.15419711   0.00801267
8648.00   0.15628667   0.00843554
8650.00   0.15611026   0.00901926
8652.00   0.15016913   0.00948103
8654.00   0.15259932   0.00983962
8656.00   0.16217066   0.01008847
8658.00   0.15913457   0.01007828
8660.00   0.16289687   0.01011135
8662.00   0.15604001   0.00998351
8664.00   0.14276963   0.00973560
8666.00   0.14768398   0.00958978
8668.00   0.15559228   0.00942686
8670.00   0.16077256   0.00920752
8672.00   0.16270296   0.00895587
8674.00   0.16169335   0.00866465
8676.00   0.15875000   0.00831886
8678.00   0.15344273   0.00801730
8680.00   0.15391590   0.00774975
8682.00   0.15349223   0.00748867
8684.00   0.15148650   0.00724219
8686.00   0.15113069   0.00700573
8688.00   0.15377854   0.00685049
8690.00   0.15699156   0.00673204
8692.00   0.15703623   0.00660588
8694.00   0.15239508   0.00647216
8696.00   0.15328859   0.00649489
8698.00   0.15693952   0.00648133
8700.00   0.15636148   0.00643024
8702.00   0.15342744   0.00639764
8704.00   0.15459047   0.00642869
8706.00   0.15713364   0.00638106
8708.00   0.15765361   0.00630683
8710.00   0.15549390   0.00621611
8712.00   0.15110038   0.00608986
8714.00   0.14960682   0.00595112
8716.00   0.14964622   0.00586135
8718.00   0.15126720   0.00585476
8720.00   0.15376502   0.00590107
8722.00   0.15600042   0.00595666
8724.00   0.15223157   0.00593976
8726.00   0.15087585   0.00593381
8728.00   0.15358788   0.00596303
8730.00   0.15600675   0.00597519
8732.00   0.15637438   0.00595313
8734.00   0.15601380   0.00595184
8736.00   0.15229003   0.00593165
8738.00   0.14956032   0.00593745
8740.00   0.15209065   0.00599889
8742.00   0.15957630   0.00610228
8744.00   0.15592989   0.00605845
8746.00   0.15515375   0.00604422
8748.00   0.15559095   0.00602393
8750.00   0.15667482   0.00605270
8752.00   0.15632766   0.00633003
8754.00   0.15696232   0.00732743
8756.00   0.15730160   0.00901583
8758.00   0.16283406   0.01048347
8760.00   0.17038761   0.01158219
8762.00   0.16543011   0.01253275
8764.00   0.15627430   0.01356702
8766.00   0.16308556   0.01340141
8768.00   0.16929887   0.01258652
8770.00   0.16556539   0.01192555
8772.00   0.16210765   0.01196259
#8774.00   0.17013758   0.01228554
#8776.00   0.18503278   0.01226230
#8778.00   0.18377489   0.01222388
#8780.00   0.15611564   0.01260195
#8782.00   0.15426789   0.01093634
#8784.00   0.17042585   0.00903357
#8786.00   0.17229430   0.00806504
#8788.00   0.15068020   0.00807664
8790.00   0.17182715   0.00839741
8792.00   0.17481978   0.00842185
8794.00   0.17681503   0.00829365
8796.00   0.17766516   0.00768993
8798.00   0.17483282   0.00679905
8800.00   0.17102087   0.00624517
8802.00   0.17550825   0.00625681
8804.00   0.17612469   0.00633494
8806.00   0.17194785   0.00637518
8808.00   0.16796750   0.00639124
8810.00   0.16636272   0.00638613
8812.00   0.16503946   0.00633772
8814.00   0.16117211   0.00620682
8816.00   0.16241319   0.00608803
8818.00   0.16801393   0.00644242
8820.00   0.17313863   0.00801784
8822.00   0.17676075   0.01174668
8824.00   0.17287163   0.01434564
8826.00   0.16372330   0.01549346
8828.00   0.16029273   0.01558078
8830.00   0.16425161   0.01564535
8832.00   0.16146611   0.01445901
8834.00   0.15406264   0.01263109
8836.00   0.15398750   0.01113528
8838.00   0.16827576   0.01068784
8840.00   0.17523773   0.01016423
8842.00   0.17229688   0.00876986
8844.00   0.16993324   0.00768627
8846.00   0.16946967   0.00756086
8848.00   0.17174470   0.00801782
8850.00   0.17506664   0.00808302
8852.00   0.17521222   0.00800935
8854.00   0.17487264   0.00767491
8856.00   0.17578821   0.00712377
8858.00   0.17671824   0.00666921
8860.00   0.17762418   0.00693806
8862.00   0.17999685   0.00799641
8864.00   0.17839676   0.00910452
8866.00   0.17414068   0.00973197
8868.00   0.16828819   0.00960040
8870.00   0.16781330   0.00937742
8872.00   0.17431869   0.00864463
8874.00   0.17992574   0.00746266
8876.00   0.18195729   0.00642340
8878.00   0.18564208   0.00681838
8880.00   0.18010110   0.00899186
8882.00   0.17576917   0.01157783
8884.00   0.18323755   0.01321575
8886.00   0.19072007   0.01338658
8888.00   0.18320797   0.01328839
8890.00   0.18455736   0.01213816
8892.00   0.18393759   0.00979529
8894.00   0.17810237   0.00721819
8896.00   0.18494987   0.00702098
8898.00   0.18819161   0.00835170
8900.00   0.18201189   0.00954342
8902.00   0.18056791   0.01009268
8904.00   0.18940367   0.01014292
8906.00   0.19063222   0.01003093
8908.00   0.19101326   0.00912378
8910.00   0.18852167   0.00776574
8912.00   0.18860655   0.00765781
8914.00   0.19096322   0.00979509
8916.00   0.19373900   0.01286163
8918.00   0.18358254   0.01394010
8920.00   0.19121021   0.01426069
8922.00   0.20268314   0.01402975
8924.00   0.19163631   0.01286946
8926.00   0.18462223   0.00981435
8928.00   0.18148513   0.00753733
8930.00   0.18353736   0.00670517
8932.00   0.18483639   0.00673056
8934.00   0.18091755   0.00666675
8936.00   0.18353248   0.00685641
8938.00   0.18453805   0.00804783
8940.00   0.18686104   0.00922717
8942.00   0.19299434   0.00991855
8944.00   0.19479650   0.01001347
8946.00   0.18752192   0.00988133
8948.00   0.18150938   0.00895634
8950.00   0.17893954   0.00814609
8952.00   0.17789407   0.00895684
8954.00   0.18600161   0.01176734
8956.00   0.18442921   0.01327530
8958.00   0.18601143   0.01361448
8960.00   0.18957709   0.01355193
8962.00   0.19276774   0.01305484
8964.00   0.18489534   0.01049902
8966.00   0.18375985   0.00807194
8968.00   0.18319416   0.00686051
8970.00   0.18035696   0.00676493
8972.00   0.17709142   0.00687956
8974.00   0.18127830   0.00689112
8976.00   0.18298531   0.00686076
8978.00   0.18244286   0.00683605
8980.00   0.18041527   0.00694414
8982.00   0.18142362   0.00744151
8984.00   0.17998207   0.00858539
8986.00   0.18605663   0.01004038
8988.00   0.18758653   0.01097568
8990.00   0.18565147   0.01103475
8992.00   0.18533790   0.01003299
8994.00   0.19203365   0.00898567
8996.00   0.18324856   0.00922915
8998.00   0.17225444   0.01048905
9000.00   0.17076395   0.01174564
9002.00   0.18063892   0.01214917
9004.00   0.18322849   0.01203936
9006.00   0.18309338   0.01080048
9008.00   0.18527333   0.00885027
9010.00   0.19153704   0.00713483
9012.00   0.19123518   0.00681309
9014.00   0.18632431   0.00675400
9016.00   0.18457772   0.00678624
9018.00   0.18502408   0.00679978
9020.00   0.18525435   0.00677366
9022.00   0.18447314   0.00679980
9024.00   0.17899852   0.00680505
9026.00   0.17554116   0.00673567
9028.00   0.17803742   0.00666181
9030.00   0.18250127   0.00668305
9032.00   0.18657546   0.00699434
9034.00   0.17947544   0.00739221
9036.00   0.17312378   0.00758472
9038.00   0.17274059   0.00760048
9040.00   0.17465211   0.00767921
9042.00   0.18176675   0.00781370
9044.00   0.17653932   0.00801246
9046.00   0.17608507   0.00844568
9048.00   0.18012191   0.00888159
9050.00   0.17639308   0.00894833
9052.00   0.17180586   0.00885955
9054.00   0.17418663   0.00829232
9056.00   0.17398228   0.00732696
9058.00   0.17311382   0.00651365
9060.00   0.17625141   0.00652509
9062.00   0.17567344   0.00657628
9064.00   0.17144029   0.00658088
9066.00   0.16887014   0.00664489
9068.00   0.17251933   0.00683299
9070.00   0.17272691   0.00689643
9072.00   0.17646803   0.00687174
9074.00   0.17951834   0.00673711
9076.00   0.17989045   0.00658221
9078.00   0.17391527   0.00647053
9080.00   0.17061703   0.00649353
9082.00   0.17352980   0.00655825
9084.00   0.17552750   0.00662857
9086.00   0.17338204   0.00676197
9088.00   0.17221971   0.00704156
9090.00   0.17955714   0.00731217
9092.00   0.17869419   0.00734531
9094.00   0.17746399   0.00732633
9096.00   0.17616834   0.00743689
9098.00   0.17680310   0.00787272
9100.00   0.17712712   0.00807876
9102.00   0.17415480   0.00811758
9104.00   0.17022307   0.00808083
9106.00   0.17166144   0.00798151
9108.00   0.17428477   0.00741540
9110.00   0.17636909   0.00669973
9112.00   0.17648448   0.00623652
9114.00   0.17459832   0.00617162
9116.00   0.17302002   0.00637174
9118.00   0.17168744   0.00650139
9120.00   0.17374818   0.00644775
9122.00   0.17802741   0.00634590
9124.00   0.17867158   0.00626843
9126.00   0.17266424   0.00627999
9128.00   0.17444699   0.00650107
9130.00   0.17722972   0.00667995
9132.00   0.17605014   0.00678643
9134.00   0.17431819   0.00684921
9136.00   0.17743677   0.00685789
9138.00   0.17654271   0.00660035
9140.00   0.17481978   0.00634881
9142.00   0.17545211   0.00622889
9144.00   0.17814708   0.00626395
9146.00   0.18405879   0.00647488
9148.00   0.18068385   0.00679730
9150.00   0.17785315   0.00720373
9152.00   0.17853110   0.00767534
9154.00   0.18093331   0.00810739
9156.00   0.18101506   0.00822023
9158.00   0.18529697   0.00793145
9160.00   0.18538208   0.00756255
9162.00   0.18148361   0.00727593
9164.00   0.18192501   0.00709956
9166.00   0.18315943   0.00685490
9168.00   0.18211226   0.00658278
9170.00   0.18086408   0.00652831
9172.00   0.18243192   0.00674555
9174.00   0.18546723   0.00702165
9176.00   0.18455808   0.00696533
9178.00   0.18044920   0.00663488
9180.00   0.17410445   0.00635529
9182.00   0.17126985   0.00632560
9184.00   0.17472963   0.00637800
9186.00   0.18377928   0.00638938
9188.00   0.18239130   0.00627635
9190.00   0.18024428   0.00621371
9192.00   0.17968154   0.00626072
9194.00   0.17964964   0.00635564
9196.00   0.17935860   0.00637982
9198.00   0.17874259   0.00629263
9200.00   0.18033786   0.00620263
9202.00   0.18065651   0.00616762
9204.00   0.18086167   0.00623225
9206.00   0.17796385   0.00625429
9208.00   0.17598581   0.00626617
9210.00   0.17645128   0.00636661
9212.00   0.17773223   0.00662192
9214.00   0.17575268   0.00681715
9216.00   0.17169960   0.00687709
9218.00   0.17347914   0.00700584
9220.00   0.17908216   0.00720495
9222.00   0.18448703   0.00735280
9224.00   0.17987473   0.00726713
9226.00   0.17536609   0.00716716
9228.00   0.17379916   0.00701127
9230.00   0.17702436   0.00677959
9232.00   0.17600499   0.00649491
9234.00   0.17035021   0.00630405
9236.00   0.16895957   0.00624437
9238.00   0.16992044   0.00623876
9240.00   0.16768347   0.00620764
9242.00   0.16371781   0.00619413
9244.00   0.16446453   0.00627809
9246.00   0.16673933   0.00639083
9248.00   0.16763099   0.00648791
9250.00   0.16381176   0.00650227
9252.00   0.16119383   0.00642165
9254.00   0.16173695   0.00628447
9256.00   0.16045389   0.00617958
9258.00   0.15828638   0.00615543
9260.00   0.15718614   0.00617913
9262.00   0.15878265   0.00617847
9264.00   0.15962380   0.00612529
9266.00   0.16084999   0.00606597
9268.00   0.16013858   0.00601422
9270.00   0.15827100   0.00600400
9272.00   0.15815331   0.00601213
9274.00   0.15569378   0.00604068
9276.00   0.15390754   0.00615286
9278.00   0.15586685   0.00634830
9280.00   0.15740801   0.00649960
9282.00   0.15359788   0.00661287
9284.00   0.15213640   0.00679168
9286.00   0.15252793   0.00696553
9288.00   0.15279193   0.00708316
9290.00   0.15586402   0.00721024
9292.00   0.15588479   0.00726866
9294.00   0.15190613   0.00724820
9296.00   0.14783919   0.00730621
9298.00   0.14418828   0.00775967
9300.00   0.14192353   0.00929566
9302.00   0.14096653   0.01220549
9304.00   0.14243115   0.01485163
9306.00   0.14577638   0.01769284
9308.00   0.14500032   0.02116160
9310.00   0.13685776   0.02316050
9312.00   0.14180344   0.02377727
9314.00   0.13867150   0.02454139
9316.00   0.13290383   0.02514658
9318.00   0.15342115   0.02363748
9320.00   0.13020307   0.02122078
9322.00   0.11856244   0.02119656
9324.00   0.12699862   0.02173628
9326.00   0.13623144   0.02066598
9328.00   0.13421847   0.01679877
9330.00   0.13489176   0.01265207
9332.00   0.14173393   0.01155878
9334.00   0.14282574   0.01320068
9336.00   0.13263117   0.01466550
9338.00   0.13330828   0.01437401
9340.00   0.14116453   0.01538348
9342.00   0.13346829   0.01526631
9344.00   0.12270840   0.01345889
9346.00   0.12536682   0.01030504
9348.00   0.11924174   0.00848876
9350.00   0.12438800   0.00836364
9352.00   0.13168311   0.00950473
9354.00   0.13808250   0.01065539
9356.00   0.13942057   0.01088009
9358.00   0.14702590   0.01081912
9360.00   0.14409004   0.00948208
9362.00   0.13628578   0.00826184
9364.00   0.13096474   0.00835691
9366.00   0.12865271   0.00966338
9368.00   0.12084933   0.01402637
9370.00   0.12423042   0.02510037
9372.00   0.13803746   0.03169562
9374.00   0.14352636   0.03243800
9376.00   0.13865818   0.03101927
9378.00   0.13445233   0.03278689
9380.00   0.12214414   0.02954911
9382.00   0.10935733   0.02160220
9384.00   0.11011251   0.01235367
9386.00   0.11753944   0.00921707
9388.00   0.11753976   0.00783721
9390.00   0.11487093   0.00699047
9392.00   0.11301468   0.00641716
9394.00   0.11368664   0.00665459
9396.00   0.11586498   0.00769223
9398.00   0.11524757   0.00943332
9400.00   0.10892799   0.01056695
9402.00   0.10418465   0.01078634
9404.00   0.11080674   0.01027917
9406.00   0.11855048   0.00971587
9408.00   0.11772148   0.00867822
9410.00   0.11899140   0.00776262
9412.00   0.12221351   0.00789038
9414.00   0.11395950   0.00945465
9416.00   0.10863817   0.01169321
9418.00   0.11390615   0.01304625
9420.00   0.12218871   0.01344374
9422.00   0.12242132   0.01318710
9424.00   0.12032770   0.01292244
9426.00   0.11274388   0.01260448
9428.00   0.11442694   0.01089136
#9430.00   0.13887073   0.00756704
#9432.00   0.21168299   0.01302912
#9434.00   0.46334708   0.05635594
#9436.00   0.45712233   0.05420712
#9438.00   0.29976678   0.04054462
#9440.00   0.15812413   0.03040569
#9442.00   0.14125393   0.02957292
9444.00   0.12555097   0.02176659
9446.00   0.11694383   0.01418317
9448.00   0.11513414   0.00878298
9450.00   0.12144768   0.00842699
9452.00   0.13126813   0.01062991
9454.00   0.12586550   0.01498563
9456.00   0.12800929   0.01845252
9458.00   0.13690484   0.02023417
#9460.00   0.15060674   0.02008858
#9462.00   0.16742094   0.01785289
9464.00   0.14050728   0.01330866
9466.00   0.12865137   0.00952657
9468.00   0.13453127   0.00851983
9470.00   0.14360951   0.01062122
9472.00   0.13555992   0.01477554
9474.00   0.13240190   0.01785572
9476.00   0.12322229   0.01926665
9478.00   0.12296116   0.02049525
9480.00   0.13718753   0.02165424
9482.00   0.13236924   0.01794505
9484.00   0.12460810   0.01219693
9486.00   0.12578095   0.00776933
9488.00   0.13033454   0.00704712
9490.00   0.11867183   0.00693005
9492.00   0.11276987   0.00735888
9494.00   0.14553586   0.00923917
9496.00   0.14977752   0.01263970
9498.00   0.13129158   0.01632135
9500.00   0.13760819   0.01983036
9502.00   0.11770769   0.01665463
9504.00   0.12343303   0.01384387
9506.00   0.12734617   0.01180865
9508.00   0.12618107   0.00992294
9510.00   0.13045914   0.00796887
9512.00   0.13220143   0.00771913
9514.00   0.13372403   0.00958203
9516.00   0.13405277   0.01197278
9518.00   0.13380833   0.01377224
9520.00   0.13659310   0.01440525
9522.00   0.13612501   0.01350773
9524.00   0.12721638   0.01162561
9526.00   0.12044116   0.00961246
9528.00   0.12717979   0.00861611
9530.00   0.13207303   0.00827318
9532.00   0.12841231   0.00812285
9534.00   0.12605271   0.00822215
9536.00   0.12926145   0.00842924
9538.00   0.13421652   0.00850519
9540.00   0.14012468   0.00862285
9542.00   0.13620107   0.00861098
9544.00   0.13395721   0.00882850
9546.00   0.13412899   0.00957951
9548.00   0.13635214   0.01091618
9550.00   0.12510972   0.01210056
9552.00   0.12548256   0.01358204
9554.00   0.13396914   0.01461994
9556.00   0.13652457   0.01434054
9558.00   0.12502472   0.01169164
9560.00   0.12088908   0.01047886
9562.00   0.12080675   0.01317559
9564.00   0.11962215   0.01694397
9566.00   0.11709072   0.01914957
9568.00   0.14126121   0.01826033
9570.00   0.13997811   0.01590324
9572.00   0.12696008   0.01278505
9574.00   0.11992166   0.00965820
9576.00   0.13038413   0.00766714
9578.00   0.12664150   0.00755810
9580.00   0.11949134   0.00753202
9582.00   0.11718401   0.00721098
9584.00   0.11782714   0.00683842
9586.00   0.11264416   0.00695886
9588.00   0.12110893   0.00786293
9590.00   0.12134442   0.00830673
9592.00   0.11920341   0.00809609
9594.00   0.11522573   0.00740291
9596.00   0.11059874   0.00696953
9598.00   0.11392117   0.00674751
9600.00   0.11765158   0.00693036
9602.00   0.11354906   0.00782008
9604.00   0.10687766   0.00914152
9606.00   0.11097842   0.01000293
9608.00   0.11784527   0.01003236
9610.00   0.12074357   0.00959580
9612.00   0.11917078   0.00894342
9614.00   0.11741281   0.00857535
9616.00   0.12342691   0.00939975
9618.00   0.11813003   0.01038842
9620.00   0.11114538   0.01107843
9622.00   0.10618302   0.01131465
9624.00   0.10864028   0.01105441
9626.00   0.11294717   0.00986696
9628.00   0.11424240   0.00837011
9630.00   0.11412338   0.00724850
9632.00   0.11362332   0.00685924
9634.00   0.11071094   0.00695727
9636.00   0.11127746   0.00724079
9638.00   0.11758599   0.00724942
9640.00   0.12311564   0.00707730
9642.00   0.12049513   0.00686678
9644.00   0.11513581   0.00684121
9646.00   0.11305779   0.00697467
9648.00   0.11570639   0.00706806
9650.00   0.11675036   0.00707998
9652.00   0.11309993   0.00709091
9654.00   0.11263281   0.00732479
9656.00   0.11113519   0.00750131
9658.00   0.11147825   0.00774457
9660.00   0.11440211   0.00821000
9662.00   0.11859792   0.00902492
9664.00   0.11588678   0.01001448
9666.00   0.11630259   0.01059574
9668.00   0.11986139   0.01079682
9670.00   0.11772975   0.01059910
9672.00   0.11031708   0.01007147
9674.00   0.11003499   0.00955108
9676.00   0.10752380   0.00988554
9678.00   0.10372486   0.01086744
9680.00   0.10601427   0.01181709
9682.00   0.11529628   0.01207116
9684.00   0.11301893   0.01161820
9686.00   0.10992170   0.01076705
9688.00   0.10660199   0.00966170
9690.00   0.10393292   0.00882302
9692.00   0.10864931   0.00918189
9694.00   0.11833525   0.01061403
9696.00   0.12078013   0.01177073
9698.00   0.11728867   0.01235754
9700.00   0.11313460   0.01240946
9702.00   0.11374760   0.01205705
9704.00   0.11907440   0.01089594
9706.00   0.11923203   0.00967255
9708.00   0.11165133   0.00905485
9710.00   0.10857130   0.00936667
9712.00   0.11598910   0.01006087
9714.00   0.11613601   0.01169432
9716.00   0.12174735   0.01308055
9718.00   0.12596995   0.01362931
9720.00   0.11914911   0.01332446
9722.00   0.11466351   0.01332621
9724.00   0.11020657   0.01233313
9726.00   0.11035510   0.01043343
9728.00   0.11521391   0.00845990
9730.00   0.11776882   0.00825252
9732.00   0.12130473   0.00916129
9734.00   0.11080593   0.01030188
9736.00   0.10293088   0.01104676
9738.00   0.11042652   0.01119379
9740.00   0.09860886   0.01063529
9742.00   0.09932681   0.01031615
9744.00   0.10181105   0.00965944
9746.00   0.11214104   0.00899428
9748.00   0.12376633   0.00859142
9750.00   0.12211794   0.00820549
9752.00   0.11257418   0.00749965
9754.00   0.10815407   0.00706429
9756.00   0.10954068   0.00695017
9758.00   0.11118940   0.00689603
9760.00   0.11440945   0.00694323
9762.00   0.11188873   0.00686178
9764.00   0.10793927   0.00669146
9766.00   0.10842478   0.00654976
9768.00   0.11183802   0.00649245
9770.00   0.11263242   0.00640619
9772.00   0.11381999   0.00645759
9774.00   0.11195316   0.00651904
9776.00   0.11082157   0.00661267
9778.00   0.11200110   0.00677851
9780.00   0.11545888   0.00706214
9782.00   0.11384373   0.00790124
9784.00   0.11654893   0.01004048
9786.00   0.12637272   0.01295990
9788.00   0.11644026   0.01532971
9790.00   0.10554162   0.01655846
9792.00   0.09404067   0.01699883
9794.00   0.09672496   0.01665645
9796.00   0.10889953   0.01536325
9798.00   0.11107071   0.01352438
9800.00   0.10817737   0.01240984
9802.00   0.10805499   0.01181858
9804.00   0.11106484   0.01121858
9806.00   0.11385676   0.01027010
9808.00   0.11060134   0.00985803
9810.00   0.10937855   0.00996980
9812.00   0.10885224   0.01014025
9814.00   0.10888409   0.01009459
9816.00   0.10980590   0.00974353
9818.00   0.10890626   0.00896977
9820.00   0.10579755   0.00834106
9822.00   0.10395867   0.00808720
9824.00   0.10633608   0.00814969
9826.00   0.10983951   0.00819957
9828.00   0.10948845   0.00813010
9830.00   0.10585579   0.00797477
9832.00   0.10740591   0.00781792
9834.00   0.11193834   0.00759877
9836.00   0.11036211   0.00722683
9838.00   0.10370026   0.00702366
9840.00   0.10248355   0.00743796
9842.00   0.10570621   0.00858583
9844.00   0.11048297   0.01018391
9846.00   0.10429510   0.01140915
9848.00   0.10001806   0.01183346
9850.00   0.10221675   0.01175879
9852.00   0.10459834   0.01111449
9854.00   0.10526844   0.00974021
9856.00   0.10579756   0.00818387
9858.00   0.10859012   0.00744736
9860.00   0.10875010   0.00723188
9862.00   0.10518476   0.00752874
9864.00   0.10085821   0.00887334
9866.00   0.10664260   0.01215385
9868.00   0.10695761   0.01573922
9870.00   0.09718858   0.01793238
9872.00   0.09205643   0.01855357
9874.00   0.08994976   0.01825832
9876.00   0.09162992   0.01675932
9878.00   0.10480317   0.01377243
9880.00   0.11470581   0.01055296
9882.00   0.09920939   0.00884264
9884.00   0.09632271   0.00855906
9886.00   0.10608900   0.00884072
9888.00   0.10603537   0.00997605
9890.00   0.10166493   0.01168047
9892.00   0.10060530   0.01325727
9894.00   0.09747373   0.01378378
9896.00   0.10023257   0.01386169
9898.00   0.10444707   0.01319591
9900.00   0.10626199   0.01171694
9902.00   0.09951007   0.00957109
9904.00   0.09858797   0.00867329
9906.00   0.09407114   0.00925439
9908.00   0.09357265   0.01209735
9910.00   0.09615392   0.01577468
9912.00   0.09701645   0.01866287
9914.00   0.09485187   0.01969858
9916.00   0.08435621   0.01968468
9918.00   0.08780689   0.01846686
9920.00   0.09608287   0.01572563
9922.00   0.09631550   0.01176583
9924.00   0.09573886   0.00951355
9926.00   0.09525474   0.00858911
9928.00   0.09680770   0.00841327
9930.00   0.09787315   0.00844450
9932.00   0.10040566   0.00879094
9934.00   0.09758565   0.00993875
9936.00   0.10200445   0.01257415
9938.00   0.10497060   0.01609760
9940.00   0.09310824   0.01984348
9942.00   0.10138042   0.02342956
9944.00   0.11108565   0.02563573
9946.00   0.10036769   0.02597698
9948.00   0.07819787   0.02495431
9950.00   0.10000235   0.02380872
9952.00   0.10494474   0.02279247
9954.00   0.09715959   0.02232010
9956.00   0.10186248   0.02295542
9958.00   0.12120249   0.02417872
9960.00   0.11294208   0.02449739
9962.00   0.10239329   0.02278011
9964.00   0.09176350   0.02051887
9966.00   0.07964969   0.01820434
9968.00   0.07440211   0.01614756
9970.00   0.09092146   0.01472442
9972.00   0.09874966   0.01432232
9974.00   0.10100297   0.01420498
9976.00   0.10177458   0.01374942
9978.00   0.09901579   0.01267371
9980.00   0.09279579   0.01141914
9982.00   0.08963218   0.01058098
9984.00   0.09200493   0.00995414
9986.00   0.09563211   0.00945447
9988.00   0.09558555   0.00915568
9990.00   0.09075933   0.00912283
9992.00   0.09196609   0.00953625
9994.00   0.09316500   0.01043381
9996.00   0.09077740   0.01151878
9998.00   0.08797204   0.01243537
10000.00   0.08546376   0.01288023
10002.00   0.08999839   0.01316696
10004.00   0.10093528   0.01439665
10006.00   0.10626501   0.01750871
10008.00   0.10176037   0.02253190
10010.00   0.09830648   0.02682132
10012.00   0.09617668   0.02884170
10014.00   0.08824865   0.02906865
10016.00   0.07530988   0.02777326
10018.00   0.07669128   0.02455908
10020.00   0.08145478   0.02092022
10022.00   0.08832035   0.01926016
10024.00   0.09193195   0.01933738
10026.00   0.10636944   0.01966974
10028.00   0.11421379   0.01953330
10030.00   0.12005454   0.01733461
10032.00   0.11294925   0.01425703
10034.00   0.10915308   0.01218409
10036.00   0.11553055   0.01196553
10038.00   0.10426280   0.01255745
10040.00   0.09603208   0.01346646
10042.00   0.09761196   0.01399948
10044.00   0.09205861   0.01390778
10046.00   0.08596072   0.01355158
10048.00   0.07714808   0.01262234
10050.00   0.08398549   0.01157145
10052.00   0.08932531   0.01134078
10054.00   0.09200525   0.01259659
10056.00   0.10330818   0.01499044
10058.00   0.08924570   0.01658927
10060.00   0.08661028   0.01760998
10062.00   0.09122323   0.01820217
10064.00   0.09835180   0.01826496
10066.00   0.09990441   0.01750570
10068.00   0.09849157   0.01660820
10070.00   0.09285482   0.01588778
10072.00   0.09858394   0.01562990
10074.00   0.09438356   0.01595622
10076.00   0.08329520   0.01790747
10078.00   0.09705292   0.02155780
10080.00   0.10923883   0.02427506
10082.00   0.11214837   0.02548568
10084.00   0.08372360   0.02518819
10086.00   0.08199396   0.02375209
10088.00   0.07801553   0.01997708
10090.00   0.07638679   0.01579609
10092.00   0.08228827   0.01335836
10094.00   0.08825486   0.01306012
10096.00   0.08319915   0.01380756
10098.00   0.08663628   0.01605679
10100.00   0.09410640   0.01831792
10102.00   0.09328385   0.01962423
10104.00   0.08376948   0.01992735
10106.00   0.08059610   0.01959932
10108.00   0.08132184   0.01795419
10110.00   0.08160778   0.01550321
10112.00   0.07974123   0.01352632
10114.00   0.06472319   0.01306161
10116.00   0.07983623   0.01545826
10118.00   0.08915413   0.02060338
10120.00   0.09157083   0.02590377
10122.00   0.09671422   0.02959870
10124.00   0.09905096   0.03073459
10126.00   0.09308231   0.03055556
10128.00   0.08741996   0.02809213
10130.00   0.08000649   0.02349930
10132.00   0.07327205   0.01858188
10134.00   0.07689721   0.01633519
10136.00   0.08269206   0.01566035
10138.00   0.09142721   0.01576423
10140.00   0.09892342   0.01618647
10142.00   0.09246904   0.01678799
10144.00   0.08342936   0.01764677
10146.00   0.08214445   0.01939873
10148.00   0.08311585   0.02167553
10150.00   0.08303034   0.02373278
10152.00   0.07401907   0.02480313
10154.00   0.05501604   0.02529411
10156.00   0.05292125   0.02512996
10158.00   0.06729115   0.02421092
10160.00   0.07356974   0.02275156
10162.00   0.06594995   0.02198678
10164.00   0.06598825   0.02364384
10166.00   0.06332711   0.02798861
10168.00   0.07449975   0.03306368
10170.00   0.09880378   0.03672674
10172.00   0.08091150   0.03754634
10174.00   0.05352491   0.03696029
10176.00   0.04415288   0.03447903
10178.00   0.04441808   0.03020865
10180.00   0.08210605   0.02584189
10182.00   0.09766883   0.02571391
10184.00   0.11566257   0.02830616
10186.00   0.11359349   0.03114983
10188.00   0.09281390   0.03264363
10190.00   0.05831260   0.03250005
10192.00   0.06711192   0.03200879
10194.00   0.06062764   0.02977362
10196.00   0.05772701   0.02694099
10198.00   0.09456345   0.02568922
10200.00   0.11953139   0.02771868
10202.00   0.10075769   0.02872294
10204.00   0.08533045   0.03261664
10206.00   0.06679229   0.03767212
10208.00   0.07080451   0.04109624
10210.00   0.07115011   0.04102502
10212.00   0.06593367   0.04003072
10214.00   0.05294780   0.03747026
10216.00   0.06197460   0.03319289
10218.00   0.08700105   0.02825402
10220.00   0.06547927   0.02725209
10222.00   0.05560517   0.02961183
10224.00   0.08028443   0.03293814
10226.00   0.09754655   0.03544149
10228.00   0.05896636   0.03626487
10230.00   0.05745990   0.03545543
10232.00   0.06412786   0.03256281
10234.00   0.07353076   0.02894575
10236.00   0.07306235   0.02548686
10238.00   0.07302653   0.02219582
10240.00   0.07121889   0.02012145
10242.00   0.06544077   0.01919047
10244.00   0.06670564   0.01894509
10246.00   0.07577439   0.01889933
10248.00   0.07633863   0.01885416
10250.00   0.09617449   0.01940058
10252.00   0.09273680   0.01956151
10254.00   0.08114286   0.01964258
10256.00   0.08340427   0.02005564
10258.00   0.08971063   0.02050142
10260.00   0.08539314   0.02085248
10262.00   0.08696020   0.02164863
10264.00   0.08929477   0.02301538
10266.00   0.08108337   0.02482328
10268.00   0.08601160   0.02708775
10270.00   0.08819655   0.02852181
10272.00   0.08896873   0.02916836
10274.00   0.09421889   0.02940721
10276.00   0.08152687   0.02987324
10278.00   0.08815870   0.03363183
10280.00   0.09862871   0.04542212
10282.00   0.08271075   0.05899929
10284.00   0.07084069   0.06982607
10286.00   0.11859268   0.07486952
10288.00   0.07565980   0.07661447
10290.00   0.01275490   0.07488921
10292.00   0.05322645   0.06873936
10294.00   0.07577744   0.05926514
10296.00   0.04368234   0.05333744
10298.00   0.06642102   0.05064867
10300.00   0.08771816   0.04693828
10302.00   0.09159616   0.04185523
10304.00   0.10995238   0.03799591
10306.00   0.08978144   0.03708404
10308.00   0.06855353   0.03697719
10310.00   0.06237456   0.03659607
10312.00   0.03283949   0.03552069
10314.00   0.08668232   0.03410580
10316.00   0.09579366   0.03168752
10318.00   0.09315708   0.02966035
10320.00   0.07731306   0.02868581
10322.00   0.07941525   0.02926704
10324.00   0.09764842   0.03047854
10326.00   0.09960372   0.03098523
10328.00   0.07637540   0.03088625
10330.00   0.07198877   0.03100275
10332.00   0.09067174   0.03144068
10334.00   0.08752116   0.03145450
10336.00   0.07759055   0.03297186
10338.00   0.08213306   0.03530580
10340.00   0.08964628   0.03850499
10342.00   0.08480582   0.04255257
10344.00   0.11591205   0.04747336
10346.00   0.06318222   0.05048387
10348.00   0.11170702   0.05246106
10350.00   0.17017572   0.05291413
10352.00   0.10404897   0.05020243
10354.00   0.12491527   0.04575710
10356.00   0.06030746   0.04208535
10358.00   0.08174739   0.03998174
10360.00   0.08908833   0.03841136
10362.00   0.08039964   0.03771866
10364.00   0.08711076   0.04046525
10366.00   0.09528682   0.04982761
10368.00   0.11574282   0.06346966
10370.00   0.13266741   0.07564279
10372.00   0.13409370   0.08131286
10374.00   0.09990877   0.08266950
10376.00   -0.02324839   0.07889152
10378.00   -0.01468870   0.06972612
10380.00   0.03289279   0.05646615
10382.00   0.07607351   0.04706469
10384.00   0.08104736   0.04334785
10386.00   0.05784108   0.04185402
10388.00   0.02874290   0.04243958
10390.00   0.05107995   0.04716612
10392.00   0.11530748   0.05602610
10394.00   0.08055677   0.06164051
10396.00   -0.01238852   0.06424244
10398.00   -0.01771210   0.06454588
10400.00   0.02260651   0.06259749
10402.00   0.07059281   0.05705281
10404.00   0.08339176   0.05114554
10406.00   0.07441747   0.04773119
10408.00   0.05240040   0.04802984
10410.00   0.03232607   0.05297239
10412.00   0.06701184   0.06593174
10414.00   0.05945119   0.08238453
10416.00   0.14728342   0.09519867
10418.00   0.28031167   0.10043336
10420.00   0.08024145   0.10227698
10422.00   0.11403210   0.09669101
10424.00   0.17328966   0.08344596
10426.00   0.08841932   0.06827074
10428.00   0.11032427   0.05886132
10430.00   0.04879047   0.05420938
10432.00   0.04824586   0.05125021
10434.00   0.06596253   0.04999942
10436.00   0.07760897   0.04908832
10438.00   0.08050930   0.04807931
10440.00   0.08480921   0.04850191
10442.00   0.06693495   0.04971090
10444.00   0.05463867   0.05464104
10446.00   0.06714169   0.06403714
10448.00   0.09138439   0.06953623
10450.00   -0.05034522   0.07191578
10452.00   -0.01299667   0.07196955
10454.00   -0.04623473   0.06950922
10456.00   -0.03267598   0.06419743
10458.00   0.04849866   0.05831926
10460.00   0.11830534   0.05862731
10462.00   0.07062230   0.06551292
10464.00   0.09069952   0.07763455
10466.00   0.18933243   0.09173217
10468.00   0.09056179   0.09913474
10470.00   0.05273795   0.09901144
10472.00   0.04536040   0.09551600
10474.00   0.07597545   0.08714529
10476.00   0.03096152   0.07171110
10478.00   0.05131757   0.06165455
10480.00   0.05739984   0.05756250
10482.00   0.07460037   0.05669191
10484.00   0.09266561   0.05662500
10486.00   0.08576211   0.05617234
10488.00   0.06812110   0.05604248
10490.00   0.10889375   0.05559847
10492.00   0.12010934   0.05661531
10494.00   0.09499349   0.05527539
10496.00   0.07553717   0.05576845
10498.00   0.10278622   0.05791420
10500.00   0.10763121   0.05889360
10502.00   0.08595236   0.06104210
10504.00   0.08227790   0.06734347
10506.00   0.08015620   0.07172792
10508.00   0.08410716   0.07500619
10510.00   0.05771717   0.07768714
10512.00   0.05533903   0.07917986
10514.00   0.02242482   0.07380851
10516.00   0.01804634   0.06916019
10518.00   0.01158326   0.07167012
10520.00   0.04014817   0.07794796
10522.00   0.07518385   0.08543616
10524.00   0.07901359   0.09341127
10526.00   -0.03064827   0.09258110
10528.00   0.04891382   0.09136059
10530.00   0.14714622   0.08394239
10532.00   0.10789017   0.07307702
10534.00   -0.00093508   0.06515750
10536.00   0.00670316   0.06323121
10538.00   0.07302551   0.06330147
10540.00   0.13321564   0.06376187
10542.00   0.10998255   0.06310019
10544.00   0.03989943   0.06211138
10546.00   0.10361467   0.06285129
10548.00   0.08985717   0.06406455
10550.00   0.07858949   0.06468558
10552.00   0.08953436   0.06517813
10554.00   0.09967754   0.06481863
10556.00   0.09041414   0.06421976
10558.00   0.05278201   0.06491831
10560.00   0.08894380   0.06640977
10562.00   0.14314994   0.06671434
10564.00   0.08116701   0.06566364
10566.00   0.04997722   0.06731910
10568.00   0.05305809   0.07318896
10570.00   0.13433994   0.07742395
10572.00   0.10175677   0.07835410
10574.00   0.09106921   0.07543375
10576.00   0.10431069   0.07565440
10578.00   0.11526242   0.07860401
10580.00   0.17706272   0.08118319
10582.00   0.16050188   0.08246031
10584.00   0.03412183   0.08213104
10586.00   -0.05156228   0.08650407
10588.00   -0.01468839   0.08683857
10590.00   0.03013296   0.08558543
10592.00   0.04329003   0.08153330
10594.00   0.02895972   0.07887253
10596.00   0.07542000   0.07836245
10598.00   0.01666938   0.07721914
10600.00   -0.05037612   0.07464320
10602.00   0.04418179   0.07520484
10604.00   0.04864320   0.07476009
10606.00   0.02699563   0.07473568
10608.00   0.01558304   0.07641935
10610.00   0.20925903   0.07858577
10612.00   0.05945361   0.07434833
10614.00   0.12380864   0.07618589
10616.00   0.06727508   0.07864188
10618.00   0.11626034   0.07999188
10620.00   0.05885350   0.07515049
10622.00   0.08621720   0.07777845
10624.00   0.12182005   0.07908037
10626.00   0.03574038   0.07912266
10628.00   0.03436691   0.07839387
10630.00   0.08869398   0.07917226
10632.00   0.07778981   0.07874739
10634.00   0.09361485   0.08060307
10636.00   0.02054072   0.08322082
10638.00   -0.02053598   0.08267373
10640.00   -0.07939287   0.08338572
10642.00   -0.00297375   0.08594061
10644.00   0.04580475   0.08583222
10646.00   0.06587011   0.08506650
10648.00   0.04144977   0.08630526
10650.00   0.04041774   0.08892796
10652.00   0.08861865   0.09027421
10654.00   0.09294619   0.09320446
10656.00   0.02909306   0.08871214
10658.00   0.09058629   0.08969196
10660.00   0.08294807   0.09029849
10662.00   0.07654499   0.08685297
10664.00   0.11706188   0.08594626
10666.00   0.11927772   0.08707236
10668.00   0.04153422   0.08730081
10670.00   0.12596180   0.09010869
10672.00   0.02070843   0.08865866
10674.00   -0.03016263   0.08657788
10676.00   -0.02936089   0.08680403
10678.00   0.02168512   0.08751978
10680.00   0.00702778   0.08779942
