# File created by shivutils (I.Shivvers)
# wl(A)   flm    er(optional)
3620.00   0.30723113   0.04980426
3622.00   0.36505604   0.05049869
3624.00   0.37656248   0.05146936
3626.00   0.35537311   0.04964340
3628.00   0.35221899   0.05395818
3630.00   0.44729725   0.05529267
3632.00   0.39146999   0.05444029
3634.00   0.29494643   0.05406449
3636.00   0.28480422   0.05321578
3638.00   0.28522691   0.05253814
3640.00   0.32282662   0.05343928
3642.00   0.23491450   0.05156839
3644.00   0.44673976   0.05364195
3646.00   0.50667578   0.06045117
3648.00   0.36210510   0.06461802
3650.00   0.42290741   0.06377827
3652.00   0.28098494   0.05686596
3654.00   0.30926165   0.05526561
3656.00   0.34912682   0.05086264
3658.00   0.27449173   0.04882238
3660.00   0.29201934   0.05126894
3662.00   0.30750585   0.05226471
3664.00   0.28605968   0.04691384
3666.00   0.28979874   0.04466903
3668.00   0.36140308   0.04601512
3670.00   0.35503215   0.04515976
3672.00   0.36275652   0.04390723
3674.00   0.33863285   0.04279462
3676.00   0.43486983   0.04519015
3678.00   0.31549212   0.04263530
3680.00   0.46624643   0.04473004
3682.00   0.38718089   0.04373191
3684.00   0.46405676   0.04477704
3686.00   0.37844688   0.04288072
3688.00   0.43425837   0.04517142
3690.00   0.42675948   0.04397327
3692.00   0.48732272   0.04538324
3694.00   0.41113442   0.04458027
3696.00   0.44953865   0.04595167
3698.00   0.52665550   0.04875620
3700.00   0.48339021   0.04726743
3702.00   0.49027997   0.04749241
3704.00   0.58052212   0.04862658
3706.00   0.51014251   0.04730748
3708.00   0.55472249   0.04810400
3710.00   0.52792919   0.04676538
3712.00   0.48875105   0.04604694
3714.00   0.56249559   0.04606255
3716.00   0.55707449   0.04621140
3718.00   0.55216628   0.04572250
3720.00   0.57694930   0.04536483
3722.00   0.53840238   0.04557301
3724.00   0.50615454   0.04512658
3726.00   0.67806876   0.04799503
3728.00   0.50987339   0.04624851
3730.00   0.59490395   0.04738817
3732.00   0.66193861   0.04952200
3734.00   0.57182825   0.04748156
3736.00   0.64091647   0.04880841
3738.00   0.67011011   0.04918612
3740.00   0.62246668   0.04861836
3742.00   0.56291062   0.04731712
3744.00   0.63830471   0.04776939
3746.00   0.60829139   0.04545533
3748.00   0.63543606   0.04516464
3750.00   0.53942674   0.04337316
3752.00   0.53630286   0.04414630
3754.00   0.51340503   0.04313365
3756.00   0.56597137   0.04386429
3758.00   0.53784651   0.04299886
3760.00   0.53872716   0.04163824
3762.00   0.58994114   0.04220245
3764.00   0.60527623   0.04241644
3766.00   0.61651009   0.04271923
3768.00   0.60815746   0.04390017
3770.00   0.56580919   0.04449878
3772.00   0.57220596   0.04339590
3774.00   0.61576033   0.04270501
3776.00   0.57750046   0.04126345
3778.00   0.69632900   0.04189643
3780.00   0.67534423   0.04171967
3782.00   0.59723216   0.04130694
3784.00   0.61577988   0.04154709
3786.00   0.57035446   0.04073880
3788.00   0.58669198   0.04085853
3790.00   0.70529085   0.04277737
3792.00   0.66035390   0.04172698
3794.00   0.56843901   0.03987344
3796.00   0.55914640   0.03965263
3798.00   0.52190280   0.03925902
3800.00   0.53333068   0.03944920
3802.00   0.54229373   0.03893263
3804.00   0.46951416   0.03717947
3806.00   0.51593846   0.03760732
3808.00   0.44200110   0.03612337
3810.00   0.40888467   0.03626686
3812.00   0.42502701   0.03701505
3814.00   0.37820730   0.03651789
3816.00   0.43972439   0.03651099
3818.00   0.37273031   0.03515174
3820.00   0.34729293   0.03557112
3822.00   0.32506955   0.03488696
3824.00   0.31244135   0.03539123
3826.00   0.30723163   0.03607615
3828.00   0.38723183   0.03819045
3830.00   0.28565979   0.03626771
3832.00   0.36543924   0.03625337
3834.00   0.29624802   0.03510124
3836.00   0.35156795   0.03473448
3838.00   0.23929909   0.03262561
3840.00   0.30483764   0.03349376
3842.00   0.28476796   0.03309909
3844.00   0.33478922   0.03360788
3846.00   0.23046841   0.03214493
3848.00   0.24406724   0.03191448
3850.00   0.28110328   0.03207412
3852.00   0.25183252   0.03126405
3854.00   0.32759696   0.03210931
3856.00   0.30290535   0.03211435
3858.00   0.33272806   0.03120293
3860.00   0.30788615   0.03144410
3862.00   0.31258824   0.03109049
3864.00   0.27165952   0.03022158
3866.00   0.33446452   0.03093039
3868.00   0.28047720   0.02928977
3870.00   0.31750005   0.02992020
3872.00   0.28456265   0.03061095
3874.00   0.32530689   0.03036757
3876.00   0.38159564   0.03047522
3878.00   0.33763620   0.02958763
3880.00   0.36341667   0.02950374
3882.00   0.42330402   0.03049708
3884.00   0.37516949   0.03104275
3886.00   0.39355019   0.03096863
3888.00   0.43908817   0.03155962
3890.00   0.44086191   0.03179768
3892.00   0.43093768   0.03243739
3894.00   0.55948150   0.03389658
3896.00   0.52040148   0.03314244
3898.00   0.47198191   0.03303071
3900.00   0.52548343   0.03396286
3902.00   0.49058712   0.03447994
3904.00   0.48201731   0.03567611
3906.00   0.55827588   0.03785308
3908.00   0.66093576   0.03863234
3910.00   0.63151389   0.03845916
3912.00   0.55725414   0.03690846
3914.00   0.55707395   0.03548262
3916.00   0.61766207   0.03541376
3918.00   0.55767602   0.03408719
3920.00   0.56856924   0.03411035
3922.00   0.67027426   0.03444144
3924.00   0.63409549   0.03401279
3926.00   0.59291416   0.03307739
3928.00   0.56266975   0.03269527
3930.00   0.51600897   0.03205157
3932.00   0.55337381   0.03263223
3934.00   0.62810659   0.03317668
3936.00   0.65989423   0.03372023
3938.00   0.61459047   0.03402399
3940.00   0.62548852   0.03480785
3942.00   0.63501382   0.03542493
3944.00   0.65433890   0.03499462
3946.00   0.62087095   0.03380984
3948.00   0.66943502   0.03418776
3950.00   0.65495914   0.03400610
3952.00   0.66161555   0.03399167
3954.00   0.73025471   0.03419323
3956.00   0.68603176   0.03422551
3958.00   0.71404064   0.03478219
3960.00   0.67799115   0.03481006
3962.00   0.72873890   0.03474620
3964.00   0.71346956   0.03306548
3966.00   0.59261590   0.03148584
3968.00   0.65785837   0.03278369
3970.00   0.81630099   0.03440413
3972.00   0.82560414   0.03439534
3974.00   0.80652136   0.03380541
3976.00   0.73888522   0.03249537
3978.00   0.68939334   0.03156709
3980.00   0.71118248   0.03166026
3982.00   0.75906831   0.03293062
3984.00   0.80755252   0.03349683
3986.00   0.75218469   0.03346331
3988.00   0.78706682   0.03367890
3990.00   0.82757539   0.03428400
3992.00   0.82642281   0.03446787
3994.00   0.77965593   0.03431997
3996.00   0.79897213   0.03460727
3998.00   0.80667758   0.03420470
4000.00   0.80495763   0.03382583
4002.00   0.76555121   0.03302092
4004.00   0.74794239   0.03294087
4006.00   0.83656555   0.03439613
4008.00   0.80409443   0.03351790
4010.00   0.72198790   0.03237350
4012.00   0.77470189   0.03222826
4014.00   0.76871502   0.03198435
4016.00   0.76575613   0.03263750
4018.00   0.76413435   0.03406814
4020.00   0.79142040   0.03542242
4022.00   0.78074759   0.03536872
4024.00   0.74313134   0.03425579
4026.00   0.75625706   0.03329391
4028.00   0.70207453   0.03281754
4030.00   0.73494262   0.03293258
4032.00   0.73861849   0.03286245
4034.00   0.71402884   0.03242696
4036.00   0.70128947   0.03237611
4038.00   0.69874686   0.03236773
4040.00   0.66026688   0.03209369
4042.00   0.66211742   0.03644234
4044.00   0.63385296   0.04370472
4046.00   0.66062135   0.04388276
4048.00   0.69390869   0.03637713
4050.00   0.63715583   0.03210152
4052.00   0.59223855   0.03174402
4054.00   0.60884047   0.03166363
4056.00   0.59580410   0.03103850
4058.00   0.62050068   0.03095766
4060.00   0.59344053   0.03062269
4062.00   0.61434877   0.03063258
4064.00   0.60985512   0.03096348
4066.00   0.61625075   0.03065712
4068.00   0.49750826   0.02938021
4070.00   0.55283397   0.02933390
4072.00   0.62827128   0.03006406
4074.00   0.60595131   0.03112755
4076.00   0.52816224   0.03115429
4078.00   0.49265039   0.03033085
4080.00   0.51633316   0.03006511
4082.00   0.48710072   0.02969937
4084.00   0.57674390   0.03003981
4086.00   0.56911594   0.02995490
4088.00   0.54136086   0.02891208
4090.00   0.56192714   0.02864520
4092.00   0.56704879   0.02839241
4094.00   0.55460846   0.02831426
4096.00   0.53764641   0.02830265
4098.00   0.55021334   0.02805273
4100.00   0.55009586   0.02797974
4102.00   0.56172055   0.02796234
4104.00   0.55970067   0.02785422
4106.00   0.63000631   0.02842138
4108.00   0.56603670   0.02760094
4110.00   0.54518253   0.02738043
4112.00   0.54974657   0.02746738
4114.00   0.50529855   0.02710199
4116.00   0.53097075   0.02699878
4118.00   0.46990213   0.02612660
4120.00   0.54106259   0.02706023
4122.00   0.55100441   0.02740461
4124.00   0.50722742   0.02686533
4126.00   0.52141064   0.02686057
4128.00   0.54889858   0.02722077
4130.00   0.53855264   0.02750194
4132.00   0.46597016   0.02732649
4134.00   0.49369341   0.02724179
4136.00   0.51676542   0.02689093
4138.00   0.58595806   0.02769403
4140.00   0.47822267   0.02664884
4142.00   0.49407071   0.02582719
4144.00   0.48130524   0.02542643
4146.00   0.45536038   0.02488049
4148.00   0.50006008   0.02557238
4150.00   0.51210874   0.02614707
4152.00   0.49245983   0.02609938
4154.00   0.50611842   0.02626895
4156.00   0.50661659   0.02602112
4158.00   0.49022523   0.02586637
4160.00   0.49791345   0.02669978
4162.00   0.51545376   0.02734491
4164.00   0.48966339   0.02721517
4166.00   0.45143428   0.02680258
4168.00   0.48706090   0.02645698
4170.00   0.48632005   0.02623888
4172.00   0.45394415   0.02544789
4174.00   0.48918343   0.02568602
4176.00   0.44980559   0.02504168
4178.00   0.47233462   0.02532559
4180.00   0.47579080   0.02514938
4182.00   0.44359758   0.02493899
4184.00   0.45894992   0.02505929
4186.00   0.41540766   0.02458704
4188.00   0.44761395   0.02457884
4190.00   0.42829686   0.02478064
4192.00   0.45745352   0.02480887
4194.00   0.47419637   0.02497534
4196.00   0.51429534   0.02490294
4198.00   0.51251101   0.02504810
4200.00   0.49621361   0.02516377
4202.00   0.50012982   0.02488753
4204.00   0.49048302   0.02458855
4206.00   0.51135814   0.02526837
4208.00   0.54719895   0.02571508
4210.00   0.53293085   0.02571586
4212.00   0.54554820   0.02549310
4214.00   0.52801007   0.02527749
4216.00   0.54277414   0.02518679
4218.00   0.53778511   0.02504875
4220.00   0.52713579   0.02488535
4222.00   0.57743931   0.02544373
4224.00   0.54383379   0.02503038
4226.00   0.50565964   0.02501919
4228.00   0.55154377   0.02543297
4230.00   0.56107002   0.02553175
4232.00   0.56608289   0.02542202
4234.00   0.51281136   0.02535734
4236.00   0.54806703   0.02562962
4238.00   0.53622448   0.02542181
4240.00   0.54817587   0.02516232
4242.00   0.49085680   0.02477852
4244.00   0.52108008   0.02649437
4246.00   0.58712029   0.02744896
4248.00   0.51166022   0.02562174
4250.00   0.57522392   0.02568128
4252.00   0.57408643   0.02546717
4254.00   0.55951715   0.02544676
4256.00   0.57021326   0.02570820
4258.00   0.56156820   0.02554420
4260.00   0.55664849   0.02541916
4262.00   0.59522486   0.02555637
4264.00   0.59872961   0.02549272
4266.00   0.56674528   0.02529665
4268.00   0.58292001   0.02510569
4270.00   0.56680405   0.02528331
4272.00   0.54058653   0.02490017
4274.00   0.55837137   0.02488598
4276.00   0.52653980   0.02461820
4278.00   0.56786519   0.02516156
4280.00   0.51439458   0.02502593
4282.00   0.55556178   0.02503284
4284.00   0.54952019   0.02484529
4286.00   0.58237231   0.02498021
4288.00   0.57410949   0.02487495
4290.00   0.54353505   0.02486883
4292.00   0.52926397   0.02493950
4294.00   0.54795367   0.02487007
4296.00   0.56031281   0.02493430
4298.00   0.52225423   0.02462327
4300.00   0.53438175   0.02446070
4302.00   0.53219676   0.02427525
4304.00   0.59100157   0.02507513
4306.00   0.58132815   0.02539238
4308.00   0.60689664   0.02549253
4310.00   0.60688460   0.02588799
4312.00   0.60856068   0.02660099
4314.00   0.56607556   0.02614307
4316.00   0.60473299   0.02586018
4318.00   0.56707448   0.02573962
4320.00   0.56144726   0.02560701
4322.00   0.60917121   0.02561710
4324.00   0.62899739   0.02572741
4326.00   0.58414191   0.02532794
4328.00   0.62494522   0.02548187
4330.00   0.63490313   0.02525886
4332.00   0.63373393   0.02547266
4334.00   0.64388025   0.02546466
4336.00   0.62541115   0.02563087
4338.00   0.63648593   0.02556837
4340.00   0.64289916   0.02562292
4342.00   0.66403073   0.02605409
4344.00   0.67659700   0.02640263
4346.00   0.65084416   0.02628179
4348.00   0.67625642   0.02627743
4350.00   0.60961443   0.02551174
4352.00   0.70294052   0.02625149
4354.00   0.82441050   0.03300087
4356.00   0.66882193   0.04074660
4358.00   0.69897038   0.04104394
4360.00   0.70517212   0.03312483
4362.00   0.74423301   0.02837399
4364.00   0.65633160   0.02658384
4366.00   0.66415739   0.02662477
4368.00   0.62262809   0.02608697
4370.00   0.62360877   0.02612277
4372.00   0.66563398   0.02647337
4374.00   0.64079601   0.02658319
4376.00   0.64141250   0.02577000
4378.00   0.57699651   0.02515578
4380.00   0.61345106   0.02557673
4382.00   0.66449416   0.02571130
4384.00   0.60588586   0.02494139
4386.00   0.60469627   0.02489519
4388.00   0.62711072   0.02494644
4390.00   0.57912976   0.02471838
4392.00   0.60462356   0.02481020
4394.00   0.54788631   0.02416687
4396.00   0.51921326   0.02405256
4398.00   0.52510303   0.02454972
4400.00   0.56867456   0.02487646
4402.00   0.51932073   0.02446533
4404.00   0.53641486   0.02474226
4406.00   0.47388121   0.02437410
4408.00   0.48931834   0.02415314
4410.00   0.45803934   0.02422430
4412.00   0.49976757   0.02488045
4414.00   0.52682978   0.02494331
4416.00   0.53937519   0.02464504
4418.00   0.47153282   0.02389492
4420.00   0.49126160   0.02406554
4422.00   0.45448795   0.02368521
4424.00   0.43253139   0.02344532
4426.00   0.45443174   0.02335178
4428.00   0.38554379   0.02285358
4430.00   0.41493431   0.02292688
4432.00   0.41540882   0.02287825
4434.00   0.43991131   0.02279557
4436.00   0.43427885   0.02274551
4438.00   0.37623250   0.02238180
4440.00   0.40321684   0.02254111
4442.00   0.38215205   0.02234302
4444.00   0.40089256   0.02226211
4446.00   0.39944905   0.02228822
4448.00   0.35869297   0.02210626
4450.00   0.34872177   0.02188840
4452.00   0.36593917   0.02195246
4454.00   0.34695333   0.02175033
4456.00   0.37582535   0.02191519
4458.00   0.33564836   0.02166117
4460.00   0.39563787   0.02193974
4462.00   0.41634133   0.02217809
4464.00   0.34562603   0.02167935
4466.00   0.35826632   0.02186876
4468.00   0.33334413   0.02146280
4470.00   0.36095974   0.02167970
4472.00   0.37524712   0.02174377
4474.00   0.39788020   0.02205608
4476.00   0.41379330   0.02209520
4478.00   0.38372940   0.02185043
4480.00   0.38969287   0.02190089
4482.00   0.36903238   0.02176698
4484.00   0.38762525   0.02210540
4486.00   0.35620379   0.02167959
4488.00   0.36396244   0.02175259
4490.00   0.42022711   0.02219600
4492.00   0.35452151   0.02187705
4494.00   0.40566102   0.02218715
4496.00   0.39288756   0.02204016
4498.00   0.41039449   0.02222922
4500.00   0.39715049   0.02190447
4502.00   0.39550009   0.02191045
4504.00   0.41418821   0.02167506
4506.00   0.36918610   0.02156652
4508.00   0.41770566   0.02169214
4510.00   0.39813393   0.02168537
4512.00   0.37366602   0.02155079
4514.00   0.45023525   0.02207026
4516.00   0.44342884   0.02205612
4518.00   0.43673548   0.02213730
4520.00   0.41409680   0.02176861
4522.00   0.48116049   0.02232469
4524.00   0.48419514   0.02243620
4526.00   0.41913497   0.02208918
4528.00   0.45674556   0.02220871
4530.00   0.42445156   0.02206529
4532.00   0.44457188   0.02204810
4534.00   0.49615079   0.02265538
4536.00   0.50765032   0.02265065
4538.00   0.51781982   0.02254912
4540.00   0.49121976   0.02272084
4542.00   0.52265745   0.02270521
4544.00   0.52072388   0.02296512
4546.00   0.50281572   0.02274087
4548.00   0.54433358   0.02290490
4550.00   0.52325344   0.02257595
4552.00   0.50161511   0.02270731
4554.00   0.55137563   0.02301749
4556.00   0.54890591   0.02302230
4558.00   0.56877917   0.02296884
4560.00   0.59953988   0.02318001
4562.00   0.61991823   0.02336019
4564.00   0.59667724   0.02307739
4566.00   0.64007676   0.02337313
4568.00   0.63529301   0.02347046
4570.00   0.65291131   0.02369322
4572.00   0.64686370   0.02365821
4574.00   0.69339585   0.02401894
4576.00   0.70630336   0.02409201
4578.00   0.76074773   0.02429790
4580.00   0.80098099   0.02460962
4582.00   0.78501749   0.02448568
4584.00   0.79650676   0.02435639
4586.00   0.79569000   0.02455349
4588.00   0.85619414   0.02494103
4590.00   0.84391880   0.02497005
4592.00   0.82545543   0.02492118
4594.00   0.94722372   0.02552962
4596.00   0.94553488   0.02554158
4598.00   0.93056452   0.02547164
4600.00   0.95371282   0.02558034
4602.00   0.97425574   0.02561368
4604.00   0.95475113   0.02563579
4606.00   1.04042280   0.02602367
4608.00   0.98221570   0.02583850
4610.00   0.99808425   0.02591844
4612.00   0.96238983   0.02570847
4614.00   1.01518428   0.02588515
4616.00   1.07688868   0.02621246
4618.00   1.07360542   0.02607692
4620.00   1.08148837   0.02646865
4622.00   1.10875845   0.02644516
4624.00   1.09697056   0.02650686
4626.00   1.13475883   0.02656483
4628.00   1.16579044   0.02673998
4630.00   1.16849232   0.02679211
4632.00   1.19681501   0.02700061
4634.00   1.17818356   0.02668965
4636.00   1.15748942   0.02652967
4638.00   1.16333389   0.02662843
4640.00   1.14122510   0.02653860
4642.00   1.15626895   0.02665551
4644.00   1.18102324   0.02683229
4646.00   1.19851255   0.02659247
4648.00   1.20052791   0.02670076
4650.00   1.23554218   0.02686378
4652.00   1.21957099   0.02689713
4654.00   1.15367627   0.02672700
4656.00   1.21777439   0.02724820
4658.00   1.23815787   0.02740738
4660.00   1.22454298   0.02749672
4662.00   1.25027776   0.02759607
4664.00   1.20606959   0.02749065
4666.00   1.20844316   0.02766426
4668.00   1.28677988   0.02805788
4670.00   1.22771561   0.02795311
4672.00   1.27047348   0.02813308
4674.00   1.27073574   0.02789868
4676.00   1.26902986   0.02792512
4678.00   1.26073444   0.02768433
4680.00   1.28571641   0.02775586
4682.00   1.28911829   0.02781409
4684.00   1.29942024   0.02788317
4686.00   1.25579250   0.02754313
4688.00   1.21634912   0.02714967
4690.00   1.27576935   0.02731482
4692.00   1.17398906   0.02670008
4694.00   1.17694926   0.02667850
4696.00   1.12404239   0.02624887
4698.00   1.13299978   0.02640532
4700.00   1.10549915   0.02610003
4702.00   1.10643828   0.02606128
4704.00   1.10166848   0.02598992
4706.00   1.08763635   0.02594993
4708.00   1.04583561   0.02593072
4710.00   1.04207850   0.02578688
4712.00   1.05098939   0.02573577
4714.00   1.01416528   0.02558708
4716.00   0.96326524   0.02508472
4718.00   1.00341988   0.02518239
4720.00   0.94331384   0.02472236
4722.00   0.90859044   0.02452300
4724.00   0.95594567   0.02469452
4726.00   0.89406729   0.02455343
4728.00   0.88122600   0.02488860
4730.00   0.89487219   0.02477818
4732.00   0.84064436   0.02453962
4734.00   0.83783424   0.02439778
4736.00   0.80883986   0.02444647
4738.00   0.82924151   0.02485432
4740.00   0.77942044   0.02463954
4742.00   0.75996703   0.02433011
4744.00   0.69949371   0.02381520
4746.00   0.71288568   0.02333833
4748.00   0.79913104   0.02344323
4750.00   0.67204118   0.02259406
4752.00   0.70986003   0.02301410
4754.00   0.75614309   0.02291029
4756.00   0.68748778   0.02241843
4758.00   0.68566191   0.02225934
4760.00   0.67599982   0.02206082
4762.00   0.75024247   0.02257565
4764.00   0.70568228   0.02233498
4766.00   0.72784394   0.02238880
4768.00   0.67812049   0.02205716
4770.00   0.69206965   0.02210272
4772.00   0.74396640   0.02239950
4774.00   0.71587455   0.02253497
4776.00   0.67402178   0.02238338
4778.00   0.65424067   0.02218734
4780.00   0.65006465   0.02203211
4782.00   0.66106987   0.02186958
4784.00   0.65434438   0.02161730
4786.00   0.61795127   0.02143902
4788.00   0.64868301   0.02132488
4790.00   0.62864196   0.02118555
4792.00   0.63310117   0.02143946
4794.00   0.58745021   0.02113866
4796.00   0.59802949   0.02118848
4798.00   0.56097090   0.02104104
4800.00   0.55427808   0.02082760
4802.00   0.54060233   0.02061975
4804.00   0.55623561   0.02086017
4806.00   0.54691881   0.02085210
4808.00   0.54872632   0.02061761
4810.00   0.53210330   0.02060283
4812.00   0.52538919   0.02066114
4814.00   0.58208978   0.02114503
4816.00   0.57132322   0.02083618
4818.00   0.55283517   0.02090850
4820.00   0.57471663   0.02092973
4822.00   0.56741661   0.02117514
4824.00   0.57752335   0.02125008
4826.00   0.60524118   0.02148356
4828.00   0.64032161   0.02182440
4830.00   0.61323905   0.02175886
4832.00   0.67763960   0.02223882
4834.00   0.62815708   0.02197865
4836.00   0.65730512   0.02219978
4838.00   0.66511303   0.02230248
4840.00   0.61986303   0.02200084
4842.00   0.69556284   0.02216044
4844.00   0.69089109   0.02231194
4846.00   0.71624494   0.02267903
4848.00   0.71124887   0.02263571
4850.00   0.74937010   0.02305277
4852.00   0.73239642   0.02270154
4854.00   0.74358732   0.02277179
4856.00   0.71080965   0.02245172
4858.00   0.72936404   0.02272114
4860.00   0.75789791   0.02289107
4862.00   0.80760109   0.02303274
4864.00   0.76936722   0.02299205
4866.00   0.77188188   0.02282424
4868.00   0.78739589   0.02290188
4870.00   0.75656563   0.02269525
4872.00   0.75415510   0.02276126
4874.00   0.74737483   0.02275785
4876.00   0.70907027   0.02237679
4878.00   0.74645311   0.02260429
4880.00   0.72574401   0.02253478
4882.00   0.69204921   0.02220057
4884.00   0.63204288   0.02159495
4886.00   0.69088274   0.02197845
4888.00   0.63021815   0.02172585
4890.00   0.70135993   0.02204715
4892.00   0.66407478   0.02191474
4894.00   0.66230810   0.02168527
4896.00   0.68419588   0.02165622
4898.00   0.65153080   0.02138091
4900.00   0.69854105   0.02156692
4902.00   0.70856994   0.02180143
4904.00   0.68297178   0.02154929
4906.00   0.65294653   0.02147119
4908.00   0.70797700   0.02186047
4910.00   0.64203960   0.02132463
4912.00   0.67494243   0.02148128
4914.00   0.70060855   0.02181808
4916.00   0.64865029   0.02175682
4918.00   0.61798382   0.02166483
4920.00   0.69679636   0.02181660
4922.00   0.71227819   0.02195688
4924.00   0.76473665   0.02197357
4926.00   0.76274365   0.02182337
4928.00   0.75639337   0.02182240
4930.00   0.76268399   0.02184959
4932.00   0.79955608   0.02220261
4934.00   0.79145998   0.02242399
4936.00   0.78270411   0.02243984
4938.00   0.80669773   0.02283170
4940.00   0.82417929   0.02289311
4942.00   0.83901966   0.02289351
4944.00   0.90803581   0.02309575
4946.00   0.90955579   0.02328863
4948.00   0.89412463   0.02316653
4950.00   0.90211165   0.02325073
4952.00   0.93574756   0.02388901
4954.00   0.92623216   0.02403223
4956.00   0.93464035   0.02400518
4958.00   0.96579838   0.02399278
4960.00   0.97090316   0.02417395
4962.00   0.97299892   0.02439373
4964.00   0.99292594   0.02450160
4966.00   1.02938521   0.02474154
4968.00   1.05707943   0.02479460
4970.00   1.06643546   0.02514202
4972.00   1.10779965   0.02535101
4974.00   1.09315932   0.02543060
4976.00   1.15513158   0.02599696
4978.00   1.11817729   0.02619401
4980.00   1.13482499   0.02643932
4982.00   1.20448709   0.02691935
4984.00   1.14763594   0.02678153
4986.00   1.16595805   0.02654747
4988.00   1.13630545   0.02618814
4990.00   1.17238986   0.02608291
4992.00   1.13874948   0.02597449
4994.00   1.13072753   0.02556754
4996.00   1.14220035   0.02551518
4998.00   1.18587148   0.02569216
5000.00   1.16468275   0.02558514
5002.00   1.13040400   0.02538949
5004.00   1.09052122   0.02536500
5006.00   1.11616325   0.02522039
5008.00   1.08773386   0.02510314
5010.00   1.09414601   0.02494138
5012.00   1.06560552   0.02473276
5014.00   1.06120980   0.02465339
5016.00   1.02913177   0.02458858
5018.00   0.98925769   0.02426542
5020.00   0.98954493   0.02415924
5022.00   0.95982677   0.02396705
5024.00   0.92208868   0.02356908
5026.00   0.88686776   0.02329329
5028.00   0.98026448   0.02389982
5030.00   0.86192447   0.02340856
5032.00   0.85012084   0.02311531
5034.00   0.79955101   0.02276640
5036.00   0.81355554   0.02264475
5038.00   0.80908650   0.02256112
5040.00   0.74223298   0.02219169
5042.00   0.74699122   0.02211364
5044.00   0.76817578   0.02236461
5046.00   0.75730997   0.02214523
5048.00   0.75588536   0.02215197
5050.00   0.72142196   0.02178733
5052.00   0.75307918   0.02192973
5054.00   0.71242726   0.02175971
5056.00   0.69538569   0.02153458
5058.00   0.68203372   0.02126168
5060.00   0.72650641   0.02179947
5062.00   0.64972675   0.02161817
5064.00   0.65005469   0.02174717
5066.00   0.63716990   0.02174451
5068.00   0.66479915   0.02202222
5070.00   0.68603724   0.02201850
5072.00   0.69512618   0.02178511
5074.00   0.64103013   0.02134955
5076.00   0.62303865   0.02133369
5078.00   0.65446633   0.02178730
5080.00   0.63842475   0.02230627
5082.00   0.66321343   0.02282478
5084.00   0.60909951   0.02281690
5086.00   0.60225493   0.02262976
5088.00   0.61342704   0.02201497
5090.00   0.58739167   0.02146467
5092.00   0.59078997   0.02118012
5094.00   0.59013820   0.02106457
5096.00   0.59676290   0.02108310
5098.00   0.60066772   0.02133616
5100.00   0.57035422   0.02106194
5102.00   0.59818232   0.02092604
5104.00   0.55628002   0.02053588
5106.00   0.57262248   0.02052397
5108.00   0.58265811   0.02041932
5110.00   0.56472975   0.02042406
5112.00   0.57689935   0.02041524
5114.00   0.54380256   0.02044881
5116.00   0.54196119   0.02044354
5118.00   0.55196393   0.02050408
5120.00   0.55235076   0.02043812
5122.00   0.52868658   0.02000562
5124.00   0.51573110   0.01998004
5126.00   0.54350626   0.02027921
5128.00   0.52906138   0.02006442
5130.00   0.52207679   0.01998293
5132.00   0.49227390   0.01992123
5134.00   0.50255722   0.01992444
5136.00   0.48164773   0.01986094
5138.00   0.50920534   0.01979714
5140.00   0.56208962   0.02001565
5142.00   0.51840717   0.02017938
5144.00   0.53369534   0.02001034
5146.00   0.51112670   0.02002897
5148.00   0.50816381   0.02032623
5150.00   0.49877220   0.02050807
5152.00   0.48794350   0.02023118
5154.00   0.52202058   0.02054694
5156.00   0.54461616   0.02035839
5158.00   0.48547065   0.02018226
5160.00   0.47386563   0.01967156
5162.00   0.52350819   0.02001929
5164.00   0.48926190   0.01968620
5166.00   0.54038453   0.02003668
5168.00   0.51001298   0.01991121
5170.00   0.53218400   0.01988390
5172.00   0.51700318   0.01996404
5174.00   0.53191680   0.02010601
5176.00   0.51384079   0.01988520
5178.00   0.49784246   0.01990481
5180.00   0.48733136   0.01980387
5182.00   0.51270890   0.01978439
5184.00   0.53172541   0.01992131
5186.00   0.52708089   0.01983259
5188.00   0.54119563   0.02000112
5190.00   0.51221538   0.01982213
5192.00   0.54802871   0.01994607
5194.00   0.54606766   0.02008317
5196.00   0.50531507   0.01974634
5198.00   0.53560048   0.01998955
5200.00   0.55662489   0.02016427
5202.00   0.56358427   0.02020935
5204.00   0.54663265   0.02013813
5206.00   0.57986468   0.01998816
5208.00   0.57630271   0.02032215
5210.00   0.58202654   0.02060577
5212.00   0.60557699   0.02055501
5214.00   0.60184824   0.02051204
5216.00   0.58035237   0.02051714
5218.00   0.61976302   0.02084278
5220.00   0.63013017   0.02087847
5222.00   0.60957462   0.02064504
5224.00   0.62218183   0.02081015
5226.00   0.64693552   0.02060821
5228.00   0.63913429   0.02051939
5230.00   0.66172814   0.02066129
5232.00   0.66273367   0.02062721
5234.00   0.71692854   0.02104160
5236.00   0.65666842   0.02079479
5238.00   0.68281007   0.02109907
5240.00   0.70919198   0.02139390
5242.00   0.68387210   0.02112770
5244.00   0.71582538   0.02120548
5246.00   0.71828490   0.02130303
5248.00   0.70619452   0.02123430
5250.00   0.72586524   0.02137554
5252.00   0.73291624   0.02152610
5254.00   0.70897317   0.02139431
5256.00   0.74071336   0.02177673
5258.00   0.71310425   0.02171396
5260.00   0.75652987   0.02187647
5262.00   0.77330589   0.02187868
5264.00   0.78357601   0.02176906
5266.00   0.76981986   0.02160524
5268.00   0.78703314   0.02175090
5270.00   0.76744759   0.02159745
5272.00   0.79422516   0.02173366
5274.00   0.77970493   0.02178310
5276.00   0.80341440   0.02203104
5278.00   0.84661722   0.02225279
5280.00   0.79321313   0.02208214
5282.00   0.85725999   0.02244228
5284.00   0.85988021   0.02252700
5286.00   0.84605575   0.02262091
5288.00   0.84270805   0.02225839
5290.00   0.86876458   0.02258607
5292.00   0.90003055   0.02272565
5294.00   0.95465428   0.02305030
5296.00   0.91739714   0.02292868
5298.00   0.94793272   0.02316543
5300.00   0.91237062   0.02298540
5302.00   0.93234152   0.02333416
5304.00   0.92897421   0.02320534
5306.00   0.99095500   0.02333497
5308.00   0.98364067   0.02353875
5310.00   1.00595129   0.02367954
5312.00   0.98055470   0.02349065
5314.00   0.95846003   0.02356254
5316.00   0.98749387   0.02367142
5318.00   1.01236475   0.02368811
5320.00   1.02052069   0.02379858
5322.00   1.03707325   0.02388087
5324.00   1.04766643   0.02382268
5326.00   1.04102373   0.02386829
5328.00   1.04885232   0.02366484
5330.00   1.08102930   0.02393892
5332.00   1.05127335   0.02399671
5334.00   1.04704106   0.02396893
5336.00   1.07148707   0.02407627
5338.00   1.07761014   0.02431543
5340.00   1.12089634   0.02474752
5342.00   1.10805857   0.02471500
5344.00   1.12963188   0.02478557
5346.00   1.08258677   0.02484135
5348.00   1.12761414   0.02522398
5350.00   1.14151084   0.02523920
5352.00   1.08934569   0.02513637
5354.00   1.14895308   0.02540703
5356.00   1.15595853   0.02542265
5358.00   1.18655741   0.02546203
5360.00   1.12371504   0.02499383
5362.00   1.14102936   0.02522860
5364.00   1.14090300   0.02530165
5366.00   1.16591895   0.02530909
5368.00   1.24316394   0.02575458
5370.00   1.21042025   0.02554294
5372.00   1.23359013   0.02599623
5374.00   1.19691920   0.02596040
5376.00   1.19894898   0.02609598
5378.00   1.23366463   0.02630373
5380.00   1.21081734   0.02624540
5382.00   1.26002371   0.02655449
5384.00   1.29665518   0.02679761
5386.00   1.26892376   0.02675335
5388.00   1.29294443   0.02693599
5390.00   1.28205693   0.02715216
5392.00   1.26299429   0.02693036
5394.00   1.29453254   0.02720391
5396.00   1.31848204   0.02755023
5398.00   1.33920252   0.02749466
5400.00   1.28955889   0.02747779
5402.00   1.38668799   0.02794011
5404.00   1.35527897   0.02812909
5406.00   1.34548569   0.02810630
5408.00   1.40733027   0.02860596
5410.00   1.36162841   0.02858918
5412.00   1.32678413   0.02859746
5414.00   1.31370974   0.02887959
5416.00   1.31099188   0.02909305
5418.00   1.29151869   0.02921434
5420.00   1.26972640   0.02929101
5422.00   1.31736410   0.02978384
5424.00   1.27116275   0.02948335
5426.00   1.29546380   0.02963949
5428.00   1.37548602   0.02983784
5430.00   1.30632448   0.02962747
5432.00   1.25929499   0.02933300
5434.00   1.28707802   0.02978930
5436.00   1.30417526   0.03017799
5438.00   1.29640973   0.03036984
5440.00   1.23341036   0.03011457
5442.00   1.28532863   0.03071820
5444.00   1.25612497   0.03070380
5446.00   1.33180094   0.03125115
5448.00   1.30363846   0.03133260
5450.00   1.28844988   0.03125102
5452.00   1.27850020   0.03163711
5454.00   1.30317783   0.03183457
5456.00   1.39822519   0.03421826
5458.00   1.30184710   0.03700735
5460.00   1.34103024   0.03854356
5462.00   1.38850200   0.03736516
5464.00   1.33417773   0.03599035
5466.00   1.36170256   0.03512143
5468.00   1.40574431   0.03413068
5470.00   1.47129989   0.03397968
5472.00   1.41509461   0.03319389
5474.00   1.36572731   0.03307693
5476.00   1.46832120   0.03331257
5478.00   1.42626977   0.03359510
5480.00   1.50964081   0.03462220
5482.00   1.50387764   0.03460573
5484.00   1.49757326   0.03463853
5486.00   1.50981510   0.03463050
5488.00   1.53636575   0.03472206
5490.00   1.56119871   0.03470547
5492.00   1.59864330   0.03482357
5494.00   1.53647661   0.03495968
5496.00   1.60175145   0.03519812
5498.00   1.65292382   0.03563896
5500.00   1.66217601   0.03550851
5502.00   1.74255335   0.03596186
5504.00   1.69290805   0.03589596
5506.00   1.71201515   0.03605148
5508.00   1.73154175   0.03646510
5510.00   1.70188856   0.03636092
5512.00   1.71372473   0.03667081
5514.00   1.78853905   0.03734295
5516.00   1.76532459   0.03722437
5518.00   1.73525834   0.03723637
5520.00   1.80037379   0.03754174
5522.00   1.84598148   0.03781068
5524.00   1.80187845   0.03759411
5526.00   1.81421614   0.03778152
5528.00   1.80708480   0.03783694
5530.00   1.86258364   0.03777598
5532.00   1.95058894   0.03830275
5534.00   1.89306021   0.03801427
5536.00   1.88309741   0.03818922
5538.00   1.84590518   0.03802977
5540.00   1.89816701   0.03849433
5542.00   1.95515633   0.03882804
5544.00   1.91757941   0.03880907
5546.00   1.93415165   0.03902652
5548.00   1.99892986   0.03910771
5550.00   1.90569794   0.03900477
5552.00   2.03982973   0.03957548
5554.00   1.93242931   0.07257392
5556.00   1.98500919   0.07288519
5558.00   2.01521301   0.07378548
5560.00   1.99223232   0.07459676
5562.00   2.01937652   0.07605518
5564.00   2.06408620   0.07832713
5566.00   2.11717629   0.08125505
5568.00   2.16057968   0.08452624
5570.00   2.24685574   0.08861250
5572.00   2.25265861   0.09371439
5574.00   2.17809653   0.09979105
5576.00   2.14089203   0.10582969
5578.00   2.03057861   0.10521084
5580.00   2.13829589   0.10207208
5582.00   2.25287151   0.09611232
5584.00   2.27795124   0.08713233
5586.00   2.28950572   0.07634691
5588.00   2.25985646   0.06918085
5590.00   2.24756646   0.06654292
5592.00   2.28256607   0.06645142
5594.00   2.35893154   0.06674964
5596.00   2.32724690   0.06661064
5598.00   2.27628279   0.06591328
5600.00   2.29997516   0.06549991
5602.00   2.32860970   0.06516758
5604.00   2.29091692   0.06468934
5606.00   2.25057840   0.06427399
5608.00   2.28739953   0.06425301
5610.00   2.35927224   0.06427904
5612.00   2.36943960   0.06407852
5614.00   2.29888129   0.06349977
5616.00   2.30247617   0.06326776
5618.00   2.34067583   0.06303181
5620.00   2.31779861   0.06244745
5622.00   2.29798889   0.06201896
5624.00   2.35917497   0.06177203
5626.00   2.35131216   0.06148480
5628.00   2.32074904   0.06098449
5630.00   2.31510496   0.06052085
5632.00   2.29948831   0.05982606
5634.00   2.30594468   0.05947858
5636.00   2.24979234   0.05895647
5638.00   2.24647641   0.05864739
5640.00   2.27053142   0.05850710
5642.00   2.25541973   0.05810048
5644.00   2.13386345   0.05689948
5646.00   2.10340524   0.05635627
5648.00   2.12769222   0.05619565
5650.00   2.11790156   0.05581659
5652.00   2.04952884   0.05505889
5654.00   1.95804727   0.05427611
5656.00   1.99124992   0.05436583
5658.00   2.01694655   0.05431308
5660.00   2.00571322   0.05402606
5662.00   1.95150983   0.05362687
5664.00   1.87112713   0.05295081
5666.00   1.79017198   0.05272962
5668.00   1.73336852   0.05287498
5670.00   1.74461412   0.05310163
5672.00   1.79538977   0.05264754
5674.00   1.79741061   0.05237997
5676.00   1.76824284   0.05237026
5678.00   1.76295125   0.05257164
5680.00   1.74754775   0.05273581
5682.00   1.71370089   0.05289611
5684.00   1.72272742   0.05313995
5686.00   1.73512733   0.05310641
5688.00   1.72616005   0.05285662
5690.00   1.74174690   0.05255159
5692.00   1.72014987   0.05168134
5694.00   1.70022261   0.05073320
5696.00   1.73011053   0.05004777
5698.00   1.76529396   0.04959053
5700.00   1.77041900   0.04919156
5702.00   1.74621522   0.04853642
5704.00   1.69423640   0.04769093
5706.00   1.68541873   0.04737196
5708.00   1.71748435   0.04740144
5710.00   1.72581625   0.04722338
5712.00   1.72987139   0.04698542
5714.00   1.67260075   0.04658641
5716.00   1.63933051   0.04621373
5718.00   1.64543188   0.04595741
5720.00   1.62516272   0.04559282
5722.00   1.57407868   0.04507719
5724.00   1.57517731   0.04493678
5726.00   1.57659101   0.04476378
5728.00   1.55857503   0.04454799
5730.00   1.59158266   0.04464842
5732.00   1.60070384   0.04439770
5734.00   1.54873049   0.04388443
5736.00   1.52273464   0.04368705
5738.00   1.54636347   0.04383976
5740.00   1.53020763   0.04356676
5742.00   1.51415694   0.04333586
5744.00   1.48410749   0.04318631
5746.00   1.45813024   0.04307949
5748.00   1.43165314   0.04293357
5750.00   1.44735396   0.04281983
5752.00   1.46851492   0.04285336
5754.00   1.47047746   0.04292819
5756.00   1.45940173   0.04294776
5758.00   1.46066034   0.04300814
5760.00   1.48607588   0.04334360
5762.00   1.48051631   0.04351619
5764.00   1.46541059   0.04372496
5766.00   1.46695435   0.04404941
5768.00   1.50032055   0.04438406
5770.00   1.50450754   0.04424851
5772.00   1.47749901   0.04381828
5774.00   1.48112488   0.04341288
5776.00   1.50998914   0.04313203
5778.00   1.52096701   0.04287381
5780.00   1.48643029   0.04272394
5782.00   1.48607337   0.04282693
5784.00   1.51338148   0.04313480
5786.00   1.54091990   0.04359994
5788.00   1.53648031   0.04403736
5790.00   1.53872395   0.04437774
5792.00   1.56299782   0.04452607
5794.00   1.59334624   0.04434581
5796.00   1.60890758   0.04391688
5798.00   1.61836278   0.04352406
5800.00   1.56524003   0.04316774
5802.00   1.57932079   0.04322167
5804.00   1.66315448   0.04359806
5806.00   1.68811381   0.04363475
5808.00   1.66915572   0.04352182
5810.00   1.64889109   0.04326932
5812.00   1.64831364   0.04322990
5814.00   1.67467606   0.04346289
5816.00   1.72348130   0.04373639
5818.00   1.73002231   0.04369622
5820.00   1.74019289   0.04368660
5822.00   1.74900043   0.04371223
5824.00   1.72598839   0.04366741
5826.00   1.72717249   0.04381450
5828.00   1.79557657   0.04410243
5830.00   1.80462945   0.04414458
5832.00   1.76432705   0.04401213
5834.00   1.74649918   0.04404031
5836.00   1.79219866   0.04417450
5838.00   1.81531191   0.04431610
5840.00   1.80707538   0.04428764
5842.00   1.81425428   0.04434861
5844.00   1.83950388   0.04450260
5846.00   1.85153341   0.04452933
5848.00   1.84579003   0.04446194
5850.00   1.86770570   0.04454469
5852.00   1.86698759   0.04458259
5854.00   1.83990896   0.04453972
5856.00   1.86160946   0.04475689
5858.00   1.84231651   0.04488802
5860.00   1.83252668   0.04488631
5862.00   1.86078894   0.04504569
5864.00   1.85504854   0.04525283
5866.00   1.87577784   0.04535246
5868.00   1.88939631   0.04545024
5870.00   1.87999403   0.04545283
5872.00   1.86873531   0.04534344
5874.00   1.87731373   0.04544138
5876.00   1.82974088   0.04538723
5878.00   1.83445823   0.04589033
5880.00   1.87727153   0.04712423
5882.00   1.87566710   0.04897753
5884.00   1.85310066   0.05180508
5886.00   1.80131590   0.05567429
5888.00   1.73989642   0.05930674
5890.00   1.68960702   0.06194828
5892.00   1.68451703   0.06336758
5894.00   1.68149912   0.06349990
5896.00   1.69574642   0.06132971
5898.00   1.73839724   0.05767648
5900.00   1.77717054   0.05371718
5902.00   1.74629724   0.05019921
5904.00   1.76370442   0.04702694
5906.00   1.75324309   0.04486771
5908.00   1.76061881   0.04424454
5910.00   1.78785193   0.04465721
5912.00   1.80719388   0.04480174
5914.00   1.77628231   0.04452200
5916.00   1.76570463   0.04433106
5918.00   1.75355065   0.04424389
5920.00   1.75721943   0.04426977
5922.00   1.76967812   0.04422611
5924.00   1.73566723   0.04397684
5926.00   1.70970643   0.04384771
5928.00   1.73417604   0.04394937
5930.00   1.78559983   0.04425071
5932.00   1.79070282   0.04435913
5934.00   1.77976263   0.04431629
5936.00   1.78613079   0.04419835
5938.00   1.77833116   0.04392706
5940.00   1.74487746   0.04348192
5942.00   1.74618053   0.04339534
5944.00   1.75395334   0.04338628
5946.00   1.75628769   0.04336971
5948.00   1.75377023   0.04330717
5950.00   1.71676981   0.04303531
5952.00   1.66759908   0.04257211
5954.00   1.66984761   0.04229665
5956.00   1.67095852   0.04195500
5958.00   1.62257230   0.04136021
5960.00   1.54206049   0.04061241
5962.00   1.48915577   0.04007593
5964.00   1.49296987   0.04009017
5966.00   1.51826966   0.04039729
5968.00   1.53843057   0.04066565
5970.00   1.58057082   0.04112309
5972.00   1.57073295   0.04133260
5974.00   1.56508410   0.04139099
5976.00   1.56847239   0.04137604
5978.00   1.56870329   0.04135806
5980.00   1.53780425   0.04104596
5982.00   1.52899015   0.04082063
5984.00   1.52569592   0.04076433
5986.00   1.53804672   0.04079876
5988.00   1.51696074   0.04053814
5990.00   1.44855464   0.04017898
5992.00   1.41642320   0.03993138
5994.00   1.42295599   0.03983096
5996.00   1.43566287   0.03978202
5998.00   1.39973819   0.03964689
6000.00   1.37585771   0.03946759
6002.00   1.34983063   0.03916744
6004.00   1.35516322   0.03905383
6006.00   1.38473117   0.03911728
6008.00   1.34733903   0.03878671
6010.00   1.29370749   0.03846053
6012.00   1.29790509   0.03833777
6014.00   1.30176532   0.03822778
6016.00   1.27773702   0.03799373
6018.00   1.20117378   0.03745874
6020.00   1.20709801   0.03738451
6022.00   1.22810149   0.03742811
6024.00   1.22431087   0.03737413
6026.00   1.20810735   0.03728843
6028.00   1.22077370   0.03714849
6030.00   1.16490948   0.03671652
6032.00   1.13587189   0.03654731
6034.00   1.12090206   0.03643565
6036.00   1.08830798   0.03616796
6038.00   1.09834790   0.03616020
6040.00   1.11015463   0.03621916
6042.00   1.09224498   0.03599201
6044.00   1.06449497   0.03565025
6046.00   1.06095278   0.03556486
6048.00   1.06627238   0.03558004
6050.00   1.08125496   0.03560718
6052.00   1.08196437   0.03551160
6054.00   1.06511772   0.03533810
6056.00   1.05751610   0.03525132
6058.00   1.04609179   0.03526435
6060.00   1.03964555   0.03520800
6062.00   1.02980530   0.03505116
6064.00   1.03832006   0.03508933
6066.00   1.05898213   0.03520457
6068.00   1.07019675   0.03517380
6070.00   1.04812777   0.03500479
6072.00   1.02826500   0.03491856
6074.00   1.03272927   0.03490919
6076.00   1.02128327   0.03476747
6078.00   1.01553857   0.03457379
6080.00   1.00895381   0.03447301
6082.00   1.00206220   0.03447280
6084.00   0.99531937   0.03449597
6086.00   1.00257385   0.03443689
6088.00   1.00926828   0.03451963
6090.00   1.01275933   0.03461303
6092.00   1.00683224   0.03453923
6094.00   1.00933266   0.03456013
6096.00   1.00579035   0.03458894
6098.00   1.01108110   0.03480423
6100.00   1.01136005   0.03491870
6102.00   0.99006444   0.03486419
6104.00   0.96276784   0.03491689
6106.00   0.98027009   0.03529049
6108.00   0.98416167   0.03561781
6110.00   0.98356390   0.03591304
6112.00   0.97541493   0.03610852
6114.00   0.97213143   0.03621119
6116.00   0.96018571   0.03585565
6118.00   0.96837902   0.03551826
6120.00   0.97734267   0.03519251
6122.00   0.97918826   0.03495999
6124.00   0.95491868   0.03452738
6126.00   0.93876553   0.03421375
6128.00   0.94640976   0.03413408
6130.00   0.96289116   0.03420262
6132.00   0.94897050   0.03406135
6134.00   0.93222648   0.03386365
6136.00   0.93648678   0.03389947
6138.00   0.95154589   0.03410943
6140.00   0.97035503   0.03429875
6142.00   0.96426946   0.03415233
6144.00   0.97857243   0.03411320
6146.00   1.00086820   0.03427800
6148.00   1.00839150   0.03438086
6150.00   0.99533480   0.03444391
6152.00   0.99929047   0.03460469
6154.00   0.99389046   0.03465163
6156.00   1.02485299   0.03485192
6158.00   1.05128467   0.03504825
6160.00   1.03787744   0.03507040
6162.00   1.03145015   0.03482986
6164.00   1.04562628   0.03466373
6166.00   1.04008198   0.03441399
6168.00   1.02433145   0.03419468
6170.00   1.02309668   0.03400224
6172.00   1.05873108   0.03417400
6174.00   1.05292737   0.03405550
6176.00   1.04931843   0.03396413
6178.00   1.06836641   0.03406774
6180.00   1.09748590   0.03426035
6182.00   1.08836544   0.03423015
6184.00   1.09174883   0.03429816
6186.00   1.09331095   0.03430552
6188.00   1.09570968   0.03419824
6190.00   1.10131490   0.03404261
6192.00   1.10953057   0.03417251
6194.00   1.13531816   0.03439018
6196.00   1.15695786   0.03449769
6198.00   1.14793634   0.03443961
6200.00   1.13089526   0.03435184
6202.00   1.13570344   0.03443236
6204.00   1.15296316   0.03463371
6206.00   1.17265952   0.03485717
6208.00   1.19181061   0.03500801
6210.00   1.21072948   0.03517721
6212.00   1.23354924   0.03533891
6214.00   1.24724162   0.03538505
6216.00   1.24460423   0.03535092
6218.00   1.25555789   0.03542333
6220.00   1.30708253   0.03566261
6222.00   1.32079339   0.03574785
6224.00   1.32365978   0.03582567
6226.00   1.34542453   0.03596877
6228.00   1.38184011   0.03612148
6230.00   1.40463459   0.03633061
6232.00   1.40088701   0.03647855
6234.00   1.39989936   0.03666564
6236.00   1.40925539   0.03690083
6238.00   1.41760552   0.03698851
6240.00   1.43838608   0.03706620
6242.00   1.43803442   0.03692679
6244.00   1.42692101   0.03668302
6246.00   1.42152250   0.03645391
6248.00   1.43291748   0.03638842
6250.00   1.46993244   0.03680225
6252.00   1.47354496   0.03695418
6254.00   1.43387890   0.03683290
6256.00   1.41320956   0.03690478
6258.00   1.42161357   0.03690455
6260.00   1.46187937   0.03707073
6262.00   1.45527470   0.03692593
6264.00   1.42909956   0.03658764
6266.00   1.43137884   0.03639939
6268.00   1.44534588   0.03645420
6270.00   1.47524416   0.03662188
6272.00   1.45425308   0.03655677
6274.00   1.40190649   0.03638497
6276.00   1.38140047   0.03638478
6278.00   1.36485434   0.03645280
6280.00   1.34037626   0.03623677
6282.00   1.32435405   0.03592638
6284.00   1.30218506   0.03554606
6286.00   1.29787862   0.03538602
6288.00   1.27378738   0.03513725
6290.00   1.26362407   0.03519860
6292.00   1.25873625   0.03533827
6294.00   1.27914250   0.03556611
6296.00   1.27456796   0.03594696
6298.00   1.23691666   0.03592768
6300.00   1.21021724   0.03584448
6302.00   1.20433509   0.03582370
6304.00   1.20378625   0.03571653
6306.00   1.18986654   0.03527844
6308.00   1.16320765   0.03474838
6310.00   1.14586699   0.03425623
6312.00   1.12881649   0.03385052
6314.00   1.12634242   0.03368679
6316.00   1.11157286   0.03328814
6318.00   1.09659636   0.03290567
6320.00   1.07514155   0.03256167
6322.00   1.05350554   0.03237570
6324.00   1.05072510   0.03244914
6326.00   1.05030096   0.03258305
6328.00   1.04004157   0.03261228
6330.00   1.03712988   0.03253604
6332.00   1.04596937   0.03240579
6334.00   1.05081427   0.03215235
6336.00   1.02661610   0.03190854
6338.00   1.00408256   0.03180532
6340.00   0.99558419   0.03180837
6342.00   1.00218070   0.03179775
6344.00   1.00398779   0.03166459
6346.00   0.97787619   0.03160879
6348.00   0.96849698   0.03163979
6350.00   0.97612160   0.03166774
6352.00   0.97585434   0.03150567
6354.00   0.94242191   0.03113839
6356.00   0.96165866   0.03127090
6358.00   0.98747587   0.03159497
6360.00   0.99347991   0.03168045
6362.00   0.97282726   0.03147374
6364.00   0.97732908   0.03148427
6366.00   0.99208778   0.03157747
6368.00   1.01579869   0.03164946
6370.00   1.03464580   0.03158061
6372.00   1.01116502   0.03129062
6374.00   0.98790264   0.03122078
6376.00   0.98061913   0.03128229
6378.00   1.00420630   0.03134326
6380.00   1.03580010   0.03141578
6382.00   1.00846922   0.03139108
6384.00   1.00624180   0.03136823
6386.00   0.99706674   0.03129202
6388.00   1.02468729   0.03141626
6390.00   1.06183147   0.03160150
6392.00   1.01881504   0.03132327
6394.00   1.03401530   0.03133522
6396.00   1.05861294   0.03149323
6398.00   1.04949033   0.03154536
6400.00   1.04049265   0.03155083
6402.00   1.07220471   0.03176923
6404.00   1.09718382   0.03188211
6406.00   1.11819589   0.03199020
6408.00   1.12334430   0.03201558
6410.00   1.10953128   0.03197412
6412.00   1.12418020   0.03207133
6414.00   1.10697460   0.03197108
6416.00   1.11115217   0.03201225
6418.00   1.14600646   0.03225403
6420.00   1.18707716   0.03247599
6422.00   1.20929015   0.03261505
6424.00   1.22218370   0.03267568
6426.00   1.23569763   0.03271309
6428.00   1.24578381   0.03278681
6430.00   1.26908910   0.03304442
6432.00   1.27843213   0.03298743
6434.00   1.29222667   0.03305318
6436.00   1.31528676   0.03329458
6438.00   1.32092559   0.03341732
6440.00   1.34086359   0.03352477
6442.00   1.35079515   0.03366099
6444.00   1.36776161   0.03385310
6446.00   1.39177454   0.03407686
6448.00   1.40326452   0.03421606
6450.00   1.38920629   0.03419572
6452.00   1.41399157   0.03438134
6454.00   1.46055877   0.03469197
6456.00   1.49868238   0.03491540
6458.00   1.48437786   0.03486166
6460.00   1.49385178   0.03493476
6462.00   1.52639198   0.03525349
6464.00   1.54546583   0.03546672
6466.00   1.54786074   0.03552279
6468.00   1.59705925   0.03578478
6470.00   1.63924181   0.03595215
6472.00   1.63611090   0.03579470
6474.00   1.62307215   0.03564846
6476.00   1.64165246   0.03580631
6478.00   1.68223178   0.03603466
6480.00   1.68742514   0.03608054
6482.00   1.69636261   0.03614202
6484.00   1.72718203   0.03622856
6486.00   1.75828743   0.03625413
6488.00   1.78542507   0.03636500
6490.00   1.81122792   0.03654040
6492.00   1.81635892   0.03672810
6494.00   1.80035055   0.03688779
6496.00   1.80736685   0.03710447
6498.00   1.87694311   0.03749787
6500.00   1.88844061   0.03764923
6502.00   1.86497438   0.03761030
6504.00   1.86508214   0.03762693
6506.00   1.88713586   0.03763680
6508.00   1.92992175   0.03776987
6510.00   1.93444204   0.03772381
6512.00   1.94559896   0.03765495
6514.00   1.95528984   0.03755889
6516.00   1.94314766   0.03746772
6518.00   1.94278395   0.03745398
6520.00   1.96642017   0.03761761
6522.00   1.99121249   0.03777950
6524.00   2.00048327   0.03786216
6526.00   2.02089667   0.03806172
6528.00   2.04905105   0.03815495
6530.00   2.02056384   0.03813496
6532.00   2.00329423   0.03812455
6534.00   2.07143807   0.03836567
6536.00   2.08832765   0.03845122
6538.00   2.09641647   0.03851977
6540.00   2.11000514   0.03852152
6542.00   2.10592389   0.03847095
6544.00   2.08728027   0.03845846
6546.00   2.13400578   0.03867471
6548.00   2.14473033   0.03882449
6550.00   2.15417099   0.04057353
#6552.00   2.22525358   0.03860553
#6554.00   2.33874011   0.03878531
#6556.00   2.22984767   0.03887674
6558.00   2.18945599   0.03901733
6560.00   2.20960164   0.03901675
6562.00   2.22207332   0.04187636
#6564.00   2.17816424   0.04173084
#6566.00   2.07041812   0.04019102
#6568.00   2.03847313   0.03960757
#6570.00   2.13265610   0.03916053
6572.00   2.23282218   0.03881039
6574.00   2.21336913   0.03884038
6576.00   2.19907904   0.03890975
6578.00   2.21097493   0.03892503
6580.00   2.20793056   0.03889804
6582.00   2.19416451   0.03894313
6584.00   2.21137738   0.03895970
6586.00   2.22906232   0.03891211
6588.00   2.21887374   0.03887029
6590.00   2.20195508   0.03881817
6592.00   2.20953131   0.03873585
6594.00   2.22708130   0.03883114
6596.00   2.24504089   0.03900432
6598.00   2.22034621   0.03891815
6600.00   2.18579030   0.03869272
6602.00   2.20582724   0.03868806
6604.00   2.22250032   0.03883402
6606.00   2.23058748   0.03894442
6608.00   2.23089695   0.03888858
6610.00   2.22585368   0.03870135
6612.00   2.21567750   0.03858913
6614.00   2.18122625   0.03848665
6616.00   2.18335700   0.03850648
6618.00   2.21379352   0.03865479
6620.00   2.23197269   0.03880759
6622.00   2.21536398   0.03877652
6624.00   2.19004035   0.03865686
6626.00   2.17393947   0.03857245
6628.00   2.15608430   0.03850270
6630.00   2.15643334   0.03857431
6632.00   2.16592741   0.03881233
6634.00   2.22145247   0.03935420
6636.00   2.25201344   0.04013613
6638.00   2.21117592   0.04072786
6640.00   2.06091976   0.04031331
6642.00   1.93755817   0.03971087
6644.00   1.86543274   0.03920272
6646.00   1.85447800   0.03881105
6648.00   1.90014541   0.03850191
6650.00   1.97481263   0.03804661
6652.00   2.02692389   0.03782851
6654.00   2.05583835   0.03794840
6656.00   2.05892634   0.03814215
6658.00   2.05019355   0.03822494
6660.00   2.03927350   0.03830073
6662.00   1.99317586   0.03815495
6664.00   1.96630132   0.03802389
6666.00   1.95808411   0.03783129
6668.00   1.94418418   0.03744995
6670.00   1.92883027   0.03698994
6672.00   1.95579350   0.03675325
6674.00   1.96122217   0.03668086
6676.00   1.94759142   0.03657966
6678.00   1.94564342   0.03647136
6680.00   1.94562531   0.03637192
6682.00   1.91647494   0.03620221
6684.00   1.90368640   0.03607681
6686.00   1.90752399   0.03601323
6688.00   1.88786924   0.03590414
6690.00   1.87210083   0.03578309
6692.00   1.81776011   0.03547236
6694.00   1.78407824   0.03529820
6696.00   1.78649390   0.03529668
6698.00   1.78842926   0.03530682
6700.00   1.76140797   0.03515570
6702.00   1.76539981   0.03522978
6704.00   1.77031100   0.03533183
6706.00   1.74322355   0.03515823
6708.00   1.71307075   0.03501957
6710.00   1.71532023   0.03503430
6712.00   1.70523679   0.03482686
6714.00   1.67937672   0.03452313
6716.00   1.65913296   0.03437067
6718.00   1.66848707   0.03432787
6720.00   1.64936829   0.03424994
6722.00   1.62631750   0.03409133
6724.00   1.61586666   0.03396057
6726.00   1.61640871   0.03391964
6728.00   1.57556629   0.03368590
6730.00   1.55821180   0.03343477
6732.00   1.55890691   0.03336277
6734.00   1.55823565   0.03341993
6736.00   1.52840269   0.03322638
6738.00   1.51940620   0.03307408
6740.00   1.51868784   0.03297219
6742.00   1.52384698   0.03305391
6744.00   1.52067149   0.03310278
6746.00   1.51560628   0.03288761
6748.00   1.49688721   0.03268744
6750.00   1.46337187   0.03246360
6752.00   1.44231844   0.03237302
6754.00   1.43892610   0.03233876
6756.00   1.41325474   0.03219672
6758.00   1.38731062   0.03202239
6760.00   1.39382303   0.03199556
6762.00   1.40727293   0.03196192
6764.00   1.38454926   0.03181948
6766.00   1.36826026   0.03174289
6768.00   1.34462261   0.03157135
6770.00   1.31763732   0.03140093
6772.00   1.30892503   0.03128116
6774.00   1.30505526   0.03115027
6776.00   1.30315769   0.03115019
6778.00   1.29138267   0.03106155
6780.00   1.28141189   0.03095600
6782.00   1.27937615   0.03088513
6784.00   1.25627673   0.03069659
6786.00   1.24990654   0.03051548
6788.00   1.23445261   0.03043995
6790.00   1.21208894   0.03042074
6792.00   1.19736564   0.03038788
6794.00   1.20252526   0.03026764
6796.00   1.18857002   0.03027243
6798.00   1.16112506   0.03016023
6800.00   1.13829887   0.03002118
6802.00   1.13174295   0.02990540
6804.00   1.13787770   0.02982315
6806.00   1.11343813   0.02956710
6808.00   1.11820650   0.02952399
6810.00   1.13220060   0.02963289
6812.00   1.12268245   0.02966700
6814.00   1.06635439   0.02927714
6816.00   1.05225801   0.02916299
6818.00   1.05626523   0.02907913
6820.00   1.05694723   0.02897769
6822.00   1.04087198   0.02893671
6824.00   1.04578507   0.02919764
6826.00   1.06122410   0.02955576
6828.00   1.06853378   0.02980656
6830.00   1.05898440   0.02990626
6832.00   1.03328609   0.02991442
6834.00   1.05128050   0.02983484
6836.00   1.06294191   0.02967957
6838.00   1.03958213   0.02932315
6840.00   1.01152182   0.02894873
6842.00   1.03197229   0.02889957
6844.00   1.03501153   0.02879593
6846.00   1.00988400   0.02853865
6848.00   0.98265451   0.02830976
6850.00   0.98487788   0.02833127
6852.00   0.99316436   0.02859132
6854.00   0.98418373   0.02838275
6856.00   0.97416657   0.02818242
6858.00   0.98490334   0.02833948
6860.00   0.98790091   0.02865517
6862.00   0.99254322   0.02897843
6864.00   0.98537922   0.02979962
6866.00   0.99213737   0.03146259
6868.00   0.96814680   0.03300525
6870.00   0.89995694   0.03349562
6872.00   0.89508677   0.03319276
6874.00   0.92379922   0.03257928
6876.00   0.93256330   0.03154085
6878.00   0.92738563   0.03039817
6880.00   0.93639261   0.02958619
6882.00   0.93842053   0.02910791
6884.00   0.93800920   0.02916488
6886.00   0.93335742   0.02961643
6888.00   0.91927433   0.03002166
6890.00   0.92098027   0.03004507
6892.00   0.92935854   0.02994668
6894.00   0.91689378   0.02977535
6896.00   0.90109509   0.02949764
6898.00   0.90275854   0.02923832
6900.00   0.90958691   0.02911694
6902.00   0.91337037   0.02914317
6904.00   0.90255880   0.02891575
6906.00   0.89193064   0.02866278
6908.00   0.90287495   0.02866825
6910.00   0.90937251   0.02873137
6912.00   0.90842742   0.02862051
6914.00   0.89305133   0.02842689
6916.00   0.88831717   0.02827860
6918.00   0.91131848   0.02821094
6920.00   0.91903263   0.02828238
6922.00   0.89224046   0.02812567
6924.00   0.88581109   0.02808218
6926.00   0.90002257   0.02813739
6928.00   0.90767795   0.02811963
6930.00   0.90264386   0.02777985
6932.00   0.90569258   0.02759072
6934.00   0.90658551   0.02761843
6936.00   0.91459054   0.02783961
6938.00   0.92413419   0.02799306
6940.00   0.91378003   0.02796206
6942.00   0.88032532   0.02772647
6944.00   0.87064821   0.02771495
6946.00   0.89554256   0.02806007
6948.00   0.91482925   0.02833310
6950.00   0.91846418   0.02834877
6952.00   0.90444773   0.02815498
6954.00   0.88000005   0.02784476
6956.00   0.88085103   0.02762989
6958.00   0.88749152   0.02737686
6960.00   0.88290483   0.02715852
6962.00   0.88215941   0.02706425
6964.00   0.89066988   0.02716917
6966.00   0.88114566   0.02732243
6968.00   0.88133591   0.02741739
6970.00   0.89179975   0.02736150
6972.00   0.88268310   0.02727523
6974.00   0.86245948   0.02730540
6976.00   0.85310000   0.02746249
6978.00   0.85312754   0.02746527
6980.00   0.85341740   0.02735921
6982.00   0.85727453   0.02725805
6984.00   0.86296707   0.02720577
6986.00   0.88410950   0.02737863
6988.00   0.87508756   0.02732507
6990.00   0.86642170   0.02725477
6992.00   0.85857201   0.02711222
6994.00   0.84437066   0.02690199
6996.00   0.83864123   0.02674709
6998.00   0.84327346   0.02687888
7000.00   0.85333580   0.02696597
7002.00   0.84823078   0.02693990
7004.00   0.84228230   0.02692235
7006.00   0.82292080   0.02694914
7008.00   0.83716917   0.02698604
7010.00   0.85830164   0.02706432
7012.00   0.86404973   0.02703411
7014.00   0.84323996   0.02683984
7016.00   0.83185077   0.02682704
7018.00   0.82464665   0.02664898
7020.00   0.81766301   0.02639602
7022.00   0.82997078   0.02637517
7024.00   0.84850621   0.02666615
7026.00   0.82013774   0.02658055
7028.00   0.81050473   0.02649085
7030.00   0.82849735   0.02649168
7032.00   0.85231358   0.02656792
7034.00   0.81795621   0.02633411
7036.00   0.81219912   0.02637419
7038.00   0.80865192   0.02639909
7040.00   0.80446357   0.02637340
7042.00   0.77916104   0.02618741
7044.00   0.78484076   0.02624917
7046.00   0.78516847   0.02645230
7048.00   0.77914304   0.02653708
7050.00   0.77603644   0.02655406
7052.00   0.77216321   0.02647555
7054.00   0.75452477   0.02615644
7056.00   0.75603575   0.02592619
7058.00   0.76595336   0.02591830
7060.00   0.77108544   0.02598537
7062.00   0.76354474   0.02600266
7064.00   0.76218218   0.02595212
7066.00   0.76070040   0.02595848
7068.00   0.75170618   0.02590132
7070.00   0.73903131   0.02584515
7072.00   0.70450383   0.02564165
7074.00   0.72190690   0.02575565
7076.00   0.72293490   0.02576813
7078.00   0.71883780   0.02569271
7080.00   0.71815330   0.02560759
7082.00   0.72672302   0.02561907
7084.00   0.72542781   0.02566198
7086.00   0.71347737   0.02557887
7088.00   0.71574026   0.02556832
7090.00   0.73074418   0.02568129
7092.00   0.71093965   0.02553972
7094.00   0.68437511   0.02527651
7096.00   0.68130463   0.02518144
7098.00   0.69107598   0.02516338
7100.00   0.70199704   0.02522357
7102.00   0.68137741   0.02508535
7104.00   0.67450124   0.02500711
7106.00   0.68459934   0.02499709
7108.00   0.68713719   0.02499020
7110.00   0.68229890   0.02495251
7112.00   0.69046289   0.02507377
7114.00   0.67436361   0.02497160
7116.00   0.68015796   0.02510137
7118.00   0.70750386   0.02537990
7120.00   0.69081956   0.02504773
7122.00   0.65488833   0.02492880
7124.00   0.65065426   0.02507429
7126.00   0.65938979   0.02519769
7128.00   0.64915973   0.02505631
7130.00   0.65247387   0.02499164
7132.00   0.66180962   0.02508124
7134.00   0.66798764   0.02514259
7136.00   0.66600078   0.02511427
7138.00   0.67118096   0.02513942
7140.00   0.67422104   0.02521863
7142.00   0.68120962   0.02530851
7144.00   0.68981093   0.02532353
7146.00   0.70576549   0.02528702
7148.00   0.68744344   0.02508710
7150.00   0.69798726   0.02507668
7152.00   0.68883586   0.02511440
7154.00   0.68357205   0.02509884
7156.00   0.68981510   0.02505404
7158.00   0.69371814   0.02503826
7160.00   0.69912148   0.02504621
7162.00   0.70421320   0.02514619
7164.00   0.70209628   0.02516115
7166.00   0.70663023   0.02525664
7168.00   0.71461844   0.02559944
7170.00   0.71109277   0.02590320
7172.00   0.68996984   0.02599779
7174.00   0.68283397   0.02601925
7176.00   0.71270162   0.02620319
7178.00   0.72073537   0.02613663
7180.00   0.76131439   0.02637043
7182.00   0.76328844   0.02648251
7184.00   0.73429960   0.02655330
7186.00   0.71434051   0.02666809
7188.00   0.72217959   0.02666245
7190.00   0.74468118   0.02670827
7192.00   0.74115896   0.02670779
7194.00   0.74371010   0.02670579
7196.00   0.76979262   0.02677895
7198.00   0.76303953   0.02688263
7200.00   0.77161765   0.02691000
7202.00   0.77422029   0.02686863
7204.00   0.78265548   0.02688485
7206.00   0.81030387   0.02699855
7208.00   0.81917018   0.02662736
7210.00   0.80009294   0.02628035
7212.00   0.80037469   0.02611552
7214.00   0.81493998   0.02605642
7216.00   0.82533854   0.02604828
7218.00   0.84017318   0.02613279
7220.00   0.83085918   0.02616978
7222.00   0.82877177   0.02628673
7224.00   0.83827370   0.02654337
7226.00   0.84741187   0.02668536
7228.00   0.85642308   0.02680932
7230.00   0.85907060   0.02704654
7232.00   0.87466687   0.02756608
7234.00   0.89172524   0.02834995
7236.00   0.89538044   0.02925513
7238.00   0.92959577   0.03007723
7240.00   0.94991809   0.03092707
7242.00   0.94191647   0.03153811
7244.00   0.91949815   0.03154808
7246.00   0.95517272   0.03099087
7248.00   0.97706312   0.03034052
7250.00   0.98257160   0.02986184
7252.00   0.98281938   0.02955079
7254.00   0.97009391   0.02908237
7256.00   0.95880908   0.02874266
7258.00   0.97790557   0.02864948
7260.00   0.99783391   0.02862425
7262.00   1.00780594   0.02856227
7264.00   1.00940764   0.02869107
7266.00   1.03887057   0.02881518
7268.00   1.03273237   0.02885750
7270.00   1.02654707   0.02933401
7272.00   1.06143653   0.03045105
7274.00   1.07906365   0.03148726
7276.00   1.05580318   0.03178172
7278.00   1.03664231   0.03163099
7280.00   1.03470218   0.03128662
7282.00   1.05470276   0.03081498
7284.00   1.04647017   0.02978135
7286.00   1.05489123   0.02986572
7288.00   1.06013429   0.03010804
7290.00   1.05886030   0.02994840
7292.00   1.06274736   0.02951947
7294.00   1.07530153   0.02936025
7296.00   1.06016541   0.02918290
7298.00   1.06647050   0.02928126
7300.00   1.07336211   0.02954038
7302.00   1.04014051   0.02958060
7304.00   1.02910590   0.02944259
7306.00   1.04504228   0.02923869
7308.00   1.05803776   0.02920245
7310.00   1.05941486   0.02943713
7312.00   1.04299009   0.02995638
7314.00   1.04504573   0.03020425
7316.00   1.04489553   0.03030984
7318.00   1.02218521   0.03011305
7320.00   1.01163065   0.02973449
7322.00   1.05323637   0.02937588
7324.00   1.03200614   0.02900298
7326.00   1.01189327   0.02886061
7328.00   1.01807833   0.02887406
7330.00   1.02769387   0.02901586
7332.00   1.00692713   0.02890068
7334.00   1.00166702   0.02878858
7336.00   0.99887800   0.02912780
7338.00   1.00433838   0.02968107
7340.00   1.00685883   0.02979495
7342.00   0.99572641   0.02972216
7344.00   0.99939984   0.02977387
7346.00   1.00150979   0.02943005
7348.00   0.99479908   0.02867918
7350.00   1.00752258   0.02826906
7352.00   1.00593412   0.02823807
7354.00   1.01600301   0.02855776
7356.00   1.02890408   0.02893419
7358.00   1.01497805   0.02898576
7360.00   0.99636716   0.02880286
7362.00   0.99676567   0.02885897
7364.00   1.00217843   0.02919422
7366.00   1.01084960   0.02953517
7368.00   1.00870478   0.02960063
7370.00   0.98499316   0.02939571
7372.00   1.00655961   0.02937134
7374.00   1.00975430   0.02897931
7376.00   1.01029718   0.02844351
7378.00   1.01714921   0.02809748
7380.00   1.00403166   0.02799433
7382.00   1.01222456   0.02806505
7384.00   1.02689803   0.02825444
7386.00   1.04433739   0.02855243
7388.00   1.05386603   0.02894906
7390.00   1.04257941   0.02892963
7392.00   1.02834105   0.02873751
7394.00   1.03783643   0.02873340
7396.00   1.05994093   0.02899411
7398.00   1.06710124   0.02935072
7400.00   1.05342019   0.02949796
7402.00   1.06980753   0.02951854
7404.00   1.10478771   0.02962922
7406.00   1.11545885   0.02971821
7408.00   1.10390770   0.02934614
7410.00   1.08516037   0.02881962
7412.00   1.09381580   0.02869562
7414.00   1.10499012   0.02878042
7416.00   1.10151994   0.02872184
7418.00   1.08873856   0.02865119
7420.00   1.10868371   0.02874038
7422.00   1.11481249   0.02887671
7424.00   1.08940029   0.02892882
7426.00   1.08875763   0.02905537
7428.00   1.12381828   0.02927852
7430.00   1.15825939   0.02947238
7432.00   1.17465115   0.02969507
7434.00   1.18412971   0.02992563
7436.00   1.16988850   0.02995375
7438.00   1.16165280   0.02991444
7440.00   1.17192113   0.02990220
7442.00   1.19058645   0.02988066
7444.00   1.21243656   0.02980287
7446.00   1.22070110   0.02962845
7448.00   1.23697901   0.02963313
7450.00   1.23599958   0.02965530
7452.00   1.23812377   0.02969260
7454.00   1.24676418   0.02974576
7456.00   1.25565779   0.02992270
7458.00   1.27006257   0.03015923
7460.00   1.27128553   0.03029734
7462.00   1.26590455   0.03032153
7464.00   1.28302824   0.03049672
7466.00   1.30677831   0.03076053
7468.00   1.30813408   0.03090842
7470.00   1.31327212   0.03095684
7472.00   1.32791960   0.03100968
7474.00   1.33332312   0.03104567
7476.00   1.31755292   0.03114226
7478.00   1.32309270   0.03121586
7480.00   1.34075594   0.03128396
7482.00   1.35912263   0.03134647
7484.00   1.36391115   0.03140311
7486.00   1.34837162   0.03110197
7488.00   1.34463274   0.03090888
7490.00   1.34320450   0.03079717
7492.00   1.34246862   0.03073751
7494.00   1.34580004   0.03076170
7496.00   1.37083089   0.03093882
7498.00   1.37717783   0.03093565
7500.00   1.34860170   0.03069983
7502.00   1.30759263   0.03040412
7504.00   1.32574224   0.03042896
7506.00   1.34268665   0.03049126
7508.00   1.35161686   0.03055689
7510.00   1.35991013   0.03063997
7512.00   1.35093963   0.03065931
7514.00   1.30966413   0.03054217
7516.00   1.31797493   0.03061529
7518.00   1.32960320   0.03090739
7520.00   1.32544434   0.03122633
7522.00   1.32164037   0.03147973
7524.00   1.32888281   0.03161475
7526.00   1.33130324   0.03162419
7528.00   1.31872833   0.03139084
7530.00   1.28646350   0.03090597
7532.00   1.24914598   0.03041005
7534.00   1.24500847   0.03024624
7536.00   1.25404298   0.03018437
7538.00   1.25897825   0.03006149
7540.00   1.24532616   0.02988793
7542.00   1.21249664   0.02975927
7544.00   1.21606052   0.02982605
7546.00   1.21276462   0.02976124
7548.00   1.19407642   0.02959170
7550.00   1.17666817   0.02948750
7552.00   1.17351973   0.02952979
7554.00   1.16424167   0.02946926
7556.00   1.16732860   0.02944503
7558.00   1.17259407   0.02943764
7560.00   1.16709673   0.02938309
7562.00   1.13907373   0.02937554
7564.00   1.10245097   0.02925675
7566.00   1.09035146   0.02923320
7568.00   1.10353327   0.02938594
7570.00   1.10573566   0.02954846
7572.00   1.10244381   0.02947028
7574.00   1.09005153   0.02932731
7576.00   1.07083976   0.02918906
7578.00   1.06098521   0.02907752
7580.00   1.05714381   0.02880916
7582.00   1.04771423   0.02867525
7584.00   1.05150020   0.02882230
7586.00   1.05539119   0.02889240
7588.00   1.03917992   0.02870471
7590.00   1.03427804   0.02901149
7592.00   1.06007040   0.03100239
7594.00   1.03264558   0.03442867
7596.00   0.97459334   0.03911747
7598.00   0.95112151   0.04500454
7600.00   0.97742337   0.05188541
7602.00   0.96104032   0.05777837
7604.00   0.96020150   0.06105934
7606.00   0.94057894   0.06111342
7608.00   0.85982466   0.05779199
7610.00   0.89231867   0.05322017
7612.00   0.94801807   0.04782956
7614.00   0.99038076   0.04208514
7616.00   1.02469099   0.03726837
7618.00   1.04555738   0.03475636
7620.00   1.02697861   0.03468354
7622.00   0.99397880   0.03605533
7624.00   0.96733218   0.03819516
7626.00   0.96829146   0.04034428
7628.00   0.99219364   0.04170345
7630.00   1.01079690   0.04216814
7632.00   1.00892937   0.04172536
7634.00   0.99207258   0.04075898
7636.00   0.98695594   0.03970899
7638.00   1.00253737   0.03894769
7640.00   1.03705955   0.03823822
7642.00   1.04432905   0.03747455
7644.00   1.04535782   0.03677228
7646.00   1.04716957   0.03618928
7648.00   1.04795921   0.03571833
7650.00   1.06181431   0.03497919
7652.00   1.08931589   0.03471288
7654.00   1.09225547   0.03441266
7656.00   1.10005867   0.03389046
7658.00   1.13984537   0.03383455
7660.00   1.12745988   0.03315413
7662.00   1.12670267   0.03260477
7664.00   1.14419758   0.03243214
7666.00   1.13398123   0.03210585
7668.00   1.10945237   0.03133832
7670.00   1.14060473   0.03109980
7672.00   1.17763364   0.03098595
7674.00   1.17511058   0.03070856
7676.00   1.18084800   0.03059010
7678.00   1.18689620   0.03047286
7680.00   1.19856226   0.03048662
7682.00   1.20088160   0.03048752
7684.00   1.17935193   0.03031748
7686.00   1.19996297   0.03037655
7688.00   1.21253693   0.03055068
7690.00   1.22801054   0.03074546
7692.00   1.24363685   0.03094214
7694.00   1.25123513   0.03099210
7696.00   1.24720716   0.03099067
7698.00   1.26537120   0.03105150
7700.00   1.26022482   0.03090998
7702.00   1.24825823   0.03070503
7704.00   1.25836742   0.03075497
7706.00   1.25415671   0.03091166
7708.00   1.26851332   0.03166976
7710.00   1.26824558   0.03257576
7712.00   1.28088689   0.03357805
7714.00   1.31006253   0.03449072
7716.00   1.29409838   0.03445237
7718.00   1.31193328   0.03404975
7720.00   1.35145187   0.03359291
7722.00   1.36123621   0.03295079
7724.00   1.31571925   0.03198005
7726.00   1.32134163   0.03159146
7728.00   1.36480331   0.03163199
7730.00   1.37606478   0.03170802
7732.00   1.34885883   0.03153841
7734.00   1.33875716   0.03129350
7736.00   1.38299119   0.03136058
7738.00   1.41185319   0.03153013
7740.00   1.42053223   0.03168955
7742.00   1.43551064   0.03184189
7744.00   1.41471684   0.03203967
7746.00   1.43870544   0.03306143
7748.00   1.45101726   0.03387405
7750.00   1.44835699   0.03421886
7752.00   1.43936193   0.03424716
7754.00   1.43472624   0.03411803
7756.00   1.49341106   0.03570498
7758.00   1.41694987   0.03441828
7760.00   1.53009224   0.03249665
7762.00   1.54503798   0.03204519
7764.00   1.54481196   0.03194182
7766.00   1.43658733   0.03397741
7768.00   1.48768663   0.03386048
7770.00   1.48430347   0.03273581
7772.00   1.50986576   0.03248000
7774.00   1.50034225   0.03288048
7776.00   1.48557889   0.03295523
7778.00   1.47948897   0.03287446
7780.00   1.49183023   0.03279429
7782.00   1.52080154   0.03276752
7784.00   1.55907047   0.03286713
7786.00   1.55698407   0.03285500
7788.00   1.53408527   0.03308986
7790.00   1.52227795   0.03378817
7792.00   1.53679895   0.03434637
7794.00   1.53991234   0.03444936
7796.00   1.52271307   0.03423513
7798.00   1.52676928   0.03380316
7800.00   1.55861104   0.03323787
7802.00   1.56591737   0.03294131
7804.00   1.56571305   0.03323330
7806.00   1.55986774   0.03343574
7808.00   1.55722320   0.03340276
7810.00   1.56064165   0.03348005
7812.00   1.55928648   0.03331540
7814.00   1.55350721   0.03318293
7816.00   1.55211926   0.03359448
7818.00   1.54768038   0.03439485
7820.00   1.56544888   0.03497626
7822.00   1.54056036   0.03496765
7824.00   1.52862883   0.03478738
7826.00   1.54935968   0.03436908
7828.00   1.59973955   0.03372096
7830.00   1.59375906   0.03290109
7832.00   1.57032716   0.03261061
7834.00   1.55711448   0.03270558
7836.00   1.55866206   0.03298154
7838.00   1.53872669   0.03308466
7840.00   1.52972698   0.03315262
7842.00   1.54305553   0.03315797
7844.00   1.54664767   0.03317832
7846.00   1.53400981   0.03333235
7848.00   1.53180397   0.03386294
7850.00   1.53654635   0.03467235
7852.00   1.51657355   0.03498606
7854.00   1.50694513   0.03507950
7856.00   1.51929426   0.03514977
7858.00   1.53623354   0.03503017
7860.00   1.51949596   0.03406168
7862.00   1.50946653   0.03342916
7864.00   1.50566196   0.03316871
7866.00   1.49758399   0.03309573
7868.00   1.49494696   0.03313281
7870.00   1.50143337   0.03330849
7872.00   1.49373138   0.03332170
7874.00   1.49500465   0.03340679
7876.00   1.50670385   0.03356633
7878.00   1.49195862   0.03338735
7880.00   1.46279049   0.03315316
7882.00   1.46246529   0.03318572
7884.00   1.46031630   0.03339886
7886.00   1.46340668   0.03373291
7888.00   1.46244860   0.03393586
7890.00   1.46187913   0.03394658
7892.00   1.43868577   0.03378021
7894.00   1.42030370   0.03334240
7896.00   1.42116296   0.03257307
7898.00   1.44275987   0.03227435
7900.00   1.42865610   0.03203686
7902.00   1.41934776   0.03189285
7904.00   1.43133366   0.03195516
7906.00   1.41398764   0.03206744
7908.00   1.39281642   0.03272726
7910.00   1.39753819   0.03363675
7912.00   1.40147638   0.03410815
7914.00   1.38047183   0.03410470
7916.00   1.32978666   0.03414906
7918.00   1.31465662   0.03402572
7920.00   1.32927096   0.03340575
7922.00   1.35354090   0.03286210
7924.00   1.35483825   0.03266169
7926.00   1.33752477   0.03259299
7928.00   1.32091916   0.03236737
7930.00   1.33957636   0.03235723
7932.00   1.35674059   0.03237342
7934.00   1.33700716   0.03215938
7936.00   1.33175480   0.03178273
7938.00   1.32142162   0.03129550
7940.00   1.30571771   0.03088353
7942.00   1.28722668   0.03080030
7944.00   1.29454172   0.03118789
7946.00   1.27979302   0.03123516
7948.00   1.28970122   0.03124728
7950.00   1.28778708   0.03113244
7952.00   1.25426447   0.03084736
7954.00   1.23485625   0.03070372
7956.00   1.23406374   0.03045990
7958.00   1.23372316   0.03066655
7960.00   1.23072922   0.03134394
7962.00   1.21471119   0.03198077
7964.00   1.21416712   0.03203025
7966.00   1.18772948   0.03178212
7968.00   1.18581045   0.03157660
7970.00   1.20854032   0.03133718
7972.00   1.22072506   0.03091432
7974.00   1.22026336   0.03076559
7976.00   1.20617282   0.03072708
7978.00   1.17845666   0.03067165
7980.00   1.15446055   0.03056263
7982.00   1.14773762   0.03038842
7984.00   1.14699519   0.03019398
7986.00   1.13063872   0.03002294
7988.00   1.13174963   0.03050783
7990.00   1.14337075   0.03128248
7992.00   1.12935221   0.03152504
7994.00   1.13152945   0.03153120
7996.00   1.11818874   0.03140889
7998.00   1.08733118   0.03061699
8000.00   1.06263888   0.02947454
8002.00   1.06364298   0.02895422
8004.00   1.06047571   0.02885585
8006.00   1.05501604   0.02883294
8008.00   1.03901255   0.02889718
8010.00   1.03501880   0.02909174
8012.00   1.03379500   0.02903083
8014.00   1.03566170   0.02918037
8016.00   1.03129768   0.02931794
8018.00   1.03160536   0.02937654
8020.00   1.02958965   0.02949164
8022.00   1.02868319   0.02988847
8024.00   1.00721323   0.03002408
8026.00   0.99760801   0.02997210
8028.00   0.98637933   0.02979650
8030.00   0.97528201   0.02954935
8032.00   0.97806889   0.02899429
8034.00   0.97103268   0.02828039
8036.00   0.94473618   0.02780401
8038.00   0.92622012   0.02768559
8040.00   0.93927312   0.02770963
8042.00   0.93877226   0.02761333
8044.00   0.92614299   0.02760552
8046.00   0.92666501   0.02779004
8048.00   0.93325782   0.02796523
8050.00   0.91537046   0.02782893
8052.00   0.91035295   0.02775368
8054.00   0.90535897   0.02774478
8056.00   0.88741547   0.02773277
8058.00   0.86143994   0.02774788
8060.00   0.85467929   0.02786570
8062.00   0.85443944   0.02794819
8064.00   0.86196882   0.02796018
8066.00   0.86714643   0.02777924
8068.00   0.85596210   0.02732481
8070.00   0.84381622   0.02694452
8072.00   0.84946632   0.02684855
8074.00   0.85539085   0.02687040
8076.00   0.84948921   0.02686100
8078.00   0.84394425   0.02685909
8080.00   0.83799511   0.02690787
8082.00   0.83319169   0.02694882
8084.00   0.81448001   0.02675328
8086.00   0.79025656   0.02647226
8088.00   0.79456073   0.02650250
8090.00   0.81942528   0.02679389
8092.00   0.82292205   0.02670071
8094.00   0.81196052   0.02654236
8096.00   0.79609281   0.02652841
8098.00   0.78589779   0.02661913
8100.00   0.79360467   0.02691834
8102.00   0.80139929   0.02709537
8104.00   0.79705733   0.02710231
8106.00   0.79259747   0.02705167
8108.00   0.80439353   0.02703589
8110.00   0.79608583   0.02686367
8112.00   0.78586286   0.02674225
8114.00   0.77623296   0.02659369
8116.00   0.76499587   0.02632317
8118.00   0.76921177   0.02623495
8120.00   0.78523272   0.02634212
8122.00   0.78209168   0.02639579
8124.00   0.77984667   0.02650025
8126.00   0.79274291   0.02662752
8128.00   0.77133584   0.02652542
8130.00   0.77768540   0.02658893
8132.00   0.79108995   0.02688578
8134.00   0.78765601   0.02709771
8136.00   0.76195115   0.02700217
8138.00   0.74275488   0.02695441
8140.00   0.74215865   0.02684914
8142.00   0.75130075   0.02685080
8144.00   0.75902987   0.02712587
8146.00   0.76883483   0.02728578
8148.00   0.75469995   0.02747877
8150.00   0.75968724   0.02748829
8152.00   0.76743507   0.02734084
8154.00   0.75598496   0.02709053
8156.00   0.74326319   0.02698478
8158.00   0.74822789   0.02702888
8160.00   0.75371736   0.02730410
8162.00   0.75367481   0.02764958
8164.00   0.74616069   0.02768795
8166.00   0.75220376   0.02748384
8168.00   0.74501640   0.02719002
8170.00   0.74277800   0.02693827
8172.00   0.75341696   0.02693712
8174.00   0.76355261   0.02730817
8176.00   0.75853562   0.02807060
8178.00   0.75254250   0.02876339
8180.00   0.75452489   0.02913239
8182.00   0.77121073   0.02923311
8184.00   0.76862997   0.02917706
8186.00   0.77777642   0.02939746
8188.00   0.76966143   0.02938416
8190.00   0.76597911   0.02946745
8192.00   0.76588100   0.02964951
8194.00   0.73540020   0.02950107
8196.00   0.70012146   0.02917961
8198.00   0.70183235   0.02894497
8200.00   0.72520000   0.02860007
8202.00   0.75653964   0.02806430
8204.00   0.75875312   0.02731017
8206.00   0.74896437   0.02679580
8208.00   0.73362511   0.02660747
8210.00   0.72405291   0.02653698
8212.00   0.72730619   0.02645560
8214.00   0.72273999   0.02627285
8216.00   0.72663397   0.02626904
8218.00   0.72545403   0.02624329
8220.00   0.70783502   0.02604934
8222.00   0.66664773   0.02587923
8224.00   0.64553183   0.02635256
8226.00   0.63349575   0.02707418
8228.00   0.63416392   0.02758913
8230.00   0.63377541   0.02755986
8232.00   0.63279313   0.02697686
8234.00   0.61266881   0.02601790
8236.00   0.60788959   0.02538015
8238.00   0.59041476   0.02499211
8240.00   0.55565137   0.02471884
8242.00   0.53116316   0.02447943
8244.00   0.53285134   0.02439536
8246.00   0.51506060   0.02417510
8248.00   0.48880568   0.02381069
8250.00   0.47494832   0.02344454
8252.00   0.46670559   0.02331924
8254.00   0.43853107   0.02334506
8256.00   0.42423019   0.02333577
8258.00   0.41372916   0.02316185
8260.00   0.39701363   0.02292825
8262.00   0.36918941   0.02266928
8264.00   0.37061039   0.02239523
8266.00   0.38108620   0.02221225
8268.00   0.37804648   0.02205463
8270.00   0.34090462   0.02180303
8272.00   0.30309114   0.02200674
8274.00   0.30947343   0.02291839
8276.00   0.31321815   0.02372100
8278.00   0.28295508   0.02418474
8280.00   0.24928729   0.02466655
8282.00   0.25668362   0.02507054
8284.00   0.23124512   0.02530339
8286.00   0.21584956   0.02519155
8288.00   0.21264277   0.02464498
8290.00   0.21257883   0.02421190
8292.00   0.19635940   0.02441601
8294.00   0.17843466   0.02415487
8296.00   0.17547719   0.02377930
8298.00   0.18123217   0.02368206
8300.00   0.18708862   0.02360263
8302.00   0.17440732   0.02292065
8304.00   0.15599029   0.02189761
8306.00   0.16022535   0.02111844
8308.00   0.17258076   0.02088930
8310.00   0.16668600   0.02077664
8312.00   0.16208591   0.02072723
8314.00   0.16337587   0.02065509
8316.00   0.16530685   0.02057667
8318.00   0.15935482   0.02053688
8320.00   0.15947965   0.02053982
8322.00   0.15321104   0.02033623
8324.00   0.15338238   0.02003678
8326.00   0.15665020   0.01982375
8328.00   0.16484240   0.01991780
8330.00   0.17554693   0.01994881
8332.00   0.18626559   0.02009038
8334.00   0.20138502   0.02030546
8336.00   0.23271452   0.02092751
8338.00   0.25756037   0.02246455
8340.00   0.28812650   0.02520297
8342.00   0.32271945   0.02695686
8344.00   0.34805420   0.02755462
8346.00   0.36259553   0.02760198
8348.00   0.37567237   0.02782311
8350.00   0.38627040   0.02653850
8352.00   0.41630051   0.02538816
8354.00   0.44593576   0.02496411
8356.00   0.46956423   0.02500639
8358.00   0.48873019   0.02465680
8360.00   0.48996684   0.02440947
8362.00   0.49202442   0.02434241
8364.00   0.50535518   0.02441413
8366.00   0.53315473   0.02461126
8368.00   0.53271443   0.02454900
8370.00   0.53496534   0.02423816
8372.00   0.53884387   0.02398650
8374.00   0.55548936   0.02411036
8376.00   0.56410456   0.02459058
8378.00   0.55893427   0.02513462
8380.00   0.55811006   0.02544141
8382.00   0.55117935   0.02542420
8384.00   0.53075242   0.02519190
8386.00   0.53107059   0.02492749
8388.00   0.52767283   0.02417560
8390.00   0.51803279   0.02350182
8392.00   0.49595785   0.02370946
8394.00   0.48025861   0.02498841
8396.00   0.47245502   0.02617762
8398.00   0.47670278   0.02657014
8400.00   0.46294460   0.02661047
8402.00   0.44432342   0.02621341
8404.00   0.42843500   0.02497387
8406.00   0.43719253   0.02342310
8408.00   0.44842556   0.02286205
8410.00   0.44694185   0.02312145
8412.00   0.42632589   0.02353320
8414.00   0.41574454   0.02374025
8416.00   0.42352161   0.02381968
8418.00   0.41295743   0.02361011
8420.00   0.39678320   0.02298629
8422.00   0.39653552   0.02259127
8424.00   0.41149184   0.02343288
8426.00   0.38001144   0.02516366
8428.00   0.35662493   0.02612904
8430.00   0.34058854   0.02634251
8432.00   0.33427134   0.02608799
8434.00   0.34009209   0.02532376
8436.00   0.34213719   0.02343344
8438.00   0.34609601   0.02178951
8440.00   0.33884370   0.02097172
8442.00   0.31316316   0.02094709
8444.00   0.33478299   0.02116345
8446.00   0.33750543   0.02155920
8448.00   0.34582111   0.02235024
8450.00   0.35446334   0.02296084
8452.00   0.35158220   0.02289669
8454.00   0.37365827   0.02318265
8456.00   0.39983201   0.02312012
8458.00   0.42326847   0.02321322
8460.00   0.43953672   0.02402005
8462.00   0.44377661   0.02547768
8464.00   0.44537854   0.02596331
8466.00   0.46290049   0.02618913
8468.00   0.49992946   0.02615953
8470.00   0.51859397   0.02551311
8472.00   0.50702649   0.02405533
8474.00   0.52140933   0.02354619
8476.00   0.55791813   0.02352895
8478.00   0.60298830   0.02377016
8480.00   0.62159491   0.02393022
8482.00   0.65249920   0.02412120
8484.00   0.66861671   0.02437792
8486.00   0.68885618   0.02467485
8488.00   0.70394212   0.02513402
8490.00   0.70629835   0.02577200
8492.00   0.73113537   0.02612518
8494.00   0.74898332   0.02631704
8496.00   0.77178550   0.02654978
8498.00   0.77170044   0.02676756
8500.00   0.75861901   0.02708672
8502.00   0.79940659   0.02772201
8504.00   0.83730245   0.02810442
8506.00   0.84431273   0.02818618
8508.00   0.84301394   0.02801248
8510.00   0.84976244   0.02736190
8512.00   0.90475321   0.02695569
8514.00   0.90904373   0.02667116
8516.00   0.90016204   0.02659141
8518.00   0.90550089   0.02667872
8520.00   0.92350864   0.02693347
8522.00   0.93641233   0.02706286
8524.00   0.95878077   0.02713384
8526.00   0.96062708   0.02709653
8528.00   0.95570999   0.02707673
8530.00   0.95728302   0.02701323
8532.00   0.97459269   0.02716640
8534.00   0.97193640   0.02731469
8536.00   0.96995503   0.02747179
8538.00   0.98586231   0.02769262
8540.00   0.98821062   0.02775984
8542.00   0.98392773   0.02790099
8544.00   0.99065548   0.02812237
8546.00   1.00754738   0.02836547
8548.00   1.00732791   0.02845699
8550.00   1.01535881   0.02850342
8552.00   1.01978815   0.02834548
8554.00   1.02254355   0.02806808
8556.00   1.02615297   0.02778921
8558.00   1.04471874   0.02773402
8560.00   1.04705203   0.02772310
8562.00   1.03176928   0.02762033
8564.00   1.02091300   0.02751466
8566.00   1.02266514   0.02751814
8568.00   1.02526343   0.02755381
8570.00   1.01976025   0.02755411
8572.00   1.04020798   0.02768177
8574.00   1.05284476   0.02777139
8576.00   1.04094303   0.02772667
8578.00   1.01984584   0.02760834
8580.00   1.00532663   0.02758879
8582.00   1.00346756   0.02763838
8584.00   1.02060807   0.02776669
8586.00   1.03202879   0.02781645
8588.00   1.03794456   0.02781922
8590.00   1.05067968   0.02795386
8592.00   1.06952822   0.02819260
8594.00   1.07114387   0.02822940
8596.00   1.07584393   0.02810363
8598.00   1.09061539   0.02814081
8600.00   1.08533370   0.02820223
8602.00   1.09511721   0.02827693
8604.00   1.11682594   0.02833953
8606.00   1.10039806   0.02834682
8608.00   1.08787489   0.02864589
8610.00   1.06905365   0.02910224
8612.00   1.07334220   0.02975707
8614.00   1.09020102   0.03054344
8616.00   1.11323249   0.03153995
8618.00   1.12408555   0.03253586
8620.00   1.10695016   0.03346850
8622.00   1.09922075   0.03429327
8624.00   1.11602449   0.03503223
8626.00   1.12198246   0.03557126
8628.00   1.10235822   0.03576934
8630.00   1.10904157   0.03573407
#8632.00   1.15010583   0.03551788
#8634.00   1.21749353   0.03559114
#8636.00   1.17272949   0.03330563
#8638.00   1.15264559   0.03202667
#8640.00   1.09055698   0.03263667
#8642.00   0.99662668   0.03044812
#8644.00   1.04760563   0.03017530
#8646.00   1.08086777   0.03062291
#8648.00   1.08934903   0.03149264
#8650.00   1.09991753   0.03265929
8652.00   1.11171496   0.03384665
8654.00   1.11512959   0.03465321
8656.00   1.09685969   0.03506112
8658.00   1.07304871   0.03520798
8660.00   1.07992256   0.03526702
8662.00   1.10164261   0.03514988
8664.00   1.07686198   0.03484489
8666.00   1.10461366   0.03460262
8668.00   1.13359642   0.03438883
8670.00   1.12637472   0.03394052
8672.00   1.08527434   0.03325258
8674.00   1.08551836   0.03273049
8676.00   1.10956919   0.03238030
8678.00   1.13557267   0.03203503
8680.00   1.14010561   0.03153089
8682.00   1.13694048   0.03092995
8684.00   1.12123621   0.03043618
8686.00   1.12528527   0.03009462
8688.00   1.11676133   0.02975712
8690.00   1.10314286   0.02945482
8692.00   1.11664641   0.02931292
8694.00   1.15111363   0.02923104
8696.00   1.16730547   0.02921469
8698.00   1.15720737   0.02909621
8700.00   1.14244437   0.02892823
8702.00   1.13686037   0.02880954
8704.00   1.16091764   0.02890467
8706.00   1.16262925   0.02881263
8708.00   1.14840043   0.02865175
8710.00   1.14461708   0.02859334
8712.00   1.16175473   0.02864766
8714.00   1.15880454   0.02848343
8716.00   1.15729392   0.02836546
8718.00   1.16545200   0.02842505
8720.00   1.19367921   0.02864186
8722.00   1.17979467   0.02856150
8724.00   1.17931461   0.02857806
8726.00   1.18239653   0.02861326
8728.00   1.18679321   0.02863757
8730.00   1.18091059   0.02863228
8732.00   1.17689478   0.02859626
8734.00   1.18759847   0.02862943
8736.00   1.20156252   0.02875484
8738.00   1.19782782   0.02881815
8740.00   1.19810808   0.02880847
8742.00   1.20327342   0.02882373
8744.00   1.19742095   0.02870768
8746.00   1.19738901   0.02866916
8748.00   1.21395385   0.02877098
8750.00   1.20392811   0.02876409
8752.00   1.20829690   0.02890256
8754.00   1.20146310   0.02947919
8756.00   1.20575023   0.03065128
8758.00   1.23809826   0.03202562
8760.00   1.23325741   0.03268565
8762.00   1.23510754   0.03375283
8764.00   1.24559402   0.03453162
8766.00   1.24128330   0.03430815
8768.00   1.25199044   0.03333304
8770.00   1.26058137   0.03293369
8772.00   1.24930751   0.03294771
8774.00   1.24137795   0.03313012
8776.00   1.25404799   0.03323556
8778.00   1.28606188   0.03318148
8780.00   1.29023874   0.03299786
8782.00   1.24094236   0.03177963
8784.00   1.20534813   0.03037380
8786.00   1.20518911   0.02962658
8788.00   1.22054541   0.02999730
8790.00   1.24465549   0.03034400
8792.00   1.26637983   0.03042013
8794.00   1.26479006   0.03020016
8796.00   1.25745106   0.02977625
8798.00   1.28421581   0.02941802
8800.00   1.30468643   0.02957616
8802.00   1.28763545   0.02948732
8804.00   1.27259493   0.02933638
8806.00   1.27324998   0.02935181
8808.00   1.24895680   0.02930333
8810.00   1.25181639   0.02932940
8812.00   1.27339661   0.02942587
8814.00   1.30253077   0.02961644
8816.00   1.31072080   0.02977752
8818.00   1.30466890   0.02976710
8820.00   1.30651712   0.03100277
8822.00   1.29229510   0.03329596
8824.00   1.27778971   0.03555242
8826.00   1.28585339   0.03673139
8828.00   1.29895306   0.03694951
8830.00   1.30153525   0.03690374
8832.00   1.28985417   0.03587915
8834.00   1.26464128   0.03404813
8836.00   1.23952258   0.03251186
8838.00   1.24331903   0.03225286
8840.00   1.26285791   0.03169027
8842.00   1.28345072   0.03090099
8844.00   1.28911269   0.03030935
8846.00   1.28094995   0.03040748
8848.00   1.31371343   0.03085569
8850.00   1.33532631   0.03134277
8852.00   1.33998406   0.03170207
8854.00   1.34494674   0.03176108
8856.00   1.35763967   0.03133265
8858.00   1.34820545   0.03079476
8860.00   1.33354330   0.03074451
8862.00   1.32489645   0.03120844
8864.00   1.31480598   0.03172869
8866.00   1.30719066   0.03182434
8868.00   1.31158280   0.03185869
8870.00   1.28749740   0.03144007
8872.00   1.25649965   0.03059627
8874.00   1.29170442   0.02990175
8876.00   1.29900742   0.02949136
8878.00   1.29474032   0.02984868
8880.00   1.27573597   0.03124637
8882.00   1.27367008   0.03311181
8884.00   1.30122280   0.03429265
8886.00   1.27306664   0.03433704
8888.00   1.25865972   0.03422047
8890.00   1.26392257   0.03324164
8892.00   1.27574408   0.03131916
8894.00   1.29089105   0.02987417
8896.00   1.29188001   0.02972305
8898.00   1.27475941   0.03045987
8900.00   1.27058280   0.03134192
8902.00   1.26416099   0.03177428
8904.00   1.25790131   0.03213404
#8906.00   1.28349996   0.03376707
#8908.00   1.38193607   0.03048655
#8910.00   1.38371992   0.02945461
#8912.00   1.30499017   0.03109694
#8914.00   1.27598822   0.03446420
8916.00   1.25730836   0.03565385
8918.00   1.24956787   0.03605156
8920.00   1.24453402   0.03579354
#8922.00   1.21584046   0.03528089
#8924.00   1.13891709   0.03382466
8926.00   1.23498964   0.03171099
8928.00   1.24523568   0.02998071
#8930.00   1.15345001   0.02933777
8932.00   1.22417772   0.02936180
8934.00   1.23603404   0.02925423
8936.00   1.20263326   0.02907874
8938.00   1.18357360   0.02960033
8940.00   1.19954693   0.03073587
8942.00   1.20043170   0.03123961
8944.00   1.18031561   0.03115475
8946.00   1.17570961   0.03095173
8948.00   1.18692243   0.03044731
8950.00   1.18974495   0.02992707
8952.00   1.19249296   0.03098519
8954.00   1.19325864   0.03294138
8956.00   1.17467964   0.03387366
8958.00   1.15560627   0.03403593
8960.00   1.15869391   0.03415946
8962.00   1.16319346   0.03353499
8964.00   1.17076445   0.03190653
8966.00   1.17818224   0.03046573
8968.00   1.17538619   0.02973429
8970.00   1.14738119   0.02944948
8972.00   1.13891351   0.02932884
8974.00   1.15370059   0.02939407
8976.00   1.16375911   0.02937684
8978.00   1.15071476   0.02922318
8980.00   1.13971031   0.02921822
8982.00   1.14493382   0.02972547
8984.00   1.12749076   0.03057179
8986.00   1.09877264   0.03185640
8988.00   1.07827473   0.03312175
8990.00   1.08115411   0.03330943
8992.00   1.10840380   0.03240010
8994.00   1.15788519   0.03160559
8996.00   1.19132650   0.03177723
8998.00   1.16389787   0.03278096
9000.00   1.10888660   0.03363397
9002.00   1.10968554   0.03451276
9004.00   1.14842129   0.03486638
9006.00   1.18202579   0.03415710
9008.00   1.18102992   0.03227624
9010.00   1.17084801   0.03093019
9012.00   1.13913023   0.03022396
9014.00   1.10876906   0.02985143
9016.00   1.08874309   0.02954582
9018.00   1.09381342   0.02940021
9020.00   1.11121929   0.02932700
9022.00   1.10040760   0.02929250
9024.00   1.08096898   0.02927015
9026.00   1.05471861   0.02899979
9028.00   1.06649494   0.02866629
9030.00   1.04654014   0.02830759
9032.00   1.03759003   0.02825684
9034.00   1.05042279   0.02834134
9036.00   1.07372868   0.02838349
9038.00   1.06865835   0.02846065
9040.00   1.05027163   0.02868169
9042.00   1.04520547   0.02868292
9044.00   1.05630457   0.02877376
9046.00   1.05131304   0.02906217
9048.00   1.03364801   0.02915894
9050.00   1.04108095   0.02941222
9052.00   1.05456340   0.02962013
9054.00   1.06318665   0.02928318
9056.00   1.07008302   0.02838318
9058.00   1.04189551   0.02773006
9060.00   1.01239836   0.02767288
9062.00   0.99742317   0.02777514
9064.00   1.00556350   0.02791254
9066.00   1.01159227   0.02813873
9068.00   1.02756655   0.02864923
9070.00   1.01785660   0.02904947
9072.00   1.01165903   0.02907947
9074.00   1.00808299   0.02869061
9076.00   0.99185371   0.02839522
9078.00   0.97362185   0.02830309
9080.00   0.97548676   0.02837522
9082.00   1.00535786   0.02861088
9084.00   1.04306161   0.02891201
9086.00   1.00105512   0.02876201
9088.00   0.95929319   0.02854151
9090.00   0.94779128   0.02836462
9092.00   0.95012695   0.02828734
9094.00   0.95092791   0.02835962
9096.00   0.96699423   0.02864810
9098.00   0.95558566   0.02873763
9100.00   0.94999838   0.02883158
9102.00   0.96536571   0.02899966
9104.00   0.99090528   0.02915239
9106.00   0.96877736   0.02882635
9108.00   0.93957156   0.02815931
9110.00   0.93816322   0.02749680
9112.00   0.95619267   0.02709200
9114.00   0.95220965   0.02695607
9116.00   0.91628838   0.02699177
9118.00   0.90667766   0.02710442
9120.00   0.92167956   0.02704896
9122.00   0.94826537   0.02687323
9124.00   0.94192344   0.02672264
9126.00   0.93414074   0.02696257
9128.00   0.92634469   0.02739037
9130.00   0.91745758   0.02779294
9132.00   0.90898770   0.02809663
9134.00   0.89183420   0.02827684
9136.00   0.88874418   0.02828643
9138.00   0.89826649   0.02801344
9140.00   0.91524321   0.02758085
9142.00   0.94117743   0.02725218
9144.00   0.91894895   0.02685563
9146.00   0.91881496   0.02710246
9148.00   0.91276628   0.02757021
9150.00   0.88886690   0.02797779
9152.00   0.87755328   0.02850283
9154.00   0.85720831   0.02915370
9156.00   0.89365047   0.02943121
9158.00   0.91362828   0.02920504
9160.00   0.89904803   0.02868477
9162.00   0.87982053   0.02863506
9164.00   0.88535506   0.03009213
#9166.00   0.86722684   0.02810563
#9168.00   0.83605593   0.02667233
#9170.00   0.80396384   0.02691065
#9172.00   0.74326062   0.02785078
#9174.00   0.70975500   0.02777622
#9176.00   0.81967825   0.02918943
9178.00   0.89834660   0.02983818
9180.00   0.89084846   0.02919034
9182.00   0.85364676   0.02740373
9184.00   0.85624570   0.02677984
9186.00   0.86318350   0.02667155
9188.00   0.87310284   0.02669214
9190.00   0.85898620   0.02647188
9192.00   0.84218103   0.02651729
9194.00   0.84347343   0.02670577
9196.00   0.85265970   0.02675396
9198.00   0.86635727   0.02659202
9200.00   0.89701384   0.02650595
9202.00   0.91470575   0.02662494
9204.00   0.89503497   0.02675085
9206.00   0.86927539   0.02681264
9208.00   0.86743593   0.02690053
9210.00   0.86938143   0.02699643
9212.00   0.87046194   0.02718969
9214.00   0.88399321   0.02779874
9216.00   0.91002852   0.02871715
9218.00   0.93753338   0.02961813
9220.00   0.96164197   0.03004106
9222.00   0.94778663   0.02968832
9224.00   0.95023519   0.02915393
9226.00   0.95462805   0.02864828
9228.00   0.92940587   0.02818016
9230.00   0.88607043   0.02774344
9232.00   0.90087080   0.02750507
9234.00   0.91354233   0.02736625
9236.00   0.89353871   0.02715231
9238.00   0.85752702   0.02684429
9240.00   0.86406946   0.02670025
9242.00   0.87452203   0.02696306
9244.00   0.87643152   0.02717412
9246.00   0.87995714   0.02721004
9248.00   0.89757627   0.02720112
9250.00   0.87462974   0.02701963
9252.00   0.85596108   0.02677322
9254.00   0.85104609   0.02660977
9256.00   0.85835010   0.02656826
9258.00   0.84877795   0.02638665
9260.00   0.87077045   0.02653005
9262.00   0.87329984   0.02655177
9264.00   0.87445211   0.02643510
9266.00   0.87943619   0.02630941
9268.00   0.85892296   0.02614906
9270.00   0.85500604   0.02624473
9272.00   0.87604707   0.02643997
9274.00   0.88398266   0.02670438
9276.00   0.84637660   0.02700764
9278.00   0.83878207   0.02726655
9280.00   0.83413225   0.02735599
9282.00   0.85998154   0.02764348
9284.00   0.87045169   0.02779964
9286.00   0.82001585   0.02748348
9288.00   0.81810504   0.02765907
9290.00   0.83843231   0.02805692
9292.00   0.84522837   0.02820469
9294.00   0.82955551   0.02816164
9296.00   0.80272514   0.02835521
9298.00   0.80355042   0.02912149
9300.00   0.79982251   0.03036918
9302.00   0.80708814   0.03259145
9304.00   0.81508493   0.03540497
9306.00   0.79435390   0.03795024
9308.00   0.78578091   0.04158851
9310.00   0.79947871   0.04408863
9312.00   0.82468605   0.04527143
9314.00   0.79893583   0.04541986
9316.00   0.74182439   0.04521061
9318.00   0.74789268   0.04446876
9320.00   0.77937716   0.04358070
9322.00   0.80800551   0.04301262
9324.00   0.80104083   0.04270126
9326.00   0.79797786   0.04161064
9328.00   0.80313897   0.03872190
9330.00   0.79846591   0.03578567
9332.00   0.77002209   0.03457006
9334.00   0.72639436   0.03549204
9336.00   0.71341634   0.03666219
9338.00   0.70893651   0.03759466
9340.00   0.69129783   0.03891084
9342.00   0.67558080   0.04004080
9344.00   0.70234126   0.03949979
9346.00   0.83531284   0.03695771
9348.00   0.87175941   0.03417057
9350.00   0.81719255   0.03257639
9352.00   0.73080486   0.03262085
9354.00   0.67684764   0.03376359
9356.00   0.68290931   0.03476036
9358.00   0.72714251   0.03437733
9360.00   0.75469893   0.03294027
9362.00   0.74894595   0.03165260
9364.00   0.75124478   0.03188201
9366.00   0.73037368   0.03314518
9368.00   0.68067622   0.03766531
9370.00   0.66893691   0.04510537
9372.00   0.73695916   0.05224144
9374.00   0.76654226   0.05411184
9376.00   0.71035504   0.05430612
9378.00   0.64124918   0.05376102
9380.00   0.63808388   0.05032099
9382.00   0.67863917   0.04192477
9384.00   0.69431514   0.03446528
9386.00   0.68426353   0.03106523
9388.00   0.67815751   0.02945489
9390.00   0.68174618   0.02813228
9392.00   0.69396883   0.02740425
9394.00   0.70949453   0.02731119
9396.00   0.71424574   0.02813788
9398.00   0.70378661   0.02948312
9400.00   0.68925548   0.03059326
9402.00   0.66569859   0.03055739
9404.00   0.68075854   0.03047473
9406.00   0.69758797   0.03032610
9408.00   0.69159579   0.02972087
9410.00   0.66620427   0.02881806
9412.00   0.67005974   0.02877610
9414.00   0.67410308   0.02987153
9416.00   0.65961713   0.03127836
9418.00   0.65384835   0.03233462
9420.00   0.66732246   0.03277442
9422.00   0.70588499   0.03339085
9424.00   0.66473484   0.03351544
9426.00   0.61370820   0.03307466
9428.00   0.61714178   0.03226982
9430.00   0.68252009   0.03148121
9432.00   0.73795861   0.03135941
9434.00   0.74068928   0.03400375
9436.00   0.69276452   0.03832851
9438.00   0.61785096   0.04294493
9440.00   0.59329432   0.04691446
9442.00   0.61728406   0.04674183
9444.00   0.66390175   0.04163390
9446.00   0.69696409   0.03489683
9448.00   0.70030051   0.03033033
9450.00   0.68274212   0.02987561
9452.00   0.69860888   0.03201002
9454.00   0.67311341   0.03525585
9456.00   0.66475886   0.03830134
9458.00   0.68665981   0.04030113
9460.00   0.69965667   0.04037668
9462.00   0.71769238   0.03791354
9464.00   0.71000010   0.03403744
9466.00   0.69427127   0.03086184
9468.00   0.71563429   0.03038876
9470.00   0.71752888   0.03202389
9472.00   0.73311353   0.03557614
9474.00   0.72688270   0.03854384
9476.00   0.69679052   0.04037527
9478.00   0.66035503   0.04155875
9480.00   0.66668659   0.04205694
9482.00   0.69554424   0.03833325
9484.00   0.71146268   0.03301151
9486.00   0.73115736   0.02935397
9488.00   0.76534343   0.02884766
9490.00   0.75771612   0.02915877
9492.00   0.71554279   0.02989274
9494.00   0.67308283   0.03126103
9496.00   0.64202303   0.03382950
9498.00   0.63814712   0.03815318
9500.00   0.70203584   0.04089112
9502.00   0.78757066   0.03992723
9504.00   0.81640738   0.03663237
9506.00   0.78445834   0.03317708
9508.00   0.75081468   0.03033521
9510.00   0.75215811   0.02863243
9512.00   0.74411511   0.02876918
9514.00   0.72405547   0.03078727
9516.00   0.72090811   0.03384288
9518.00   0.71038491   0.03603582
9520.00   0.71750516   0.03713328
9522.00   0.75663799   0.03718244
9524.00   0.79003090   0.03601729
9526.00   0.77505493   0.03368910
9528.00   0.78688425   0.03212940
9530.00   0.79560834   0.03183231
9532.00   0.79958814   0.03231865
9534.00   0.79093951   0.03295337
9536.00   0.78611064   0.03331676
9538.00   0.80521184   0.03360469
9540.00   0.80837625   0.03390054
9542.00   0.79552966   0.03356954
9544.00   0.77707648   0.03269466
9546.00   0.79873973   0.03250615
9548.00   0.84576327   0.03351542
9550.00   0.84192872   0.03459576
9552.00   0.80470496   0.03547836
9554.00   0.75477725   0.03593363
9556.00   0.73801565   0.03540832
9558.00   0.77212125   0.03382005
9560.00   0.82824397   0.03394112
9562.00   0.82588428   0.03616625
9564.00   0.77039832   0.03904755
9566.00   0.77468640   0.04000318
9568.00   0.78120857   0.03942200
9570.00   0.80309987   0.03746092
9572.00   0.84469175   0.03464247
9574.00   0.85166723   0.03155943
9576.00   0.79940325   0.02982475
9578.00   0.75237197   0.02963462
9580.00   0.75825149   0.03010524
9582.00   0.81529397   0.03052569
9584.00   0.85826087   0.03073021
9586.00   0.82726979   0.03110792
9588.00   0.76920146   0.03163333
9590.00   0.74608058   0.03212390
9592.00   0.76239944   0.03219106
9594.00   0.78265399   0.03148351
9596.00   0.79551649   0.03097218
9598.00   0.78820777   0.03025137
9600.00   0.78184944   0.02996626
9602.00   0.78690004   0.03061333
9604.00   0.79147798   0.03181586
9606.00   0.76815599   0.03214047
9608.00   0.75689107   0.03198295
9610.00   0.77777392   0.03168153
9612.00   0.81905538   0.03151858
9614.00   0.80067706   0.03107709
9616.00   0.76864475   0.03155405
9618.00   0.76667982   0.03265280
9620.00   0.78528732   0.03370806
9622.00   0.78658295   0.03404460
9624.00   0.79041290   0.03376357
9626.00   0.80056000   0.03252047
9628.00   0.80902952   0.03105879
9630.00   0.81033778   0.03002770
9632.00   0.80543929   0.02970281
9634.00   0.77016312   0.02965938
9636.00   0.74881124   0.03002676
9638.00   0.75809503   0.03046734
9640.00   0.78875422   0.03073439
9642.00   0.79330039   0.03082656
9644.00   0.78101295   0.03072991
9646.00   0.77111739   0.03047573
9648.00   0.77599525   0.03024130
9650.00   0.78810340   0.03017057
9652.00   0.77913046   0.03003300
9654.00   0.75308484   0.02970848
9656.00   0.72752285   0.02938537
9658.00   0.72009140   0.02957728
9660.00   0.75680089   0.03069833
9662.00   0.76060486   0.03136503
9664.00   0.75996226   0.03178169
9666.00   0.76603669   0.03222060
9668.00   0.77863044   0.03239760
9670.00   0.76936942   0.03180781
9672.00   0.77114648   0.03126579
9674.00   0.75935882   0.03064127
9676.00   0.74805540   0.03076683
9678.00   0.74181157   0.03161761
9680.00   0.69763547   0.03177010
9682.00   0.71640825   0.03199450
9684.00   0.69815284   0.03152642
9686.00   0.69350642   0.03072205
9688.00   0.72407556   0.03007481
9690.00   0.75262612   0.02973750
9692.00   0.71131372   0.02968222
9694.00   0.70567769   0.03043063
9696.00   0.70877910   0.03126521
9698.00   0.67376000   0.03149379
9700.00   0.69591719   0.03168583
9702.00   0.70809680   0.03132244
9704.00   0.70925838   0.03055459
9706.00   0.68783712   0.02973746
9708.00   0.66319126   0.02937685
9710.00   0.67808121   0.02945556
9712.00   0.66241294   0.02985622
9714.00   0.66302150   0.03075182
9716.00   0.69677585   0.03188043
9718.00   0.71933484   0.03245093
9720.00   0.69441110   0.03227171
9722.00   0.68506509   0.03231050
9724.00   0.68865126   0.03183891
9726.00   0.69578171   0.03075131
9728.00   0.70247024   0.03014025
9730.00   0.67624217   0.03016087
9732.00   0.66514868   0.03055672
9734.00   0.66825265   0.03129036
9736.00   0.67023516   0.03198368
9738.00   0.68700141   0.03218343
9740.00   0.67496824   0.03210953
9742.00   0.68918538   0.03190707
9744.00   0.69249511   0.03139764
9746.00   0.67771506   0.03084748
9748.00   0.66197443   0.03101116
9750.00   0.64914227   0.03059489
9752.00   0.65051478   0.03000208
9754.00   0.65497732   0.02973692
9756.00   0.66041476   0.02999523
9758.00   0.67325854   0.03003908
9760.00   0.67552423   0.02989606
9762.00   0.65360183   0.02956457
9764.00   0.63001513   0.02927133
9766.00   0.63635701   0.02918453
9768.00   0.67490453   0.02922006
9770.00   0.68519515   0.02896353
9772.00   0.67044902   0.02890828
9774.00   0.63872921   0.02916243
9776.00   0.61723930   0.02948757
9778.00   0.62118626   0.02955903
9780.00   0.66297853   0.02987252
9782.00   0.69103241   0.03043664
9784.00   0.69357699   0.03145038
9786.00   0.68037611   0.03325678
9788.00   0.68731016   0.03512118
9790.00   0.68117809   0.03607361
9792.00   0.66833538   0.03633004
9794.00   0.64034623   0.03613436
9796.00   0.65164250   0.03522803
9798.00   0.67775422   0.03385891
9800.00   0.68712801   0.03311840
9802.00   0.69319606   0.03297986
9804.00   0.69921821   0.03252788
9806.00   0.66734701   0.03152611
9808.00   0.67778319   0.03144695
9810.00   0.71145743   0.03194990
9812.00   0.72773981   0.03232899
9814.00   0.69082052   0.03209842
9816.00   0.68346435   0.03176780
9818.00   0.69508225   0.03160314
9820.00   0.69660312   0.03153798
9822.00   0.68273097   0.03149712
9824.00   0.69014961   0.03133557
9826.00   0.67590028   0.03138338
9828.00   0.67220682   0.03147257
9830.00   0.65955687   0.03138481
9832.00   0.66220629   0.03116369
9834.00   0.69516945   0.03097744
9836.00   0.70150399   0.03084970
9838.00   0.71108443   0.03101402
9840.00   0.72892135   0.03140995
9842.00   0.73678416   0.03196063
9844.00   0.75309390   0.03325790
9846.00   0.76144046   0.03392267
9848.00   0.75482732   0.03390469
9850.00   0.75386482   0.03364081
9852.00   0.74891090   0.03348726
9854.00   0.75385737   0.03266372
9856.00   0.75154179   0.03178279
9858.00   0.77264708   0.03164343
9860.00   0.79659432   0.03197018
9862.00   0.76750284   0.03188534
9864.00   0.78270262   0.03266517
9866.00   0.76868755   0.03469197
9868.00   0.76551956   0.03699498
9870.00   0.78579825   0.03857529
9872.00   0.76944131   0.03889761
9874.00   0.75675869   0.03841949
9876.00   0.76790816   0.03732618
9878.00   0.78137642   0.03583255
9880.00   0.79228240   0.03447422
9882.00   0.84412456   0.03437034
9884.00   0.81867105   0.03408341
9886.00   0.81832075   0.03415939
9888.00   0.85322094   0.03507109
9890.00   0.86569291   0.03653808
9892.00   0.85465592   0.03752831
9894.00   0.81490844   0.03736762
9896.00   0.81151515   0.03726021
9898.00   0.84470874   0.03725001
9900.00   0.87296391   0.03642301
9902.00   0.85773563   0.03521670
9904.00   0.85448551   0.03480367
9906.00   0.84537482   0.03531878
9908.00   0.84265012   0.03692928
9910.00   0.86566925   0.03950987
9912.00   0.87498587   0.04129355
9914.00   0.85666353   0.04195507
9916.00   0.83460802   0.04189350
9918.00   0.82502431   0.04110105
9920.00   0.83591223   0.03907385
9922.00   0.86228961   0.03731943
9924.00   0.89267451   0.03666242
9926.00   0.90280455   0.03661729
9928.00   0.89769936   0.03660585
9930.00   0.89280099   0.03672705
9932.00   0.91844082   0.03721009
9934.00   0.93538171   0.03849494
9936.00   0.93392235   0.04074166
9938.00   0.90056968   0.04383999
9940.00   0.90584040   0.04764278
9942.00   0.95253849   0.05171685
9944.00   0.99653697   0.05442668
9946.00   0.99262589   0.05496793
9948.00   0.97717077   0.05365047
9950.00   0.97214729   0.05226301
9952.00   0.94203049   0.05109591
9954.00   0.95152253   0.05065851
9956.00   0.99487305   0.05106945
9958.00   0.97980171   0.05192554
9960.00   0.95719695   0.05138709
9962.00   0.98616308   0.04952349
9964.00   0.99150008   0.04723761
9966.00   0.94668436   0.04548801
9968.00   0.94905567   0.04441299
9970.00   0.99215764   0.04398033
9972.00   0.98647755   0.04388879
9974.00   0.97295219   0.04396905
9976.00   1.00112402   0.04408860
9978.00   0.99844521   0.04309265
9980.00   1.00428903   0.04230697
9982.00   0.98595983   0.04165940
9984.00   0.98305780   0.04145986
9986.00   1.00659096   0.04148886
9988.00   1.01303780   0.04151788
9990.00   1.03593814   0.04274532
9992.00   1.07859421   0.04415599
9994.00   1.08190119   0.04477352
9996.00   1.03805602   0.04524273
9998.00   1.01526511   0.04556740
10000.00   1.05306017   0.04513782
10002.00   1.08036864   0.04472676
10004.00   1.05320680   0.04580272
10006.00   1.03073037   0.04883092
10008.00   1.07232392   0.05437677
10010.00   1.05178976   0.05826351
10012.00   1.03841841   0.06032193
10014.00   1.05555975   0.06067924
10016.00   1.06287682   0.05904322
10018.00   1.03645980   0.05518408
10020.00   1.05259907   0.05232512
10022.00   1.07316315   0.05153705
10024.00   1.10636771   0.05209010
10026.00   1.10853243   0.05173350
10028.00   1.10702765   0.05110829
10030.00   1.08819199   0.04964373
10032.00   1.09391260   0.04794031
10034.00   1.14454961   0.04719890
10036.00   1.14195406   0.04709059
10038.00   1.13485587   0.04788572
10040.00   1.11967981   0.04852289
10042.00   1.10232460   0.04864832
10044.00   1.13313210   0.04887415
10046.00   1.16235685   0.04929298
10048.00   1.19277036   0.04896097
10050.00   1.19246066   0.04835111
10052.00   1.14829254   0.04824523
10054.00   1.13136423   0.04947525
10056.00   1.11406171   0.05098882
10058.00   1.13061786   0.05239882
10060.00   1.17880571   0.05366859
10062.00   1.23108459   0.05463248
10064.00   1.20326388   0.05480305
10066.00   1.13571227   0.05374087
10068.00   1.12684977   0.05307098
10070.00   1.15172136   0.05283182
10072.00   1.18684709   0.05307178
10074.00   1.20344543   0.05365524
10076.00   1.17824686   0.05555236
10078.00   1.11071074   0.05816344
10080.00   1.09374321   0.06091125
10082.00   1.12776434   0.06265026
10084.00   1.16973031   0.06297443
10086.00   1.16770804   0.06102936
10088.00   1.17134762   0.05782439
10090.00   1.17628586   0.05479958
10092.00   1.20820487   0.05366775
10094.00   1.19142497   0.05326578
10096.00   1.18184519   0.05410431
10098.00   1.18258107   0.05612551
10100.00   1.18872583   0.05840518
10102.00   1.15980899   0.05943554
10104.00   1.15994024   0.05990701
10106.00   1.19391835   0.05983870
10108.00   1.22192657   0.05887445
10110.00   1.21966875   0.05712628
10112.00   1.20023203   0.05578255
10114.00   1.17295694   0.05556526
10116.00   1.20112479   0.05788599
10118.00   1.24123621   0.06259477
10120.00   1.23091424   0.06789973
10122.00   1.18906677   0.07099622
10124.00   1.19480860   0.07211137
10126.00   1.20414960   0.07185889
10128.00   1.17755306   0.06937343
10130.00   1.16814137   0.06466883
10132.00   1.18066967   0.06072430
10134.00   1.15933049   0.05921932
10136.00   1.14578283   0.05920419
10138.00   1.14395225   0.05961491
10140.00   1.17170000   0.06023136
10142.00   1.22385609   0.06125548
10144.00   1.19697630   0.06250826
10146.00   1.15321887   0.06370562
10148.00   1.14631021   0.06525094
10150.00   1.19207323   0.06753718
10152.00   1.21004355   0.06881660
10154.00   1.18937373   0.06916394
10156.00   1.14795005   0.06869497
10158.00   1.12530220   0.06784780
10160.00   1.10507655   0.06649706
10162.00   1.14402497   0.06675436
10164.00   1.15241778   0.06872671
10166.00   1.10733926   0.07273100
10168.00   1.08318567   0.07812294
10170.00   1.04128420   0.08096102
10172.00   1.07888520   0.08213923
10174.00   1.08130252   0.08135583
10176.00   1.06757295   0.07851464
10178.00   1.05201852   0.07339213
10180.00   1.16547644   0.07101288
10182.00   1.13109732   0.07048408
10184.00   1.08624089   0.07212626
10186.00   1.09357798   0.07455225
10188.00   1.09743929   0.07572576
10190.00   1.06577694   0.07573094
10192.00   1.06240857   0.07539781
10194.00   1.06036866   0.07378664
10196.00   1.08363140   0.07205506
10198.00   1.12099576   0.07236981
10200.00   1.05291712   0.07230065
10202.00   1.06842458   0.07475590
10204.00   1.08257294   0.07911603
10206.00   1.07307327   0.08359990
10208.00   1.04644763   0.08577154
10210.00   1.06881046   0.08680377
10212.00   1.05892670   0.08588156
10214.00   1.01045215   0.08288153
10216.00   1.00939918   0.07912744
10218.00   1.03163671   0.07675810
10220.00   1.00474453   0.07759673
10222.00   0.97910959   0.08070583
10224.00   0.99483657   0.08403619
10226.00   1.06435013   0.08637393
10228.00   1.08217418   0.08719703
10230.00   1.02021658   0.08527318
10232.00   0.97012216   0.08190201
10234.00   0.97782224   0.07874330
10236.00   0.99847287   0.07691020
10238.00   1.04340470   0.07578779
10240.00   1.05239463   0.07525659
10242.00   0.85361248   0.07473265
10244.00   0.94951087   0.07424893
10246.00   0.97667426   0.07475511
10248.00   0.98745078   0.07548103
10250.00   1.00416017   0.07631452
10252.00   0.99956179   0.07668050
10254.00   0.80534673   0.07652701
10256.00   0.89723152   0.07677581
10258.00   0.95689052   0.07866680
10260.00   0.99600393   0.07978699
10262.00   0.98425943   0.08046174
10264.00   0.78452277   0.08097158
10266.00   0.95580673   0.08344734
10268.00   0.93760777   0.08520646
10270.00   0.92364019   0.08614888
10272.00   0.90809077   0.08648968
10274.00   0.88228530   0.08713729
10276.00   0.89367312   0.08756471
10278.00   0.99207240   0.09254044
10280.00   0.96961218   0.10211458
10282.00   0.84178001   0.11357405
10284.00   0.83373404   0.12359091
10286.00   0.96087474   0.12547798
10288.00   0.97322226   0.12746473
10290.00   0.94108009   0.12796001
10292.00   0.94293755   0.12043668
10294.00   0.96249819   0.11196304
10296.00   0.96203232   0.10858520
10298.00   0.89506173   0.10610775
10300.00   0.82430869   0.10259921
10302.00   0.78959274   0.09852835
10304.00   0.84375364   0.09709956
10306.00   0.85071105   0.09690136
10308.00   0.86097336   0.09704927
10310.00   0.86775142   0.09752925
10312.00   0.87235045   0.09750858
10314.00   0.79938966   0.09520785
10316.00   0.76717502   0.09341168
10318.00   0.81060696   0.09388288
10320.00   0.84679800   0.09504852
10322.00   0.78896254   0.09489346
10324.00   0.80594558   0.09591144
10326.00   0.80072051   0.09642276
10328.00   0.80007297   0.09736076
10330.00   0.82334310   0.09874124
10332.00   0.81621140   0.09871596
10334.00   0.76646477   0.09834545
10336.00   0.74543875   0.10021561
10338.00   0.79710370   0.10356905
10340.00   0.84736365   0.10740489
10342.00   0.69809943   0.10936708
10344.00   0.82260591   0.11500606
10346.00   0.82815880   0.11736599
10348.00   0.81579667   0.11862328
10350.00   0.85435981   0.11997956
10352.00   0.80450934   0.11748987
10354.00   0.68498975   0.11292613
10356.00   0.74877363   0.11348038
10358.00   0.85363466   0.11502770
10360.00   0.77762729   0.11139920
10362.00   0.71337986   0.10982245
10364.00   0.75598174   0.11397137
10366.00   0.79431182   0.12355531
10368.00   0.81036526   0.13878313
10370.00   0.81779909   0.14880773
10372.00   0.72792846   0.14214925
10374.00   0.73715806   0.15211317
10376.00   0.77869946   0.14944543
10378.00   0.78394371   0.13794355
10380.00   0.80513102   0.12672032
10382.00   0.70272857   0.11970285
10384.00   0.69039613   0.11615480
10386.00   0.76499981   0.12177791
10388.00   0.77556473   0.12314882
10390.00   0.81161594   0.13243854
10392.00   0.70677155   0.13295971
10394.00   0.67962211   0.13607387
10396.00   0.70615560   0.13852619
10398.00   0.71754885   0.13915743
10400.00   0.76612538   0.13891254
10402.00   0.69494730   0.13444003
10404.00   0.70009321   0.13236074
10406.00   0.70916528   0.13176528
10408.00   0.67667574   0.13127351
10410.00   0.78874308   0.13822043
10412.00   0.69473869   0.15031506
10414.00   0.67736012   0.16504174
10416.00   0.78738737   0.18219456
10418.00   0.83491665   0.18866533
10420.00   0.95842570   0.17686000
10422.00   0.77876776   0.16856842
10424.00   0.60684246   0.15990716
10426.00   0.69024348   0.15079693
10428.00   0.83969527   0.14950700
10430.00   0.79508895   0.14678715
10432.00   0.79603523   0.14586523
10434.00   0.78769034   0.14516635
10436.00   0.78432757   0.14553097
10438.00   0.83924896   0.14666547
10440.00   0.81822962   0.14636286
10442.00   0.73171520   0.14791305
10444.00   0.74064130   0.15245454
10446.00   0.84621239   0.15920280
10448.00   0.79780418   0.16399127
10450.00   0.77893132   0.16164485
10452.00   0.77992195   0.16150418
10454.00   0.76039553   0.16138279
10456.00   0.79173309   0.15785190
10458.00   0.80578035   0.15709519
10460.00   0.76168162   0.15856032
10462.00   0.74115163   0.16797578
10464.00   0.59472680   0.17975277
10466.00   0.83926487   0.18972771
10468.00   0.93415344   0.19272555
10470.00   0.83656901   0.19345812
10472.00   0.66219902   0.19383284
10474.00   0.73050261   0.18848978
10476.00   0.89342839   0.17708297
10478.00   0.84364587   0.17052488
10480.00   0.75331038   0.16572161
10482.00   0.73581457   0.16537435
10484.00   0.86325437   0.16984366
10486.00   0.82157391   0.17129229
10488.00   0.84493154   0.17169420
10490.00   0.77890337   0.17306989
10492.00   0.97009462   0.17509861
10494.00   0.86847311   0.17437609
10496.00   0.80391949   0.17421991
10498.00   0.81743288   0.17472714
10500.00   0.78866625   0.17468919
10502.00   0.71794271   0.17651218
10504.00   0.69132829   0.18286300
10506.00   0.80972266   0.19163491
10508.00   0.72105628   0.18997745
10510.00   0.89374781   0.19054985
10512.00   0.95779037   0.18953641
10514.00   0.83274889   0.19119501
10516.00   0.91021919   0.19257291
10518.00   0.71907902   0.19213633
10520.00   0.59796828   0.19613051
10522.00   0.67497420   0.20416582
10524.00   0.76972610   0.21159181
10526.00   0.64228046   0.20847903
10528.00   0.84611511   0.20683189
10530.00   0.99711347   0.20600276
10532.00   1.01818395   0.20147888
10534.00   0.83739966   0.19391684
10536.00   0.84189528   0.19206755
10538.00   0.72900325   0.18957575
10540.00   0.83894378   0.18930000
10542.00   0.70751572   0.19265281
10544.00   0.83140278   0.19633134
10546.00   0.90640277   0.20050071
10548.00   0.81108308   0.20389856
10550.00   0.94144869   0.20348459
10552.00   0.86240482   0.20057099
10554.00   0.79430646   0.19917691
10556.00   0.75009704   0.20037390
10558.00   0.75744867   0.20150113
10560.00   1.00089526   0.20103864
10562.00   1.02701998   0.20255250
10564.00   0.78318554   0.19998398
10566.00   0.78600615   0.20991613
10568.00   0.63192952   0.21218710
10570.00   0.58190441   0.20521227
10572.00   0.89723271   0.20907295
10574.00   0.85602361   0.21674757
10576.00   0.76656753   0.21386714
10578.00   0.57904202   0.20620713
10580.00   0.78453082   0.21887095
10582.00   0.54619509   0.23030415
10584.00   0.72483796   0.22873528
10586.00   0.63905114   0.22239499
10588.00   0.84439707   0.22351146
10590.00   0.89027077   0.22973728
10592.00   0.97502744   0.22649534
10594.00   0.72174519   0.22083242
10596.00   0.76163435   0.22262228
10598.00   0.86171293   0.22291364
10600.00   0.86201018   0.23476958
10602.00   0.86684942   0.22699964
10604.00   0.89167213   0.23411652
10606.00   0.98779094   0.22962192
10608.00   0.77941537   0.22543541
10610.00   0.51725876   0.22480904
10612.00   0.88904333   0.21812087
10614.00   0.78560764   0.22678889
10616.00   0.84194773   0.22818181
10618.00   0.86971182   0.23046379
10620.00   0.72121495   0.23004641
10622.00   0.96308506   0.23078740
10624.00   1.01598358   0.23271000
10626.00   0.99578702   0.23928648
10628.00   0.60014367   0.23915416
10630.00   0.68033510   0.23647721
10632.00   0.62595546   0.23777768
10634.00   0.82260114   0.24450529
10636.00   0.68055081   0.24155849
10638.00   0.50340414   0.24307419
10640.00   0.62542754   0.24922796
10642.00   0.98790985   0.25696766
10644.00   0.92804778   0.26070440
10646.00   1.08840227   0.26870477
10648.00   0.78004670   0.26804084
#10650.00   0.28227353   0.24928118
#10652.00   0.19472170   0.25572646
#10654.00   0.44130009   0.25631160
10656.00   0.69128704   0.25864211
10658.00   0.62103623   0.25343072
10660.00   0.91763419   0.26109546
10662.00   0.81387335   0.26586694
10664.00   0.61787891   0.24946362
10666.00   0.79938382   0.26140580
10668.00   0.59225678   0.27810991
10670.00   0.72781879   0.28697070
