# File created by shivutils (I.Shivvers)
# wl(A)   flm    er(optional)
3634.00   2.01159573   0.09844821
3636.00   2.01278114   0.09790303
3638.00   2.38780141   0.10079618
3640.00   2.63167286   0.10273730
3642.00   2.53334904   0.10326979
3644.00   2.59556556   0.10528001
3646.00   3.01166630   0.10814984
3648.00   3.12617636   0.11635093
3650.00   2.88816595   0.12643993
3652.00   2.76734948   0.12601292
3654.00   2.44031215   0.11662571
3656.00   2.40262318   0.11023650
3658.00   2.47724605   0.10323143
3660.00   2.48118734   0.09892935
3662.00   2.60938072   0.10491028
3664.00   2.69435096   0.10785343
3666.00   2.62186718   0.10169813
3668.00   2.37627435   0.09325463
3670.00   2.53914762   0.09388915
3672.00   2.82708716   0.09553404
3674.00   3.11286211   0.09825023
3676.00   3.23003507   0.09880757
3678.00   3.08259106   0.09541098
3680.00   2.73100471   0.09219728
3682.00   2.55657601   0.09007754
3684.00   2.62689495   0.09054279
3686.00   2.87662363   0.09206621
3688.00   3.05699921   0.09330346
3690.00   3.02143216   0.09375855
3692.00   2.98894000   0.09327783
3694.00   2.78935337   0.09119451
3696.00   2.76901817   0.09076782
3698.00   2.81857920   0.09147294
3700.00   2.92593408   0.09333334
3702.00   3.00716925   0.09496859
3704.00   3.06765938   0.09461367
3706.00   3.24083638   0.09482569
3708.00   3.40400338   0.09599699
3710.00   3.40236545   0.09569874
3712.00   3.32827544   0.09464695
3714.00   3.30974460   0.09446201
3716.00   3.29296613   0.09342841
3718.00   3.27395344   0.09271801
3720.00   3.20539808   0.09194728
3722.00   3.37520385   0.09270775
3724.00   3.26059651   0.09107909
3726.00   3.27074957   0.09012175
3728.00   3.02506137   0.08907216
3730.00   3.13213921   0.08989783
3732.00   3.16757798   0.08967363
3734.00   3.19440055   0.08932572
3736.00   3.00097895   0.08726901
3738.00   3.01175523   0.08732321
3740.00   3.23773479   0.09027730
3742.00   3.33603001   0.09073388
3744.00   3.29849410   0.08914171
3746.00   3.27903414   0.08788985
3748.00   3.42416382   0.08800394
3750.00   3.49837899   0.08748686
3752.00   3.33275747   0.08677814
3754.00   2.97614264   0.08374250
3756.00   2.62569714   0.08013967
3758.00   2.78880119   0.08128794
3760.00   2.76002550   0.08059353
3762.00   3.09552836   0.08266041
3764.00   3.30590487   0.08405816
3766.00   3.50978780   0.08508861
3768.00   3.14826846   0.08120476
3770.00   2.65191746   0.07694536
3772.00   2.54184818   0.07671537
3774.00   2.78655958   0.07917509
3776.00   3.21875954   0.08300550
3778.00   3.43267655   0.08384344
3780.00   3.14934158   0.08142886
3782.00   2.79352355   0.07760509
3784.00   2.35284877   0.07299908
3786.00   2.14957142   0.07083827
3788.00   2.53396034   0.07403052
3790.00   2.95265365   0.07833416
3792.00   3.03795910   0.07924753
3794.00   2.99160981   0.07770146
3796.00   2.68964887   0.07451431
3798.00   2.12096071   0.06954198
3800.00   2.07808375   0.06857072
3802.00   2.56015801   0.07304469
3804.00   3.03053355   0.07748065
3806.00   3.43775940   0.07984472
3808.00   3.23873043   0.07748506
3810.00   2.89961553   0.07479022
3812.00   2.85526991   0.07477439
3814.00   3.17172647   0.07738887
3816.00   3.03975725   0.07596528
3818.00   3.10573673   0.07551185
3820.00   2.90741014   0.07362502
3822.00   2.93070340   0.07316199
3824.00   3.25537515   0.07534154
3826.00   3.34965444   0.07654588
3828.00   3.48840523   0.07750444
3830.00   3.81448531   0.08131079
3832.00   3.83265328   0.08060788
3834.00   3.69830775   0.07876196
3836.00   3.55764675   0.07752874
3838.00   3.49884415   0.07636873
3840.00   3.11656451   0.07277675
3842.00   3.22367930   0.07285324
3844.00   3.15605712   0.07264676
3846.00   2.90167284   0.06994120
3848.00   2.53710532   0.06662036
3850.00   2.60833144   0.06677483
3852.00   3.06040883   0.06960237
3854.00   3.41560030   0.07192359
3856.00   3.53793764   0.07321690
3858.00   3.61822319   0.07322185
3860.00   3.73024416   0.07339472
3862.00   3.97511983   0.07522986
3864.00   3.68495083   0.07301792
3866.00   3.42709684   0.07097750
3868.00   3.28623056   0.06900835
3870.00   3.22220612   0.06835361
3872.00   3.30470681   0.06871033
3874.00   3.33950162   0.06943739
3876.00   3.12332249   0.06835933
3878.00   2.86908650   0.06541706
3880.00   2.78581452   0.06410335
3882.00   2.75742149   0.06366737
3884.00   2.54366708   0.06156874
3886.00   2.40504575   0.06115047
3888.00   2.40096593   0.06320467
3890.00   2.58017111   0.06490366
3892.00   2.94737864   0.06477887
3894.00   3.26699591   0.06692620
3896.00   3.58856702   0.06926133
3898.00   3.66522646   0.06974936
3900.00   3.77019286   0.07011714
3902.00   3.80545545   0.07062955
3904.00   3.78230000   0.07128609
3906.00   3.83804059   0.07368056
3908.00   3.82648396   0.07488953
3910.00   3.76854253   0.07487912
3912.00   3.78466511   0.07563511
3914.00   3.91843057   0.07566529
3916.00   4.22631359   0.07535224
3918.00   4.20352077   0.07324508
3920.00   4.28199387   0.07273329
3922.00   4.13800764   0.07073345
3924.00   3.81991220   0.06896028
3926.00   3.74464488   0.06803316
3928.00   4.03686190   0.06924307
3930.00   3.97066498   0.06823220
3932.00   3.75766921   0.06736892
3934.00   3.75476336   0.06762425
3936.00   3.67006397   0.06636082
3938.00   3.49295402   0.06441034
3940.00   3.26809478   0.06357319
3942.00   3.41247249   0.06539607
3944.00   3.73729682   0.06805233
3946.00   3.86218500   0.06871229
3948.00   4.10512686   0.06962089
3950.00   4.21723509   0.06987480
3952.00   4.32274008   0.06988297
3954.00   4.28769875   0.06952997
3956.00   4.42177105   0.07112405
3958.00   4.15140676   0.07003231
3960.00   4.30649281   0.07010311
3962.00   4.61436558   0.07218613
3964.00   4.88100910   0.07237180
3966.00   4.83483839   0.07083064
3968.00   4.68337870   0.06965299
3970.00   4.55961657   0.06884540
3972.00   4.47771263   0.06845790
3974.00   4.31437588   0.06796924
3976.00   4.28475809   0.06764802
3978.00   4.23480463   0.06743133
3980.00   3.85622191   0.06510601
3982.00   3.15184188   0.06025691
3984.00   2.57282138   0.05594893
3986.00   2.02467561   0.05146893
3988.00   2.21541786   0.05336108
3990.00   2.75878882   0.05759146
3992.00   3.53755331   0.06250934
3994.00   3.91265273   0.06495854
3996.00   4.16274405   0.06733614
3998.00   4.25466013   0.06815126
4000.00   4.44623899   0.06853224
4002.00   4.53182364   0.06835338
4004.00   4.75532579   0.06913124
4006.00   4.67630863   0.06868405
4008.00   4.56952906   0.06845433
4010.00   4.69084549   0.06932396
4012.00   4.56678486   0.06846980
4014.00   4.16584921   0.06591891
4016.00   3.63594198   0.06250068
4018.00   3.04599404   0.05996532
4020.00   2.46352720   0.05864280
4022.00   2.08476353   0.05761067
4024.00   2.31540465   0.05857741
4026.00   2.96887255   0.06100269
4028.00   3.56295085   0.06323394
4030.00   4.09360790   0.06572455
4032.00   4.45736217   0.06739883
4034.00   4.63557291   0.06789786
4036.00   4.75178623   0.06817498
4038.00   4.72624445   0.06813641
4040.00   4.81762362   0.06805759
4042.00   5.01307964   0.06931420
4044.00   5.04685736   0.07626628
4046.00   5.14224148   0.09096207
4048.00   5.22228146   0.09185454
4050.00   5.08114243   0.07729470
4052.00   4.93803596   0.06982231
4054.00   5.15572739   0.07069135
4056.00   5.21972704   0.07100532
4058.00   5.13055992   0.06905745
4060.00   4.94468212   0.06765758
4062.00   5.04600191   0.06791940
4064.00   5.33485031   0.06923855
4066.00   5.19704962   0.06864699
4068.00   5.28434229   0.06891789
4070.00   5.33063984   0.06884452
4072.00   5.33358812   0.06822034
4074.00   5.26915121   0.06817093
4076.00   5.31028843   0.07025412
4078.00   5.34513712   0.07204414
4080.00   5.39194870   0.07187715
4082.00   5.56869745   0.07089279
4084.00   5.09889030   0.06875732
4086.00   4.91627932   0.06731816
4088.00   4.80349684   0.06631393
4090.00   5.19439030   0.06673044
4092.00   5.51595211   0.06784839
4094.00   5.54593658   0.06788208
4096.00   5.32891798   0.06693776
4098.00   5.19235849   0.06578851
4100.00   4.76789284   0.06376994
4102.00   4.98063946   0.06435253
4104.00   5.37143898   0.06588973
4106.00   5.31598902   0.06608713
4108.00   5.10647154   0.06502891
4110.00   5.02280664   0.06433091
4112.00   4.98176432   0.06411147
4114.00   4.90872240   0.06383824
4116.00   5.06734657   0.06442901
4118.00   4.93642426   0.06368653
4120.00   4.88219881   0.06304812
4122.00   5.11148262   0.06430916
4124.00   5.24164724   0.06499868
4126.00   5.14757347   0.06443874
4128.00   5.03843212   0.06388339
4130.00   4.97433567   0.06351826
4132.00   4.74930668   0.06313146
4134.00   4.93074799   0.06436487
4136.00   5.16349602   0.06497518
4138.00   5.20957899   0.06477595
4140.00   5.19819164   0.06541476
4142.00   5.33521652   0.06566127
4144.00   5.43649483   0.06485453
4146.00   5.36902761   0.06473035
4148.00   5.20790434   0.06376915
4150.00   4.98834658   0.06315655
4152.00   4.66568518   0.06234580
4154.00   4.20346689   0.05995432
4156.00   3.94318199   0.05772490
4158.00   3.95063663   0.05739788
4160.00   4.45578289   0.05987083
4162.00   4.90089798   0.06256068
4164.00   4.85047436   0.06359673
4166.00   5.05787086   0.06462742
4168.00   5.22484112   0.06447681
4170.00   5.36116934   0.06425057
4172.00   5.34906197   0.06373885
4174.00   5.26244879   0.06287230
4176.00   5.16714144   0.06241689
4178.00   5.20959473   0.06290821
4180.00   5.33758593   0.06308195
4182.00   5.22736788   0.06215371
4184.00   5.09676743   0.06162954
4186.00   5.04719305   0.06113540
4188.00   5.06063700   0.06105627
4190.00   5.11117172   0.06134852
4192.00   5.41334391   0.06276920
4194.00   5.55049467   0.06352080
4196.00   5.57006979   0.06306631
4198.00   5.15852785   0.06066881
4200.00   5.12903690   0.06022144
4202.00   5.31336021   0.06140725
4204.00   5.32562923   0.06142449
4206.00   5.24163771   0.06130317
4208.00   5.21657085   0.06126260
4210.00   5.23378658   0.06145899
4212.00   5.24565697   0.06146715
4214.00   5.32169199   0.06165668
4216.00   5.43753910   0.06184504
4218.00   5.53719807   0.06212885
4220.00   5.67925119   0.06244679
4222.00   5.48301983   0.06159350
4224.00   5.42921925   0.06120527
4226.00   5.31447744   0.06065183
4228.00   5.03297853   0.05921064
4230.00   4.92436647   0.05892375
4232.00   4.97610331   0.05971424
4234.00   5.11181831   0.06014597
4236.00   5.25010681   0.06072371
4238.00   5.29187536   0.06111288
4240.00   5.19667387   0.06068101
4242.00   5.31862497   0.06037727
4244.00   5.23867846   0.06073066
4246.00   5.39719915   0.06322076
4248.00   5.50610685   0.06411674
4250.00   5.46742201   0.06195125
4252.00   5.34331036   0.06034428
4254.00   5.23138332   0.05964181
4256.00   5.09419966   0.05918696
4258.00   5.08749771   0.05919201
4260.00   5.07458305   0.05883721
4262.00   5.48149920   0.06055044
4264.00   5.53838253   0.06069462
4266.00   5.57555866   0.06085863
4268.00   5.77117729   0.06133198
4270.00   5.65207052   0.06058292
4272.00   5.46429205   0.06015788
4274.00   5.66956282   0.06097442
4276.00   5.70228243   0.06150221
4278.00   5.71251917   0.06150072
4280.00   5.37080717   0.05970855
4282.00   4.81198263   0.05748985
4284.00   4.80892611   0.05745490
4286.00   5.33365154   0.05939975
4288.00   5.63027239   0.06046966
4290.00   5.67260838   0.06057416
4292.00   5.46427345   0.05965345
4294.00   5.42092323   0.05975206
4296.00   5.39958811   0.05975492
4298.00   5.71191454   0.06057766
4300.00   5.86059332   0.06103145
4302.00   5.91091299   0.06115490
4304.00   5.61428881   0.06019020
4306.00   5.52079248   0.05989538
4308.00   5.45674562   0.05967639
4310.00   5.52682829   0.05989489
4312.00   5.67421341   0.06145464
4314.00   5.64822769   0.06257035
4316.00   5.66997051   0.06233229
4318.00   5.61310577   0.06138915
4320.00   5.79207182   0.06292035
4322.00   6.13522673   0.06414428
4324.00   6.06723213   0.06323907
4326.00   5.72144842   0.06160096
4328.00   5.38990974   0.05992235
4330.00   5.20183229   0.05875654
4332.00   5.34146166   0.05955374
4334.00   5.70596027   0.06112246
4336.00   5.86107349   0.06185253
4338.00   5.81574678   0.06171923
4340.00   5.81761837   0.06186653
4342.00   5.80143547   0.06190798
4344.00   5.57207680   0.06137048
4346.00   5.26609898   0.06087528
4348.00   5.31197357   0.06160432
4350.00   5.37301350   0.06141231
4352.00   5.54837322   0.06144790
4354.00   5.51279831   0.06183184
4356.00   5.03786230   0.07325790
4358.00   4.62363195   0.08904228
4360.00   4.70876551   0.08701710
4362.00   4.68894291   0.06847690
4364.00   4.58151722   0.05974545
4366.00   4.52594805   0.05823077
4368.00   4.71693850   0.05858891
4370.00   5.10030699   0.05979207
4372.00   5.59957600   0.06171764
4374.00   5.92842054   0.06355071
4376.00   6.41332483   0.06499024
4378.00   6.30797529   0.06358492
4380.00   5.74524498   0.06129184
4382.00   5.31774712   0.05923434
4384.00   5.24282742   0.05858509
4386.00   5.50980854   0.05951661
4388.00   5.77608252   0.06056487
4390.00   5.97745514   0.06116383
4392.00   5.80272341   0.06057685
4394.00   5.42903566   0.05903998
4396.00   4.74415541   0.05637854
4398.00   4.25729561   0.05450372
4400.00   4.45397234   0.05599058
4402.00   4.90124226   0.05754933
4404.00   5.41658115   0.05877736
4406.00   5.65066433   0.05950703
4408.00   5.50759268   0.05930518
4410.00   5.39789391   0.05873995
4412.00   5.44835043   0.05875812
4414.00   5.66823721   0.05998723
4416.00   5.76234865   0.06057899
4418.00   5.67867470   0.06013022
4420.00   5.95952606   0.06070579
4422.00   6.16574717   0.06127152
4424.00   6.00313711   0.06059339
4426.00   5.87472105   0.06017669
4428.00   5.70211554   0.05942484
4430.00   5.65513182   0.05923925
4432.00   5.41575336   0.05822989
4434.00   5.49190187   0.05840255
4436.00   5.59811115   0.05889633
4438.00   5.74280739   0.05935335
4440.00   5.45580435   0.05837559
4442.00   5.01494741   0.05657837
4444.00   4.86764288   0.05607336
4446.00   5.20711756   0.05733641
4448.00   5.45226765   0.05799576
4450.00   5.51543045   0.05820808
4452.00   5.60624647   0.05857050
4454.00   5.58746719   0.05848666
4456.00   5.75477695   0.05890509
4458.00   5.90616798   0.05935264
4460.00   5.69996119   0.05853184
4462.00   5.67078638   0.05831464
4464.00   5.46269894   0.05779496
4466.00   5.55645847   0.05810621
4468.00   5.70124674   0.05858415
4470.00   5.95839214   0.05956239
4472.00   5.93111944   0.05932834
4474.00   5.77832842   0.05869579
4476.00   5.78072500   0.05859037
4478.00   6.02984619   0.05939991
4480.00   6.08594370   0.05958857
4482.00   5.88230848   0.05887770
4484.00   5.90609312   0.05897551
4486.00   6.01900673   0.05930082
4488.00   5.98683834   0.05918336
4490.00   5.92143393   0.05887239
4492.00   5.79730988   0.05861823
4494.00   5.80882311   0.05863898
4496.00   5.99999380   0.05907675
4498.00   6.09518480   0.05959221
4500.00   6.12766361   0.05948397
4502.00   5.94106817   0.05870664
4504.00   6.01671743   0.05880266
4506.00   6.20760059   0.05930095
4508.00   6.32326269   0.05966755
4510.00   6.31323719   0.05950356
4512.00   6.08236361   0.05868933
4514.00   5.90119600   0.05774519
4516.00   5.77504492   0.05718264
4518.00   5.77354574   0.05688940
4520.00   5.82890224   0.05711236
4522.00   5.84952831   0.05727099
4524.00   5.90346241   0.05749933
4526.00   6.15029621   0.05802257
4528.00   6.11109734   0.05766167
4530.00   6.19481993   0.05776992
4532.00   6.41295815   0.05862440
4534.00   6.53283787   0.05908361
4536.00   6.70719242   0.05943898
4538.00   6.55034781   0.05885236
4540.00   6.27651215   0.05792842
4542.00   6.08144999   0.05746780
4544.00   6.46475601   0.05854885
4546.00   6.68221235   0.05924663
4548.00   6.55342627   0.05834674
4550.00   6.45059967   0.05774873
4552.00   6.46271515   0.05761345
4554.00   6.35526752   0.05729628
4556.00   6.37331152   0.05728552
4558.00   6.59653950   0.05794640
4560.00   6.65584564   0.05814104
4562.00   6.80694866   0.05843362
4564.00   6.96662092   0.05866943
4566.00   7.08644485   0.05890160
4568.00   7.08951950   0.05887377
4570.00   7.16094160   0.05910707
4572.00   6.99959326   0.05861093
4574.00   6.92711163   0.05811145
4576.00   6.83454227   0.05779381
4578.00   6.82234955   0.05750437
4580.00   7.02476120   0.05795043
4582.00   6.98547697   0.05769879
4584.00   6.83869553   0.05725997
4586.00   6.62669849   0.05635623
4588.00   6.40431976   0.05550516
4590.00   6.27120781   0.05531605
4592.00   6.47250700   0.05567833
4594.00   6.35467529   0.05527629
4596.00   6.64019442   0.05613155
4598.00   6.82582521   0.05685202
4600.00   7.22156954   0.05776611
4602.00   7.08946085   0.05735127
4604.00   7.16150236   0.05739552
4606.00   7.07847023   0.05740343
4608.00   7.11701965   0.05744163
4610.00   6.96675348   0.05689390
4612.00   6.97494841   0.05688377
4614.00   7.01646709   0.05683688
4616.00   7.01946306   0.05670437
4618.00   7.34380293   0.05761051
4620.00   7.54123640   0.05844082
4622.00   7.62778521   0.05867380
4624.00   7.61500835   0.05861062
4626.00   7.47227097   0.05808320
4628.00   7.56828451   0.05838256
4630.00   7.76877260   0.05896325
4632.00   7.78744888   0.05911338
4634.00   7.74655008   0.05877816
4636.00   7.81879759   0.05897991
4638.00   7.90803003   0.05927522
4640.00   7.74682093   0.05878918
4642.00   7.43582821   0.05787941
4644.00   7.56773186   0.05822164
4646.00   7.64428282   0.05839310
4648.00   7.75474119   0.05876887
4650.00   7.87159729   0.05917712
4652.00   7.89240217   0.05922831
4654.00   7.84743166   0.05914813
4656.00   7.78326559   0.05896351
4658.00   7.75536919   0.05898286
4660.00   7.89782858   0.05959982
4662.00   7.85437918   0.05971666
4664.00   7.81630754   0.05970750
4666.00   7.85264301   0.05991904
4668.00   8.09422016   0.06084381
4670.00   8.28605175   0.06163077
4672.00   8.25067234   0.06137414
4674.00   8.18789864   0.06102190
4676.00   8.24494839   0.06091087
4678.00   8.17007446   0.06047766
4680.00   8.14443588   0.06035648
4682.00   8.30432987   0.06059619
4684.00   8.22772884   0.06037103
4686.00   8.16571045   0.06013105
4688.00   8.22105408   0.06008709
4690.00   8.09970570   0.05977871
4692.00   7.99765062   0.05925603
4694.00   8.01396370   0.05946060
4696.00   8.04326153   0.05935170
4698.00   7.79398203   0.05829206
4700.00   7.59235048   0.05768805
4702.00   7.63397074   0.05779343
4704.00   7.54956722   0.05761225
4706.00   7.49476242   0.05749916
4708.00   7.26240253   0.05674885
4710.00   7.21178484   0.05667423
4712.00   7.34372377   0.05690708
4714.00   7.25492477   0.05651985
4716.00   7.17851639   0.05613333
4718.00   7.31561327   0.05637223
4720.00   7.31725550   0.05649000
4722.00   7.26098108   0.05626991
4724.00   7.24772406   0.05605130
4726.00   7.00239992   0.05529257
4728.00   6.70028257   0.05494003
4730.00   6.53862858   0.05455012
4732.00   6.52509546   0.05428815
4734.00   6.73545694   0.05509981
4736.00   6.72477865   0.05549809
4738.00   6.87184572   0.05593663
4740.00   6.86307669   0.05615726
4742.00   6.74363232   0.05620150
4744.00   6.65330458   0.05581355
4746.00   6.71205091   0.05511321
4748.00   6.77203560   0.05438526
4750.00   6.84573460   0.05435000
4752.00   6.73859596   0.05423273
4754.00   6.75053358   0.05421171
4756.00   6.60278654   0.05347710
4758.00   6.86811686   0.05398826
4760.00   6.69615459   0.05328719
4762.00   6.56433535   0.05275284
4764.00   6.45462370   0.05224899
4766.00   6.45304394   0.05211421
4768.00   6.45321751   0.05204124
4770.00   6.40838146   0.05196704
4772.00   6.51508617   0.05232544
4774.00   6.55977106   0.05262256
4776.00   6.61601114   0.05297429
4778.00   6.58027601   0.05318912
4780.00   6.85319662   0.05409642
4782.00   6.85776377   0.05395377
4784.00   6.89765406   0.05390098
4786.00   6.99587154   0.05408269
4788.00   6.94928932   0.05384728
4790.00   6.79038429   0.05345985
4792.00   6.48367405   0.05266386
4794.00   6.45433044   0.05236116
4796.00   6.51356030   0.05251874
4798.00   6.66945267   0.05283466
4800.00   6.75506639   0.05322577
4802.00   6.83734417   0.05347060
4804.00   6.79293919   0.05343493
4806.00   6.87831736   0.05365799
4808.00   6.94523144   0.05406110
4810.00   6.96199894   0.05401610
4812.00   7.01657200   0.05422046
4814.00   6.96515799   0.05400313
4816.00   6.87708950   0.05384248
4818.00   6.72910404   0.05340308
4820.00   6.82669878   0.05379232
4822.00   6.74140120   0.05355205
4824.00   6.82163906   0.05386790
4826.00   6.68487835   0.05341304
4828.00   6.67672205   0.05335975
4830.00   6.58922386   0.05309965
4832.00   6.70231438   0.05350487
4834.00   6.87836075   0.05409051
4836.00   6.88983297   0.05416059
4838.00   7.00627518   0.05462896
4840.00   7.18712997   0.05541854
4842.00   7.06192875   0.05490311
4844.00   7.14363813   0.05484794
4846.00   7.00115728   0.05455778
4848.00   7.02891588   0.05458054
4850.00   6.80633163   0.05383959
4852.00   6.77349854   0.05374964
4854.00   6.85757780   0.05389836
4856.00   7.12046385   0.05442953
4858.00   7.16509533   0.05463803
4860.00   7.20027399   0.05495796
4862.00   7.08929205   0.05494519
4864.00   7.05699587   0.05467780
4866.00   7.05362892   0.05458304
4868.00   7.05335855   0.05445980
4870.00   6.96393108   0.05412616
4872.00   6.97250032   0.05406545
4874.00   7.00024033   0.05416789
4876.00   7.01479912   0.05432473
4878.00   7.05974007   0.05465966
4880.00   7.10925722   0.05476551
4882.00   7.18489552   0.05490681
4884.00   7.29694176   0.05514287
4886.00   7.19193935   0.05457387
4888.00   6.98798609   0.05402411
4890.00   6.99512148   0.05394485
4892.00   6.92771435   0.05388065
4894.00   7.03259230   0.05409840
4896.00   7.04112339   0.05412819
4898.00   6.92917490   0.05375966
4900.00   6.89849234   0.05368856
4902.00   6.99119186   0.05386090
4904.00   6.92347574   0.05364790
4906.00   6.83985615   0.05337619
4908.00   6.87918806   0.05351214
4910.00   6.91153336   0.05351045
4912.00   6.84118271   0.05332496
4914.00   6.80981016   0.05316864
4916.00   6.71389914   0.05290653
4918.00   6.51631689   0.05217655
4920.00   6.43021536   0.05175437
4922.00   6.14880276   0.05090220
4924.00   5.77031183   0.04948695
4926.00   5.59074163   0.04875488
4928.00   5.57910109   0.04853244
4930.00   5.79895687   0.04930998
4932.00   6.22614050   0.05068875
4934.00   6.35524082   0.05121697
4936.00   6.44639063   0.05147666
4938.00   6.52029037   0.05170710
4940.00   6.68247986   0.05225597
4942.00   6.83017254   0.05272099
4944.00   7.04712534   0.05334556
4946.00   7.05219650   0.05321467
4948.00   7.04151392   0.05307686
4950.00   6.97583342   0.05305939
4952.00   6.93103886   0.05302128
4954.00   6.82519054   0.05281300
4956.00   6.93551302   0.05303594
4958.00   7.09498596   0.05341843
4960.00   7.38555336   0.05432362
4962.00   7.55828810   0.05491585
4964.00   7.57395983   0.05503694
4966.00   7.55033207   0.05502035
4968.00   7.59571171   0.05517757
4970.00   7.53244305   0.05523068
4972.00   7.56507254   0.05560055
4974.00   7.45176697   0.05571317
4976.00   7.27768040   0.05546964
4978.00   7.43838453   0.05654045
4980.00   7.48717737   0.05731913
4982.00   7.44914436   0.05761218
4984.00   7.16090488   0.05670757
4986.00   7.07163858   0.05595597
4988.00   7.08006716   0.05550456
4990.00   7.11671305   0.05524981
4992.00   7.26687765   0.05541949
4994.00   7.47875166   0.05567827
4996.00   7.65157890   0.05567017
4998.00   7.51705265   0.05514089
5000.00   7.43807840   0.05471190
5002.00   7.19170523   0.05381280
5004.00   7.09300995   0.05332544
5006.00   7.18394136   0.05355180
5008.00   7.29927635   0.05387586
5010.00   7.48928642   0.05438875
5012.00   7.51632738   0.05445893
5014.00   7.60896206   0.05462107
5016.00   7.53455687   0.05456895
5018.00   7.58559942   0.05475846
5020.00   7.42082691   0.05437746
5022.00   7.27618456   0.05388855
5024.00   7.06927299   0.05308543
5026.00   7.10888338   0.05307538
5028.00   7.17912340   0.05337860
5030.00   7.22687912   0.05366648
5032.00   7.16302156   0.05349057
5034.00   7.01899862   0.05292670
5036.00   7.01234150   0.05277612
5038.00   7.20421267   0.05331096
5040.00   7.23619461   0.05330537
5042.00   7.11954975   0.05295954
5044.00   6.98192310   0.05265465
5046.00   6.83538532   0.05217459
5048.00   6.61206198   0.05147931
5050.00   6.59713650   0.05132232
5052.00   6.58614397   0.05133463
5054.00   6.76843071   0.05193730
5056.00   6.92546082   0.05228637
5058.00   6.83255339   0.05215530
5060.00   6.92916393   0.05234561
5062.00   6.90058374   0.05254070
5064.00   6.84675074   0.05260720
5066.00   6.77748013   0.05253389
5068.00   6.74331665   0.05260944
5070.00   6.75167370   0.05307285
5072.00   6.74412298   0.05288682
5074.00   6.76617908   0.05270521
5076.00   6.82092905   0.05254415
5078.00   6.66131258   0.05203277
5080.00   6.48101616   0.05249932
5082.00   6.42533159   0.05350421
5084.00   6.30195951   0.05411652
5086.00   6.42806005   0.05448629
5088.00   6.51812553   0.05383232
5090.00   6.55803013   0.05293806
5092.00   6.66238213   0.05242184
5094.00   6.79561806   0.05243387
5096.00   6.88503075   0.05279299
5098.00   7.01651144   0.05366369
5100.00   7.00123739   0.05372297
5102.00   6.94902325   0.05326496
5104.00   6.78272724   0.05226521
5106.00   6.52474546   0.05128426
5108.00   6.32211161   0.05066631
5110.00   6.49919844   0.05105134
5112.00   6.71257544   0.05193237
5114.00   6.85831261   0.05236770
5116.00   6.82847786   0.05240115
5118.00   6.79978752   0.05223155
5120.00   6.70729017   0.05180401
5122.00   6.89024401   0.05216615
5124.00   7.07242966   0.05262386
5126.00   7.01296520   0.05251708
5128.00   7.13429594   0.05289559
5130.00   7.18522739   0.05298803
5132.00   7.00318861   0.05247755
5134.00   6.93221426   0.05221275
5136.00   6.78995085   0.05195771
5138.00   6.83345509   0.05204979
5140.00   6.92014456   0.05228307
5142.00   6.86049223   0.05212076
5144.00   6.78910685   0.05191703
5146.00   6.66434765   0.05161860
5148.00   6.55946922   0.05149193
5150.00   6.48728466   0.05163092
5152.00   6.62271261   0.05225252
5154.00   6.83168840   0.05303123
5156.00   6.97150278   0.05330431
5158.00   7.10168791   0.05326345
5160.00   7.09578991   0.05314970
5162.00   7.06026602   0.05274752
5164.00   6.85483170   0.05198499
5166.00   6.70633841   0.05128517
5168.00   6.68294239   0.05121563
5170.00   6.71845055   0.05129085
5172.00   6.84087229   0.05142866
5174.00   6.77634811   0.05128600
5176.00   6.68382454   0.05125856
5178.00   6.70309734   0.05117865
5180.00   6.79281092   0.05134460
5182.00   6.88734150   0.05156169
5184.00   6.95351028   0.05178000
5186.00   6.96145964   0.05198976
5188.00   6.97524118   0.05209621
5190.00   6.82270241   0.05159707
5192.00   6.68906403   0.05112539
5194.00   6.52326536   0.05056008
5196.00   6.51678514   0.05052845
5198.00   6.57451153   0.05086072
5200.00   6.64511061   0.05114242
5202.00   6.79368544   0.05158200
5204.00   6.71699333   0.05118094
5206.00   6.70734644   0.05099139
5208.00   6.63474894   0.05084167
5210.00   6.53441763   0.05078179
5212.00   6.61764526   0.05092594
5214.00   6.61689520   0.05068725
5216.00   6.54694510   0.05056627
5218.00   6.61642504   0.05073250
5220.00   6.61182451   0.05079310
5222.00   6.73913574   0.05110304
5224.00   6.71069479   0.05097094
5226.00   6.89956760   0.05135389
5228.00   6.99817276   0.05157340
5230.00   6.89630508   0.05143736
5232.00   6.78928471   0.05100229
5234.00   6.35686207   0.04964933
5236.00   5.99523735   0.04858486
5238.00   5.75476408   0.04786547
5240.00   5.74369860   0.04781816
5242.00   5.86411572   0.04799097
5244.00   6.14644527   0.04892883
5246.00   6.54681015   0.05011173
5248.00   6.54354572   0.05013158
5250.00   6.36732435   0.04955887
5252.00   6.21225452   0.04907039
5254.00   6.26613665   0.04940711
5256.00   6.39511633   0.05010219
5258.00   6.72150517   0.05108900
5260.00   6.73633909   0.05091501
5262.00   6.69479609   0.05058730
5264.00   6.74206066   0.05068652
5266.00   6.88163805   0.05096862
5268.00   6.94929647   0.05120421
5270.00   6.98126411   0.05129689
5272.00   6.99227381   0.05138810
5274.00   6.93982124   0.05130417
5276.00   6.77999544   0.05087109
5278.00   6.67973757   0.05056676
5280.00   6.80521870   0.05096758
5282.00   7.08116055   0.05171621
5284.00   7.22456837   0.05226111
5286.00   7.33866358   0.05262273
5288.00   7.41898632   0.05282592
5290.00   7.52913570   0.05308754
5292.00   7.31743479   0.05253187
5294.00   7.21067190   0.05215527
5296.00   7.15613270   0.05195627
5298.00   7.12546110   0.05198787
5300.00   7.29020166   0.05247357
5302.00   7.39062691   0.05278381
5304.00   7.51729202   0.05304602
5306.00   7.54245043   0.05316341
5308.00   7.76066160   0.05381144
5310.00   7.77878523   0.05402584
5312.00   7.81603289   0.05409422
5314.00   7.77755070   0.05400582
5316.00   7.76092482   0.05388353
5318.00   7.73301363   0.05381983
5320.00   7.67471027   0.05370672
5322.00   7.64878035   0.05363365
5324.00   7.68576145   0.05357890
5326.00   7.81217909   0.05408102
5328.00   7.86376429   0.05419696
5330.00   7.80662870   0.05420465
5332.00   7.68214321   0.05375165
5334.00   7.30745459   0.05271100
5336.00   7.23819780   0.05254650
5338.00   6.97253799   0.05187416
5340.00   7.09076834   0.05226562
5342.00   7.27810383   0.05299736
5344.00   7.48680449   0.05359851
5346.00   7.61817980   0.05418766
5348.00   7.85179663   0.05507905
5350.00   7.89361238   0.05527439
5352.00   8.00228596   0.05547947
5354.00   8.08117294   0.05591317
5356.00   8.12575340   0.05612533
5358.00   8.28710842   0.05650931
5360.00   8.27871132   0.05626912
5362.00   8.43035698   0.05658136
5364.00   8.44092369   0.05656799
5366.00   8.24043083   0.05597900
5368.00   8.00122643   0.05530284
5370.00   8.06491184   0.05550461
5372.00   8.11370754   0.05577318
5374.00   8.28404903   0.05660130
5376.00   8.34898186   0.05703802
5378.00   8.53173733   0.05750451
5380.00   8.60375118   0.05767842
5382.00   8.59194088   0.05773118
5384.00   8.50179100   0.05760550
5386.00   8.40733337   0.05756865
5388.00   8.50001621   0.05787477
5390.00   8.36573219   0.05796364
5392.00   8.37593937   0.05815959
5394.00   8.21755695   0.05787302
5396.00   8.01245880   0.05735200
5398.00   7.76953888   0.05673238
5400.00   7.76932240   0.05691710
5402.00   7.84403515   0.05737150
5404.00   8.03770924   0.05829371
5406.00   8.24007988   0.05898079
5408.00   8.15026665   0.05913643
5410.00   8.08512592   0.05925983
5412.00   8.11139679   0.05986296
5414.00   8.16872311   0.06047787
5416.00   8.09924889   0.06083092
5418.00   8.20895290   0.06138596
5420.00   8.15694427   0.06164668
5422.00   8.15520096   0.06203782
5424.00   8.29325199   0.06248866
5426.00   8.50240135   0.06330159
5428.00   8.63781452   0.06387890
5430.00   8.57705498   0.06403990
5432.00   8.48051453   0.06407607
5434.00   8.46402931   0.06415468
5436.00   8.36117840   0.06423227
5438.00   8.14357090   0.06396305
5440.00   8.12431145   0.06421696
5442.00   7.99482584   0.06412603
5444.00   8.00191975   0.06459874
5446.00   8.24299335   0.06567594
5448.00   8.32565022   0.06631858
5450.00   8.26090813   0.06663486
5452.00   8.32958126   0.06702914
5454.00   8.45690441   0.06762786
5456.00   8.36666012   0.06897601
5458.00   8.32412338   0.07531685
5460.00   8.25064468   0.08120340
5462.00   8.40855408   0.08158747
5464.00   8.30375195   0.07754255
5466.00   8.22482204   0.07462572
5468.00   8.35047531   0.07283783
5470.00   8.32218552   0.07142291
5472.00   8.40867233   0.07090247
5474.00   8.39369488   0.07048050
5476.00   8.35714626   0.07034569
5478.00   8.31433678   0.07011547
5480.00   8.10741043   0.07020281
5482.00   8.38332272   0.07158878
5484.00   8.45431232   0.07210446
5486.00   8.43026543   0.07204145
5488.00   8.67748737   0.07201512
5490.00   8.72094536   0.07189087
5492.00   8.77543449   0.07186399
5494.00   8.71076202   0.07157195
5496.00   8.74466324   0.07193729
5498.00   8.83104706   0.07213066
5500.00   8.78994751   0.07180671
5502.00   8.83839321   0.07200176
5504.00   8.54627228   0.07119226
5506.00   8.60729980   0.07129285
5508.00   8.58796787   0.07150961
5510.00   8.61109257   0.07169574
5512.00   8.91224194   0.07314160
5514.00   8.94743347   0.07372650
5516.00   9.00191689   0.07390780
5518.00   8.85502815   0.07380150
5520.00   8.77180481   0.07366669
5522.00   8.78459549   0.07350318
5524.00   8.76965618   0.07354127
5526.00   8.79538822   0.07367355
5528.00   8.67857456   0.07332338
5530.00   8.81814384   0.07371569
5532.00   8.85685730   0.07363769
5534.00   8.88381290   0.07387051
5536.00   8.74238300   0.07366826
5538.00   8.86995029   0.07428434
5540.00   8.84064388   0.07464249
5542.00   8.84044552   0.07470337
5544.00   8.91475487   0.07496852
5546.00   8.84151936   0.07495406
5548.00   8.81242943   0.07517089
5550.00   8.71951485   0.07492015
5552.00   8.79099464   0.07531551
5554.00   8.67199230   0.12026706
5556.00   8.78631210   0.11996701
5558.00   8.81726551   0.11939057
5560.00   8.89388371   0.11891399
5562.00   8.96638584   0.11880248
5564.00   8.98475742   0.11908450
5566.00   8.91503525   0.11921957
5568.00   8.92825413   0.12007516
5570.00   8.93636703   0.12142233
5572.00   8.91130447   0.12349378
5574.00   8.84342098   0.12624307
5576.00   8.75611496   0.12886664
5578.00   8.74989510   0.12910835
5580.00   8.77137089   0.12725207
5582.00   8.78468990   0.12353441
5584.00   8.86325741   0.11834985
5586.00   8.78132439   0.11141726
5588.00   8.82536030   0.10687124
5590.00   8.85943604   0.10466969
5592.00   8.84295750   0.10387213
5594.00   9.00524902   0.10395802
5596.00   8.95348358   0.10302760
5598.00   8.87768459   0.10203197
5600.00   8.80444813   0.10109896
5602.00   8.75361252   0.10027573
5604.00   8.87857533   0.10012998
5606.00   8.81195354   0.09934616
5608.00   8.80415249   0.09879307
5610.00   8.83300495   0.09833226
5612.00   8.86693573   0.09784973
5614.00   8.96167660   0.09758957
5616.00   8.98301601   0.09703311
5618.00   8.94026566   0.09648015
5620.00   8.89638424   0.09620816
5622.00   8.89905262   0.09611323
5624.00   8.93803310   0.09574946
5626.00   8.93912125   0.09524160
5628.00   8.91638851   0.09484751
5630.00   8.88882160   0.09447944
5632.00   8.85733509   0.09374735
5634.00   8.82561970   0.09307297
5636.00   8.76127052   0.09236550
5638.00   8.67298603   0.09174812
5640.00   8.60113907   0.09122568
5642.00   8.56307888   0.09059596
5644.00   8.58840847   0.09027813
5646.00   8.55265045   0.08959427
5648.00   8.44890594   0.08896980
5650.00   8.37486553   0.08898675
5652.00   8.39735889   0.08759839
5654.00   8.34202862   0.08679555
5656.00   8.28607273   0.08634653
5658.00   8.18978214   0.08576370
5660.00   8.03687477   0.08497137
5662.00   8.03529263   0.08483342
5664.00   7.96911860   0.08452187
5666.00   7.89215994   0.08423737
5668.00   7.85642004   0.08415609
5670.00   7.85494375   0.08431870
5672.00   7.91115236   0.08484218
5674.00   7.93314171   0.08509866
5676.00   7.92241907   0.08527127
5678.00   7.90011215   0.08565272
5680.00   7.97422647   0.08656042
5682.00   8.02671719   0.08727059
5684.00   8.09250736   0.08829236
5686.00   8.12195396   0.08893123
5688.00   8.09646893   0.08902591
5690.00   8.06154156   0.08893412
5692.00   8.09781742   0.08851558
5694.00   8.04923153   0.08785232
5696.00   8.03511143   0.08712820
5698.00   8.15502262   0.08374564
5700.00   8.25076199   0.08289247
5702.00   8.19934845   0.08203010
5704.00   8.22480011   0.08509525
5706.00   8.27632809   0.08038044
5708.00   8.25677204   0.08049383
5710.00   8.25918102   0.08029675
5712.00   8.28887463   0.08017483
5714.00   8.27022266   0.07977930
5716.00   8.20693970   0.07917464
5718.00   8.16810894   0.07878020
5720.00   8.15306282   0.07833824
5722.00   8.13798809   0.07787877
5724.00   8.09094715   0.07738607
5726.00   8.04289150   0.07694391
5728.00   8.06996441   0.07673446
5730.00   8.05764771   0.07641269
5732.00   7.99327660   0.07587936
5734.00   7.89728403   0.07524830
5736.00   7.81832123   0.07474668
5738.00   7.83282852   0.07466476
5740.00   7.87628555   0.07459887
5742.00   7.90609169   0.07451897
5744.00   7.91207457   0.07439524
5746.00   7.90255117   0.07425930
5748.00   7.98211432   0.07456360
5750.00   7.97987223   0.07433865
5752.00   7.99020338   0.07420389
5754.00   8.02136612   0.07496691
5756.00   8.01850796   0.07683688
5758.00   7.91079521   0.07682784
5760.00   7.89366293   0.07702068
5762.00   7.85992813   0.07638365
5764.00   7.77424097   0.07507025
5766.00   7.74011421   0.07482077
5768.00   7.82718992   0.07558506
5770.00   7.82979774   0.07574258
5772.00   7.79429245   0.07544860
5774.00   7.74060965   0.07489695
5776.00   7.64522934   0.07410427
5778.00   7.47169352   0.07273379
5780.00   7.45244837   0.07201219
5782.00   7.45783663   0.07173745
5784.00   7.40370703   0.07166840
5786.00   7.40240479   0.07209915
5788.00   7.47459030   0.07296779
5790.00   7.52633667   0.07357538
5792.00   7.55908203   0.07376939
5794.00   7.59684324   0.07362689
5796.00   7.66368246   0.07330388
5798.00   7.73430490   0.07283973
5800.00   7.78744125   0.07227653
5802.00   7.80864525   0.07181323
5804.00   7.80998278   0.07165187
5806.00   7.77342367   0.07145869
5808.00   7.82066488   0.07154829
5810.00   7.83696985   0.07151126
5812.00   7.79721975   0.07130522
5814.00   7.77638483   0.07128514
5816.00   7.79953146   0.07122865
5818.00   7.80682230   0.07120359
5820.00   7.82275772   0.07127883
5822.00   7.84944773   0.07140446
5824.00   7.80240393   0.07123724
5826.00   7.74041128   0.07104185
5828.00   7.72307730   0.07103328
5830.00   7.74334478   0.07114204
5832.00   7.74840307   0.07114273
5834.00   7.75342226   0.07115379
5836.00   7.69226456   0.07097109
5838.00   7.72452021   0.07111075
5840.00   7.80693245   0.07142417
5842.00   7.84138107   0.07158162
5844.00   7.87831068   0.07174262
5846.00   7.90185499   0.07187503
5848.00   7.88281631   0.07184726
5850.00   7.85595131   0.07178103
5852.00   7.86314344   0.07182423
5854.00   7.89769173   0.07197189
5856.00   7.85432673   0.07188317
5858.00   7.76904345   0.07175892
5860.00   7.70505285   0.07174193
5862.00   7.72321272   0.07192031
5864.00   7.76971388   0.07236031
5866.00   7.77914047   0.07268571
5868.00   7.83929634   0.07304897
5870.00   7.96021652   0.07344959
5872.00   8.01730156   0.07353959
5874.00   8.11504745   0.07367241
5876.00   8.12652683   0.07368795
5878.00   8.08436680   0.07383483
5880.00   8.04571629   0.07460976
5882.00   8.01359177   0.07647493
5884.00   7.97443056   0.08032834
5886.00   7.90596008   0.08591863
5888.00   7.86693430   0.09206349
5890.00   7.87407827   0.09725094
5892.00   7.82400274   0.10013896
5894.00   7.84504890   0.10164847
5896.00   8.03180599   0.10014149
5898.00   8.20388317   0.09551670
5900.00   8.14395428   0.08933932
5902.00   8.21797657   0.08429673
5904.00   8.32406330   0.07938761
5906.00   8.37639236   0.07560413
5908.00   8.37997532   0.07382368
5910.00   8.40118504   0.07395511
5912.00   8.41032887   0.07413089
5914.00   8.40842819   0.07426526
5916.00   8.42494106   0.07436412
5918.00   8.42787075   0.07433625
5920.00   8.34884167   0.07404820
5922.00   8.33022213   0.07400607
5924.00   8.37973309   0.07419330
5926.00   8.41634083   0.07434797
5928.00   8.39360332   0.07431608
5930.00   8.35839844   0.07426637
5932.00   8.38646317   0.07432916
5934.00   8.37164974   0.07418887
5936.00   8.31291199   0.07384648
5938.00   8.24573231   0.07342052
5940.00   8.28720093   0.07331118
5942.00   8.33025265   0.07321210
5944.00   8.36769390   0.07314235
5946.00   8.39330769   0.07310387
5948.00   8.43073940   0.07317572
5950.00   8.48273945   0.07350449
5952.00   8.53419113   0.07371763
5954.00   8.54851437   0.07369462
5956.00   8.51950169   0.07345434
5958.00   8.44280624   0.07301051
5960.00   8.28043747   0.07224747
5962.00   8.06051350   0.07130760
5964.00   7.78500509   0.07021880
5966.00   7.47725248   0.06907982
5968.00   7.18210173   0.06802767
5970.00   6.95189238   0.06714607
5972.00   6.86022377   0.06684473
5974.00   6.96214676   0.06726269
5976.00   7.25896788   0.06828567
5978.00   7.59905386   0.06932991
5980.00   7.82036209   0.07013070
5982.00   8.03623486   0.07083013
5984.00   8.23500729   0.07132450
5986.00   8.34827137   0.07144796
5988.00   8.38709354   0.07148517
5990.00   8.36358547   0.07138727
5992.00   8.32098770   0.07123969
5994.00   8.27571774   0.07102882
5996.00   8.24769306   0.07082482
5998.00   8.25627804   0.07071424
6000.00   8.25367260   0.07069450
6002.00   8.21848583   0.07060526
6004.00   8.18266392   0.07044033
6006.00   8.20492077   0.07032883
6008.00   8.21928883   0.07020215
6010.00   8.20836735   0.07001194
6012.00   8.16817093   0.06976032
6014.00   8.12543011   0.06949227
6016.00   8.06074238   0.06920525
6018.00   8.06476498   0.06910238
6020.00   8.07063961   0.06906360
6022.00   8.07200527   0.06903261
6024.00   8.04267979   0.06887805
6026.00   8.02219296   0.06882880
6028.00   8.01727581   0.06878398
6030.00   7.96179724   0.06853615
6032.00   7.90728188   0.06828222
6034.00   7.88779116   0.06819966
6036.00   7.88347054   0.06808033
6038.00   7.87124634   0.06791551
6040.00   7.87788439   0.06784561
6042.00   7.90202093   0.06785203
6044.00   7.87586355   0.06772292
6046.00   7.86070108   0.06757257
6048.00   7.87350321   0.06755025
6050.00   7.88520479   0.06754806
6052.00   7.87760353   0.06746455
6054.00   7.84369040   0.06726262
6056.00   7.80918932   0.06705578
6058.00   7.75003099   0.06679288
6060.00   7.67113495   0.06649914
6062.00   7.60192823   0.06624619
6064.00   7.60160065   0.06618930
6066.00   7.61405706   0.06616750
6068.00   7.62196732   0.06617422
6070.00   7.64811707   0.06624972
6072.00   7.69463015   0.06635087
6074.00   7.70766592   0.06632897
6076.00   7.67245817   0.06619693
6078.00   7.63843918   0.06604489
6080.00   7.62805128   0.06592695
6082.00   7.62072182   0.06584197
6084.00   7.58828020   0.06568726
6086.00   7.53115845   0.06550288
6088.00   7.48382950   0.06536194
6090.00   7.48286676   0.06535748
6092.00   7.52186632   0.06554547
6094.00   7.51818323   0.06557242
6096.00   7.46821547   0.06542370
6098.00   7.43241501   0.06535013
6100.00   7.43218374   0.06545480
6102.00   7.40416956   0.06556630
6104.00   7.42251539   0.06585018
6106.00   7.44792557   0.06625407
6108.00   7.45767212   0.06671153
6110.00   7.47451019   0.06722663
6112.00   7.54105186   0.06777420
6114.00   7.62362146   0.06821924
6116.00   7.64436483   0.06817179
6118.00   7.61950111   0.06774943
6120.00   7.58105278   0.06718270
6122.00   7.53074646   0.06644494
6124.00   7.54660082   0.06607836
6126.00   7.57555628   0.06584100
6128.00   7.60026979   0.06565335
6130.00   7.61542368   0.06552237
6132.00   7.58962679   0.06534988
6134.00   7.57789755   0.06529751
6136.00   7.56136942   0.06525605
6138.00   7.53917503   0.06518655
6140.00   7.50503159   0.06509086
6142.00   7.51393127   0.06512338
6144.00   7.51180649   0.06510082
6146.00   7.49181986   0.06499413
6148.00   7.45250893   0.06482165
6150.00   7.46961069   0.06492092
6152.00   7.50602961   0.06510929
6154.00   7.50727320   0.06528106
6156.00   7.49426031   0.06544048
6158.00   7.48300028   0.06554804
6160.00   7.46029520   0.06553785
6162.00   7.42893457   0.06525738
6164.00   7.39943838   0.06494480
6166.00   7.36444521   0.06457159
6168.00   7.34344339   0.06409770
6170.00   7.34447622   0.06369115
6172.00   7.33158445   0.06342408
6174.00   7.32243538   0.06331083
6176.00   7.33765268   0.06326540
6178.00   7.35557699   0.06311505
6180.00   7.26070786   0.06267206
6182.00   7.24492025   0.06258933
6184.00   7.22825575   0.06247853
6186.00   7.18339109   0.06223190
6188.00   7.13494158   0.06208077
6190.00   7.18604708   0.06221757
6192.00   7.24628830   0.06238371
6194.00   7.27482224   0.06244459
6196.00   7.28491831   0.06246951
6198.00   7.23846674   0.06237435
6200.00   7.18519211   0.06218550
6202.00   7.13478088   0.06198381
6204.00   7.07434464   0.06177287
6206.00   7.02176332   0.06162263
6208.00   7.05145454   0.06183305
6210.00   7.09199190   0.06193793
6212.00   7.09167624   0.06183628
6214.00   7.04809189   0.06157629
6216.00   6.99853945   0.06129019
6218.00   6.93723249   0.06100421
6220.00   6.91042948   0.06081153
6222.00   6.92140961   0.06076293
6224.00   6.93542624   0.06075912
6226.00   6.93654251   0.06074365
6228.00   7.00983047   0.06097121
6230.00   7.04693604   0.06124739
6232.00   7.03842020   0.06161546
6234.00   6.99181175   0.06202202
6236.00   6.88311958   0.06214150
6238.00   6.81471205   0.06208789
6240.00   6.80859184   0.06196870
6242.00   6.79784632   0.06159182
6244.00   6.72783899   0.06084161
6246.00   6.63244247   0.06002034
6248.00   6.62056780   0.05959521
6250.00   6.66553259   0.05958331
6252.00   6.71816063   0.05991328
6254.00   6.75480318   0.06046261
6256.00   6.78949881   0.06090257
6258.00   6.87712288   0.06140609
6260.00   6.92384291   0.06165161
6262.00   6.93873930   0.06168310
6264.00   6.96255875   0.06165744
6266.00   6.96147346   0.06121632
6268.00   6.97751665   0.06101572
6270.00   6.96866465   0.06085774
6272.00   6.93666077   0.06065514
6274.00   6.88719940   0.06041698
6276.00   6.99605036   0.06135811
6278.00   7.03318930   0.06181641
6280.00   6.99271727   0.06167174
6282.00   6.94058418   0.06131682
6284.00   7.01970863   0.06153798
6286.00   7.13546371   0.06181182
6288.00   7.11912584   0.06161059
6290.00   7.06115341   0.06138713
6292.00   7.05608368   0.06172554
6294.00   6.99496794   0.06267492
6296.00   6.98374891   0.06563462
6298.00   6.97291899   0.06874669
6300.00   6.92915201   0.07058004
6302.00   6.86284828   0.07065106
6304.00   6.89904213   0.07048021
6306.00   6.90151834   0.06835260
6308.00   6.86961985   0.06505337
6310.00   6.87291336   0.06210331
6312.00   6.93381834   0.06084506
6314.00   6.93467712   0.06005146
6316.00   6.93963623   0.05963034
6318.00   6.94286346   0.05943203
6320.00   6.94611979   0.05939221
6322.00   6.92626810   0.05949591
6324.00   6.92627668   0.05949292
6326.00   6.87402105   0.05947005
6328.00   6.83945847   0.05947316
6330.00   6.85068130   0.05945874
6332.00   6.88272333   0.05950527
6334.00   6.91625595   0.05943346
6336.00   6.90851641   0.05906320
6338.00   6.88583422   0.05857884
6340.00   6.86686325   0.05821858
6342.00   6.83309889   0.05810438
6344.00   6.85750151   0.05818926
6346.00   6.91657257   0.05845014
6348.00   6.98471689   0.05875814
6350.00   7.04482031   0.05901322
6352.00   7.11086988   0.05933388
6354.00   7.12643671   0.05954350
6356.00   7.15783882   0.05982348
6358.00   7.18694067   0.06038345
6360.00   7.14449930   0.06130677
6362.00   7.15559530   0.06234080
6364.00   7.19858503   0.06275166
6366.00   7.21246386   0.06261221
6368.00   7.18269968   0.06200342
6370.00   7.21243334   0.06106098
6372.00   7.30997038   0.06006914
6374.00   7.34173059   0.05943503
6376.00   7.29912424   0.05912136
6378.00   7.23042679   0.05899051
6380.00   7.24924421   0.05903969
6382.00   7.25473976   0.05910049
6384.00   7.25277901   0.05912125
6386.00   7.26840162   0.05912516
6388.00   7.29647303   0.05908169
6390.00   7.29253435   0.05893369
6392.00   7.32335901   0.05892059
6394.00   7.38815546   0.05897571
6396.00   7.42148829   0.05894559
6398.00   7.37809515   0.05877001
6400.00   7.33152914   0.05862359
6402.00   7.30836535   0.05853354
6404.00   7.30864716   0.05849808
6406.00   7.32263947   0.05849424
6408.00   7.34777689   0.05852874
6410.00   7.44598532   0.05881388
6412.00   7.53327227   0.05903248
6414.00   7.57506418   0.05916942
6416.00   7.58053207   0.05923452
6418.00   7.58543921   0.05923088
6420.00   7.52249527   0.05894497
6422.00   7.52094460   0.05880558
6424.00   7.55900192   0.05882478
6426.00   7.57886267   0.05886040
6428.00   7.54719543   0.05869557
6430.00   7.59867096   0.05875241
6432.00   7.63808107   0.05881980
6434.00   7.64894485   0.05884103
6436.00   7.65243340   0.05883915
6438.00   7.72357321   0.05900049
6440.00   7.64780045   0.05873030
6442.00   7.57543802   0.05847781
6444.00   7.53500366   0.05830942
6446.00   7.51615095   0.05818405
6448.00   7.51919746   0.05822718
6450.00   7.57080317   0.05844172
6452.00   7.63358688   0.05869514
6454.00   7.70417404   0.05894488
6456.00   7.79729795   0.05919068
6458.00   7.82885981   0.05933471
6460.00   7.88539934   0.05970341
6462.00   7.91130209   0.06004660
6464.00   7.89265299   0.06022788
6466.00   7.89627838   0.06041339
6468.00   7.95438766   0.06069615
6470.00   7.95036554   0.06065665
6472.00   7.92211580   0.06039672
6474.00   7.92307281   0.06010869
6476.00   7.91003036   0.05977841
6478.00   7.90703201   0.05952170
6480.00   7.91246271   0.05933128
6482.00   7.91047239   0.05918628
6484.00   7.89601088   0.05909416
6486.00   7.91071701   0.05906202
6488.00   7.91764688   0.05902521
6490.00   7.91287565   0.05900382
6492.00   7.92306757   0.05917482
6494.00   7.96668243   0.05965219
6496.00   7.99076605   0.06018166
6498.00   7.99443960   0.06049417
6500.00   8.01577091   0.06076360
6502.00   8.04471302   0.06093835
6504.00   8.01213360   0.06071875
6506.00   7.97718573   0.06011232
6508.00   8.02769566   0.06017597
6510.00   8.08415604   0.06060772
6512.00   8.07866955   0.06083138
6514.00   8.07216167   0.06053839
6516.00   8.07661533   0.06198095
6518.00   8.07874203   0.06294653
6520.00   8.07199097   0.06270611
6522.00   8.07151794   0.06169039
6524.00   8.07127857   0.06185931
6526.00   8.15037823   0.06179857
6528.00   8.16274261   0.06176086
6530.00   8.12163067   0.06176876
6532.00   8.12736034   0.06149258
6534.00   8.13785839   0.06101546
6536.00   8.09442806   0.06060981
6538.00   8.07249260   0.06023316
6540.00   8.08600712   0.05983543
6542.00   8.07842255   0.05948829
6544.00   8.13319397   0.05963338
6546.00   8.14566326   0.05969829
6548.00   8.11371517   0.05971952
6550.00   8.07693768   0.05983786
6552.00   8.11939335   0.06022209
6554.00   8.16740036   0.06041515
6556.00   8.19436073   0.06052033
6558.00   8.21275043   0.06067647
6560.00   8.24696255   0.06092058
6562.00   8.28061962   0.06094312
6564.00   8.24536991   0.06079867
6566.00   8.22381210   0.06075114
6568.00   8.23262691   0.06058822
6570.00   8.25378895   0.06016445
6572.00   8.19374561   0.05972882
6574.00   8.20163441   0.05985824
6576.00   8.15413857   0.05982498
6578.00   8.04727459   0.05949947
6580.00   7.95048141   0.05911529
6582.00   7.87023544   0.05869718
6584.00   7.77425432   0.05806527
6586.00   7.79064226   0.05776364
6588.00   7.91906595   0.05796537
6590.00   8.04006958   0.05838547
6592.00   8.08784008   0.05856635
6594.00   8.17977428   0.05895168
6596.00   8.25360966   0.05923176
6598.00   8.27368450   0.05930084
6600.00   8.24508762   0.05929399
6602.00   8.21310711   0.05929686
6604.00   8.19145870   0.05920960
6606.00   8.20357800   0.05916173
6608.00   8.22865772   0.05914620
6610.00   8.21404266   0.05893413
6612.00   8.20731831   0.05878187
6614.00   8.20597744   0.05861386
6616.00   8.21223354   0.05850362
6618.00   8.22473812   0.05849731
6620.00   8.18908596   0.05836657
6622.00   8.18899155   0.05838665
6624.00   8.20476151   0.05845220
6626.00   8.21306896   0.05850231
6628.00   8.19257927   0.05850776
6630.00   8.22621632   0.05866016
6632.00   8.18056965   0.05852436
6634.00   8.12504101   0.05832146
6636.00   8.07435322   0.05810811
6638.00   8.00202847   0.05778127
6640.00   7.90991449   0.05739149
6642.00   7.83184862   0.05705969
6644.00   7.73232126   0.05668361
6646.00   7.57887030   0.05614389
6648.00   7.37886953   0.05542751
6650.00   7.23510790   0.05491208
6652.00   7.19913483   0.05479461
6654.00   7.22613525   0.05487365
6656.00   7.27805471   0.05498930
6658.00   7.40636587   0.05543171
6660.00   7.56051874   0.05597703
6662.00   7.69908142   0.05645039
6664.00   7.80851889   0.05680587
6666.00   7.88693619   0.05706807
6668.00   7.95432091   0.05731789
6670.00   8.00888348   0.05747135
6672.00   8.03731728   0.05755171
6674.00   8.02500248   0.05748045
6676.00   7.99249125   0.05723439
6678.00   7.92961121   0.05699800
6680.00   7.83516550   0.05670530
6682.00   7.77786112   0.05647641
6684.00   7.76925278   0.05636911
6686.00   7.78556681   0.05643452
6688.00   7.78329659   0.05640933
6690.00   7.80725336   0.05643656
6692.00   7.81819344   0.05648496
6694.00   7.80210638   0.05650840
6696.00   7.78105545   0.05639933
6698.00   7.75946951   0.05632121
6700.00   7.73614264   0.05625598
6702.00   7.75358582   0.05636327
6704.00   7.79803324   0.05660772
6706.00   7.76671791   0.05667067
6708.00   7.75411940   0.05661687
6710.00   7.73555374   0.05650432
6712.00   7.73029184   0.05643709
6714.00   7.73917723   0.05640769
6716.00   7.70364237   0.05614756
6718.00   7.64047003   0.05588434
6720.00   7.59687567   0.05569762
6722.00   7.59243345   0.05561732
6724.00   7.57125044   0.05548408
6726.00   7.53522158   0.05536465
6728.00   7.50208664   0.05521779
6730.00   7.49381256   0.05517611
6732.00   7.51594162   0.05525708
6734.00   7.52446508   0.05526960
6736.00   7.46892023   0.05509667
6738.00   7.46639776   0.05508626
6740.00   7.50145960   0.05517676
6742.00   7.49369287   0.05512514
6744.00   7.41845942   0.05486311
6746.00   7.39351654   0.05480056
6748.00   7.39168692   0.05475437
6750.00   7.38704824   0.05466309
6752.00   7.35211372   0.05450479
6754.00   7.33182669   0.05449094
6756.00   7.31749105   0.05442162
6758.00   7.33914328   0.05448001
6760.00   7.35722208   0.05456898
6762.00   7.31502295   0.05448326
6764.00   7.32077408   0.05450034
6766.00   7.28681040   0.05429643
6768.00   7.23721743   0.05414379
6770.00   7.18280220   0.05408633
6772.00   7.14627504   0.05400668
6774.00   7.17009020   0.05404078
6776.00   7.20124054   0.05412683
6778.00   7.23571968   0.05418971
6780.00   7.26062155   0.05416434
6782.00   7.23761225   0.05401653
6784.00   7.15197706   0.05372698
6786.00   7.11602163   0.05359002
6788.00   7.12554789   0.05355303
6790.00   7.13921165   0.05350369
6792.00   7.12819910   0.05347034
6794.00   7.09489775   0.05338584
6796.00   7.08190966   0.05331641
6798.00   7.08095598   0.05329782
6800.00   7.06222391   0.05326565
6802.00   6.99000883   0.05301576
6804.00   6.97038603   0.05291779
6806.00   6.96041727   0.05282864
6808.00   6.93464422   0.05270609
6810.00   6.88921118   0.05257722
6812.00   6.90401459   0.05262190
6814.00   6.90685081   0.05266073
6816.00   6.91279173   0.05268999
6818.00   6.92821550   0.05273110
6820.00   6.95793295   0.05285982
6822.00   6.97921228   0.05312404
6824.00   6.95223856   0.05359377
6826.00   6.91810560   0.05427268
6828.00   6.89668989   0.05500358
6830.00   6.85946655   0.05551285
6832.00   6.78294134   0.05586171
6834.00   6.78363609   0.05580707
6836.00   6.79834127   0.05531183
6838.00   6.75850487   0.05450559
6840.00   6.71757746   0.05376752
6842.00   6.71896362   0.05313556
6844.00   6.79156113   0.05285966
6846.00   6.84911871   0.05279056
6848.00   6.82907629   0.05270676
6850.00   6.84760284   0.05254385
6852.00   6.89243078   0.05261049
6854.00   6.90559816   0.05263592
6856.00   6.88203192   0.05266586
6858.00   6.84538126   0.05296049
6860.00   6.77966547   0.05363470
6862.00   6.77589941   0.05502770
6864.00   6.83222771   0.05716843
6866.00   6.89102793   0.05959736
6868.00   6.87499571   0.06156457
6870.00   6.87640238   0.06265394
6872.00   6.83705902   0.06229107
6874.00   6.75544310   0.06071642
6876.00   6.68857050   0.05866532
6878.00   6.71682882   0.05718739
6880.00   6.73285866   0.05591039
6882.00   6.74818945   0.05522608
6884.00   6.75781965   0.05519046
6886.00   6.75396204   0.05555981
6888.00   6.76014853   0.05587061
6890.00   6.77923584   0.05631180
6892.00   6.77349806   0.05646159
6894.00   6.72413874   0.05608933
6896.00   6.67524958   0.05540898
6898.00   6.71113825   0.05530696
6900.00   6.74812174   0.05536775
6902.00   6.74929667   0.05527629
6904.00   6.73911047   0.05501245
6906.00   6.75323486   0.05471793
6908.00   6.76037598   0.05464540
6910.00   6.77591467   0.05468373
6912.00   6.77964640   0.05459760
6914.00   6.76016474   0.05433609
6916.00   6.74895668   0.05416140
6918.00   6.73528862   0.05406007
6920.00   6.73077822   0.05424356
6922.00   6.73781443   0.05444731
6924.00   6.75320482   0.05450143
6926.00   6.74799347   0.05446736
6928.00   6.71018219   0.05406132
6930.00   6.68369722   0.05318829
6932.00   6.66744852   0.05238893
6934.00   6.64831018   0.05221029
6936.00   6.63743830   0.05253927
6938.00   6.62037230   0.05275980
6940.00   6.68436003   0.05306773
6942.00   6.76068687   0.05344406
6944.00   6.73069143   0.05370695
6946.00   6.64682150   0.05383112
6948.00   6.61180353   0.05381358
6950.00   6.59457731   0.05368857
6952.00   6.58865213   0.05355400
6954.00   6.62999773   0.05352747
6956.00   6.67349005   0.05291824
6958.00   6.75754309   0.05250536
6960.00   6.80010271   0.05224681
6962.00   6.77646637   0.05204995
6964.00   6.76205206   0.05198437
6966.00   6.78619623   0.05223443
6968.00   6.77454805   0.05236543
6970.00   6.73159981   0.05229514
6972.00   6.69399214   0.05222668
6974.00   6.73662949   0.05272705
6976.00   6.74187994   0.05297579
6978.00   6.76956320   0.05307990
6980.00   6.79816818   0.05314691
6982.00   6.79453802   0.05319290
6984.00   6.82295418   0.05308099
6986.00   6.88327932   0.05284170
6988.00   6.89797926   0.05255872
6990.00   6.86910295   0.05231591
6992.00   6.82319117   0.05213889
6994.00   6.84541559   0.05223630
6996.00   6.86156988   0.05229554
6998.00   6.85735512   0.05228359
7000.00   6.83463287   0.05226452
7002.00   6.82690954   0.05234950
7004.00   6.80696440   0.05221279
7006.00   6.78204966   0.05230628
7008.00   6.76227236   0.05248830
7010.00   6.75682211   0.05257447
7012.00   6.77515650   0.05248668
7014.00   6.72402191   0.05215202
7016.00   6.68653250   0.05178862
7018.00   6.67305231   0.05154226
7020.00   6.69134283   0.05148715
7022.00   6.69364500   0.05132719
7024.00   6.73949003   0.05157803
7026.00   6.76629448   0.05170489
7028.00   6.77997255   0.05170821
7030.00   6.79068947   0.05172193
7032.00   6.74561167   0.05161138
7034.00   6.74207258   0.05146876
7036.00   6.73676682   0.05144209
7038.00   6.73016405   0.05151957
7040.00   6.71538353   0.05153314
7042.00   6.66717720   0.05136485
7044.00   6.67946625   0.05149570
7046.00   6.71675539   0.05178665
7048.00   6.75487137   0.05209326
7050.00   6.79703760   0.05233742
7052.00   6.77279711   0.05219277
7054.00   6.74253845   0.05199087
7056.00   6.72945023   0.05174547
7058.00   6.72730494   0.05150515
7060.00   6.77897882   0.05168253
7062.00   6.79115629   0.05182277
7064.00   6.76100779   0.05161946
7066.00   6.69354105   0.05133527
7068.00   6.61749077   0.05119839
7070.00   6.60273361   0.05101028
7072.00   6.59793091   0.05108135
7074.00   6.60402822   0.05111577
7076.00   6.62562370   0.05109874
7078.00   6.65664911   0.05117227
7080.00   6.71618319   0.05162032
7082.00   6.73249817   0.05157921
7084.00   6.72467184   0.05148487
7086.00   6.71245909   0.05150832
7088.00   6.73310471   0.05166963
7090.00   6.68370199   0.05147402
7092.00   6.67605591   0.05143621
7094.00   6.65804434   0.05119563
7096.00   6.61874914   0.05082535
7098.00   6.59538698   0.05080259
7100.00   6.58681297   0.05076576
7102.00   6.56577110   0.05056428
7104.00   6.56653452   0.05045326
7106.00   6.59602976   0.05054733
7108.00   6.56755209   0.05049714
7110.00   6.56303406   0.05058388
7112.00   6.54980230   0.05053473
7114.00   6.53883553   0.05044996
7116.00   6.54710627   0.05047306
7118.00   6.57035017   0.05051212
7120.00   6.61174726   0.05079335
7122.00   6.64673376   0.05089382
7124.00   6.65662241   0.05092251
7126.00   6.64963388   0.05112030
7128.00   6.63475037   0.05092598
7130.00   6.63148642   0.05084116
7132.00   6.64192390   0.05083032
7134.00   6.65819216   0.05090637
7136.00   6.68790627   0.05111688
7138.00   6.74138451   0.05126234
7140.00   6.75939608   0.05130133
7142.00   6.74691534   0.05135966
7144.00   6.71394205   0.05142625
7146.00   6.63290262   0.05120939
7148.00   6.57354116   0.05090725
7150.00   6.50861406   0.05054712
7152.00   6.42464066   0.05012307
7154.00   6.34932661   0.04979490
7156.00   6.34587908   0.04984376
7158.00   6.41338396   0.05014243
7160.00   6.39588118   0.05022549
7162.00   6.34410238   0.05012185
7164.00   6.35815477   0.05014825
7166.00   6.39646530   0.05066568
7168.00   6.43147421   0.05103374
7170.00   6.47208166   0.05143495
7172.00   6.49150610   0.05170257
7174.00   6.47177124   0.05163400
7176.00   6.46878624   0.05177401
7178.00   6.43596077   0.05182247
7180.00   6.38607979   0.05176101
7182.00   6.31504059   0.05161737
7184.00   6.23132753   0.05147668
7186.00   6.19779634   0.05127186
7188.00   6.22257566   0.05154648
7190.00   6.23612165   0.05157598
7192.00   6.24311590   0.05126576
7194.00   6.29823112   0.05129829
7196.00   6.29457664   0.05133717
7198.00   6.28602982   0.05136907
7200.00   6.29250479   0.05138570
7202.00   6.30033302   0.05137719
7204.00   6.25148630   0.05125816
7206.00   6.22135782   0.05088672
7208.00   6.23023844   0.05055659
7210.00   6.26047564   0.05021703
7212.00   6.26213694   0.04974936
7214.00   6.24772263   0.04949387
7216.00   6.25504303   0.04945862
7218.00   6.25491333   0.04943877
7220.00   6.23369646   0.04939409
7222.00   6.17784548   0.04933614
7224.00   6.12425232   0.04930518
7226.00   6.14237595   0.04942483
7228.00   6.19029427   0.04976274
7230.00   6.21267939   0.05020780
7232.00   6.17912912   0.05063441
7234.00   6.21029806   0.05163760
7236.00   6.25094843   0.05375436
7238.00   6.22371149   0.05577780
7240.00   6.14908743   0.05724171
7242.00   6.12870264   0.05877492
7244.00   6.08207178   0.05884768
7246.00   6.11962652   0.05805287
7248.00   6.19042730   0.05686602
7250.00   6.23874331   0.05557622
7252.00   6.23878336   0.05394127
7254.00   6.22605896   0.05263932
7256.00   6.18086767   0.05173325
7258.00   6.16096735   0.05117820
7260.00   6.20576715   0.05086635
7262.00   6.19803286   0.05055331
7264.00   6.24056244   0.05057314
7266.00   6.29626703   0.05084546
7268.00   6.35562563   0.05134600
7270.00   6.38459063   0.05212351
7272.00   6.35245275   0.05423205
7274.00   6.34532499   0.05660650
7276.00   6.34471560   0.05794846
7278.00   6.31171036   0.05804802
7280.00   6.22657537   0.05764914
7282.00   6.21989012   0.05655352
7284.00   6.18645716   0.05447549
7286.00   6.15337229   0.05280060
7288.00   6.14636850   0.05230765
7290.00   6.14980125   0.05215820
7292.00   6.18069315   0.05161779
7294.00   6.22456884   0.05129539
7296.00   6.24937487   0.05113373
7298.00   6.23852205   0.05108834
7300.00   6.22117090   0.05149443
7302.00   6.17791605   0.05168015
7304.00   6.19252205   0.05178842
7306.00   6.22583628   0.05180497
7308.00   6.23501205   0.05175559
7310.00   6.25269318   0.05175902
7312.00   6.28657532   0.05299750
7314.00   6.31762075   0.05451108
7316.00   6.31804228   0.05537608
7318.00   6.27319765   0.05510664
7320.00   6.29001474   0.05465204
7322.00   6.34770203   0.05355833
7324.00   6.37313843   0.05240698
7326.00   6.37996101   0.05186846
7328.00   6.45294380   0.05231755
7330.00   6.45888376   0.05254110
7332.00   6.44766951   0.05261082
7334.00   6.43066216   0.05254082
7336.00   6.40607977   0.05297987
7338.00   6.33631754   0.05492294
7340.00   6.35321236   0.05552787
7342.00   6.37387419   0.05558052
7344.00   6.37393332   0.05524704
7346.00   6.37385511   0.05440718
7348.00   6.37218332   0.05227368
7350.00   6.41608286   0.05075656
7352.00   6.46574545   0.05046058
7354.00   6.48979187   0.05111681
7356.00   6.48727655   0.05195270
7358.00   6.47099829   0.05202533
7360.00   6.46312332   0.05303535
7362.00   6.45573759   0.05325923
7364.00   6.45404768   0.05288182
7366.00   6.48474646   0.05361341
7368.00   6.49804068   0.05478340
7370.00   6.53499460   0.05529652
7372.00   6.53116274   0.05546999
7374.00   6.47379923   0.05513823
7376.00   6.42422485   0.05348217
7378.00   6.41963911   0.05114418
7380.00   6.43568277   0.05043968
7382.00   6.43412209   0.05070753
7384.00   6.38178635   0.05075654
7386.00   6.33872032   0.05045417
7388.00   6.32572508   0.05117227
7390.00   6.34923172   0.05135702
7392.00   6.38681984   0.05142282
7394.00   6.42051554   0.05226217
7396.00   6.47079897   0.05365592
7398.00   6.53153372   0.05419138
7400.00   6.55577898   0.05378705
7402.00   6.54289007   0.05333680
7404.00   6.54706717   0.05384241
7406.00   6.53284454   0.05294684
7408.00   6.49834394   0.05201510
7410.00   6.49060106   0.05163628
7412.00   6.51248932   0.05180195
7414.00   6.55147219   0.05209969
7416.00   6.56520319   0.05227145
7418.00   6.57786942   0.05137062
7420.00   6.57476425   0.05028779
7422.00   6.57287598   0.04992932
7424.00   6.57127905   0.05020547
7426.00   6.59531927   0.05059611
7428.00   6.58634806   0.05081072
7430.00   6.60181284   0.05098695
7432.00   6.66419649   0.05132147
7434.00   6.73015165   0.05200795
7436.00   6.68615675   0.05222738
7438.00   6.70676088   0.05233458
7440.00   6.73675966   0.05231902
7442.00   6.70027494   0.05211152
7444.00   6.68515015   0.05161290
7446.00   6.67778254   0.05094257
7448.00   6.65379190   0.05041048
7450.00   6.63487482   0.05018161
7452.00   6.61673546   0.05014673
7454.00   6.61012316   0.05020522
7456.00   6.58398199   0.05017248
7458.00   6.58655024   0.05026868
7460.00   6.61022949   0.05053318
7462.00   6.62264633   0.05089303
7464.00   6.65137053   0.05123943
7466.00   6.68789291   0.05168576
7468.00   6.72916937   0.05220668
7470.00   6.76351881   0.05268281
7472.00   6.76072931   0.05285667
7474.00   6.75353003   0.05290907
7476.00   6.77958822   0.05313810
7478.00   6.80149603   0.05340950
7480.00   6.78427696   0.05347601
7482.00   6.71084642   0.05313450
7484.00   6.66588259   0.05271962
7486.00   6.64640045   0.05223544
7488.00   6.65229464   0.05178322
7490.00   6.65152550   0.05137786
7492.00   6.68804169   0.05114248
7494.00   6.68758011   0.05098066
7496.00   6.69605112   0.05096662
7498.00   6.71052933   0.05096772
7500.00   6.70726633   0.05081640
7502.00   6.69774103   0.05067300
7504.00   6.69749784   0.05059482
7506.00   6.71662283   0.05059954
7508.00   6.73507309   0.05060745
7510.00   6.70695496   0.05045651
7512.00   6.68352652   0.05048930
7514.00   6.65167236   0.05075809
7516.00   6.61760664   0.05113184
7518.00   6.59742355   0.05173726
7520.00   6.61387300   0.05309756
7522.00   6.65134859   0.05411473
7524.00   6.70159388   0.05452698
7526.00   6.73759604   0.05467298
7528.00   6.74899340   0.05470990
7530.00   6.76329947   0.05389680
7532.00   6.79249048   0.05278109
7534.00   6.79554510   0.05203098
7536.00   6.77312326   0.05164718
7538.00   6.74792337   0.05131261
7540.00   6.73467064   0.05100910
7542.00   6.70567322   0.05085562
7544.00   6.68083334   0.05073540
7546.00   6.67266226   0.05060844
7548.00   6.66756058   0.05047134
7550.00   6.68260956   0.05048759
7552.00   6.73847914   0.05084530
7554.00   6.77589417   0.05124894
7556.00   6.76280737   0.05144848
7558.00   6.71177816   0.05135785
7560.00   6.66514587   0.05120761
7562.00   6.65226221   0.05113072
7564.00   6.68120718   0.05120348
7566.00   6.73057032   0.05155970
7568.00   6.73271608   0.05235707
7570.00   6.71833563   0.05310364
7572.00   6.70932341   0.05345453
7574.00   6.70923471   0.05346528
7576.00   6.70099258   0.05316609
7578.00   6.66982412   0.05228171
7580.00   6.68193388   0.05144484
7582.00   6.70582199   0.05129737
7584.00   6.71554327   0.05159412
7586.00   6.69344139   0.05177823
7588.00   6.72528315   0.05215327
7590.00   6.72231054   0.05343018
7592.00   6.67480993   0.05575536
7594.00   6.61988878   0.05971347
7596.00   6.60996819   0.06604765
7598.00   6.64871264   0.07572957
7600.00   6.72432566   0.08804915
7602.00   6.79625273   0.09832653
7604.00   6.83188629   0.10382435
7606.00   6.82378387   0.10362369
7608.00   6.85654593   0.09834254
7610.00   6.74948835   0.09006973
7612.00   6.63268518   0.08066495
7614.00   6.64167738   0.07224896
7616.00   6.77521563   0.06677311
7618.00   6.74892664   0.06381505
7620.00   6.71413660   0.06296371
7622.00   6.73202181   0.06420881
7624.00   6.78814173   0.06733703
7626.00   6.73331785   0.07120562
7628.00   6.76903343   0.07380056
7630.00   6.79325294   0.07409418
7632.00   6.76427078   0.07292926
7634.00   6.73710299   0.07187720
7636.00   6.74668837   0.06955352
7638.00   6.63646698   0.06713948
7640.00   6.60517931   0.06559863
7642.00   6.69076538   0.06466994
7644.00   6.72942924   0.06305280
7646.00   6.71706772   0.06211205
7648.00   6.75545549   0.06115672
7650.00   6.76527166   0.06024889
7652.00   6.73980331   0.05944867
7654.00   6.77326345   0.05849176
7656.00   6.74367905   0.05760772
7658.00   6.72645760   0.05709757
7660.00   6.73013115   0.05681147
7662.00   6.73916197   0.05648836
7664.00   6.72293615   0.05589743
7666.00   6.74385500   0.05522623
7668.00   6.74020576   0.05440152
7670.00   6.72520494   0.05355160
7672.00   6.72852087   0.05287227
7674.00   6.74276161   0.05256369
7676.00   6.75443888   0.05239832
7678.00   6.76867533   0.05233891
7680.00   6.77367163   0.05231322
7682.00   6.75436163   0.05221350
7684.00   6.70975685   0.05167629
7686.00   6.63031340   0.05141130
7688.00   6.57037210   0.05122802
7690.00   6.55130816   0.05111029
7692.00   6.53187180   0.05119845
7694.00   6.50994492   0.05128684
7696.00   6.51912308   0.05140247
7698.00   6.52442789   0.05139509
7700.00   6.51154184   0.05125036
7702.00   6.52185106   0.05116773
7704.00   6.51886320   0.05108872
7706.00   6.52741241   0.05149407
7708.00   6.52474594   0.05279268
7710.00   6.51115799   0.05496042
7712.00   6.46729994   0.05701086
7714.00   6.50277710   0.05935304
7716.00   6.47788572   0.06004254
7718.00   6.42694855   0.05909850
7720.00   6.44176817   0.05754052
7722.00   6.46512461   0.05626385
7724.00   6.47049570   0.05418275
7726.00   6.49308777   0.05281645
7728.00   6.53070259   0.05245234
7730.00   6.55887604   0.05224928
7732.00   6.60089254   0.05174504
7734.00   6.55380440   0.05109259
7736.00   6.51401520   0.05070635
7738.00   6.52152491   0.05069548
7740.00   6.53228617   0.05077171
7742.00   6.54249239   0.05081652
7744.00   6.54775572   0.05174099
7746.00   6.52896357   0.05381964
7748.00   6.49274063   0.05630645
7750.00   6.47794962   0.05761397
7752.00   6.49984360   0.05798839
7754.00   6.50525522   0.05797942
7756.00   6.47211838   0.05710081
7758.00   6.39787054   0.05508065
7760.00   6.37604332   0.05317048
7762.00   6.27467918   0.05245785
7764.00   6.23013830   0.05206536
7766.00   6.22218323   0.05129193
7768.00   6.19746637   0.05013048
7770.00   6.22655630   0.05021174
7772.00   6.26249552   0.05079830
7774.00   6.32283783   0.05150528
7776.00   6.39551687   0.05222499
7778.00   6.43938684   0.05290775
7780.00   6.41438818   0.05247529
7782.00   6.37475443   0.05191029
7784.00   6.37281275   0.05164162
7786.00   6.40857315   0.05172627
7788.00   6.41764975   0.05191244
7790.00   6.33344269   0.05309412
7792.00   6.30772543   0.05456233
7794.00   6.32977819   0.05553606
7796.00   6.33828020   0.05553653
7798.00   6.25610542   0.05461537
7800.00   6.20536852   0.05260122
7802.00   6.23316908   0.05102830
7804.00   6.29298353   0.05082284
7806.00   6.32105112   0.05183021
7808.00   6.35865593   0.05256660
7810.00   6.33372927   0.05256607
7812.00   6.26662016   0.05206427
7814.00   6.19553518   0.05156250
7816.00   6.16402292   0.05186583
7818.00   6.15142584   0.05395113
7820.00   6.18496561   0.05579881
7822.00   6.21305990   0.05654088
7824.00   6.23511314   0.05622951
7826.00   6.26005602   0.05535100
7828.00   6.29388857   0.05315432
7830.00   6.33725977   0.05119123
7832.00   6.34851885   0.05009972
7834.00   6.34109449   0.05005162
7836.00   6.38131714   0.05075206
7838.00   6.40126657   0.05174131
7840.00   6.37298584   0.05225471
7842.00   6.34092188   0.05241331
7844.00   6.33097982   0.05250043
7846.00   6.27907038   0.05253787
7848.00   6.21414566   0.05364072
7850.00   6.16471910   0.05557476
7852.00   6.13953257   0.05727397
7854.00   6.13422155   0.05795816
7856.00   6.14592361   0.05843756
7858.00   6.17143059   0.05811426
7860.00   6.21655464   0.05652092
7862.00   6.27610016   0.05467059
7864.00   6.32203341   0.05417297
7866.00   6.31428480   0.05462786
7868.00   6.28980207   0.05452484
7870.00   6.27432013   0.05428259
7872.00   6.27578115   0.05429832
7874.00   6.26398277   0.05456401
7876.00   6.22453070   0.05405537
7878.00   6.19638443   0.05333811
7880.00   6.19451523   0.05295658
7882.00   6.21795034   0.05310522
7884.00   6.23331976   0.05347989
7886.00   6.26876259   0.05435212
7888.00   6.30992079   0.05488085
7890.00   6.34266615   0.05652402
7892.00   6.34559059   0.05453061
7894.00   6.26314926   0.05384358
7896.00   6.28190851   0.05394189
7898.00   6.27024221   0.05073866
7900.00   6.25604630   0.05006678
7902.00   6.27048111   0.04997946
7904.00   6.31034136   0.05018399
7906.00   6.29973984   0.05076301
7908.00   6.27816248   0.05274705
7910.00   6.26098490   0.05572125
7912.00   6.26992655   0.05841911
7914.00   6.24001455   0.05924578
7916.00   6.24020386   0.06022895
7918.00   6.29364920   0.06042704
7920.00   6.34761381   0.05897377
7922.00   6.30716133   0.05581957
7924.00   6.29393578   0.05470381
7926.00   6.34661341   0.05435942
7928.00   6.38593102   0.05408768
7930.00   6.34659767   0.05357276
7932.00   6.27451706   0.05300164
7934.00   6.24844313   0.05276414
7936.00   6.21166182   0.05213223
7938.00   6.18151140   0.05106282
7940.00   6.18235445   0.05000438
7942.00   6.18056917   0.04984875
7944.00   6.20805502   0.05061102
7946.00   6.22867393   0.05164205
7948.00   6.24330950   0.05232003
7950.00   6.24872446   0.05229260
7952.00   6.27693748   0.05217173
7954.00   6.24522638   0.05153093
7956.00   6.22890091   0.05073939
7958.00   6.23791742   0.05081805
7960.00   6.21432114   0.05270201
7962.00   6.25111341   0.05570476
7964.00   6.25327730   0.05690796
7966.00   6.23839331   0.05702908
7968.00   6.23341799   0.05654419
7970.00   6.22409964   0.05508396
7972.00   6.23860216   0.05261623
7974.00   6.23744917   0.05182838
7976.00   6.20977068   0.05238059
7978.00   6.15002298   0.05304651
7980.00   6.10995626   0.05300026
7982.00   6.13191462   0.05309102
7984.00   6.14194679   0.05240851
7986.00   6.12582827   0.05167807
7988.00   6.12595749   0.05231014
7990.00   6.19972944   0.05541843
7992.00   6.14842224   0.05674094
7994.00   6.11221695   0.05719156
7996.00   6.11521006   0.05707781
7998.00   6.12916040   0.05613399
8000.00   6.10899496   0.05300443
8002.00   6.09616613   0.05060207
8004.00   6.06830740   0.04941810
8006.00   6.05836248   0.04934925
8008.00   6.09044981   0.04982476
8010.00   6.08808279   0.05078207
8012.00   6.01606750   0.05127649
8014.00   5.94871330   0.05150358
8016.00   5.94731951   0.05171074
8018.00   5.98693466   0.05183656
8020.00   5.92729330   0.05201341
8022.00   5.91932297   0.05336006
8024.00   5.95833206   0.05486876
8026.00   5.97158432   0.05547339
8028.00   5.92130280   0.05519043
8030.00   5.92947531   0.05440373
8032.00   5.94971323   0.05259802
8034.00   5.95327377   0.05049697
8036.00   5.93834162   0.04915050
8038.00   5.92064285   0.04877980
8040.00   5.89519501   0.04865579
8042.00   5.89543676   0.04866512
8044.00   5.88793993   0.04864846
8046.00   5.82954264   0.04858219
8048.00   5.79271173   0.04904462
8050.00   5.76961565   0.04944797
8052.00   5.75856590   0.04965514
8054.00   5.76651907   0.04976301
8056.00   5.79521942   0.05002425
8058.00   5.85423899   0.05076857
8060.00   5.90977812   0.05162957
8062.00   5.92582655   0.05203075
8064.00   5.91167259   0.05186945
8066.00   5.91751814   0.05157199
8068.00   5.90737724   0.05045092
8070.00   5.89586401   0.04914944
8072.00   5.91147947   0.04850164
8074.00   5.95283747   0.04871482
8076.00   5.94911718   0.04875266
8078.00   5.94651031   0.04876881
8080.00   5.95851088   0.04889603
8082.00   5.97291183   0.04904221
8084.00   5.97726488   0.04909024
8086.00   5.98084450   0.04906714
8088.00   5.96401978   0.04917230
8090.00   5.95253611   0.04935871
8092.00   5.93152761   0.04940055
8094.00   5.85314417   0.04908123
8096.00   5.84181070   0.04936455
8098.00   5.88986015   0.05005941
8100.00   5.90362024   0.05040385
8102.00   5.86247492   0.05022067
8104.00   5.84296274   0.04998590
8106.00   5.83957815   0.04992821
8108.00   5.84547806   0.04966946
8110.00   5.85474396   0.04920166
8112.00   5.87165117   0.04879355
8114.00   5.87240791   0.04881753
8116.00   5.86920881   0.04874824
8118.00   5.90207529   0.04897326
8120.00   5.96576548   0.04929133
8122.00   6.00537062   0.04934855
8124.00   5.96485758   0.04915600
8126.00   5.94720840   0.04901513
8128.00   5.92953634   0.04919575
8130.00   5.89493990   0.04937746
8132.00   5.82950449   0.04916720
8134.00   5.81384277   0.04925764
8136.00   5.81444120   0.04973688
8138.00   5.82701540   0.05000900
8140.00   5.83584785   0.04998084
8142.00   5.84945917   0.05009337
8144.00   5.92648935   0.05076374
8146.00   5.92285728   0.05086820
8148.00   5.87590456   0.05067451
8150.00   5.83093691   0.05053096
8152.00   5.80463076   0.05060280
8154.00   5.78266144   0.05002081
8156.00   5.79786825   0.04988290
8158.00   5.79537821   0.05013353
8160.00   5.77212954   0.05046932
8162.00   5.81265259   0.05067516
8164.00   5.86295462   0.05114527
8166.00   5.86794281   0.05115709
8168.00   5.85540533   0.05079864
8170.00   5.85104418   0.05042994
8172.00   5.82526636   0.05027701
8174.00   5.73625946   0.05011706
8176.00   5.68903780   0.05037345
8178.00   5.70805359   0.05124667
8180.00   5.74259233   0.05247782
8182.00   5.72316170   0.05295295
8184.00   5.65506935   0.05270184
8186.00   5.64484644   0.05267586
8188.00   5.67136192   0.05296491
8190.00   5.62068319   0.05302029
8192.00   5.65692568   0.05372924
8194.00   5.68380880   0.05407444
8196.00   5.63326502   0.05373803
8198.00   5.54704666   0.05289546
8200.00   5.55766821   0.05208981
8202.00   5.55264664   0.05084731
8204.00   5.53920889   0.04975101
8206.00   5.55471945   0.04912288
8208.00   5.59091806   0.04890922
8210.00   5.58941507   0.04866400
8212.00   5.61865854   0.04879920
8214.00   5.65739822   0.04901795
8216.00   5.66997290   0.04902146
8218.00   5.64075327   0.04874687
8220.00   5.58158112   0.04861149
8222.00   5.56253624   0.04894802
8224.00   5.57790375   0.04973768
8226.00   5.60764933   0.05069840
8228.00   5.61891794   0.05139984
8230.00   5.65000582   0.05157766
8232.00   5.64056778   0.05080035
8234.00   5.61226130   0.04963509
8236.00   5.58350611   0.04864145
8238.00   5.58759308   0.04824036
8240.00   5.61111069   0.04838146
8242.00   5.65091515   0.04848083
8244.00   5.66189337   0.04858790
8246.00   5.63933039   0.04861612
8248.00   5.61612558   0.04847571
8250.00   5.64242792   0.04823935
8252.00   5.64821434   0.04839971
8254.00   5.63538122   0.04863645
8256.00   5.62682724   0.04873098
8258.00   5.65852785   0.04881888
8260.00   5.68985415   0.04869340
8262.00   5.67923117   0.04839295
8264.00   5.63587904   0.04801370
8266.00   5.59750366   0.04773350
8268.00   5.63913202   0.04789105
8270.00   5.66568422   0.04842779
8272.00   5.66740417   0.04921808
8274.00   5.65769577   0.05056221
8276.00   5.63878632   0.05268445
8278.00   5.61191368   0.05496665
8280.00   5.60856581   0.05626744
8282.00   5.61163759   0.05748971
8284.00   5.61599588   0.05886823
8286.00   5.61514616   0.05975601
8288.00   5.58251619   0.05854961
8290.00   5.50639582   0.05743785
8292.00   5.47555923   0.05703199
8294.00   5.49307871   0.05721838
8296.00   5.47530746   0.05745290
8298.00   5.45009470   0.05751276
8300.00   5.46485519   0.05716496
8302.00   5.50678253   0.05631787
8304.00   5.52431822   0.05489908
8306.00   5.44154978   0.05273728
8308.00   5.39756775   0.05121702
8310.00   5.36125326   0.05016779
8312.00   5.36411285   0.04981724
8314.00   5.41406584   0.05010243
8316.00   5.40626335   0.04966001
8318.00   5.37271643   0.04849087
8320.00   5.37020636   0.04778363
8322.00   5.41318750   0.04772782
8324.00   5.48541832   0.04778400
8326.00   5.44351006   0.04729770
8328.00   5.40926695   0.04688933
8330.00   5.38132095   0.04673773
8332.00   5.37573624   0.04682366
8334.00   5.43179083   0.04707073
8336.00   5.45006800   0.04767297
8338.00   5.50449991   0.05067756
8340.00   5.54590082   0.05584082
8342.00   5.52162361   0.06091296
8344.00   5.42285919   0.06272290
8346.00   5.41359520   0.06325471
8348.00   5.44599295   0.06322601
8350.00   5.46658850   0.06128569
8352.00   5.47111082   0.05709811
8354.00   5.52630949   0.05438456
8356.00   5.53999329   0.05339685
8358.00   5.49697828   0.05206406
8360.00   5.44134712   0.05045963
8362.00   5.41505814   0.04961066
8364.00   5.43383741   0.04959841
8366.00   5.46330833   0.04954593
8368.00   5.48180628   0.04926778
8370.00   5.49194956   0.04865543
8372.00   5.51158857   0.04779801
8374.00   5.50287580   0.04741797
8376.00   5.51013565   0.04816940
8378.00   5.53280687   0.04973209
8380.00   5.52464914   0.05119972
8382.00   5.45868492   0.05168868
8384.00   5.46793318   0.05166091
8386.00   5.47648478   0.05110038
8388.00   5.47044373   0.04981041
8390.00   5.47017813   0.04830387
8392.00   5.47998476   0.04803540
8394.00   5.43895864   0.05123504
8396.00   5.39695120   0.05525145
8398.00   5.38309669   0.05793061
8400.00   5.38985586   0.05841462
8402.00   5.39700460   0.05803344
8404.00   5.36597013   0.05561025
8406.00   5.33379793   0.05144422
8408.00   5.33076334   0.04800919
8410.00   5.35603523   0.04816542
8412.00   5.32353544   0.05003020
8414.00   5.26995659   0.05098901
8416.00   5.23736238   0.05123464
8418.00   5.24426699   0.05098942
8420.00   5.28103924   0.05033219
8422.00   5.27316046   0.04877281
8424.00   5.27406740   0.04973979
8426.00   5.30319357   0.05370389
8428.00   5.33119488   0.05818830
8430.00   5.29587555   0.05953467
8432.00   5.27997541   0.05943511
8434.00   5.26073694   0.05782008
8436.00   5.26458406   0.05425320
8438.00   5.28655243   0.04933776
8440.00   5.25546885   0.04620627
8442.00   5.19877386   0.04571283
8444.00   5.18991518   0.04609998
8446.00   5.21010542   0.04705147
8448.00   5.21825933   0.04862820
8450.00   5.24103308   0.05041707
8452.00   5.26983500   0.05087964
8454.00   5.28028631   0.05069213
8456.00   5.28599501   0.05017895
8458.00   5.29894304   0.04962878
8460.00   5.30350256   0.05026135
8462.00   5.30820847   0.05335708
8464.00   5.29234648   0.05558879
8466.00   5.26905060   0.05603452
8468.00   5.31666899   0.05580987
8470.00   5.30094671   0.05415786
8472.00   5.35014963   0.05065299
8474.00   5.36712408   0.04736505
8476.00   5.33282423   0.04593917
8478.00   5.34694910   0.04596610
8480.00   5.37555647   0.04600239
8482.00   5.38965225   0.04592827
8484.00   5.39518166   0.04588322
8486.00   5.40375900   0.04613774
8488.00   5.41336060   0.04692296
8490.00   5.36606455   0.04811868
8492.00   5.33707428   0.04886877
8494.00   5.30029964   0.04899964
8496.00   5.24378347   0.04881208
8498.00   5.20862818   0.04871349
8500.00   5.21543646   0.04954600
8502.00   5.24739408   0.05088833
8504.00   5.29312706   0.05196053
8506.00   5.34574127   0.05210873
8508.00   5.39535761   0.05185126
8510.00   5.38060617   0.05016762
8512.00   5.40371132   0.04794716
8514.00   5.45759249   0.04626561
8516.00   5.45949936   0.04591693
8518.00   5.49674368   0.04617934
8520.00   5.50834799   0.04624850
8522.00   5.48769951   0.04612530
8524.00   5.45610285   0.04595968
8526.00   5.41294479   0.04575445
8528.00   5.44477129   0.04580495
8530.00   5.44269180   0.04575373
8532.00   5.42685938   0.04586800
8534.00   5.43425369   0.04637904
8536.00   5.42935753   0.04697727
8538.00   5.41958380   0.04725266
8540.00   5.42307281   0.04735408
8542.00   5.40186071   0.04755182
8544.00   5.34290457   0.04804772
8546.00   5.34747744   0.04852876
8548.00   5.32571268   0.04854706
8550.00   5.30066681   0.04842439
8552.00   5.30432320   0.04817769
8554.00   5.32587051   0.04748167
8556.00   5.32434225   0.04629492
8558.00   5.33679152   0.04549548
8560.00   5.34675169   0.04517837
8562.00   5.35037947   0.04519163
8564.00   5.37805986   0.04532227
8566.00   5.40471411   0.04540931
8568.00   5.40443230   0.04554277
8570.00   5.41405725   0.04579247
8572.00   5.44038200   0.04599914
8574.00   5.45664454   0.04586469
8576.00   5.41460609   0.04569083
8578.00   5.37455130   0.04548794
8580.00   5.36847115   0.04540644
8582.00   5.40134859   0.04560212
8584.00   5.41442060   0.04597111
8586.00   5.42720079   0.04634733
8588.00   5.47573280   0.04662792
8590.00   5.52442122   0.04685991
8592.00   5.53465319   0.04716109
8594.00   5.55235815   0.04751837
8596.00   5.57434845   0.04751926
8598.00   5.59852028   0.04745697
8600.00   5.60129404   0.04735243
8602.00   5.56889153   0.04702893
8604.00   5.52521515   0.04636015
8606.00   5.41115332   0.04560323
8608.00   5.28314447   0.04509902
8610.00   5.17762995   0.04494253
8612.00   5.11458254   0.04505773
8614.00   5.13378000   0.04566688
8616.00   5.19268131   0.04656813
8618.00   5.28258276   0.04763837
8620.00   5.40054178   0.04879509
8622.00   5.54670000   0.05002610
8624.00   5.58394670   0.05084817
8626.00   5.57694101   0.05139070
8628.00   5.56095505   0.05169678
8630.00   5.52642679   0.05169643
8632.00   5.51407957   0.05150305
8634.00   5.53573036   0.05120541
8636.00   5.56850243   0.05079284
8638.00   5.60469437   0.05024101
8640.00   5.62054586   0.04951024
8642.00   5.62910652   0.04878834
8644.00   5.60518503   0.04843444
8646.00   5.53548956   0.04845181
8648.00   5.41004896   0.04861354
8650.00   5.23150110   0.04869742
8652.00   4.97570753   0.04861123
8654.00   4.76333380   0.04837916
8656.00   4.63342524   0.04813543
8658.00   4.62290764   0.04811872
8660.00   4.72146511   0.04844310
8662.00   4.90556097   0.04896432
8664.00   5.10915709   0.04948677
8666.00   5.34033346   0.04997941
8668.00   5.55788565   0.05033098
8670.00   5.65625143   0.05028495
8672.00   5.71456861   0.05004400
8674.00   5.73680258   0.04969778
8676.00   5.75291300   0.04933004
8678.00   5.77276230   0.04894824
8680.00   5.78074121   0.04854089
8682.00   5.80822897   0.04821535
8684.00   5.84844351   0.04803836
8686.00   5.86692381   0.04780615
8688.00   5.85762215   0.04753383
8690.00   5.84520578   0.04786691
8692.00   5.86383581   0.04858156
8694.00   5.91638613   0.04908497
8696.00   5.94463396   0.05102470
8698.00   5.89107370   0.04704402
8700.00   5.87922812   0.04693923
8702.00   5.88834000   0.04702290
8704.00   5.87439585   0.04707861
8706.00   5.85886383   0.04695876
8708.00   5.89970970   0.04972964
8710.00   5.89033318   0.04688093
8712.00   5.86931372   0.04634154
8714.00   5.86617279   0.04648928
8716.00   5.87851858   0.04632729
8718.00   5.86492157   0.04622607
8720.00   5.86703110   0.04625009
8722.00   5.90697908   0.04639449
8724.00   5.94069433   0.04650785
8726.00   5.91936111   0.04644662
8728.00   5.90031672   0.04638840
8730.00   5.89915800   0.04637359
8732.00   5.91163635   0.04639153
8734.00   5.94648552   0.04648035
8736.00   5.99332190   0.04662348
8738.00   6.01247406   0.04676700
8740.00   6.00497103   0.04678154
8742.00   6.01136160   0.04682770
8744.00   6.02945948   0.04690691
8746.00   6.01713037   0.04686300
8748.00   6.06300879   0.04698982
8750.00   6.05475616   0.04699379
8752.00   6.04815674   0.04744316
8754.00   6.05464745   0.04889298
8756.00   6.03601789   0.05169463
8758.00   5.97496843   0.05475504
8760.00   5.95523310   0.05709657
8762.00   5.93496132   0.05928366
8764.00   5.89419174   0.06145157
8766.00   5.87272453   0.06196763
8768.00   5.81531334   0.05992453
8770.00   5.69000196   0.05803822
8772.00   5.53937531   0.05725595
8774.00   5.38052511   0.05712149
8776.00   5.11460829   0.05637778
8778.00   5.05590630   0.05591718
8780.00   5.09604931   0.05538004
8782.00   5.18833447   0.05397834
8784.00   5.34063578   0.05112971
8786.00   5.49297333   0.04870362
8788.00   5.69040489   0.04893528
8790.00   5.80692863   0.04985995
8792.00   5.83933878   0.05022221
8794.00   5.90504408   0.05016025
8796.00   5.91698217   0.04933956
8798.00   5.92092514   0.04779376
8800.00   5.94727898   0.04663816
8802.00   5.98052216   0.04644692
8804.00   5.95634842   0.04650797
8806.00   5.93144178   0.04665210
8808.00   5.97423744   0.04693346
8810.00   6.03779936   0.04719476
8812.00   6.07517576   0.04729084
8814.00   6.12904978   0.04724130
8816.00   6.14119959   0.04717589
8818.00   6.13614845   0.04764251
8820.00   6.12349510   0.05025898
8822.00   6.09692049   0.05584499
8824.00   6.07425737   0.06245522
8826.00   6.03661537   0.06595782
8828.00   6.00616121   0.06718402
8830.00   5.99192429   0.06680915
8832.00   6.00447607   0.06510338
8834.00   6.05457306   0.06111164
8836.00   6.11527872   0.05769486
8838.00   6.15137625   0.05588802
8840.00   6.15971518   0.05495884
8842.00   6.16616440   0.05273057
8844.00   6.18023300   0.05047535
8846.00   6.21568823   0.04995377
8848.00   6.23732901   0.05046226
8850.00   6.22593451   0.05085019
8852.00   6.22482824   0.05065837
8854.00   6.28453588   0.05061550
8856.00   6.33878946   0.05013113
8858.00   6.40379190   0.04977697
8860.00   6.48217392   0.05036498
8862.00   6.50158167   0.05223141
8864.00   6.42789268   0.05398353
8866.00   6.30405951   0.05475294
8868.00   6.18707323   0.05449700
8870.00   6.15776587   0.05366307
8872.00   6.17710638   0.05233606
8874.00   6.14364290   0.05002503
8876.00   6.13394594   0.04805972
8878.00   6.16649437   0.04807458
8880.00   6.17395926   0.05107084
8882.00   6.19278383   0.05650470
8884.00   6.14107370   0.06014027
8886.00   6.06471109   0.06139584
8888.00   6.03002930   0.06073452
8890.00   6.05095625   0.05905135
8892.00   6.08329821   0.05478764
8894.00   6.13342524   0.05013651
8896.00   6.20308638   0.04826399
8898.00   6.27135849   0.05036305
8900.00   6.27310753   0.05329330
8902.00   6.20233297   0.05415969
8904.00   6.14186621   0.05411348
8906.00   6.14735413   0.05369772
8908.00   6.20076370   0.05281066
8910.00   6.15545034   0.04993219
8912.00   6.19097376   0.04926315
8914.00   6.17420626   0.05262433
8916.00   6.09952736   0.05816146
8918.00   6.05670023   0.06259344
8920.00   5.99388123   0.06301466
8922.00   5.97234011   0.06249304
8924.00   5.96365499   0.06017618
8926.00   5.95685196   0.05565489
8928.00   5.97311926   0.04973505
8930.00   6.06003332   0.04754680
8932.00   6.17437410   0.04745744
8934.00   6.24431372   0.04787883
8936.00   6.22412872   0.04820673
8938.00   6.13271379   0.04923151
8940.00   6.10770178   0.05155820
8942.00   6.11432886   0.05310588
8944.00   6.09917688   0.05352672
8946.00   6.06483412   0.05317384
8948.00   6.14943457   0.05273245
8950.00   6.18819380   0.05141313
8952.00   6.16802216   0.05235320
8954.00   6.13125038   0.05596753
8956.00   6.10711479   0.06032698
8958.00   6.09819269   0.06209873
8960.00   6.15492487   0.06263224
8962.00   6.18026590   0.06118090
8964.00   6.16093874   0.05751207
8966.00   6.16262484   0.05245875
8968.00   6.20224905   0.04981015
8970.00   6.19290304   0.04903215
8972.00   6.18492126   0.04905761
8974.00   6.18631315   0.04915398
8976.00   6.13885736   0.04908297
8978.00   6.05114985   0.04845266
8980.00   5.98280668   0.04831764
8982.00   5.93299294   0.04944998
8984.00   5.89123964   0.05178555
8986.00   5.84499502   0.05433189
8988.00   5.77136850   0.05557047
8990.00   5.77465963   0.05576095
8992.00   5.82961798   0.05488113
8994.00   5.87074709   0.05349293
8996.00   5.88262177   0.05347927
8998.00   5.89440584   0.05591336
9000.00   5.95814705   0.05833203
9002.00   6.02505159   0.05963731
9004.00   6.03568029   0.05962381
9006.00   6.09667063   0.05857982
9008.00   6.18154764   0.05533605
9010.00   6.27721262   0.05258274
9012.00   6.32807922   0.05143034
9014.00   6.30183029   0.05100913
9016.00   6.30815506   0.05086474
9018.00   6.24719381   0.05037904
9020.00   6.12107229   0.04964278
9022.00   6.01090384   0.04896091
9024.00   6.00495481   0.04858686
9026.00   6.03612661   0.04864011
9028.00   6.03410769   0.04833848
9030.00   6.01150084   0.04789381
9032.00   5.98283625   0.04775738
9034.00   5.98600769   0.04847938
9036.00   5.94112396   0.04885228
9038.00   5.90902090   0.04889028
9040.00   5.87588310   0.04883744
9042.00   5.84803915   0.04897912
9044.00   5.86803627   0.04923374
9046.00   5.84175110   0.05007438
9048.00   5.79510880   0.05068308
9050.00   5.76573324   0.05077500
9052.00   5.80747223   0.05055274
9054.00   5.91358614   0.05050459
9056.00   5.89427996   0.04884680
9058.00   5.84987402   0.04722729
9060.00   5.83011675   0.04657809
9062.00   5.81915140   0.04672216
9064.00   5.81047201   0.04707392
9066.00   5.76232767   0.04728099
9068.00   5.73233652   0.04752253
9070.00   5.75843191   0.04784472
9072.00   5.81479883   0.04802055
9074.00   5.85533381   0.04799321
9076.00   5.80808401   0.04755981
9078.00   5.77983522   0.04719989
9080.00   5.83095360   0.04728710
9082.00   5.85099030   0.04759917
9084.00   5.80452728   0.04762703
9086.00   5.78477287   0.04767522
9088.00   5.78863907   0.04792507
9090.00   5.78916931   0.04835293
9092.00   5.78195047   0.04845914
9094.00   5.73240900   0.04841219
9096.00   5.71843910   0.04870911
9098.00   5.75921011   0.04934166
9100.00   5.81548882   0.04994647
9102.00   5.78242445   0.05011566
9104.00   5.74504328   0.04988550
9106.00   5.74853468   0.04940837
9108.00   5.78303957   0.04865048
9110.00   5.80995750   0.04750930
9112.00   5.78691339   0.04643993
9114.00   5.74561310   0.04608950
9116.00   5.71605539   0.04617401
9118.00   5.72054148   0.04637443
9120.00   5.73385382   0.04651178
9122.00   5.71359015   0.04630376
9124.00   5.70070267   0.04624021
9126.00   5.67863655   0.04633828
9128.00   5.63506126   0.04654549
9130.00   5.61397028   0.04698527
9132.00   5.54452896   0.04733452
9134.00   5.45131874   0.04699734
9136.00   5.40587234   0.04639907
9138.00   5.44958448   0.04611003
9140.00   5.44499588   0.04547384
9142.00   5.47066832   0.04507579
9144.00   5.53153563   0.04521816
9146.00   5.60564280   0.04585576
9148.00   5.65287590   0.04673259
9150.00   5.68518782   0.04812862
9152.00   5.66446829   0.04901401
9154.00   5.70009756   0.04965889
9156.00   5.76339865   0.04995261
9158.00   5.74131918   0.04952781
9160.00   5.70164490   0.04858020
9162.00   5.71009111   0.04780142
9164.00   5.73399019   0.04730774
9166.00   5.76071787   0.04710118
9168.00   5.82083130   0.04718728
9170.00   5.82724762   0.04732723
9172.00   5.80066252   0.04752877
9174.00   5.78716421   0.04780221
9176.00   5.79882669   0.04794783
9178.00   5.75340033   0.04729794
9180.00   5.71128607   0.04664719
9182.00   5.71552896   0.04638204
9184.00   5.76323700   0.04642038
9186.00   5.82103205   0.04644157
9188.00   5.82906342   0.04633446
9190.00   5.79652739   0.04617922
9192.00   5.79138041   0.04620771
9194.00   5.80308914   0.04632110
9196.00   5.78643560   0.04623843
9198.00   5.74903631   0.04585737
9200.00   5.76407576   0.04572419
9202.00   5.74457169   0.04564882
9204.00   5.68327188   0.04549819
9206.00   5.66491890   0.04532937
9208.00   5.65080643   0.04553585
9210.00   5.64800882   0.04593225
9212.00   5.66726732   0.04642870
9214.00   5.72141266   0.04706223
9216.00   5.79680443   0.04794551
9218.00   5.85272360   0.04819009
9220.00   5.90719461   0.04856983
9222.00   5.99171209   0.04924239
9224.00   6.09845972   0.04997265
9226.00   6.16277170   0.05033853
9228.00   6.19234514   0.05064788
9230.00   6.17016983   0.05044896
9232.00   6.09550714   0.04978421
9234.00   5.98141241   0.04896432
9236.00   5.88539553   0.04822400
9238.00   5.79630899   0.04755105
9240.00   5.74745417   0.04716815
9242.00   5.73400068   0.04702162
9244.00   5.74963045   0.04693567
9246.00   5.76962233   0.04699050
9248.00   5.80758905   0.04720920
9250.00   5.82873678   0.04725078
9252.00   5.82825232   0.04707494
9254.00   5.81886292   0.04695040
9256.00   5.79034281   0.04666070
9258.00   5.74582338   0.04648215
9260.00   5.70326567   0.04632530
9262.00   5.66346693   0.04603470
9264.00   5.62064552   0.04557724
9266.00   5.58679008   0.04558568
9268.00   5.58688354   0.04553178
9270.00   5.60804892   0.04554367
9272.00   5.63371325   0.04588408
9274.00   5.64592981   0.04628744
9276.00   5.66954088   0.04694614
9278.00   5.67389727   0.04729046
9280.00   5.64683533   0.04739519
9282.00   5.56670570   0.04749827
9284.00   5.50528860   0.04757683
9286.00   5.52938700   0.04764950
9288.00   5.54701805   0.04801450
9290.00   5.52904701   0.04856415
9292.00   5.52614212   0.04892917
9294.00   5.43506861   0.04881534
9296.00   5.39750814   0.04899256
9298.00   5.40710449   0.04999147
9300.00   5.43643427   0.05242519
9302.00   5.48032904   0.05693895
9304.00   5.48646355   0.06363613
9306.00   5.43357611   0.06915825
9308.00   5.39300013   0.07479282
9310.00   5.40706491   0.08091948
9312.00   5.39204025   0.08537168
9314.00   5.29718447   0.08471320
9316.00   5.35890961   0.08311716
9318.00   5.42726660   0.08242423
9320.00   5.32092142   0.08242434
9322.00   5.19623327   0.08005128
9324.00   5.24777842   0.07783385
9326.00   5.32978678   0.07627252
9328.00   5.32674217   0.07353900
9330.00   5.21993208   0.06745532
9332.00   5.24245453   0.06284235
9334.00   5.24498224   0.06292461
9336.00   5.22157860   0.06569806
9338.00   5.18432617   0.06892884
9340.00   5.14768791   0.07090215
9342.00   5.06922579   0.06894245
9344.00   5.04773331   0.06405208
9346.00   5.09452438   0.05937183
9348.00   5.14633608   0.05698708
9350.00   5.12834597   0.05601754
9352.00   5.14115715   0.05652347
9354.00   5.12085915   0.05770305
9356.00   5.08564997   0.05801817
9358.00   5.07756567   0.05679201
9360.00   5.15036011   0.05551523
9362.00   5.13291883   0.05469418
9364.00   5.13249063   0.05514058
9366.00   5.12441492   0.05789797
9368.00   5.09270048   0.06430840
9370.00   5.13643694   0.07598192
9372.00   5.17408991   0.09010459
9374.00   5.07087183   0.09997869
9376.00   4.95144892   0.10375347
9378.00   4.99931622   0.10171770
9380.00   4.95898819   0.09494207
9382.00   4.94613504   0.08183963
9384.00   4.99351835   0.06675945
9386.00   5.08927488   0.05547174
9388.00   5.21840096   0.05233294
9390.00   5.29554749   0.05066295
9392.00   5.29821825   0.04926137
9394.00   5.29795313   0.04906091
9396.00   5.33065939   0.05069711
9398.00   5.31742430   0.05319554
9400.00   5.29988432   0.05543865
9402.00   5.28897619   0.05634452
9404.00   5.26638222   0.05631804
9406.00   5.21940231   0.05570887
9408.00   5.15638018   0.05358486
9410.00   5.18240881   0.05161334
9412.00   5.21766233   0.05164776
9414.00   5.20980883   0.05374306
9416.00   5.15144682   0.05675334
9418.00   5.17090940   0.05966852
9420.00   5.12188959   0.06142715
9422.00   5.08162832   0.06287336
9424.00   5.07641172   0.06340089
9426.00   5.05301809   0.06158406
9428.00   5.07203341   0.05725119
9430.00   5.18343735   0.05520520
9432.00   5.24340963   0.05673778
9434.00   5.22241783   0.06244802
9436.00   5.21254492   0.07202097
9438.00   5.11513186   0.08160871
9440.00   5.05074024   0.08711964
9442.00   4.97011757   0.08644048
9444.00   4.89221907   0.07917615
9446.00   4.93813705   0.06715422
9448.00   5.04464340   0.05781569
9450.00   5.13901711   0.05427021
9452.00   5.19075060   0.05692066
9454.00   5.19181585   0.06327733
9456.00   5.17283678   0.07075841
9458.00   5.07329226   0.07418379
9460.00   5.03874731   0.07368702
9462.00   5.07343674   0.07024901
9464.00   5.12209368   0.06528828
9466.00   5.08695936   0.05847597
9468.00   5.13190985   0.05562643
9470.00   5.14732885   0.05852595
9472.00   5.10446405   0.06549497
9474.00   5.05736494   0.07311744
9476.00   5.04982233   0.07962454
9478.00   4.96548414   0.08260126
9480.00   4.90895700   0.08145695
9482.00   4.92864561   0.07561109
9484.00   4.94290495   0.06405839
9486.00   4.98234892   0.05503723
9488.00   5.04084873   0.05108332
9490.00   5.07588243   0.05092233
9492.00   5.08744383   0.05237540
9494.00   5.17867231   0.05582096
9496.00   5.13340569   0.06067045
9498.00   4.98264980   0.06521443
9500.00   4.89468956   0.06801406
9502.00   4.96975565   0.06818587
9504.00   5.00380182   0.06510430
9506.00   5.00882864   0.06071259
9508.00   5.04048204   0.05623350
9510.00   5.07767630   0.05292305
9512.00   5.07380438   0.05217457
9514.00   5.07727051   0.05627590
9516.00   5.09208393   0.06284165
9518.00   5.06900263   0.06809203
9520.00   5.00046349   0.07022062
9522.00   4.97028494   0.06906119
9524.00   5.00283146   0.06584021
9526.00   5.03801489   0.06025440
9528.00   5.04323673   0.05478689
9530.00   5.05108976   0.05203308
9532.00   5.08211899   0.05237668
9534.00   5.06720018   0.05250043
9536.00   5.13022232   0.05307883
9538.00   5.20904207   0.05404924
9540.00   5.23531914   0.05508494
9542.00   5.26397705   0.05583007
9544.00   5.34000731   0.05667628
9546.00   5.39499140   0.05796676
9548.00   5.39866018   0.06024382
9550.00   5.34672213   0.06323384
9552.00   5.26966715   0.06476972
9554.00   5.18158245   0.06448957
9556.00   5.08545065   0.06306640
9558.00   5.04924726   0.06107651
9560.00   5.07261515   0.05942960
9562.00   4.97908354   0.06196015
9564.00   4.92862749   0.06695319
9566.00   4.94259834   0.07040188
9568.00   4.95206451   0.07041449
9570.00   4.88407040   0.06707990
9572.00   4.94309425   0.06274879
9574.00   4.97697496   0.05876609
9576.00   4.99141169   0.05536536
9578.00   4.99263859   0.05266571
9580.00   5.01911736   0.05116329
9582.00   5.05375910   0.05086401
9584.00   5.04397249   0.05111472
9586.00   5.03979111   0.05175309
9588.00   5.08339882   0.05266801
9590.00   5.09363222   0.05307413
9592.00   5.09428787   0.05341238
9594.00   5.06194544   0.05275824
9596.00   5.03117609   0.05156793
9598.00   5.01773214   0.05080734
9600.00   5.06783628   0.05123354
9602.00   5.06002998   0.05250522
9604.00   5.02826071   0.05382207
9606.00   5.02644587   0.05488889
9608.00   5.06518555   0.05564139
9610.00   5.07503176   0.05542667
9612.00   5.02736330   0.05419265
9614.00   5.00255632   0.05345494
9616.00   5.02957392   0.05428648
9618.00   5.06687737   0.05656778
9620.00   5.06011200   0.05839971
9622.00   5.02474880   0.05853343
9624.00   5.00398302   0.05748652
9626.00   5.01744413   0.05567218
9628.00   5.04309654   0.05266827
9630.00   5.04622078   0.05049448
9632.00   5.07162285   0.05013431
9634.00   5.08590078   0.05058128
9636.00   5.07233191   0.05075088
9638.00   5.09667206   0.05116251
9640.00   5.11032724   0.05143813
9642.00   5.05865240   0.05095373
9644.00   5.01115990   0.05022751
9646.00   5.04260683   0.05006752
9648.00   5.03314686   0.05038713
9650.00   5.02718782   0.05018635
9652.00   5.04476500   0.05021865
9654.00   5.07901430   0.05073656
9656.00   5.09840775   0.05146971
9658.00   5.15484524   0.05251391
9660.00   5.11510563   0.05327490
9662.00   5.06452656   0.05403564
9664.00   5.05651140   0.05508818
9666.00   5.01391554   0.05629007
9668.00   4.93843985   0.05634200
9670.00   4.89187813   0.05573967
9672.00   4.84617186   0.05489562
9674.00   4.79574633   0.05429313
9676.00   4.85053682   0.05456845
9678.00   4.90461874   0.05648221
9680.00   4.92805386   0.05832781
9682.00   4.95148993   0.05914657
9684.00   4.99743843   0.05860963
9686.00   4.93335438   0.05686039
9688.00   4.94048166   0.05488524
9690.00   4.98928785   0.05351165
9692.00   5.02234221   0.05354473
9694.00   5.02272463   0.05537348
9696.00   5.00384712   0.05787437
9698.00   4.95611572   0.05910514
9700.00   4.91970825   0.05956571
9702.00   4.94097948   0.05927940
9704.00   5.00022364   0.05774691
9706.00   4.99634027   0.05553610
9708.00   5.03399229   0.05448198
9710.00   5.06217575   0.05467869
9712.00   5.05851030   0.05592491
9714.00   5.03799248   0.05802678
9716.00   5.03436804   0.06085052
9718.00   4.96878815   0.06220981
9720.00   4.92253542   0.06252393
9722.00   4.93510771   0.06219286
9724.00   4.92262506   0.06042234
9726.00   4.99789953   0.05729709
9728.00   5.03993082   0.05458697
9730.00   5.03376532   0.05351197
9732.00   5.02131891   0.05438573
9734.00   5.00432491   0.05617508
9736.00   5.06946039   0.05788018
9738.00   5.08129358   0.05862969
9740.00   5.03299618   0.05837938
9742.00   4.99930954   0.05753187
9744.00   4.97339392   0.05604177
9746.00   4.97139359   0.05485635
9748.00   5.03553772   0.05440524
9750.00   5.10605955   0.05430838
9752.00   5.04608297   0.05367350
9754.00   4.97816420   0.05300959
9756.00   4.94541883   0.05370164
9758.00   4.95004320   0.05394216
9760.00   4.98217916   0.05313006
9762.00   5.01719141   0.05152024
9764.00   4.98344278   0.05091827
9766.00   4.95739603   0.05062735
9768.00   4.94179487   0.05046697
9770.00   4.92732477   0.05025013
9772.00   4.93032837   0.05020046
9774.00   4.93975592   0.05031743
9776.00   4.95084095   0.05072999
9778.00   4.96438217   0.05129489
9780.00   4.96614790   0.05197227
9782.00   4.92364502   0.05333656
9784.00   4.91543341   0.05728761
9786.00   4.93216515   0.06361350
9788.00   4.91869497   0.06997050
9790.00   4.84647608   0.07394253
9792.00   4.80373526   0.07502571
9794.00   4.84038401   0.07509585
9796.00   4.84643841   0.07300709
9798.00   4.81978178   0.06881206
9800.00   4.82587767   0.06411660
9802.00   4.85997438   0.06167744
9804.00   4.88529348   0.06033155
9806.00   4.91121721   0.05901025
9808.00   4.92086744   0.05749559
9810.00   4.94908428   0.05725119
9812.00   4.98554993   0.05759291
9814.00   4.99356842   0.05787076
9816.00   4.97675323   0.05738834
9818.00   4.95275736   0.05599086
9820.00   4.91199446   0.05468133
9822.00   4.95463514   0.05469382
9824.00   4.95030880   0.05458206
9826.00   4.91951084   0.05419411
9828.00   4.93941164   0.05403512
9830.00   4.94798279   0.05423978
9832.00   4.93807268   0.05413272
9834.00   4.97305346   0.05406319
9836.00   5.02978945   0.05423235
9838.00   5.04519892   0.05468667
9840.00   5.00552893   0.05470664
9842.00   5.04403830   0.05638131
9844.00   5.02554560   0.05879904
9846.00   4.94741392   0.06085435
9848.00   5.00442314   0.06202562
9850.00   4.97054911   0.06223590
9852.00   4.96158361   0.06141068
9854.00   4.95428467   0.05923046
9856.00   4.93235064   0.05616356
9858.00   4.88760424   0.05396754
9860.00   4.87126732   0.05363700
9862.00   4.87726736   0.05433404
9864.00   4.86734247   0.05657116
9866.00   4.84054422   0.06110385
9868.00   4.86157036   0.06822316
9870.00   4.85685873   0.07372320
9872.00   4.80820036   0.07619290
9874.00   4.74692774   0.07596932
9876.00   4.73407364   0.07381663
9878.00   4.79393387   0.06832609
9880.00   4.83242035   0.06185688
9882.00   4.87906456   0.05770456
9884.00   4.93330717   0.05693023
9886.00   4.94454050   0.05765691
9888.00   4.95335150   0.05914879
9890.00   4.96986818   0.06246015
9892.00   4.93034983   0.06549084
9894.00   4.84905624   0.06696848
9896.00   4.84394026   0.06708603
9898.00   4.82115889   0.06631928
9900.00   4.83007193   0.06399012
9902.00   4.86807823   0.06094017
9904.00   4.90827179   0.05880569
9906.00   4.93467855   0.05957782
9908.00   4.95078611   0.06409871
9910.00   4.88405132   0.07070926
9912.00   4.79721212   0.07695294
9914.00   4.75307369   0.08085871
9916.00   4.68665314   0.08121666
9918.00   4.66296816   0.07907820
9920.00   4.71850824   0.07402203
9922.00   4.81185007   0.06723662
9924.00   4.86554193   0.06129342
9926.00   4.93941164   0.05943174
9928.00   4.97273874   0.05906202
9930.00   4.98492765   0.05932291
9932.00   4.98764658   0.06016256
9934.00   5.00596619   0.06235014
9936.00   4.98007822   0.06674844
9938.00   5.01523876   0.07384051
9940.00   5.06985617   0.08236843
9942.00   5.07731867   0.09064239
9944.00   4.99020433   0.09699246
9946.00   4.94892168   0.09923530
9948.00   4.96733904   0.09796242
9950.00   4.96254539   0.09495849
9952.00   4.90915155   0.09217876
9954.00   4.82509947   0.09056539
9956.00   4.91770983   0.09155729
9958.00   4.91557646   0.09378070
9960.00   4.78885221   0.09469179
9962.00   4.69050407   0.09243244
9964.00   4.82264948   0.08739338
9966.00   4.84755278   0.08225768
9968.00   4.85932541   0.07770459
9970.00   4.90874624   0.07436710
9972.00   4.95784807   0.07267352
9974.00   4.97488546   0.07250752
9976.00   5.02170467   0.07205779
9978.00   5.02895737   0.07053742
9980.00   5.00889587   0.06833064
9982.00   5.03090286   0.06663135
9984.00   5.05940390   0.06566691
9986.00   5.03979492   0.06483409
9988.00   5.02742720   0.06444905
9990.00   5.01973295   0.06456435
9992.00   4.98375463   0.06506078
9994.00   4.96232367   0.06635689
9996.00   4.93321753   0.06841054
9998.00   4.96117830   0.07063625
10000.00   5.03455782   0.07233832
10002.00   5.03714132   0.07330842
10004.00   5.03577900   0.07580928
10006.00   5.08156824   0.08218532
10008.00   5.07096052   0.09170872
10010.00   4.90079880   0.10171977
10012.00   4.88579035   0.10838767
10014.00   4.86971807   0.11007192
10016.00   4.88039064   0.10783333
10018.00   4.91199064   0.10202458
10020.00   4.96074820   0.09336030
10022.00   4.95693254   0.08803886
10024.00   4.99253511   0.08666120
10026.00   5.02337217   0.08640695
10028.00   5.03859520   0.08522341
10030.00   5.07214546   0.08264196
10032.00   5.07903194   0.07802073
10034.00   5.00566769   0.07402587
10036.00   4.92394733   0.07231962
10038.00   4.89717340   0.07318115
10040.00   4.90755129   0.07506266
10042.00   4.93034983   0.07651412
10044.00   4.91742373   0.07703474
10046.00   4.90980101   0.07671189
10048.00   4.93251657   0.07571408
10050.00   4.93564224   0.07393347
10052.00   4.94972849   0.07355735
10054.00   5.01820087   0.07577594
10056.00   5.06370115   0.07968531
10058.00   4.99625635   0.08342510
10060.00   4.93710089   0.08573117
10062.00   4.95815039   0.08715125
10064.00   4.94135857   0.08740503
10066.00   4.90592384   0.08653563
10068.00   4.93811417   0.08498707
10070.00   4.93309641   0.08369205
10072.00   4.90734720   0.08321633
10074.00   4.92782831   0.08455432
10076.00   4.97830820   0.08841938
10078.00   4.94527102   0.09482231
10080.00   4.92032480   0.10148406
10082.00   4.86400270   0.10512701
10084.00   4.78309202   0.10532271
10086.00   4.74529839   0.10229680
10088.00   4.92461109   0.09634224
10090.00   5.04231596   0.08867971
10092.00   5.01510572   0.08279636
10094.00   4.94462776   0.08103170
10096.00   4.94545126   0.08325022
10098.00   4.98084593   0.08720675
10100.00   5.04426527   0.09207372
10102.00   5.09060717   0.09719767
10104.00   5.07394457   0.09929658
10106.00   5.00049210   0.09707297
10108.00   4.99326897   0.09323746
10110.00   4.99418497   0.09037262
10112.00   4.99291420   0.08757893
10114.00   4.98674345   0.08636204
10116.00   4.98230505   0.08908958
10118.00   4.97307777   0.09720540
10120.00   4.96404505   0.10820478
10122.00   4.96256351   0.11735139
10124.00   4.99768114   0.12223574
10126.00   5.03924274   0.12245896
10128.00   4.87039948   0.11737270
10130.00   4.82862329   0.10830376
10132.00   4.87428427   0.09868722
10134.00   4.90994501   0.09228512
10136.00   4.86762810   0.09039693
10138.00   4.91497517   0.09030227
10140.00   4.90419626   0.09107772
10142.00   4.91285515   0.09287257
10144.00   5.02090836   0.09595734
10146.00   5.00050163   0.09952641
10148.00   4.91238451   0.10401728
10150.00   4.87446833   0.10852457
10152.00   4.91395187   0.11222138
10154.00   4.95097589   0.11427986
10156.00   5.06499481   0.11518880
10158.00   5.10058546   0.11371806
10160.00   5.00742054   0.11073449
10162.00   4.88905001   0.10898793
10164.00   4.92670441   0.11236896
10166.00   4.80998945   0.12072918
10168.00   4.66386557   0.13151996
10170.00   4.67103577   0.14057481
10172.00   4.79641962   0.14531283
10174.00   4.68596458   0.14463679
10176.00   4.72276354   0.14010088
10178.00   4.66952562   0.13044220
10180.00   4.69911575   0.12127959
10182.00   4.82540560   0.11862421
10184.00   4.63163567   0.12210932
10186.00   4.60811234   0.12832838
10188.00   4.59978247   0.13299833
10190.00   4.53265047   0.13458341
10192.00   4.45145893   0.13332421
10194.00   4.56234980   0.12982970
10196.00   4.69573927   0.12442871
10198.00   4.72299147   0.12089348
10200.00   4.69248295   0.12179043
10202.00   4.74716616   0.12746619
10204.00   4.80599928   0.13675205
10206.00   4.70331049   0.14701003
10208.00   4.62808847   0.15504827
10210.00   4.65941763   0.15905279
10212.00   4.65749025   0.15846281
10214.00   4.62730646   0.15310264
10216.00   4.64495516   0.14371331
10218.00   4.72941017   0.13446455
10220.00   4.81408691   0.13035737
10222.00   4.86880064   0.13500060
10224.00   4.94429874   0.14250386
10226.00   4.89426661   0.14857160
10228.00   4.84526396   0.15201311
10230.00   4.88916492   0.15202628
10232.00   4.94301367   0.14630133
10234.00   4.91301107   0.13872117
10236.00   4.90729189   0.13148531
10238.00   4.88987017   0.12539563
10240.00   4.85349703   0.12092501
10242.00   4.92232990   0.11981530
10244.00   4.91735315   0.11947810
10246.00   4.84911156   0.11940362
10248.00   4.78743410   0.11963183
10250.00   4.84817934   0.12075786
10252.00   4.90604162   0.12216704
10254.00   4.89523458   0.12314663
10256.00   4.90586233   0.12439325
10258.00   4.93633032   0.12608625
10260.00   4.89483309   0.12773360
10262.00   4.88243389   0.12948015
10264.00   4.91174412   0.13248128
10266.00   4.91425562   0.13641967
10268.00   4.89286852   0.14071113
10270.00   4.94060183   0.14492232
10272.00   4.91365480   0.14707305
10274.00   4.86207438   0.14815260
10276.00   4.90504217   0.15206835
10278.00   5.00188208   0.16360326
10280.00   4.77552605   0.18627919
10282.00   4.51105833   0.21872647
10284.00   4.60218859   0.24799861
10286.00   4.77998352   0.26643267
10288.00   4.70352316   0.27165622
10290.00   4.82698154   0.26816508
10292.00   4.55846453   0.25347435
10294.00   4.58868074   0.23264612
10296.00   4.61815453   0.21441539
10298.00   4.74053192   0.20616724
10300.00   4.88741827   0.19812453
10302.00   4.73611689   0.18649240
10304.00   4.58464050   0.17678124
10306.00   4.64227438   0.17352216
10308.00   4.81047392   0.17538440
10310.00   4.67833233   0.17466116
10312.00   4.61487436   0.17293610
10314.00   4.59264612   0.17020945
10316.00   4.56547022   0.16695082
10318.00   4.56939077   0.16038974
10320.00   4.71390152   0.16203368
10322.00   4.73324347   0.16337427
10324.00   4.66592312   0.16443712
10326.00   4.64461374   0.16663456
10328.00   4.54420376   0.16832754
10330.00   4.34684181   0.16721772
10332.00   4.62288713   0.16900116
10334.00   4.73269272   0.17682989
10336.00   4.62983799   0.17740269
10338.00   4.71004200   0.18027860
10340.00   4.49426746   0.18925285
10342.00   4.79373932   0.20041996
10344.00   4.82676458   0.21014719
10346.00   4.42946720   0.21771586
10348.00   4.41482353   0.22202468
10350.00   4.97514629   0.22319575
10352.00   4.91634941   0.21929836
10354.00   4.57594395   0.21229444
10356.00   4.76650810   0.20326930
10358.00   4.65758371   0.20100345
10360.00   4.63137817   0.19678861
10362.00   4.76727343   0.19954963
10364.00   4.98869085   0.20974559
10366.00   4.95007324   0.22708426
10368.00   4.83454657   0.25705802
10370.00   4.58022594   0.28339401
10372.00   4.72143459   0.30101812
10374.00   4.65776777   0.30651549
10376.00   4.62666702   0.30207488
10378.00   4.63559008   0.27848643
10380.00   4.50089693   0.24913390
10382.00   4.77609253   0.22598898
10384.00   4.40881824   0.21612155
10386.00   4.89591217   0.21442056
10388.00   4.59033346   0.21858759
10390.00   4.66580868   0.22983821
10392.00   4.71738482   0.24523397
10394.00   4.72919130   0.25973770
10396.00   4.68388462   0.26852128
10398.00   4.71226454   0.27090052
10400.00   4.75265694   0.26708055
10402.00   4.72766829   0.25709003
10404.00   4.73914003   0.24369264
10406.00   4.54635382   0.23479514
10408.00   4.43294430   0.23542809
10410.00   4.46647692   0.25034463
10412.00   4.50349760   0.27883598
10414.00   4.07634258   0.31275442
10416.00   4.65826321   0.34469256
10418.00   4.64327860   0.36365923
10420.00   4.53163052   0.36445284
10422.00   3.94983578   0.34738049
10424.00   3.94755816   0.31790504
10426.00   4.24977303   0.28725436
10428.00   4.23675680   0.26508984
10430.00   4.31039906   0.25502220
10432.00   4.66117239   0.25131118
10434.00   4.69735003   0.24964322
10436.00   4.71701860   0.24886067
10438.00   4.62592602   0.24707788
10440.00   4.48994112   0.24601537
10442.00   4.42764616   0.25016686
10444.00   4.39361048   0.26252261
10446.00   4.58218622   0.28078520
10448.00   4.64866495   0.29579958
10450.00   4.44904995   0.30220070
10452.00   4.53428268   0.30446327
10454.00   4.79201174   0.30212301
10456.00   4.66795874   0.28898877
10458.00   4.42256308   0.27521870
10460.00   4.36990786   0.27454746
10462.00   4.72815895   0.29348937
10464.00   4.42154980   0.32240096
10466.00   4.61938667   0.35241839
10468.00   4.68524885   0.37216440
10470.00   4.40072203   0.37559351
10472.00   4.33958387   0.36699995
10474.00   4.43045521   0.34337410
10476.00   4.42580462   0.31334588
10478.00   4.39856911   0.28940296
10480.00   4.39958763   0.28039956
10482.00   4.35048008   0.27893648
10484.00   4.38439894   0.27859285
10486.00   4.40877151   0.27937138
10488.00   4.12950516   0.28118989
10490.00   4.38718462   0.28407386
10492.00   4.52201128   0.28605190
10494.00   4.69233227   0.28772196
10496.00   4.76258135   0.28854772
10498.00   4.67676497   0.28916702
10500.00   4.57702780   0.29205742
10502.00   4.34936810   0.30088457
10504.00   4.64614344   0.31244287
10506.00   4.54265022   0.32316014
10508.00   4.31939125   0.33143619
10510.00   4.53164196   0.33515021
10512.00   4.39040184   0.33704963
10514.00   4.88694477   0.33495927
10516.00   4.77946854   0.33077380
10518.00   4.36100435   0.32980129
10520.00   4.38166809   0.34647855
10522.00   4.48802042   0.36450675
10524.00   4.45355415   0.37334493
10526.00   4.26637030   0.37181267
10528.00   4.25908709   0.36660281
10530.00   4.08319759   0.35154855
10532.00   4.59510231   0.33387041
10534.00   4.72969007   0.32161435
10536.00   4.77403164   0.32003427
10538.00   4.83707190   0.32331914
10540.00   4.97620392   0.32924774
10542.00   4.76058149   0.32167938
10544.00   4.69573641   0.32250708
10546.00   4.91834688   0.32802391
10548.00   4.97928572   0.33169615
10550.00   4.63839960   0.32836330
10552.00   4.64752436   0.32912067
10554.00   4.78994703   0.33286414
10556.00   4.66199827   0.33024991
10558.00   4.58550596   0.34118205
10560.00   4.64343262   0.33512664
10562.00   4.84298277   0.34538817
10564.00   4.95175695   0.34906465
10566.00   4.75314474   0.34991646
10568.00   4.55429554   0.35588858
10570.00   4.68803024   0.35757458
10572.00   4.65294266   0.36860153
10574.00   4.73492336   0.37753838
10576.00   5.01256990   0.37434626
10578.00   4.97242689   0.37230882
10580.00   4.83610868   0.37717870
10582.00   5.14571667   0.38649002
10584.00   5.19713497   0.39398745
10586.00   4.54212809   0.39548638
10588.00   4.15782881   0.39653257
10590.00   4.48968124   0.39453584
10592.00   4.86826038   0.39145663
10594.00   5.00352430   0.38901934
10596.00   4.83553839   0.37979466
10598.00   5.00595617   0.38982326
10600.00   4.82879448   0.38759089
10602.00   4.55697155   0.38743949
10604.00   5.02151966   0.38001329
10606.00   5.35328484   0.38305709
10608.00   4.74760962   0.38170230
10610.00   5.09941864   0.38334340
10612.00   5.00125408   0.39652777
10614.00   5.24534559   0.39979208
10616.00   4.47632742   0.38923970
10618.00   4.51876307   0.39379096
10620.00   5.04261017   0.40929118
10622.00   5.28138733   0.41372356
10624.00   5.13922262   0.41865200
10626.00   4.78785658   0.42052430
10628.00   5.03324652   0.43318713
10630.00   4.79534674   0.42736411
10632.00   5.49131870   0.42827812
10634.00   4.72552156   0.43769830
10636.00   5.29426622   0.43874103
10638.00   4.71960974   0.42723158
10640.00   4.64499283   0.43420637
10642.00   4.76507950   0.45066881
10644.00   4.92946243   0.45306176
10646.00   5.56181288   0.45188665
10648.00   4.84941387   0.45914787
10650.00   5.14872742   0.46938834
10652.00   5.07243252   0.48284411
10654.00   5.34317255   0.48686898
10656.00   4.96602106   0.48182455
10658.00   5.06258392   0.48404011
10660.00   4.80844879   0.47829223
10662.00   4.35450935   0.48237720
10664.00   4.92898035   0.48363817
10666.00   4.90995598   0.50397354
10668.00   4.71903372   0.51960653
10670.00   5.11009026   0.53071570
10672.00   5.58270645   0.53591156
10674.00   5.65047407   0.55385417
10676.00   5.14351559   0.57113004
10678.00   4.83113480   0.57601821
10680.00   4.93601036   0.58038867
10682.00   5.65661240   0.59127945
10684.00   5.75219393   0.59512681
10686.00   5.03723526   0.62742049
10688.00   5.67313004   0.65937364
10690.00   6.03114128   0.67939532
10692.00   5.86521578   0.68994641
10694.00   4.93922997   0.68466645
10696.00   4.87514973   0.70327318
10698.00   5.11000633   0.70979321
10700.00   4.66922474   0.74402297
