# File created by shivutils (I.Shivvers)
# wl(A)   flm    er(optional)
3620.00   0.27492568   0.19014612
3622.00   0.32593030   0.20505609
3624.00   0.26995867   0.21576346
3626.00   0.17239365   0.22386131
3628.00   0.74145496   0.22823784
3630.00   0.33042595   0.21374758
3632.00   0.64804989   0.20796698
3634.00   0.31477863   0.21386325
3636.00   0.13232230   0.22194207
3638.00   0.24723390   0.23133001
3640.00   0.16822815   0.23232135
3642.00   -0.01940512   0.22587579
3644.00   0.22853300   0.21992366
3646.00   0.14702524   0.21713261
3648.00   0.62801832   0.24240138
3650.00   0.29383412   0.25986373
3652.00   0.51646018   0.25467926
3654.00   0.88910794   0.24877073
3656.00   0.43189967   0.23959836
3658.00   0.55193275   0.22982953
3660.00   0.07202506   0.23025869
3662.00   0.23570614   0.23668103
3664.00   0.46089926   0.23040980
3666.00   0.25907654   0.21680066
3668.00   0.26679069   0.20985170
3670.00   0.75726521   0.21075766
3672.00   0.47677538   0.21097443
3674.00   0.69843566   0.21186069
3676.00   0.77948564   0.20577966
3678.00   0.65585566   0.19858819
3680.00   0.34145644   0.19371937
3682.00   0.48812538   0.19825207
3684.00   0.67741066   0.19815420
3686.00   0.08138619   0.18696481
3688.00   0.14327289   0.19138114
3690.00   0.56003642   0.20045212
3692.00   0.62638193   0.20405918
3694.00   0.19128284   0.19617745
3696.00   0.53501582   0.19848667
3698.00   0.58392805   0.20390405
3700.00   0.47670728   0.20621787
3702.00   0.54845321   0.19702600
3704.00   0.47830227   0.18339212
3706.00   0.67345083   0.17821386
3708.00   0.21879916   0.17866085
3710.00   0.52772278   0.18692093
3712.00   0.90331668   0.19773807
3714.00   0.42692158   0.19705699
3716.00   0.46931478   0.19093935
3718.00   0.83091718   0.17726204
3720.00   0.45817202   0.15989791
3722.00   0.09764439   0.16389307
3724.00   0.37857124   0.17668991
3726.00   0.74473906   0.17785190
3728.00   0.28414688   0.17392537
3730.00   0.58569402   0.17335467
3732.00   0.39450124   0.16065192
3734.00   0.49859956   0.14715150
3736.00   0.44966879   0.14702904
3738.00   0.32689503   0.16212268
3740.00   0.61440092   0.17339587
3742.00   0.79649663   0.16954613
3744.00   0.41069525   0.15568046
3746.00   0.25859740   0.14709884
3748.00   0.78124827   0.14669989
3750.00   0.50653857   0.15485071
3752.00   0.92652828   0.17086177
3754.00   0.28604603   0.17484654
3756.00   0.00798078   0.16435289
3758.00   0.49703032   0.15522173
3760.00   0.53230566   0.15618145
3762.00   0.36136064   0.15692250
3764.00   0.19332299   0.15567182
3766.00   0.24495848   0.15366454
3768.00   0.99333173   0.15797105
3770.00   0.71280438   0.16287543
3772.00   0.62157321   0.16667803
3774.00   0.29056573   0.16977915
3776.00   0.07502709   0.16860905
3778.00   0.25870708   0.17088746
3780.00   0.52380216   0.17155524
3782.00   0.37893832   0.17260942
3784.00   0.17728086   0.16879003
3786.00   0.17610864   0.16125424
3788.00   0.17353426   0.15409674
3790.00   0.30821267   0.15558374
3792.00   0.13680622   0.15372060
3794.00   0.05726059   0.14764409
3796.00   0.23543338   0.14224179
3798.00   0.29040739   0.14101113
3800.00   -0.03204476   0.14749730
3802.00   -0.06112807   0.15623264
3804.00   0.21221514   0.15591785
3806.00   0.12916671   0.15127531
3808.00   0.04422343   0.15220362
3810.00   0.40328026   0.15654515
3812.00   0.18540518   0.14837822
3814.00   0.15118559   0.13851307
3816.00   0.21890043   0.13716139
3818.00   0.32903591   0.13525386
3820.00   0.17437778   0.13012442
3822.00   0.14048195   0.13031723
3824.00   0.00928286   0.12456319
3826.00   0.20710789   0.11931971
3828.00   0.17687543   0.12304784
3830.00   0.21711177   0.12341569
3832.00   0.19391984   0.11893102
3834.00   0.20025250   0.11882407
3836.00   0.11921786   0.11878805
3838.00   0.29587522   0.11543868
3840.00   0.30908072   0.12078367
3842.00   0.37676984   0.13185100
3844.00   0.45169663   0.13557710
3846.00   0.24834859   0.13459384
3848.00   0.30938739   0.13254134
3850.00   0.50190580   0.13223134
3852.00   0.44220158   0.13184509
3854.00   0.28472325   0.12837240
3856.00   0.44463813   0.12341730
3858.00   0.43184292   0.11759876
3860.00   0.31848082   0.12037777
3862.00   0.36587405   0.13040362
3864.00   0.43946257   0.13339484
3866.00   0.19193292   0.12809008
3868.00   0.33298633   0.12567620
3870.00   0.55301356   0.11836081
3872.00   0.33119079   0.12021104
3874.00   0.58208555   0.12994082
3876.00   0.25066435   0.12632668
3878.00   0.47105867   0.12151054
3880.00   0.26324180   0.11881834
3882.00   0.52831972   0.12174249
3884.00   0.52105814   0.12121990
3886.00   0.57940310   0.11718332
3888.00   0.37725165   0.11584134
3890.00   0.42875838   0.12236657
3892.00   0.60330755   0.12878583
3894.00   0.47581646   0.12904751
3896.00   0.27214882   0.12871617
3898.00   0.58705276   0.13044612
3900.00   0.68022931   0.12867638
3902.00   0.58280504   0.12681022
3904.00   0.68258876   0.12690508
3906.00   0.87247044   0.13324462
3908.00   0.77931792   0.13818449
3910.00   0.60386658   0.14122714
3912.00   0.63096935   0.14511311
3914.00   0.78575057   0.14048648
3916.00   0.73779839   0.12967704
3918.00   0.56454450   0.12188194
3920.00   0.64760572   0.11706700
3922.00   1.01191318   0.11795163
3924.00   0.59678698   0.11514832
3926.00   0.75043106   0.10828176
3928.00   0.85377771   0.09986538
3930.00   0.78265333   0.09154791
3932.00   0.94835502   0.08936235
3934.00   0.81405514   0.08833676
3936.00   0.93259668   0.09235230
3938.00   0.89036655   0.10126776
3940.00   0.71836549   0.10584088
3942.00   0.83948338   0.10890526
3944.00   1.04024732   0.11343487
3946.00   0.97478569   0.11590259
3948.00   0.73155916   0.11698151
3950.00   0.95740706   0.11823255
3952.00   0.96803761   0.11811060
3954.00   1.05816495   0.11632663
3956.00   0.91145796   0.11489291
3958.00   1.00177133   0.11485634
3960.00   0.89164519   0.11006566
3962.00   1.09504783   0.10403922
3964.00   0.98056340   0.09635206
3966.00   1.06052959   0.08759610
3968.00   1.07546270   0.08391240
3970.00   0.95630133   0.08788536
3972.00   1.05197942   0.09691766
3974.00   1.15014637   0.10485148
3976.00   0.98285395   0.10957856
3978.00   1.09050679   0.11479884
3980.00   0.88388914   0.11621252
3982.00   1.06906927   0.11587910
3984.00   1.13338685   0.11499371
3986.00   0.96114063   0.11655628
3988.00   1.17604280   0.11979054
3990.00   0.97172028   0.12034415
3992.00   0.99032384   0.12110946
3994.00   1.13038588   0.12133092
3996.00   0.97678232   0.11910420
3998.00   1.12258947   0.11965100
4000.00   1.11782634   0.12053574
4002.00   1.17898476   0.12004677
4004.00   1.02208340   0.11615325
4006.00   1.01767635   0.11608104
4008.00   0.96334350   0.11920066
4010.00   1.06574714   0.12020162
4012.00   1.01693380   0.12032806
4014.00   0.78969663   0.11876962
4016.00   0.94238883   0.11931466
4018.00   1.00955796   0.12250877
4020.00   1.04389632   0.12648189
4022.00   0.89921397   0.12682948
4024.00   1.06611228   0.12467318
4026.00   0.69919908   0.12232513
4028.00   0.86380231   0.12045161
4030.00   0.75847316   0.11628476
4032.00   0.97971094   0.11341750
4034.00   0.96268654   0.11515468
4036.00   0.73964202   0.11779474
4038.00   0.65009314   0.11765414
4040.00   0.93715084   0.11775737
4042.00   0.68181825   0.11706418
4044.00   0.63501590   0.13682657
4046.00   0.89592153   0.15167165
4048.00   0.94128245   0.14121057
4050.00   0.56206441   0.11945794
4052.00   0.74969316   0.11424948
4054.00   0.87794709   0.11339309
4056.00   0.84861010   0.11144768
4058.00   0.74717635   0.10995765
4060.00   0.83551669   0.10986442
4062.00   0.82278252   0.10726372
4064.00   0.63492042   0.10503188
4066.00   0.56625241   0.10782820
4068.00   0.80949575   0.11040750
4070.00   0.70886552   0.10798817
4072.00   1.00180936   0.10828928
4074.00   0.38012674   0.10741111
4076.00   0.63782126   0.10906672
4078.00   0.55245143   0.11033466
4080.00   0.62323380   0.11094118
4082.00   0.76265866   0.10964767
4084.00   0.65077937   0.10692828
4086.00   0.70100635   0.10869873
4088.00   0.76133776   0.10977633
4090.00   0.65801710   0.10797339
4092.00   0.55695796   0.10517952
4094.00   0.54325014   0.10330846
4096.00   0.81446141   0.10235910
4098.00   0.54620212   0.09866909
4100.00   0.62473941   0.09489336
4102.00   0.53777242   0.09366376
4104.00   0.72121918   0.09785654
4106.00   0.51316732   0.10074945
4108.00   0.54978341   0.10074863
4110.00   0.62162948   0.10191011
4112.00   0.51327521   0.10286575
4114.00   0.76223475   0.10575300
4116.00   0.62028897   0.10471015
4118.00   0.52238077   0.10255360
4120.00   0.69251823   0.10164190
4122.00   0.57731813   0.10163456
4124.00   0.59633660   0.10190148
4126.00   0.65089047   0.10081475
4128.00   0.67489243   0.09956088
4130.00   0.69225335   0.09794829
4132.00   0.78648537   0.09765683
4134.00   0.46074161   0.09680323
4136.00   0.61964339   0.09972367
4138.00   0.51130676   0.10224281
4140.00   0.53819412   0.10180616
4142.00   0.61644650   0.09765987
4144.00   0.49550930   0.09562285
4146.00   0.33414277   0.09731557
4148.00   0.57528186   0.09831723
4150.00   0.28654107   0.09762270
4152.00   0.56958961   0.09875580
4154.00   0.68747663   0.09697387
4156.00   0.52707100   0.09702259
4158.00   0.72245997   0.09818003
4160.00   0.64642966   0.09997011
4162.00   0.61035931   0.10105788
4164.00   0.27098423   0.10108072
4166.00   0.57599771   0.09999748
4168.00   0.51309335   0.09752746
4170.00   0.62145597   0.09511761
4172.00   0.61080015   0.09269427
4174.00   0.61349946   0.09216621
4176.00   0.35544857   0.09271898
4178.00   0.34930313   0.09245557
4180.00   0.56049716   0.09297413
4182.00   0.67957520   0.09277742
4184.00   0.61449289   0.09193218
4186.00   0.50877959   0.09066123
4188.00   0.52549613   0.09127164
4190.00   0.62364447   0.09347040
4192.00   0.58221292   0.09345714
4194.00   0.58544028   0.09222037
4196.00   0.67383409   0.08938511
4198.00   0.70712727   0.08774327
4200.00   0.48252052   0.08706062
4202.00   0.56188846   0.08831193
4204.00   0.80645996   0.09156485
4206.00   0.49363023   0.09168370
4208.00   0.47238764   0.09233689
4210.00   0.44779041   0.09256805
4212.00   0.49791950   0.09278250
4214.00   0.73700899   0.09160607
4216.00   0.63590145   0.09008323
4218.00   0.70301497   0.09085410
4220.00   0.59720474   0.09072272
4222.00   0.45426130   0.08863967
4224.00   0.69891548   0.08442331
4226.00   0.60242653   0.08242577
4228.00   0.46363845   0.08518519
4230.00   0.56896424   0.08923694
4232.00   0.77664214   0.08960902
4234.00   0.46240255   0.08662165
4236.00   0.62791109   0.08682048
4238.00   0.51559454   0.08668180
4240.00   0.56054991   0.08668750
4242.00   0.43913853   0.08670148
4244.00   0.74000359   0.08994380
4246.00   0.52569062   0.08989321
4248.00   0.65318924   0.08732075
4250.00   0.64995110   0.08538330
4252.00   0.72369295   0.08589955
4254.00   0.47813824   0.08535673
4256.00   0.63715315   0.08642658
4258.00   0.49253336   0.08456915
4260.00   0.55220723   0.08334070
4262.00   0.60986745   0.08576379
4264.00   0.46446401   0.08699921
4266.00   0.66946721   0.08693305
4268.00   0.54158407   0.08346962
4270.00   0.60842168   0.08063386
4272.00   0.69594091   0.07924064
4274.00   0.50049084   0.08074318
4276.00   0.64932942   0.08409020
4278.00   0.59124398   0.08422205
4280.00   0.54409194   0.08244777
4282.00   0.65719026   0.08242340
4284.00   0.55974633   0.08166604
4286.00   0.50743192   0.08032370
4288.00   0.61011720   0.07941104
4290.00   0.73820430   0.08030998
4292.00   0.70576918   0.08149121
4294.00   0.74790579   0.08186552
4296.00   0.66883165   0.07869910
4298.00   0.57570279   0.07495639
4300.00   0.58817118   0.07251181
4302.00   0.70658046   0.07334118
4304.00   0.54111099   0.07271032
4306.00   0.60736912   0.07187393
4308.00   0.62923032   0.07099753
4310.00   0.74458522   0.07343760
4312.00   0.70135796   0.07836569
4314.00   0.63119948   0.08338107
4316.00   0.83920979   0.08652451
4318.00   0.87490743   0.08789140
4320.00   0.73683983   0.08664907
4322.00   0.90500718   0.08331880
4324.00   0.68804926   0.07938604
4326.00   0.85986024   0.08096226
4328.00   0.76654154   0.08297464
4330.00   0.81915736   0.08416302
4332.00   0.57792872   0.08348476
4334.00   0.70340937   0.08296002
4336.00   0.73387629   0.08036416
4338.00   0.67795223   0.07722208
4340.00   0.73243338   0.07626368
4342.00   0.75826401   0.07888131
4344.00   0.66997457   0.08186673
4346.00   0.80815423   0.08402151
4348.00   0.71172029   0.08344368
4350.00   0.75273275   0.08119399
4352.00   0.75678343   0.08021922
4354.00   0.66354454   0.09186047
4356.00   0.76474351   0.12070484
4358.00   0.81619817   0.13197128
4360.00   0.66960609   0.11377534
4362.00   0.79648352   0.09499628
4364.00   0.78340423   0.08685476
4366.00   0.73331904   0.08520799
4368.00   0.55699521   0.08322601
4370.00   0.71699321   0.08383339
4372.00   0.72199678   0.08351000
4374.00   0.85947615   0.08370066
4376.00   0.68258268   0.08323541
4378.00   0.68916368   0.08276713
4380.00   0.70649439   0.08058180
4382.00   0.57056820   0.07661825
4384.00   0.62778640   0.07511757
4386.00   0.55099070   0.07640526
4388.00   0.66268367   0.07713629
4390.00   0.62746024   0.07705228
4392.00   0.61010820   0.07731576
4394.00   0.58417833   0.07712997
4396.00   0.46210930   0.07769402
4398.00   0.61959475   0.07855042
4400.00   0.52384275   0.07865100
4402.00   0.49547789   0.07725573
4404.00   0.57855070   0.07663585
4406.00   0.60526395   0.07726671
4408.00   0.47865972   0.07875604
4410.00   0.47097981   0.08057655
4412.00   0.71397662   0.08084137
4414.00   0.42939639   0.08005648
4416.00   0.40843594   0.07985785
4418.00   0.37693363   0.08026340
4420.00   0.38895443   0.08015732
4422.00   0.52362913   0.07938763
4424.00   0.46614784   0.07905611
4426.00   0.58034587   0.07940161
4428.00   0.36677739   0.07885885
4430.00   0.33776480   0.07809442
4432.00   0.32142988   0.07737558
4434.00   0.41616350   0.07682129
4436.00   0.33635521   0.07730729
4438.00   0.12405629   0.07744738
4440.00   0.30233377   0.07715869
4442.00   0.48895162   0.07668047
4444.00   0.51529151   0.07651935
4446.00   0.23980045   0.07592773
4448.00   0.36974037   0.07618027
4450.00   0.30974534   0.07606141
4452.00   0.13057055   0.07472812
4454.00   0.35716438   0.07426794
4456.00   0.31487164   0.07382689
4458.00   0.53182071   0.07450625
4460.00   0.42576075   0.07433970
4462.00   0.33628720   0.07513444
4464.00   0.38715091   0.07619431
4466.00   0.34991741   0.07620560
4468.00   0.31695655   0.07555324
4470.00   0.29260182   0.07561889
4472.00   0.33184278   0.07625425
4474.00   0.51707953   0.07662297
4476.00   0.31767809   0.07562186
4478.00   0.43614060   0.07427541
4480.00   0.32138249   0.07226565
4482.00   0.32296124   0.07326864
4484.00   0.44192395   0.07510215
4486.00   0.33833990   0.07487445
4488.00   0.45194584   0.07501189
4490.00   0.47198835   0.07498223
4492.00   0.26706868   0.07474605
4494.00   0.38230020   0.07499374
4496.00   0.26733869   0.07544714
4498.00   0.39837024   0.07605480
4500.00   0.41461092   0.07596487
4502.00   0.45022699   0.07628697
4504.00   0.45691395   0.07617359
4506.00   0.47535104   0.07602394
4508.00   0.44234961   0.07581787
4510.00   0.58853191   0.07579156
4512.00   0.52025956   0.07494299
4514.00   0.28598517   0.07374266
4516.00   0.47323164   0.07373147
4518.00   0.39651704   0.07344057
4520.00   0.52295196   0.07374470
4522.00   0.58156139   0.07316409
4524.00   0.65796715   0.07221170
4526.00   0.42496061   0.07033817
4528.00   0.59107244   0.07013266
4530.00   0.67677903   0.07069222
4532.00   0.46172896   0.07000270
4534.00   0.63454592   0.07096272
4536.00   0.48377943   0.07125036
4538.00   0.58218533   0.07231326
4540.00   0.64322585   0.07247346
4542.00   0.57354569   0.07201885
4544.00   0.68530154   0.07210888
4546.00   0.61250472   0.07083621
4548.00   0.55234629   0.06946421
4550.00   0.73970598   0.07031008
4552.00   0.63060659   0.06989229
4554.00   0.64841986   0.07018408
4556.00   0.80280972   0.07099954
4558.00   0.84616804   0.07172668
4560.00   0.75760907   0.07171075
4562.00   0.68469471   0.07065874
4564.00   0.80433267   0.07036096
4566.00   0.83317548   0.07073797
4568.00   0.76315480   0.07053500
4570.00   0.94465262   0.07050376
4572.00   0.79003388   0.06978037
4574.00   1.05966055   0.07048912
4576.00   0.89874762   0.06966718
4578.00   0.80951887   0.06873533
4580.00   0.89985132   0.06780750
4582.00   1.06872773   0.06776160
4584.00   0.97494906   0.06759211
4586.00   1.05660093   0.06824136
4588.00   1.03858471   0.06866520
4590.00   0.99436843   0.06864990
4592.00   1.06820226   0.06849838
4594.00   1.14742637   0.06825562
4596.00   1.19134927   0.06806555
4598.00   1.20675850   0.06782428
4600.00   1.31360185   0.06783339
4602.00   1.17598486   0.06704620
4604.00   1.08965337   0.06684574
4606.00   1.26173258   0.06794003
4608.00   1.23539197   0.06811345
4610.00   1.29747891   0.06852367
4612.00   1.22371149   0.06792647
4614.00   1.27946818   0.06771927
4616.00   1.25834322   0.06756081
4618.00   1.40137124   0.06778458
4620.00   1.39124608   0.06817333
4622.00   1.33271730   0.06766222
4624.00   1.25174999   0.06743651
4626.00   1.27731121   0.06718358
4628.00   1.25779843   0.06673258
4630.00   1.49542224   0.06683039
4632.00   1.33468044   0.06643000
4634.00   1.45226359   0.06661814
4636.00   1.46226168   0.06659131
4638.00   1.51575863   0.06675819
4640.00   1.56057024   0.06715802
4642.00   1.51800263   0.06723579
4644.00   1.48244524   0.06630093
4646.00   1.42637026   0.06576025
4648.00   1.49090409   0.06659881
4650.00   1.35138929   0.06675526
4652.00   1.41947770   0.06713288
4654.00   1.48347604   0.06740665
4656.00   1.65801203   0.06816839
4658.00   1.53998446   0.06869961
4660.00   1.48775268   0.06838451
4662.00   1.34350038   0.06741833
4664.00   1.32347298   0.06635454
4666.00   1.36245632   0.06533086
4668.00   1.46091402   0.06582560
4670.00   1.40871787   0.06604937
4672.00   1.54800630   0.06686088
4674.00   1.45402300   0.06646574
4676.00   1.38675749   0.06615739
4678.00   1.28577435   0.06493820
4680.00   1.25437367   0.06433575
4682.00   1.09170759   0.06403086
4684.00   1.25451851   0.06481872
4686.00   1.27710664   0.06469006
4688.00   1.29172683   0.06456548
4690.00   1.15203416   0.06382751
4692.00   1.12810612   0.06370039
4694.00   1.08406115   0.06363490
4696.00   1.02630496   0.06302513
4698.00   1.06649899   0.06245881
4700.00   1.10065722   0.06168683
4702.00   1.07638085   0.06136191
4704.00   1.04147923   0.06175525
4706.00   1.02501094   0.06153733
4708.00   1.02855897   0.06186011
4710.00   0.77969742   0.06129345
4712.00   0.81099570   0.06108385
4714.00   0.97492570   0.06180901
4716.00   0.94874620   0.06172516
4718.00   0.79765344   0.06156640
4720.00   0.77269185   0.06149237
4722.00   0.79193705   0.06148595
4724.00   0.85498750   0.06148304
4726.00   0.64659899   0.06114222
4728.00   0.76417208   0.06139196
4730.00   0.74976099   0.06105313
4732.00   0.72593755   0.06123272
4734.00   0.61727494   0.06111456
4736.00   0.62070763   0.06087287
4738.00   0.52115142   0.06110300
4740.00   0.63767743   0.06229103
4742.00   0.78606915   0.06311497
4744.00   0.58060616   0.06186143
4746.00   0.57686931   0.06028958
4748.00   0.54425907   0.05891280
4750.00   0.58321279   0.05896845
4752.00   0.55440545   0.05883919
4754.00   0.73034632   0.05873308
4756.00   0.64391339   0.05833192
4758.00   0.69876581   0.05847292
4760.00   0.51982409   0.05699286
4762.00   0.67258966   0.05717224
4764.00   0.58001047   0.05660313
4766.00   0.45337975   0.05574410
4768.00   0.41770518   0.05601581
4770.00   0.62399679   0.05695901
4772.00   0.53673047   0.05671593
4774.00   0.50811636   0.05685376
4776.00   0.52429444   0.05756253
4778.00   0.47960812   0.05728771
4780.00   0.54272968   0.05720891
4782.00   0.50744241   0.05666876
4784.00   0.47051242   0.05721757
4786.00   0.57930273   0.05834815
4788.00   0.44827491   0.05516203
4790.00   0.49710840   0.05508759
4792.00   0.51702458   0.05553780
4794.00   0.50084490   0.05502214
4796.00   0.53766161   0.05467525
4798.00   0.55587804   0.05440201
4800.00   0.56372601   0.05457397
4802.00   0.50838476   0.05432076
4804.00   0.41529793   0.05397537
4806.00   0.59594834   0.05407313
4808.00   0.52579200   0.05400532
4810.00   0.51991546   0.05421195
4812.00   0.59609997   0.05467863
4814.00   0.68468601   0.05508205
4816.00   0.62001330   0.05523802
4818.00   0.65922326   0.05543757
4820.00   0.57730556   0.05512907
4822.00   0.63272190   0.05474037
4824.00   0.64931405   0.05492761
4826.00   0.59943444   0.05502944
4828.00   0.80620641   0.05571600
4830.00   0.90922648   0.05612039
4832.00   0.74079525   0.05576999
4834.00   0.78203839   0.05574055
4836.00   0.69818866   0.05576854
4838.00   0.68584365   0.05534258
4840.00   0.75195777   0.05541096
4842.00   0.72931117   0.05526712
4844.00   0.72363478   0.05511742
4846.00   0.72439271   0.05510250
4848.00   0.66914564   0.05495906
4850.00   0.66856980   0.05491593
4852.00   0.71896756   0.05418908
4854.00   0.74029654   0.05370948
4856.00   0.70991576   0.05260904
4858.00   0.74025440   0.05126208
4860.00   0.79720360   0.05052599
4862.00   0.69485247   0.05071405
4864.00   0.72045761   0.05198358
4866.00   0.77457839   0.05304736
4868.00   0.62813747   0.05299751
4870.00   0.66244626   0.05274765
4872.00   0.64359057   0.05265109
4874.00   0.57652295   0.05292133
4876.00   0.59214813   0.05325121
4878.00   0.70971656   0.05406003
4880.00   0.69865727   0.05382561
4882.00   0.64526474   0.05309235
4884.00   0.66539282   0.05224761
4886.00   0.70665926   0.05175678
4888.00   0.69285738   0.05110601
4890.00   0.79994804   0.05189681
4892.00   0.78647083   0.05274618
4894.00   0.76991308   0.05340520
4896.00   0.70452356   0.05331035
4898.00   0.72600889   0.05329753
4900.00   0.79153657   0.05315150
4902.00   0.75175387   0.05288434
4904.00   0.79260850   0.05325427
4906.00   0.68891555   0.05310787
4908.00   0.62864614   0.05233575
4910.00   0.72385937   0.05271152
4912.00   0.74451798   0.05308164
4914.00   0.66743857   0.05277865
4916.00   0.73010004   0.05197610
4918.00   0.76984572   0.05111511
4920.00   0.72114629   0.05091066
4922.00   0.86925024   0.05184649
4924.00   0.75255781   0.05186394
4926.00   0.76909631   0.05209249
4928.00   0.70236230   0.05213970
4930.00   0.86116391   0.05261090
4932.00   0.78687984   0.05205763
4934.00   0.88955581   0.05192961
4936.00   0.92008781   0.05147239
4938.00   0.91772151   0.05165285
4940.00   0.91499132   0.05199803
4942.00   0.94928497   0.05232872
4944.00   0.94656301   0.05217513
4946.00   1.01375663   0.05271446
4948.00   1.06719065   0.05276201
4950.00   1.10402286   0.05317020
4952.00   0.99729490   0.05292139
4954.00   0.99852639   0.05224764
4956.00   1.01212728   0.05145805
4958.00   1.03524697   0.05200373
4960.00   1.05851996   0.05249923
4962.00   1.06061828   0.05275346
4964.00   1.15127516   0.05309784
4966.00   1.14004898   0.05301836
4968.00   1.12548971   0.05290191
4970.00   1.22074068   0.05393764
4972.00   1.16976535   0.05442382
4974.00   1.15341139   0.05501493
4976.00   1.22942626   0.05583563
4978.00   1.21272004   0.05625323
4980.00   1.17408204   0.05650312
4982.00   1.37458336   0.05665941
4984.00   1.19409227   0.05594919
4986.00   1.23194683   0.05570914
4988.00   1.29442084   0.05553770
4990.00   1.16041696   0.05460363
4992.00   1.16003275   0.05411591
4994.00   1.14091229   0.05304733
4996.00   1.19374049   0.05251535
4998.00   1.10742128   0.05173844
5000.00   0.97830003   0.05059071
5002.00   1.06658363   0.05025815
5004.00   1.07207203   0.04981245
5006.00   1.04169607   0.04925102
5008.00   0.89180374   0.04874915
5010.00   0.91112989   0.04852418
5012.00   0.93476599   0.04848018
5014.00   0.83701116   0.04797859
5016.00   0.77390164   0.04731413
5018.00   0.90100867   0.04786050
5020.00   0.89166856   0.04785252
5022.00   0.83149713   0.04745802
5024.00   0.83595175   0.04704670
5026.00   0.77819008   0.04676611
5028.00   0.75499481   0.04685854
5030.00   0.69199407   0.04687210
5032.00   0.73896873   0.04698799
5034.00   0.72068632   0.04667367
5036.00   0.90558797   0.04678472
5038.00   0.81078523   0.04557205
5040.00   0.75360000   0.04474911
5042.00   0.75082022   0.04529673
5044.00   0.71009606   0.04527373
5046.00   0.61069626   0.04518443
5048.00   0.59137601   0.04504460
5050.00   0.59728765   0.04492235
5052.00   0.63166058   0.04536696
5054.00   0.56058437   0.04536744
5056.00   0.61287552   0.04559353
5058.00   0.66456485   0.04581800
5060.00   0.64665431   0.04641900
5062.00   0.49758226   0.04612074
5064.00   0.72625458   0.04671930
5066.00   0.50661349   0.04655004
5068.00   0.54294473   0.04682856
5070.00   0.59906238   0.04688394
5072.00   0.58582526   0.04631701
5074.00   0.69043118   0.04661195
5076.00   0.52440476   0.04556964
5078.00   0.55975157   0.04648717
5080.00   0.42072603   0.04785000
5082.00   0.46550101   0.04971028
5084.00   0.64502877   0.05107314
5086.00   0.64623117   0.05070435
5088.00   0.46599337   0.04873792
5090.00   0.44278488   0.04737175
5092.00   0.58525813   0.04684755
5094.00   0.50668812   0.04623210
5096.00   0.55700642   0.04642728
5098.00   0.51830959   0.04644437
5100.00   0.46472105   0.04619273
5102.00   0.49504665   0.04571631
5104.00   0.53431892   0.04527115
5106.00   0.54517627   0.04509951
5108.00   0.48882246   0.04454016
5110.00   0.56224769   0.04514990
5112.00   0.61852795   0.04554446
5114.00   0.53482807   0.04568879
5116.00   0.55616051   0.04596782
5118.00   0.61184686   0.04580538
5120.00   0.54606557   0.04467388
5122.00   0.61164808   0.04461947
5124.00   0.55177152   0.04414339
5126.00   0.53923035   0.04377122
5128.00   0.57263535   0.04424721
5130.00   0.51897800   0.04385578
5132.00   0.45511624   0.04406808
5134.00   0.51547331   0.04400344
5136.00   0.59266806   0.04422887
5138.00   0.46254250   0.04348507
5140.00   0.48140010   0.04356414
5142.00   0.52272868   0.04386598
5144.00   0.45350394   0.04376713
5146.00   0.44295311   0.04383418
5148.00   0.57498187   0.04487158
5150.00   0.48698863   0.04500611
5152.00   0.55443913   0.04553800
5154.00   0.62485695   0.04564227
5156.00   0.54435724   0.04502127
5158.00   0.53077590   0.04452698
5160.00   0.51048529   0.04397022
5162.00   0.54359430   0.04316055
5164.00   0.54133207   0.04221542
5166.00   0.57457680   0.04144933
5168.00   0.52468985   0.04109186
5170.00   0.53272796   0.04039429
5172.00   0.56049204   0.04086770
5174.00   0.53471148   0.04171854
5176.00   0.52406669   0.04232408
5178.00   0.45934719   0.04209242
5180.00   0.53047359   0.04156416
5182.00   0.46372893   0.04055974
5184.00   0.56697649   0.04108204
5186.00   0.52727020   0.04145373
5188.00   0.57439017   0.04197121
5190.00   0.56489974   0.04214250
5192.00   0.46963018   0.04182980
5194.00   0.46544379   0.04244166
5196.00   0.53557736   0.04404497
5198.00   0.59891039   0.04453535
5200.00   0.49614441   0.04380237
5202.00   0.54070801   0.04313118
5204.00   0.62376893   0.04259915
5206.00   0.62593067   0.04239085
5208.00   0.57731318   0.04217880
5210.00   0.61298501   0.04259854
5212.00   0.68443382   0.04289206
5214.00   0.59519243   0.04185620
5216.00   0.56747872   0.04212822
5218.00   0.51334482   0.04201313
5220.00   0.59648311   0.04275907
5222.00   0.57460403   0.04202092
5224.00   0.58997470   0.04148287
5226.00   0.63333023   0.04136514
5228.00   0.60036922   0.04147055
5230.00   0.60159576   0.04128937
5232.00   0.61789083   0.04115906
5234.00   0.70785952   0.04151138
5236.00   0.64206505   0.04167470
5238.00   0.78088844   0.04242862
5240.00   0.75122613   0.04188886
5242.00   0.75905102   0.04193901
5244.00   0.67212582   0.04126150
5246.00   0.68872368   0.04124814
5248.00   0.78384846   0.04141831
5250.00   0.73053265   0.04098810
5252.00   0.79315704   0.04105508
5254.00   0.78410053   0.04129030
5256.00   0.81177235   0.04175107
5258.00   0.76109922   0.04125314
5260.00   0.78094614   0.04093671
5262.00   0.81759852   0.04064616
5264.00   0.73682922   0.03970454
5266.00   0.83321208   0.03959963
5268.00   0.79191369   0.03931229
5270.00   0.81183404   0.03957780
5272.00   0.87029088   0.04018561
5274.00   0.88221216   0.04033569
5276.00   0.75011981   0.03985023
5278.00   0.84985584   0.04027369
5280.00   0.85381961   0.04031362
5282.00   0.82761800   0.04045432
5284.00   0.89873087   0.04074850
5286.00   0.92655081   0.04099366
5288.00   0.88514787   0.04081107
5290.00   0.87038082   0.04041883
5292.00   0.93646675   0.04082005
5294.00   0.96135938   0.04079640
5296.00   0.82017338   0.04018361
5298.00   0.94741529   0.04049761
5300.00   0.98584151   0.04063769
5302.00   0.96202320   0.04077778
5304.00   0.88777107   0.04046506
5306.00   0.97766930   0.04073008
5308.00   0.94134772   0.04089096
5310.00   0.99918878   0.04120452
5312.00   1.03161180   0.04132596
5314.00   1.06904602   0.04119527
5316.00   1.00150359   0.04081300
5318.00   1.11539865   0.04126531
5320.00   1.14036334   0.04115111
5322.00   1.11782324   0.04103848
5324.00   1.08909154   0.04051495
5326.00   1.07587254   0.04040013
5328.00   1.02747536   0.04028333
5330.00   1.03701997   0.04076093
5332.00   1.17723262   0.04140218
5334.00   1.09174240   0.04110269
5336.00   1.10195994   0.04116491
5338.00   1.18816614   0.04191004
5340.00   1.10266244   0.04165702
5342.00   1.07696784   0.04155649
5344.00   1.07098341   0.04152964
5346.00   1.10788274   0.04220748
5348.00   1.08896434   0.04258404
5350.00   1.04246438   0.04214101
5352.00   1.07748413   0.04270201
5354.00   1.04991627   0.04298728
5356.00   1.09038711   0.04301836
5358.00   1.04378283   0.04222896
5360.00   1.14625347   0.04231839
5362.00   1.01125348   0.04117815
5364.00   1.04007339   0.04111854
5366.00   1.04642653   0.04080095
5368.00   1.07160044   0.04072677
5370.00   1.03595126   0.04074272
5372.00   1.07682943   0.04142949
5374.00   0.99403471   0.04162904
5376.00   1.09532261   0.04239485
5378.00   0.96202594   0.04146603
5380.00   1.01896799   0.04140153
5382.00   1.04776347   0.04142539
5384.00   0.98944050   0.04155637
5386.00   0.99310744   0.04164444
5388.00   0.98578042   0.04186014
5390.00   1.00634301   0.04235660
5392.00   0.97734147   0.04253180
5394.00   1.04206371   0.04259988
5396.00   1.03254569   0.04224873
5398.00   1.06227398   0.04263521
5400.00   1.03582466   0.04269852
5402.00   1.00291491   0.04262957
5404.00   1.09061205   0.04320379
5406.00   1.09193873   0.04347055
5408.00   1.09988022   0.04410240
5410.00   1.02615535   0.04422927
5412.00   1.05095410   0.04519707
5414.00   1.12301195   0.04634556
5416.00   1.14351785   0.04679219
5418.00   1.00411534   0.04667534
5420.00   1.05347431   0.04727491
5422.00   1.09977388   0.04721553
5424.00   1.18772411   0.04795003
5426.00   1.11732626   0.04755168
5428.00   1.08661842   0.04752881
5430.00   1.19025934   0.04844840
5432.00   1.19868934   0.04818727
5434.00   1.18792605   0.04859455
5436.00   1.10925984   0.04859233
5438.00   1.04112267   0.04917258
5440.00   1.18822622   0.04959874
5442.00   1.07189751   0.04959464
5444.00   1.17058742   0.04997387
5446.00   1.19527996   0.05076736
5448.00   1.11397529   0.05059629
5450.00   1.19460118   0.05102560
5452.00   1.20554447   0.05107932
5454.00   1.08944285   0.05194419
5456.00   1.20423579   0.06166284
5458.00   1.30304062   0.07215456
5460.00   1.25971866   0.07446220
5462.00   1.31772482   0.06964349
5464.00   1.19923460   0.06469609
5466.00   1.24020219   0.06035933
5468.00   1.32099307   0.05740209
5470.00   1.35784101   0.05491241
5472.00   1.28327036   0.05313904
5474.00   1.25281453   0.05235939
5476.00   1.33607113   0.05279634
5478.00   1.25265646   0.05286147
5480.00   1.28830791   0.05415703
5482.00   1.24972034   0.05442443
5484.00   1.41275966   0.05450111
5486.00   1.29460824   0.05318628
5488.00   1.30388522   0.05296087
5490.00   1.44769669   0.05285298
5492.00   1.30957806   0.05198724
5494.00   1.41414988   0.05211963
5496.00   1.33234525   0.05178451
5498.00   1.34116566   0.05199905
5500.00   1.34581780   0.05180149
5502.00   1.49506009   0.05219512
5504.00   1.46716750   0.05200642
5506.00   1.36937642   0.05106271
5508.00   1.46034753   0.05187275
5510.00   1.46469986   0.05231313
5512.00   1.50002754   0.05296885
5514.00   1.50411630   0.05275062
5516.00   1.58243001   0.05339761
5518.00   1.55042279   0.05352263
5520.00   1.57909214   0.05370029
5522.00   1.59894741   0.05344282
5524.00   1.61402738   0.05317083
5526.00   1.72512174   0.05325412
5528.00   1.68144476   0.05282114
5530.00   1.72655165   0.05272972
5532.00   1.76388943   0.05253769
5534.00   1.71675932   0.05234755
5536.00   1.72365141   0.05249453
5538.00   1.70591688   0.05246933
5540.00   1.76112044   0.05287462
5542.00   1.81801474   0.05315614
5544.00   1.77108407   0.05292028
5546.00   1.77026391   0.05278189
5548.00   1.79578769   0.05293428
5550.00   1.77623141   0.05264859
5552.00   1.74425042   0.05238327
5554.00   1.77968478   0.05233271
5556.00   1.72751808   0.05217675
5558.00   1.84698236   0.05241920
5560.00   1.79177892   0.05277470
5562.00   1.86400127   0.05337540
5564.00   1.70759213   0.07673352
5566.00   1.69283307   0.07831266
5568.00   1.67951596   0.07980060
5570.00   1.70950317   0.08260716
5572.00   1.70078170   0.08690554
5574.00   1.68076646   0.09116309
5576.00   1.64729226   0.09278563
5578.00   1.75506341   0.09128287
5580.00   1.79118383   0.08741953
5582.00   1.71569395   0.08112630
5584.00   1.66345692   0.07312195
5586.00   1.67933083   0.06571613
5588.00   1.67313135   0.06217343
5590.00   1.65457976   0.06117973
5592.00   1.64173508   0.06087905
5594.00   1.65363884   0.06029407
5596.00   1.66106331   0.05990252
5598.00   1.58783102   0.05882071
5600.00   1.53678358   0.05802086
5602.00   1.51115882   0.05749385
5604.00   1.52310884   0.05714966
5606.00   1.54931152   0.05698111
5608.00   1.54520071   0.05649982
5610.00   1.53859758   0.05591782
5612.00   1.56342888   0.05553542
5614.00   1.59529686   0.05523199
5616.00   1.56519938   0.05477148
5618.00   1.50254881   0.05410656
5620.00   1.46723688   0.05345539
5622.00   1.48537576   0.05308329
5624.00   1.50638497   0.05285658
5626.00   1.46916831   0.05240418
5628.00   1.43590891   0.05176157
5630.00   1.43983591   0.05131341
5632.00   1.43429673   0.05096591
5634.00   1.36375272   0.05020491
5636.00   1.31114626   0.04974794
5638.00   1.35289633   0.04988191
5640.00   1.37141597   0.04974615
5642.00   1.34311485   0.04916111
5644.00   1.28826249   0.04869613
5646.00   1.29929829   0.04845747
5648.00   1.29811203   0.04795152
5650.00   1.30411446   0.04772625
5652.00   1.31361723   0.04767983
5654.00   1.29110277   0.04754194
5656.00   1.21580184   0.04707431
5658.00   1.24487579   0.04720218
5660.00   1.27604640   0.04740524
5662.00   1.27899444   0.04758329
5664.00   1.25338113   0.04774731
5666.00   1.24167383   0.04808461
5668.00   1.25168133   0.04875690
5670.00   1.24872673   0.04921836
5672.00   1.28302515   0.04951423
5674.00   1.26715755   0.04968777
5676.00   1.20057678   0.04982178
5678.00   1.14750135   0.05013208
5680.00   1.15179527   0.05077980
5682.00   1.16811085   0.05156496
5684.00   1.17061543   0.05237183
5686.00   1.16106832   0.05246773
5688.00   1.12593496   0.05158078
5690.00   1.08370340   0.05006247
5692.00   1.07974529   0.04832975
5694.00   1.06013358   0.04623348
5696.00   1.03381598   0.04439384
5698.00   1.00448310   0.04275803
5700.00   1.00725806   0.04143054
5702.00   0.99759674   0.04051705
5704.00   0.99269342   0.03981992
5706.00   0.99815470   0.03927895
5708.00   0.99490094   0.03877685
5710.00   0.96784812   0.03832818
5712.00   0.92058563   0.03786132
5714.00   0.89486426   0.03739506
5716.00   0.87221664   0.03673124
5718.00   0.85041255   0.03611501
5720.00   0.83631206   0.03571924
5722.00   0.83893698   0.03543547
5724.00   0.84628266   0.03512631
5726.00   0.83479112   0.03479259
5728.00   0.81155586   0.03443966
5730.00   0.79929137   0.03410856
5732.00   0.80506915   0.03387025
5734.00   0.80238432   0.03371897
5736.00   0.81300443   0.03367796
5738.00   0.82303333   0.03368576
5740.00   0.80397493   0.03342566
5742.00   0.79109716   0.03324405
5744.00   0.80653238   0.03323846
5746.00   0.80291945   0.03322143
5748.00   0.78909749   0.03316113
5750.00   0.77167249   0.03304642
5752.00   0.78731221   0.03326352
5754.00   0.78340560   0.03346887
5756.00   0.78411746   0.03375724
5758.00   0.77971935   0.03409180
5760.00   0.78141457   0.03456317
5762.00   0.79214257   0.03538626
5764.00   0.81990576   0.03638803
5766.00   0.83625484   0.03717178
5768.00   0.83001631   0.03751724
5770.00   0.85437179   0.03753480
5772.00   0.86793369   0.03701471
5774.00   0.86003208   0.03622783
5776.00   0.84293842   0.03536072
5778.00   0.84720308   0.03469682
5780.00   0.87403756   0.03496784
5782.00   0.93535048   0.03545748
5784.00   0.91887391   0.03611268
#5786.00   0.82645005   0.03693037
5788.00   0.92588472   0.03762056
5790.00   0.94289446   0.03794802
5792.00   0.96332675   0.03784803
5794.00   0.98276901   0.03738380
5796.00   0.97756624   0.03656000
5798.00   1.00921154   0.03595966
5800.00   1.03631687   0.03558300
5802.00   1.03450263   0.03543662
5804.00   1.02480423   0.03540021
5806.00   1.06027853   0.03556374
5808.00   1.04915297   0.03542471
5810.00   1.05730331   0.03542178
5812.00   1.08715212   0.03561592
5814.00   1.11830187   0.03593801
5816.00   1.12753582   0.03611168
5818.00   1.18372154   0.03641342
5820.00   1.15719080   0.03640574
5822.00   1.15739071   0.03655960
5824.00   1.19419611   0.03683431
5826.00   1.22891772   0.03715423
5828.00   1.25612938   0.03739104
5830.00   1.25889993   0.03739073
5832.00   1.25879014   0.03743216
5834.00   1.26081717   0.03768452
5836.00   1.25329721   0.03779412
5838.00   1.27844048   0.03794353
5840.00   1.29318750   0.03809161
5842.00   1.29739845   0.03824290
5844.00   1.30559111   0.03839804
5846.00   1.32305479   0.03857736
5848.00   1.34546053   0.03877258
5850.00   1.36420286   0.03900642
5852.00   1.37846231   0.03915833
5854.00   1.39780843   0.03928472
5856.00   1.39189303   0.03941036
5858.00   1.39139748   0.03964001
5860.00   1.41420603   0.03993602
5862.00   1.42354214   0.04017450
5864.00   1.40162313   0.04040882
5866.00   1.41077077   0.04060501
5868.00   1.41932297   0.04062598
5870.00   1.43701446   0.04061722
5872.00   1.44794905   0.04065351
5874.00   1.42793739   0.04094472
5876.00   1.37956083   0.04146542
5878.00   1.35549724   0.04299806
5880.00   1.33601725   0.04580393
5882.00   1.34767950   0.05037053
5884.00   1.30428922   0.05659522
5886.00   1.28500652   0.06388156
5888.00   1.25633132   0.06938466
5890.00   1.28314316   0.07322948
5892.00   1.25069320   0.07511980
5894.00   1.29097307   0.07403953
5896.00   1.29327142   0.06855942
5898.00   1.24977767   0.06166562
5900.00   1.28320920   0.05486721
5902.00   1.31648862   0.04797443
5904.00   1.29381120   0.04136589
5906.00   1.26229560   0.03839901
5908.00   1.26247942   0.03799735
5910.00   1.27228415   0.03829161
5912.00   1.28747284   0.03844219
5914.00   1.26907909   0.03836203
5916.00   1.26029885   0.03819853
5918.00   1.21112597   0.03785074
5920.00   1.14577937   0.03747761
5922.00   1.14691579   0.03750525
5924.00   1.17503393   0.03775303
5926.00   1.15089893   0.03776119
5928.00   1.12386668   0.03776534
5930.00   1.13548684   0.03792504
5932.00   1.16343296   0.03790772
5934.00   1.16316116   0.03763603
5936.00   1.15293789   0.03723993
5938.00   1.13319647   0.03674534
5940.00   1.12628746   0.03625266
5942.00   1.11179173   0.03576525
5944.00   1.10757244   0.03556656
5946.00   1.09505892   0.03550180
5948.00   1.07837474   0.03544204
5950.00   1.07535088   0.03551681
5952.00   1.10619485   0.03563768
5954.00   1.09665263   0.03556161
5956.00   1.05742991   0.03525173
5958.00   1.02423728   0.03495226
5960.00   1.04377913   0.03488818
5962.00   1.01304042   0.03447400
5964.00   1.00353801   0.03430815
5966.00   1.01112807   0.03427774
5968.00   1.01828933   0.03429901
5970.00   1.00977910   0.03417523
5972.00   0.97241169   0.03392297
5974.00   0.97685099   0.03385053
5976.00   0.96371287   0.03373841
5978.00   0.94375259   0.03355921
5980.00   0.93149352   0.03327836
5982.00   0.91380674   0.03310053
5984.00   0.92420912   0.03308056
5986.00   0.90918595   0.03288436
5988.00   0.89337468   0.03267333
5990.00   0.88662738   0.03266231
5992.00   0.89558315   0.03266842
5994.00   0.88771504   0.03257028
5996.00   0.86663598   0.03240834
5998.00   0.83565372   0.03218261
6000.00   0.83103091   0.03201813
6002.00   0.82900316   0.03193817
6004.00   0.83133960   0.03184134
6006.00   0.82983422   0.03174113
6008.00   0.81856614   0.03155575
6010.00   0.79903364   0.03130182
6012.00   0.77959365   0.03098097
6014.00   0.78092718   0.03088888
6016.00   0.77976370   0.03086381
6018.00   0.77340597   0.03075268
6020.00   0.77674836   0.03063215
6022.00   0.76203752   0.03062106
6024.00   0.73817080   0.03051185
6026.00   0.72410363   0.03038011
6028.00   0.75592905   0.03049136
6030.00   0.75508785   0.03039578
6032.00   0.74337816   0.03028755
6034.00   0.73202372   0.03021548
6036.00   0.71847790   0.03007819
6038.00   0.70996618   0.02992383
6040.00   0.70530730   0.02979128
6042.00   0.70654815   0.02977568
6044.00   0.70673674   0.02978184
6046.00   0.70518470   0.02965910
6048.00   0.71534777   0.02966925
6050.00   0.69076949   0.02946735
6052.00   0.67989558   0.02935287
6054.00   0.67980772   0.02931909
6056.00   0.69313002   0.02934694
6058.00   0.72150153   0.02947690
6060.00   0.69947535   0.02930568
6062.00   0.68601537   0.02917076
6064.00   0.69336289   0.02917156
6066.00   0.68585896   0.02908989
6068.00   0.69183332   0.02910759
6070.00   0.68579221   0.02905426
6072.00   0.68672103   0.02908149
6074.00   0.67369318   0.02905623
6076.00   0.64533836   0.02879090
6078.00   0.64239842   0.02871510
6080.00   0.63981599   0.02868411
6082.00   0.63057619   0.02859742
6084.00   0.61730057   0.02849277
6086.00   0.62439513   0.02855241
6088.00   0.61729217   0.02859068
6090.00   0.61672515   0.02871234
6092.00   0.62240458   0.02886793
6094.00   0.64767176   0.02911374
6096.00   0.66844320   0.02942900
6098.00   0.64315015   0.02949013
6100.00   0.63762796   0.02981787
6102.00   0.63605618   0.03031043
6104.00   0.63415962   0.03093206
6106.00   0.66621643   0.03195649
6108.00   0.66535276   0.03272956
6110.00   0.66221666   0.03333160
6112.00   0.68974000   0.03377120
6114.00   0.70056134   0.03364136
6116.00   0.69906116   0.03319947
6118.00   0.68484312   0.03237785
6120.00   0.68312693   0.03150152
6122.00   0.70818639   0.03092784
6124.00   0.71459341   0.03052714
6126.00   0.69310158   0.03003240
6128.00   0.68881792   0.02978330
6130.00   0.69147879   0.02967153
6132.00   0.69497436   0.02964330
6134.00   0.69066501   0.02961499
6136.00   0.69401902   0.02961475
6138.00   0.69439870   0.02970133
6140.00   0.68677551   0.02974770
6142.00   0.67410511   0.02976117
6144.00   0.69174224   0.02978653
6146.00   0.67500114   0.02969348
6148.00   0.68003017   0.02980738
6150.00   0.70326012   0.03008298
6152.00   0.70357877   0.03026555
6154.00   0.68118447   0.03033894
6156.00   0.65847021   0.03041468
6158.00   0.66592383   0.03053004
6160.00   0.67627794   0.03041789
6162.00   0.66249758   0.02994686
6164.00   0.65467733   0.02942532
6166.00   0.65337354   0.02894008
6168.00   0.62883663   0.02842785
6170.00   0.61390758   0.02796911
6172.00   0.62232536   0.02777002
6174.00   0.63669580   0.02773135
6176.00   0.65223074   0.02767002
6178.00   0.64632463   0.02744876
6180.00   0.63054794   0.02727934
6182.00   0.64037329   0.02739933
6184.00   0.62423211   0.02732662
6186.00   0.64039737   0.02735234
6188.00   0.65182602   0.02740938
6190.00   0.63245350   0.02732174
6192.00   0.64454710   0.02733305
6194.00   0.64746922   0.02737992
6196.00   0.64569288   0.02744022
6198.00   0.65705293   0.02756098
6200.00   0.69194192   0.02770596
6202.00   0.67496437   0.02770388
6204.00   0.65896249   0.02770361
6206.00   0.68250626   0.02795538
6208.00   0.68841904   0.02805793
6210.00   0.67508054   0.02789469
6212.00   0.67395169   0.02781963
6214.00   0.71115142   0.02783984
6216.00   0.73696166   0.02783950
6218.00   0.73323989   0.02778076
6220.00   0.74027377   0.02771788
6222.00   0.73412609   0.02758976
6224.00   0.72936839   0.02748251
6226.00   0.74991608   0.02762994
6228.00   0.77162600   0.02787549
6230.00   0.77048802   0.02810987
6232.00   0.77021837   0.02848417
6234.00   0.76874179   0.02887496
6236.00   0.78170711   0.02919019
6238.00   0.79393786   0.02928318
6240.00   0.79672575   0.02896779
6242.00   0.77852464   0.02881814
6244.00   0.76129359   0.02864377
6246.00   0.76610488   0.02822013
6248.00   0.80041391   0.02770522
6250.00   0.80203980   0.02789375
6252.00   0.79130030   0.02822731
6254.00   0.79214191   0.02853075
6256.00   0.78625554   0.02863410
6258.00   0.76459336   0.02855845
6260.00   0.76900500   0.02856790
6262.00   0.78829837   0.02848663
6264.00   0.78582925   0.02820444
6266.00   0.78477281   0.02795478
6268.00   0.79773396   0.02793948
6270.00   0.77582115   0.02788644
6272.00   0.75417304   0.02787013
6274.00   0.74637300   0.02776076
6276.00   0.75348735   0.02763482
6278.00   0.75241184   0.02752513
6280.00   0.74327856   0.02733668
6282.00   0.72865081   0.02711450
6284.00   0.72131699   0.02709706
6286.00   0.71419746   0.02737908
6288.00   0.69447535   0.02782344
6290.00   0.72439188   0.02910499
6292.00   0.72300124   0.03196284
6294.00   0.69799489   0.03677597
6296.00   0.69401103   0.04246082
6298.00   0.64322168   0.04549913
6300.00   0.61044025   0.04587927
6302.00   0.62096590   0.04452603
6304.00   0.64136291   0.04116784
6306.00   0.66863513   0.03550190
6308.00   0.65114605   0.02999078
6310.00   0.64907390   0.02738398
6312.00   0.63134605   0.02639886
6314.00   0.61600775   0.02585278
6316.00   0.62254715   0.02564306
6318.00   0.62636971   0.02561141
6320.00   0.63196903   0.02558256
6322.00   0.63201261   0.02566892
6324.00   0.64116442   0.02598014
6326.00   0.63242418   0.02607387
6328.00   0.64236170   0.02609427
6330.00   0.64887041   0.02610520
6332.00   0.65612859   0.02605621
6334.00   0.64672828   0.02578109
6336.00   0.60870582   0.02520672
6338.00   0.58220929   0.02486460
6340.00   0.60559756   0.02487962
6342.00   0.62696165   0.02502630
6344.00   0.61637789   0.02507896
6346.00   0.63572866   0.02536676
6348.00   0.62150973   0.02526129
6350.00   0.60881245   0.02524523
6352.00   0.61775702   0.02553133
6354.00   0.63475329   0.02610483
6356.00   0.60684133   0.02710511
6358.00   0.60042840   0.02926119
6360.00   0.60395724   0.03129159
6362.00   0.61838251   0.03234960
6364.00   0.63135093   0.03208929
6366.00   0.63174516   0.03118209
6368.00   0.63124830   0.02933193
6370.00   0.65038067   0.02720384
6372.00   0.66251630   0.02562641
6374.00   0.67664021   0.02537734
6376.00   0.67371511   0.02545630
6378.00   0.66981983   0.02558199
6380.00   0.65938216   0.02561930
6382.00   0.66634160   0.02568639
6384.00   0.67868924   0.02567651
6386.00   0.70752859   0.02573287
6388.00   0.70984727   0.02563708
6390.00   0.71654123   0.02555976
6392.00   0.73383683   0.02561543
6394.00   0.73358029   0.02563210
6396.00   0.76630408   0.02596075
6398.00   0.77904934   0.02619563
6400.00   0.77029628   0.02625966
6402.00   0.76735395   0.02630408
6404.00   0.76814842   0.02630289
6406.00   0.77926707   0.02618996
6408.00   0.80499738   0.02622326
6410.00   0.80840802   0.02625536
6412.00   0.79809529   0.02618319
6414.00   0.81040448   0.02628821
6416.00   0.83207971   0.02644137
6418.00   0.84139854   0.02638706
6420.00   0.83551866   0.02624590
6422.00   0.84897804   0.02637146
6424.00   0.87635177   0.02649633
6426.00   0.88757467   0.02653016
6428.00   0.88915414   0.02648461
6430.00   0.89753246   0.02645855
6432.00   0.90201861   0.02647733
6434.00   0.90440345   0.02658182
6436.00   0.90578252   0.02662537
6438.00   0.91919971   0.02664912
6440.00   0.93767077   0.02668617
6442.00   0.95026034   0.02671609
6444.00   0.97031933   0.02689698
6446.00   0.98362046   0.02703669
6448.00   0.98563689   0.02702452
6450.00   0.95469546   0.02683963
6452.00   0.96380931   0.02688823
6454.00   0.99455518   0.02704103
6456.00   1.01139593   0.02706627
6458.00   1.01564348   0.02709451
6460.00   1.00751293   0.02717459
6462.00   1.02016079   0.02738335
6464.00   1.03250325   0.02750909
6466.00   1.03305686   0.02749590
6468.00   1.02196610   0.02735100
6470.00   1.03035653   0.02715808
6472.00   1.03293645   0.02704196
6474.00   1.02521443   0.02690059
6476.00   1.02916944   0.02676369
6478.00   1.06063569   0.02674966
6480.00   1.08159733   0.02687339
6482.00   1.09399176   0.02692016
6484.00   1.10903645   0.02697307
6486.00   1.10840762   0.02696550
6488.00   1.09658146   0.02697814
6490.00   1.10245383   0.02708982
6492.00   1.13471830   0.02752531
6494.00   1.15943074   0.02806751
6496.00   1.17639911   0.02851553
6498.00   1.19260442   0.02881124
6500.00   1.20025814   0.02908095
6502.00   1.22308600   0.02922722
6504.00   1.23380029   0.02913580
6506.00   1.21222842   0.02878728
6508.00   1.18920577   0.02841346
6510.00   1.19994020   0.02813953
6512.00   1.21907926   0.02787080
6514.00   1.20769274   0.02757193
6516.00   1.19651902   0.02748851
6518.00   1.22408867   0.02773972
6520.00   1.26521623   0.02810762
6522.00   1.26861501   0.02828683
6524.00   1.26772153   0.02845806
6526.00   1.27521932   0.02870299
6528.00   1.27678788   0.02892131
6530.00   1.27604091   0.02899432
6532.00   1.29423034   0.02909147
6534.00   1.30654800   0.02910514
6536.00   1.29990637   0.02899328
6538.00   1.29051685   0.02880416
6540.00   1.30066049   0.02865412
6542.00   1.28527570   0.02841567
6544.00   1.26346123   0.02826343
6546.00   1.26275265   0.02834058
6548.00   1.29146612   0.02861322
6550.00   1.30262220   0.02876402
6552.00   1.30471289   0.02881114
6554.00   1.30781317   0.02883382
6556.00   1.32204115   0.02882254
6558.00   1.31029975   0.02865037
6560.00   1.27460897   0.02836430
6562.00   1.26561546   0.02823639
6564.00   1.26820266   0.02819758
6566.00   1.29001629   0.02827241
6568.00   1.29521763   0.02825400
6570.00   1.28240705   0.02821115
6572.00   1.27956045   0.02829559
6574.00   1.27126276   0.02847227
#6576.00   1.19574177   0.02865370
6578.00   1.31506979   0.03103413
6580.00   1.31953382   0.03244778
#6582.00   1.40137804   0.03140885
6584.00   1.28370130   0.02830683
6586.00   1.22494543   0.02795180
6588.00   1.26107371   0.02799962
6590.00   1.27813578   0.02818980
6592.00   1.26668525   0.02817936
6594.00   1.23642218   0.02804801
6596.00   1.28393328   0.02839896
#6598.00   1.36102450   0.02909662
#6600.00   1.44388139   0.02974669
#6602.00   1.49363768   0.03009363
#6604.00   1.49425030   0.03008513
#6606.00   1.40724790   0.02946627
#6608.00   1.30334198   0.02851130
6610.00   1.21534717   0.02772701
6612.00   1.18068540   0.02740003
6614.00   1.16354024   0.02736000
6616.00   1.18395317   0.02753170
6618.00   1.18388784   0.02762776
6620.00   1.18619990   0.02771975
6622.00   1.20090973   0.02780442
6624.00   1.21203744   0.02787578
6626.00   1.18912172   0.02779092
6628.00   1.14614058   0.02748898
6630.00   1.11212981   0.02715580
6632.00   1.11460507   0.02704770
6634.00   1.11815512   0.02700512
6636.00   1.09629714   0.02686382
6638.00   1.07872283   0.02672138
6640.00   1.06952083   0.02663036
6642.00   1.05200779   0.02651075
6644.00   1.03143001   0.02635094
6646.00   1.01963699   0.02629521
6648.00   1.02476048   0.02632495
6650.00   1.01999271   0.02630406
6652.00   1.00589585   0.02624664
6654.00   0.98191279   0.02611606
6656.00   0.97184300   0.02603326
6658.00   0.95030040   0.02590774
6660.00   0.93706948   0.02582221
6662.00   0.93957621   0.02579582
6664.00   0.94336891   0.02580903
6666.00   0.91717649   0.02569704
6668.00   0.89810020   0.02559082
6670.00   0.88529140   0.02546433
6672.00   0.87825471   0.02543137
6674.00   0.87162417   0.02541593
6676.00   0.85395336   0.02533021
6678.00   0.84476846   0.02528924
6680.00   0.83749181   0.02523316
6682.00   0.80912346   0.02500088
6684.00   0.80346680   0.02490524
6686.00   0.81423730   0.02491192
6688.00   0.81328130   0.02486847
6690.00   0.80203485   0.02480621
6692.00   0.79397088   0.02478680
6694.00   0.76538706   0.02464218
6696.00   0.75909543   0.02454772
6698.00   0.75579166   0.02452824
6700.00   0.73067760   0.02447092
6702.00   0.71679211   0.02452838
6704.00   0.71566707   0.02460273
6706.00   0.70596790   0.02460293
6708.00   0.69010526   0.02453686
6710.00   0.67865276   0.02442080
6712.00   0.65208536   0.02421231
6714.00   0.64710683   0.02400725
6716.00   0.65840477   0.02391738
6718.00   0.66084617   0.02385407
6720.00   0.62772584   0.02359545
6722.00   0.61352032   0.02342335
6724.00   0.62645841   0.02345363
6726.00   0.63352054   0.02344707
6728.00   0.62291867   0.02335682
6730.00   0.59824681   0.02320097
6732.00   0.59019154   0.02318179
6734.00   0.59257370   0.02321283
6736.00   0.58010322   0.02314946
6738.00   0.54401368   0.02289000
6740.00   0.54272681   0.02284695
6742.00   0.54177684   0.02283119
6744.00   0.54012591   0.02282672
6746.00   0.53286600   0.02272812
6748.00   0.53771514   0.02265919
6750.00   0.54949927   0.02281907
6752.00   0.56053418   0.02328643
6754.00   0.55005097   0.02366600
6756.00   0.53961140   0.02384671
6758.00   0.54703945   0.02507619
6760.00   0.56806451   0.02576942
6762.00   0.54533434   0.02462375
6764.00   0.51035380   0.02259708
6766.00   0.49055097   0.02230677
6768.00   0.49537984   0.02233945
6770.00   0.48826918   0.02232506
6772.00   0.50348461   0.02236098
6774.00   0.50699300   0.02234347
6776.00   0.48110989   0.02216152
6778.00   0.46582842   0.02204605
6780.00   0.45774451   0.02194416
6782.00   0.44929615   0.02191100
6784.00   0.43884686   0.02187832
6786.00   0.43208525   0.02182666
6788.00   0.42928350   0.02174447
6790.00   0.45648411   0.02189801
6792.00   0.45732966   0.02184150
6794.00   0.43955854   0.02167322
6796.00   0.42463079   0.02158788
6798.00   0.42003727   0.02155545
6800.00   0.42530537   0.02154008
6802.00   0.42026058   0.02150083
6804.00   0.41175613   0.02147703
6806.00   0.43280390   0.02157872
6808.00   0.42833033   0.02159694
6810.00   0.43325356   0.02158899
6812.00   0.43926516   0.02160776
6814.00   0.42450467   0.02155370
6816.00   0.40416136   0.02143596
6818.00   0.42344642   0.02153578
6820.00   0.43126106   0.02171792
6822.00   0.41676581   0.02196377
6824.00   0.41827503   0.02250846
6826.00   0.41152930   0.02308612
6828.00   0.43984887   0.02372413
6830.00   0.45644149   0.02415576
6832.00   0.44247547   0.02410463
6834.00   0.40899727   0.02352410
6836.00   0.40442038   0.02292143
6838.00   0.42206407   0.02257629
6840.00   0.42880532   0.02216255
6842.00   0.42111254   0.02170921
6844.00   0.42351806   0.02156916
6846.00   0.43997860   0.02162588
6848.00   0.43741152   0.02157228
6850.00   0.43765458   0.02148474
6852.00   0.43080401   0.02140089
6854.00   0.41993281   0.02140297
6856.00   0.42566451   0.02177445
6858.00   0.43821731   0.02296218
6860.00   0.44239283   0.02462364
6862.00   0.44055021   0.02643192
6864.00   0.42540410   0.02789816
6866.00   0.41321853   0.02877376
6868.00   0.42305326   0.02759451
6870.00   0.43018749   0.02465984
6872.00   0.43387020   0.02164095
6874.00   0.44040751   0.02075770
6876.00   0.45593646   0.02071836
6878.00   0.45490608   0.02080846
6880.00   0.44387111   0.02101339
6882.00   0.43698740   0.02143980
6884.00   0.43634555   0.02188270
6886.00   0.43786851   0.02195572
6888.00   0.43475723   0.02169965
6890.00   0.43191603   0.02135714
6892.00   0.42803344   0.02109635
6894.00   0.42602026   0.02090102
6896.00   0.43143582   0.02080579
6898.00   0.42986885   0.02082710
6900.00   0.42850813   0.02086850
6902.00   0.43242216   0.02090624
6904.00   0.43209419   0.02097183
6906.00   0.42469874   0.02111776
6908.00   0.42265210   0.02134098
6910.00   0.43129238   0.02150136
6912.00   0.44279781   0.02161714
6914.00   0.44420204   0.02154657
6916.00   0.44410881   0.02160581
6918.00   0.45004293   0.02185786
6920.00   0.45775208   0.02220826
6922.00   0.44420210   0.02229546
6924.00   0.43731341   0.02227147
6926.00   0.44314364   0.02210792
6928.00   0.45219195   0.02178032
6930.00   0.44810930   0.02134514
6932.00   0.44916239   0.02124248
6934.00   0.44986382   0.02145383
6936.00   0.45333877   0.02177752
6938.00   0.45097232   0.02194258
6940.00   0.44134513   0.02188443
6942.00   0.44462106   0.02194726
6944.00   0.45194814   0.02224137
6946.00   0.45201814   0.02242354
6948.00   0.45645499   0.02245926
6950.00   0.46774819   0.02246182
6952.00   0.47086373   0.02234294
6954.00   0.45716634   0.02176096
6956.00   0.44584504   0.02113677
6958.00   0.44688067   0.02084785
6960.00   0.46756211   0.02094253
6962.00   0.48890403   0.02116298
6964.00   0.48977494   0.02134635
6966.00   0.46782109   0.02142896
6968.00   0.44696927   0.02148948
6970.00   0.45001069   0.02169549
6972.00   0.46727231   0.02196896
6974.00   0.46744895   0.02202591
6976.00   0.46225181   0.02198820
6978.00   0.45791426   0.02198603
6980.00   0.45694113   0.02200284
6982.00   0.46045351   0.02182966
6984.00   0.47209433   0.02166199
6986.00   0.48635158   0.02155852
6988.00   0.48135707   0.02134834
6990.00   0.45525005   0.02106553
6992.00   0.44030061   0.02091214
6994.00   0.45109430   0.02094794
6996.00   0.47293082   0.02107030
6998.00   0.47826958   0.02112105
7000.00   0.46569946   0.02101626
7002.00   0.46932277   0.02109340
7004.00   0.46870074   0.02113742
7006.00   0.46191439   0.02108871
7008.00   0.46173882   0.02112077
7010.00   0.45895985   0.02109496
7012.00   0.44941008   0.02102138
7014.00   0.44823226   0.02093534
7016.00   0.45749173   0.02082147
7018.00   0.45991573   0.02060658
7020.00   0.44957110   0.02050571
7022.00   0.44114694   0.02051596
7024.00   0.44549382   0.02065603
7026.00   0.45920196   0.02091604
7028.00   0.46526495   0.02119769
7030.00   0.47151935   0.02120385
7032.00   0.45762786   0.02109114
7034.00   0.44102347   0.02109198
7036.00   0.43974677   0.02115995
7038.00   0.44074169   0.02094859
7040.00   0.44165292   0.02076465
7042.00   0.43287838   0.02074549
7044.00   0.42667806   0.02091558
7046.00   0.42223987   0.02100181
7048.00   0.45027229   0.02111905
7050.00   0.46462846   0.02111778
7052.00   0.45548391   0.02089033
7054.00   0.43747342   0.02063992
7056.00   0.42815050   0.02053454
7058.00   0.42475605   0.02055887
7060.00   0.42000210   0.02039100
7062.00   0.44874787   0.02154217
7064.00   0.45265555   0.02231208
#7066.00   0.37543902   0.02149388
7068.00   0.43020105   0.02069630
7070.00   0.42432642   0.02066444
7072.00   0.41627058   0.02069156
7074.00   0.41509899   0.02062564
7076.00   0.40644392   0.02063000
7078.00   0.41263723   0.02066836
7080.00   0.42760086   0.02076949
7082.00   0.44487491   0.02090293
7084.00   0.43570516   0.02092874
7086.00   0.43824467   0.02100343
7088.00   0.44090167   0.02100602
7090.00   0.44895342   0.02097216
7092.00   0.44658199   0.02082465
7094.00   0.43753362   0.02058410
7096.00   0.44065288   0.02051895
7098.00   0.43755984   0.02040615
7100.00   0.43528819   0.02032164
7102.00   0.43243155   0.02028121
7104.00   0.43876460   0.02031495
7106.00   0.43441439   0.02042573
7108.00   0.43789837   0.02051865
7110.00   0.43877658   0.02056793
7112.00   0.44012609   0.02059864
7114.00   0.43989119   0.02066937
7116.00   0.44643328   0.02077367
7118.00   0.43465027   0.02078087
7120.00   0.42749086   0.02076554
7122.00   0.43139374   0.02076983
7124.00   0.43199900   0.02064077
7126.00   0.43036053   0.02056310
7128.00   0.43087378   0.02057155
7130.00   0.44077083   0.02063738
7132.00   0.44084874   0.02055416
7134.00   0.43380952   0.02054789
7136.00   0.43940794   0.02068335
7138.00   0.45391378   0.02078921
7140.00   0.45303321   0.02071025
7142.00   0.43908343   0.02060447
7144.00   0.44563946   0.02068528
7146.00   0.45644793   0.02068087
7148.00   0.47006032   0.02066353
7150.00   0.48426104   0.02063104
7152.00   0.48416913   0.02055125
7154.00   0.46935889   0.02047322
7156.00   0.47229627   0.02060775
7158.00   0.47358146   0.02077358
7160.00   0.46702567   0.02089758
7162.00   0.45859137   0.02095740
7164.00   0.46274877   0.02133703
7166.00   0.48468909   0.02183732
7168.00   0.49678627   0.02206379
7170.00   0.48439088   0.02193215
7172.00   0.49285817   0.02193980
7174.00   0.50679255   0.02200943
7176.00   0.50785673   0.02202533
7178.00   0.50359029   0.02201916
7180.00   0.49457145   0.02204873
7182.00   0.50235736   0.02235372
7184.00   0.53214961   0.02271726
7186.00   0.53536290   0.02249864
7188.00   0.50860065   0.02189656
7190.00   0.50772917   0.02171732
7192.00   0.53129399   0.02201107
7194.00   0.53529054   0.02204581
7196.00   0.52884680   0.02201792
7198.00   0.53926754   0.02206579
7200.00   0.53675526   0.02182990
7202.00   0.56122762   0.02149819
7204.00   0.55005103   0.02088428
7206.00   0.54159307   0.02045834
7208.00   0.55770427   0.02046119
7210.00   0.56485444   0.02049371
7212.00   0.55865103   0.02052286
7214.00   0.55884010   0.02063010
7216.00   0.56342196   0.02077867
7218.00   0.56553799   0.02089582
7220.00   0.56424403   0.02103952
7222.00   0.56659907   0.02124458
7224.00   0.57829380   0.02160385
7226.00   0.59214741   0.02203280
7228.00   0.59101218   0.02239735
7230.00   0.55772972   0.02261459
7232.00   0.56378466   0.02342371
7234.00   0.57053101   0.02465128
7236.00   0.57106489   0.02592942
7238.00   0.58348054   0.02722419
7240.00   0.58518505   0.02871546
7242.00   0.58291435   0.02922151
7244.00   0.59249353   0.02869720
7246.00   0.57975024   0.02740900
7248.00   0.57305998   0.02610805
7250.00   0.58951706   0.02482139
7252.00   0.60494304   0.02358139
7254.00   0.59750837   0.02271221
7256.00   0.59114248   0.02236691
7258.00   0.59407121   0.02228138
7260.00   0.58737928   0.02207384
7262.00   0.58962655   0.02196587
7264.00   0.60251188   0.02195157
7266.00   0.60079587   0.02204491
7268.00   0.58735126   0.02286037
7270.00   0.62496012   0.02553457
7272.00   0.63492388   0.02766455
7274.00   0.61639529   0.02831762
7276.00   0.60956317   0.02771700
7278.00   0.61572415   0.02717469
7280.00   0.59892601   0.02616651
7282.00   0.61502630   0.02529773
7284.00   0.63310659   0.02506457
7286.00   0.62886143   0.02534204
7288.00   0.63406521   0.02488646
7290.00   0.63793272   0.02367850
7292.00   0.63495237   0.02295503
7294.00   0.64760256   0.02323367
7296.00   0.65473598   0.02391393
7298.00   0.64232379   0.02455978
7300.00   0.62053806   0.02488087
7302.00   0.62973982   0.02441242
7304.00   0.65122694   0.02356686
7306.00   0.64344126   0.02310443
7308.00   0.65886492   0.02362632
7310.00   0.67128515   0.02505162
7312.00   0.65108347   0.02625813
7314.00   0.61295241   0.02656271
7316.00   0.65024757   0.02661346
7318.00   0.68962306   0.02625665
7320.00   0.67313290   0.02481491
7322.00   0.65740436   0.02344128
7324.00   0.66720390   0.02324381
7326.00   0.64682108   0.02345913
7328.00   0.63864261   0.02363347
7330.00   0.64052540   0.02364673
7332.00   0.65336359   0.02368362
7334.00   0.66781211   0.02414645
7336.00   0.64262700   0.02514070
7338.00   0.62635565   0.02581365
7340.00   0.63499421   0.02634793
7342.00   0.64374048   0.02644694
7344.00   0.63193566   0.02559868
7346.00   0.63522035   0.02377071
7348.00   0.65805572   0.02242960
7350.00   0.66453880   0.02193973
7352.00   0.63377017   0.02211632
7354.00   0.61393195   0.02270574
7356.00   0.61940980   0.02302592
7358.00   0.62829512   0.02303625
7360.00   0.63718283   0.02298701
7362.00   0.63607377   0.02314772
7364.00   0.62291569   0.02363709
7366.00   0.61142999   0.02393638
7368.00   0.62910622   0.02414029
7370.00   0.63777357   0.02411084
7372.00   0.62503844   0.02370360
7374.00   0.61596256   0.02276451
7376.00   0.60340810   0.02185618
7378.00   0.60025191   0.02143111
7380.00   0.62368870   0.02147336
7382.00   0.66388458   0.02164912
7384.00   0.65955895   0.02163831
7386.00   0.65374166   0.02197558
7388.00   0.63711286   0.02239143
7390.00   0.62763304   0.02263284
7392.00   0.62935048   0.02260312
7394.00   0.64252502   0.02289946
7396.00   0.63866287   0.02346054
7398.00   0.62857908   0.02397809
7400.00   0.63099456   0.02415611
7402.00   0.65607256   0.02400067
7404.00   0.66556269   0.02359216
7406.00   0.67025375   0.02298937
7408.00   0.67282200   0.02235482
7410.00   0.66327721   0.02185318
7412.00   0.65625858   0.02174173
7414.00   0.64917278   0.02180832
7416.00   0.66083884   0.02191442
7418.00   0.65947419   0.02187206
7420.00   0.65050596   0.02178296
7422.00   0.66132009   0.02192288
7424.00   0.67407769   0.02223186
7426.00   0.66882664   0.02246898
7428.00   0.66888744   0.02266325
7430.00   0.68290472   0.02291980
7432.00   0.69176000   0.02330902
7434.00   0.69459325   0.02345708
7436.00   0.70175552   0.02344791
7438.00   0.70253974   0.02338650
7440.00   0.70788765   0.02337209
7442.00   0.71193618   0.02315428
7444.00   0.71159536   0.02278210
7446.00   0.70567960   0.02249632
7448.00   0.71223545   0.02245547
7450.00   0.71912140   0.02251958
7452.00   0.71080846   0.02253351
7454.00   0.71243304   0.02258330
7456.00   0.71652061   0.02267568
7458.00   0.71910936   0.02282757
7460.00   0.72394878   0.02301387
7462.00   0.73230428   0.02317266
7464.00   0.73733741   0.02337744
7466.00   0.73307633   0.02362344
7468.00   0.72698194   0.02386551
7470.00   0.73429418   0.02406950
7472.00   0.73669451   0.02412752
7474.00   0.73580408   0.02419611
7476.00   0.73440909   0.02432007
7478.00   0.73715931   0.02443329
7480.00   0.74467009   0.02447025
7482.00   0.74976730   0.02438290
7484.00   0.75709921   0.02419924
7486.00   0.76812226   0.02391858
7488.00   0.76990336   0.02357422
7490.00   0.75539947   0.02322763
7492.00   0.74533111   0.02301860
7494.00   0.75311655   0.02298634
7496.00   0.76234084   0.02300602
7498.00   0.75675613   0.02289187
7500.00   0.74049115   0.02271451
7502.00   0.74168134   0.02264186
7504.00   0.73776358   0.02257034
7506.00   0.72664338   0.02244761
7508.00   0.71922851   0.02239160
7510.00   0.71905071   0.02242224
7512.00   0.71605211   0.02250620
7514.00   0.71973306   0.02274270
7516.00   0.72289091   0.02326572
7518.00   0.71229911   0.02418636
7520.00   0.70632499   0.02504575
7522.00   0.70723277   0.02542368
7524.00   0.70031673   0.02546423
7526.00   0.67813033   0.02527539
7528.00   0.66999894   0.02457980
7530.00   0.66883236   0.02358430
7532.00   0.67217964   0.02297887
7534.00   0.67323178   0.02274785
7536.00   0.68220490   0.02259644
7538.00   0.69288975   0.02244215
7540.00   0.68187016   0.02230751
7542.00   0.66540980   0.02218988
7544.00   0.65386063   0.02207341
7546.00   0.65547639   0.02199036
7548.00   0.65990669   0.02200726
7550.00   0.65030211   0.02201336
7552.00   0.63909364   0.02208650
7554.00   0.64282805   0.02223678
7556.00   0.64623970   0.02230372
7558.00   0.65275687   0.02236685
7560.00   0.64701337   0.02234025
7562.00   0.63694447   0.02225999
7564.00   0.63366961   0.02241011
7566.00   0.65527171   0.02320470
7568.00   0.64315993   0.02381962
7570.00   0.62408096   0.02393212
7572.00   0.61669660   0.02380825
7574.00   0.62861711   0.02360938
7576.00   0.62108499   0.02281513
7578.00   0.60853630   0.02184471
7580.00   0.61677188   0.02154670
7582.00   0.62248510   0.02178501
7584.00   0.60890621   0.02205101
7586.00   0.61107594   0.02286948
7588.00   0.61166358   0.02457742
7590.00   0.56047899   0.02709129
7592.00   0.50224972   0.03162424
7594.00   0.51809329   0.03921003
7596.00   0.57634568   0.04891528
7598.00   0.56804872   0.05606094
7600.00   0.54138762   0.05996524
7602.00   0.57728785   0.05967884
7604.00   0.56024688   0.05130222
7606.00   0.53545594   0.04101708
7608.00   0.54133034   0.03294735
7610.00   0.56262040   0.02778002
7612.00   0.57508987   0.02466289
7614.00   0.60609114   0.02377842
7616.00   0.57571912   0.02345500
7618.00   0.53661180   0.02448094
7620.00   0.53236228   0.02692576
7622.00   0.55494952   0.02975645
7624.00   0.54149222   0.03082895
7626.00   0.55279702   0.03069850
7628.00   0.57065111   0.03007321
7630.00   0.58407074   0.02918124
7632.00   0.57505769   0.02784038
7634.00   0.57613021   0.02655509
7636.00   0.57100868   0.02523366
7638.00   0.57930523   0.02430469
7640.00   0.59151512   0.02374828
7642.00   0.59587461   0.02334514
7644.00   0.59276199   0.02274944
7646.00   0.59889263   0.02253887
7648.00   0.59246254   0.02230265
7650.00   0.59769732   0.02209707
7652.00   0.63458824   0.02222800
7654.00   0.62402511   0.02187026
7656.00   0.62776560   0.02189302
7658.00   0.64324570   0.02203244
7660.00   0.64429981   0.02192508
7662.00   0.63460630   0.02201038
7664.00   0.63870579   0.02195556
7666.00   0.63449734   0.02155579
7668.00   0.63177854   0.02118953
7670.00   0.65341085   0.02117989
7672.00   0.64540642   0.02111519
7674.00   0.63791794   0.02121142
7676.00   0.63110256   0.02129324
7678.00   0.64976966   0.02151901
7680.00   0.66644984   0.02177098
7682.00   0.69340378   0.02236263
7684.00   0.71380687   0.02265409
7686.00   0.70437795   0.02263723
7688.00   0.70384222   0.02269271
7690.00   0.72096044   0.02282475
7692.00   0.70117384   0.02263117
7694.00   0.70355517   0.02278253
7696.00   0.70729607   0.02297354
7698.00   0.70885348   0.02305853
7700.00   0.71578079   0.02306058
7702.00   0.73111504   0.02311409
7704.00   0.74900389   0.02336168
7706.00   0.74507755   0.02431735
7708.00   0.73284084   0.02596243
7710.00   0.73160458   0.02760773
7712.00   0.73574686   0.02914131
7714.00   0.74655366   0.02970248
7716.00   0.76892191   0.02924759
7718.00   0.79604530   0.02808473
7720.00   0.77995229   0.02689312
7722.00   0.77541739   0.02557818
7724.00   0.77496624   0.02462526
7726.00   0.77336550   0.02418851
7728.00   0.76663738   0.02395813
7730.00   0.78206825   0.02369422
7732.00   0.80131596   0.02368337
7734.00   0.79778886   0.02367009
7736.00   0.78592062   0.02355622
7738.00   0.78812718   0.02342761
7740.00   0.79129720   0.02343412
7742.00   0.80494231   0.02413899
7744.00   0.80341595   0.02594383
7746.00   0.80266005   0.02800936
7748.00   0.80633134   0.02883627
7750.00   0.80909544   0.02893178
7752.00   0.82645208   0.02905984
7754.00   0.83208531   0.02838722
7756.00   0.82559615   0.02688517
7758.00   0.81501895   0.02579889
7760.00   0.81890088   0.02560166
7762.00   0.82582551   0.02535436
7764.00   0.83636838   0.02487662
7766.00   0.84144789   0.02438625
7768.00   0.82081372   0.02422066
7770.00   0.82262295   0.02423781
7772.00   0.82749397   0.02444379
7774.00   0.83455056   0.02487009
7776.00   0.84045380   0.02519395
7778.00   0.83952087   0.02493597
7780.00   0.83246642   0.02469454
7782.00   0.83487654   0.02464403
7784.00   0.83887130   0.02464585
7786.00   0.83753186   0.02486601
7788.00   0.81214362   0.02607024
7790.00   0.82737690   0.02733402
7792.00   0.85036135   0.02793404
7794.00   0.84269077   0.02777468
7796.00   0.83482999   0.02731460
7798.00   0.85601670   0.02599774
7800.00   0.86641508   0.02477150
7802.00   0.84943271   0.02435857
7804.00   0.82004815   0.02469029
7806.00   0.81624746   0.02495641
7808.00   0.81833392   0.02505319
7810.00   0.81129354   0.02494656
7812.00   0.80808020   0.02491692
7814.00   0.80777365   0.02543349
7816.00   0.79253006   0.02689479
7818.00   0.79414701   0.02807651
7820.00   0.81812477   0.02853009
7822.00   0.82605934   0.02828238
7824.00   0.80585283   0.02740594
7826.00   0.79373622   0.02542748
7828.00   0.79310769   0.02371899
7830.00   0.79759264   0.02301979
7832.00   0.80310184   0.02317387
7834.00   0.80580902   0.02355898
7836.00   0.78537792   0.02398955
7838.00   0.77955037   0.02426910
7840.00   0.77667379   0.02438206
7842.00   0.78022766   0.02446768
7844.00   0.78709370   0.02465779
7846.00   0.80596846   0.02569120
7848.00   0.78779078   0.02700835
7850.00   0.76486593   0.02795438
7852.00   0.75939196   0.02843427
7854.00   0.76751906   0.02890544
7856.00   0.77086419   0.02856289
7858.00   0.76448947   0.02714259
7860.00   0.75025648   0.02569033
7862.00   0.74359959   0.02523346
7864.00   0.75579780   0.02554087
7866.00   0.77364165   0.02582669
7868.00   0.74883270   0.02569249
7870.00   0.71157724   0.02538554
7872.00   0.70765734   0.02529526
7874.00   0.72160774   0.02518164
7876.00   0.73369431   0.02472112
7878.00   0.72275835   0.02434680
7880.00   0.71623611   0.02437744
7882.00   0.72414988   0.02473476
7884.00   0.72940797   0.02524256
7886.00   0.71735531   0.02543968
7888.00   0.69831830   0.02522454
7890.00   0.68253517   0.02482932
7892.00   0.68152219   0.02445317
7894.00   0.68706393   0.02355182
7896.00   0.68930358   0.02241405
7898.00   0.68300885   0.02176461
7900.00   0.68553424   0.02178730
7902.00   0.67179042   0.02174120
7904.00   0.62475562   0.02179237
7906.00   0.61763042   0.02378624
7908.00   0.63916558   0.02676698
7910.00   0.65684980   0.02906007
7912.00   0.64757913   0.02947002
7914.00   0.63703179   0.02997318
7916.00   0.63355267   0.02970626
7918.00   0.62714380   0.02808207
7920.00   0.61172533   0.02551433
7922.00   0.59622288   0.02455536
7924.00   0.59440011   0.02419806
7926.00   0.59706879   0.02380633
7928.00   0.60037112   0.02338137
7930.00   0.59774160   0.02315515
7932.00   0.58153325   0.02290030
7934.00   0.55116558   0.02238257
7936.00   0.55282956   0.02174279
7938.00   0.55173486   0.02105375
7940.00   0.53597230   0.02079595
7942.00   0.54282093   0.02128713
7944.00   0.54948008   0.02193660
7946.00   0.53373772   0.02217343
7948.00   0.51802516   0.02204753
7950.00   0.55560946   0.02225739
7952.00   0.54386282   0.02185963
7954.00   0.52325320   0.02108337
7956.00   0.51507562   0.02128130
7958.00   0.51303238   0.02308740
7960.00   0.49666238   0.02513125
7962.00   0.48502597   0.02576852
7964.00   0.47844815   0.02573858
7966.00   0.47688580   0.02522692
7968.00   0.46815661   0.02394564
7970.00   0.46458817   0.02175405
7972.00   0.48314413   0.02119746
7974.00   0.49065229   0.02168590
7976.00   0.46953228   0.02217911
7978.00   0.44586077   0.02215689
7980.00   0.45842442   0.02206925
7982.00   0.46296683   0.02157363
7984.00   0.46213660   0.02116432
7986.00   0.45697045   0.02190633
7988.00   0.45043454   0.02417131
7990.00   0.45410648   0.02562485
7992.00   0.44904470   0.02593631
7994.00   0.43767023   0.02559011
7996.00   0.42076302   0.02443895
7998.00   0.42536268   0.02200957
8000.00   0.43201828   0.01996383
8002.00   0.43003258   0.01911766
8004.00   0.42090419   0.01911037
8006.00   0.41264424   0.01943017
8008.00   0.39850748   0.01985450
8010.00   0.39981541   0.02017025
8012.00   0.40330589   0.02033712
8014.00   0.40422955   0.02041500
8016.00   0.40608236   0.02050704
8018.00   0.39220214   0.02098674
8020.00   0.38971546   0.02220069
8022.00   0.39563408   0.02321009
8024.00   0.40471527   0.02357797
8026.00   0.39732936   0.02334200
8028.00   0.38858366   0.02266383
8030.00   0.38847601   0.02118481
8032.00   0.39154467   0.01967499
8034.00   0.39022234   0.01878633
8036.00   0.39419010   0.01865993
8038.00   0.39060819   0.01848368
8040.00   0.38835594   0.01834570
8042.00   0.38117504   0.01830613
8044.00   0.38097677   0.01857702
8046.00   0.38808241   0.01911757
8048.00   0.39487553   0.01958249
8050.00   0.38548517   0.01970191
8052.00   0.37810174   0.01971554
8054.00   0.37934065   0.01988368
8056.00   0.37818190   0.02031609
8058.00   0.37972745   0.02071597
8060.00   0.38432863   0.02083610
8062.00   0.38934389   0.02081110
8064.00   0.39392579   0.02059116
8066.00   0.38874888   0.01981202
8068.00   0.37980089   0.01889305
8070.00   0.38147938   0.01848791
8072.00   0.39011577   0.01853054
8074.00   0.38736978   0.01862845
8076.00   0.37290719   0.01858057
8078.00   0.37562653   0.01842059
8080.00   0.38482201   0.01836413
8082.00   0.38785788   0.01842645
8084.00   0.38897288   0.01850412
8086.00   0.38603330   0.01850754
8088.00   0.39366949   0.01864178
8090.00   0.39448419   0.01867855
8092.00   0.38744345   0.01857726
8094.00   0.38349524   0.01855657
8096.00   0.37183055   0.01869309
8098.00   0.37831306   0.01895745
8100.00   0.38408068   0.01914487
8102.00   0.37784204   0.01914347
8104.00   0.37466490   0.01909729
8106.00   0.37704730   0.01886566
8108.00   0.38626882   0.01853769
8110.00   0.38795316   0.01829960
8112.00   0.38007942   0.01827574
8114.00   0.36690128   0.01813786
8116.00   0.38922310   0.01830071
8118.00   0.39258254   0.01828440
8120.00   0.38123152   0.01814561
8122.00   0.38140750   0.01806942
8124.00   0.38624430   0.01829199
8126.00   0.38607788   0.01858181
8128.00   0.37572753   0.01869927
8130.00   0.37567678   0.01881373
8132.00   0.40279701   0.01913024
8134.00   0.38814339   0.01894602
8136.00   0.37720576   0.01875245
8138.00   0.38528624   0.01894578
8140.00   0.39309868   0.01932409
8142.00   0.36734375   0.01926620
8144.00   0.34927079   0.01910332
8146.00   0.36855438   0.01940139
8148.00   0.38213992   0.01943456
8150.00   0.36700544   0.01882317
8152.00   0.36617658   0.01848067
8154.00   0.37013340   0.01859717
8156.00   0.35369062   0.01875013
8158.00   0.34810328   0.01902268
8160.00   0.37738404   0.01954952
8162.00   0.37810966   0.01935089
8164.00   0.37537876   0.01865053
8166.00   0.36193606   0.01825555
8168.00   0.35883179   0.01845885
8170.00   0.37361535   0.01903244
8172.00   0.36286080   0.01938572
8174.00   0.35108826   0.02022123
8176.00   0.36067191   0.02151945
8178.00   0.36932695   0.02262284
8180.00   0.34118637   0.02281691
8182.00   0.32427081   0.02302398
8184.00   0.31584749   0.02339631
8186.00   0.32486439   0.02381411
8188.00   0.33605599   0.02432539
8190.00   0.33122006   0.02500516
8192.00   0.29823741   0.02515486
8194.00   0.27140287   0.02500791
8196.00   0.25711259   0.02420187
8198.00   0.24263354   0.02252112
8200.00   0.23871200   0.02018786
8202.00   0.24544990   0.01882446
8204.00   0.24091272   0.01836050
8206.00   0.23055232   0.01820116
8208.00   0.21802883   0.01780677
8210.00   0.20946206   0.01722781
8212.00   0.19491567   0.01663925
8214.00   0.19071992   0.01634846
8216.00   0.18680023   0.01642566
8218.00   0.18982960   0.01697666
8220.00   0.18216336   0.01760207
8222.00   0.16386522   0.01805926
8224.00   0.14539285   0.01806354
8226.00   0.14319326   0.01753740
8228.00   0.14638942   0.01634072
8230.00   0.14310746   0.01520411
8232.00   0.13690351   0.01456114
8234.00   0.13541244   0.01445243
8236.00   0.13849534   0.01468917
8238.00   0.13655183   0.01489200
8240.00   0.12787281   0.01493091
8242.00   0.11878588   0.01479706
8244.00   0.11286533   0.01463012
8246.00   0.11144590   0.01460414
8248.00   0.11295179   0.01490176
8250.00   0.11186087   0.01511825
8252.00   0.11126649   0.01503483
8254.00   0.10923427   0.01471764
8256.00   0.10038030   0.01431121
8258.00   0.09539565   0.01401627
8260.00   0.09226257   0.01386488
8262.00   0.09592616   0.01396910
8264.00   0.09961998   0.01421440
8266.00   0.09918559   0.01457740
8268.00   0.09100803   0.01491580
8270.00   0.08749420   0.01545987
8272.00   0.08551106   0.01647838
8274.00   0.09106961   0.01795498
8276.00   0.09432884   0.01939817
8278.00   0.08438351   0.02036788
8280.00   0.07659483   0.02169800
8282.00   0.07895017   0.02326373
8284.00   0.08352920   0.02416713
8286.00   0.06906848   0.02364269
8288.00   0.08237351   0.02291914
8290.00   0.09592449   0.02306357
8292.00   0.09140977   0.02370181
8294.00   0.09183750   0.02429588
8296.00   0.10871825   0.02444435
8298.00   0.09470394   0.02428041
8300.00   0.09487238   0.02316930
8302.00   0.10533854   0.02096051
8304.00   0.09980583   0.01812861
8306.00   0.08510617   0.01687928
8308.00   0.08685131   0.01688310
8310.00   0.08842411   0.01720853
8312.00   0.09270632   0.01735878
8314.00   0.09660824   0.01694842
8316.00   0.09000447   0.01556298
8318.00   0.09222064   0.01477795
8320.00   0.10066449   0.01448375
8322.00   0.11003304   0.01441047
8324.00   0.11266345   0.01429440
8326.00   0.10488880   0.01426760
8328.00   0.10184162   0.01418806
8330.00   0.10513190   0.01426908
8332.00   0.09929735   0.01439898
8334.00   0.09067705   0.01508660
8336.00   0.12045285   0.01865152
8338.00   0.12109718   0.02452102
8340.00   0.09822690   0.02857653
8342.00   0.11011884   0.03004908
8344.00   0.13535155   0.03036071
8346.00   0.13253285   0.03071778
8348.00   0.11368748   0.02823236
8350.00   0.10022018   0.02415016
8352.00   0.10401127   0.02126440
8354.00   0.10599240   0.02041989
8356.00   0.11160173   0.01918427
8358.00   0.11753932   0.01806287
8360.00   0.12409717   0.01762178
8362.00   0.12601553   0.01769405
8364.00   0.12975597   0.01752545
8366.00   0.12527145   0.01708879
8368.00   0.12037767   0.01627450
8370.00   0.11915350   0.01535126
8372.00   0.12365172   0.01498013
8374.00   0.11719084   0.01588743
8376.00   0.12170940   0.01757669
8378.00   0.12403286   0.01880264
8380.00   0.11808463   0.01915731
8382.00   0.12301607   0.01902863
8384.00   0.12191558   0.01850430
8386.00   0.11928368   0.01710953
8388.00   0.12105552   0.01583236
8390.00   0.12552740   0.01654601
8392.00   0.11816808   0.02021537
8394.00   0.12135863   0.02429031
8396.00   0.13170639   0.02621285
8398.00   0.14823021   0.02678489
8400.00   0.15886800   0.02638411
8402.00   0.15219180   0.02386682
8404.00   0.13525319   0.01952057
8406.00   0.14583308   0.01676400
8408.00   0.16236027   0.01698205
8410.00   0.16253211   0.01858055
8412.00   0.14143646   0.01914632
8414.00   0.13609512   0.01928272
8416.00   0.13575901   0.01911444
8418.00   0.13477983   0.01844311
8420.00   0.14318544   0.01768619
8422.00   0.16411893   0.01919600
8424.00   0.18475103   0.02346316
8426.00   0.18310599   0.02643973
8428.00   0.16009520   0.02722471
8430.00   0.15491705   0.02687739
8432.00   0.16375856   0.02553306
8434.00   0.16439539   0.02186251
8436.00   0.15611286   0.01761126
8438.00   0.16768818   0.01528436
8440.00   0.18227907   0.01546560
8442.00   0.17640798   0.01578129
8444.00   0.18845797   0.01672439
8446.00   0.19818310   0.01810328
8448.00   0.18347387   0.01932946
8450.00   0.18823789   0.01978850
8452.00   0.19576783   0.01975319
8454.00   0.20193130   0.01933768
8456.00   0.19485922   0.01900846
8458.00   0.18837832   0.01989328
8460.00   0.21069209   0.02288669
8462.00   0.21435583   0.02426464
8464.00   0.20254646   0.02455086
8466.00   0.19683063   0.02410399
8468.00   0.20106149   0.02277186
8470.00   0.22139233   0.01963057
8472.00   0.22839159   0.01727810
8474.00   0.23570029   0.01646121
8476.00   0.23989856   0.01646241
8478.00   0.23931991   0.01637416
8480.00   0.24271595   0.01628943
8482.00   0.24738622   0.01631850
8484.00   0.25471371   0.01662239
8486.00   0.26472971   0.01733214
8488.00   0.25961548   0.01815300
8490.00   0.24168180   0.01851883
8492.00   0.24308915   0.01861916
8494.00   0.25628665   0.01864400
8496.00   0.25703374   0.01879861
8498.00   0.24508683   0.01952749
8500.00   0.28349555   0.02067227
8502.00   0.30396050   0.02136295
8504.00   0.31875610   0.02163372
8506.00   0.31660089   0.02123339
8508.00   0.32565024   0.01989305
8510.00   0.33547553   0.01817663
8512.00   0.35973302   0.01722743
8514.00   0.38837948   0.01724651
8516.00   0.41638574   0.01767574
8518.00   0.42363453   0.01783618
8520.00   0.42815602   0.01795170
8522.00   0.44019690   0.01813522
8524.00   0.45187631   0.01824865
8526.00   0.45762274   0.01827149
8528.00   0.47086355   0.01831395
8530.00   0.48741770   0.01855337
8532.00   0.50521696   0.01885966
8534.00   0.51374799   0.01906169
8536.00   0.51207066   0.01902355
8538.00   0.51452798   0.01900014
8540.00   0.52930737   0.01925322
8542.00   0.53850442   0.01970520
8544.00   0.54333836   0.02023921
8546.00   0.54242176   0.02055116
8548.00   0.54716468   0.02069159
8550.00   0.55160648   0.02056556
8552.00   0.56408280   0.02019659
8554.00   0.57111365   0.01957662
8556.00   0.57708287   0.01917732
8558.00   0.58234173   0.01919226
8560.00   0.59157801   0.01936312
8562.00   0.59551269   0.01946612
8564.00   0.58930606   0.01943694
8566.00   0.58573025   0.01943983
8568.00   0.59178996   0.01945912
8570.00   0.60268760   0.01953985
8572.00   0.60476130   0.01960686
8574.00   0.61027211   0.01967249
8576.00   0.62692350   0.01980113
8578.00   0.63151455   0.01983130
8580.00   0.62020952   0.01983957
8582.00   0.60888726   0.01991974
8584.00   0.61198252   0.02002506
8586.00   0.62177926   0.02009339
8588.00   0.61277276   0.02016916
8590.00   0.60960168   0.02027783
8592.00   0.62043130   0.02042559
8594.00   0.61973143   0.02040968
8596.00   0.61595190   0.02039168
8598.00   0.63782895   0.02050913
8600.00   0.64565927   0.02043804
8602.00   0.63100624   0.02009798
8604.00   0.63184530   0.02001268
8606.00   0.64488560   0.02024416
8608.00   0.64170647   0.02054096
8610.00   0.63021618   0.02098093
8612.00   0.63711518   0.02163739
8614.00   0.65759629   0.02243008
8616.00   0.65215820   0.02321806
8618.00   0.64823347   0.02402190
8620.00   0.65729046   0.02487720
8622.00   0.65765476   0.02558641
8624.00   0.65560776   0.02613425
8626.00   0.65104860   0.02648262
8628.00   0.65263081   0.02659438
8630.00   0.66247201   0.02643146
8632.00   0.66130453   0.02595833
8634.00   0.63999224   0.02532746
8636.00   0.64234525   0.02444554
8638.00   0.64821929   0.02349799
8640.00   0.65060282   0.02279068
8642.00   0.65252221   0.02261898
8644.00   0.65628415   0.02290799
8646.00   0.64027047   0.02344688
8648.00   0.63491839   0.02429946
8650.00   0.64917326   0.02525800
8652.00   0.66126436   0.02591160
8654.00   0.66528320   0.02616555
8656.00   0.67318887   0.02624392
8658.00   0.65724391   0.02603357
8660.00   0.64536136   0.02572995
8662.00   0.64681274   0.02554970
8664.00   0.63724536   0.02526396
8666.00   0.63681316   0.02492844
8668.00   0.65743715   0.02466596
8670.00   0.66152054   0.02432066
8672.00   0.63813502   0.02371998
8674.00   0.64372593   0.02325946
8676.00   0.65461969   0.02291232
8678.00   0.65978074   0.02257817
8680.00   0.67139268   0.02222204
8682.00   0.67953855   0.02190326
8684.00   0.66314608   0.02148443
8686.00   0.66166687   0.02118443
8688.00   0.67786270   0.02106637
8690.00   0.67513996   0.02090428
8692.00   0.68014818   0.02079048
8694.00   0.68865281   0.02083059
8696.00   0.67819816   0.02077971
8698.00   0.65394562   0.02055948
8700.00   0.66025192   0.02057602
8702.00   0.66069669   0.02061426
8704.00   0.65558338   0.02051681
8706.00   0.65265280   0.02038136
8708.00   0.65839547   0.02033151
8710.00   0.68137676   0.02031618
8712.00   0.68676662   0.02017331
8714.00   0.68340880   0.02006835
8716.00   0.67414623   0.02003879
8718.00   0.67700672   0.02007774
8720.00   0.67521238   0.02004357
8722.00   0.67808563   0.02006724
8724.00   0.68437862   0.02011093
8726.00   0.68911743   0.02013910
8728.00   0.69163746   0.02015316
8730.00   0.70113444   0.02072953
8732.00   0.70179445   0.02141766
8734.00   0.69736189   0.02151267
8736.00   0.70572466   0.02030127
8738.00   0.70751476   0.02023120
8740.00   0.69786721   0.02025857
8742.00   0.70693368   0.02032407
8744.00   0.72715712   0.02039432
8746.00   0.73744768   0.02039042
8748.00   0.72096795   0.02029258
8750.00   0.71452713   0.02062518
8752.00   0.72070938   0.02178303
8754.00   0.70573020   0.02357645
8756.00   0.69864434   0.02567141
8758.00   0.72300243   0.02718019
8760.00   0.72865468   0.02903865
8762.00   0.72685075   0.03050386
8764.00   0.71626735   0.03064239
8766.00   0.70480776   0.02931940
8768.00   0.70723814   0.02864955
8770.00   0.70504689   0.02886746
8772.00   0.74282318   0.02937282
8774.00   0.76456457   0.02949418
8776.00   0.73489529   0.02918824
8778.00   0.70856744   0.02860834
8780.00   0.71442455   0.02703457
8782.00   0.70747489   0.02454734
8784.00   0.70107621   0.02250709
8786.00   0.72266179   0.02253079
8788.00   0.72813702   0.02291383
8790.00   0.71704429   0.02299232
8792.00   0.71583271   0.02276244
8794.00   0.71678466   0.02198695
8796.00   0.72614306   0.02077610
8798.00   0.72726482   0.02002374
8800.00   0.72485131   0.01980178
8802.00   0.72333074   0.01984006
8804.00   0.72872013   0.01997104
8806.00   0.72601289   0.02010535
8808.00   0.71601051   0.02016764
8810.00   0.71765304   0.02023980
8812.00   0.72786051   0.02027005
8814.00   0.72257620   0.02010865
8816.00   0.71572310   0.02015918
8818.00   0.71263480   0.02294059
8820.00   0.72866946   0.02832872
8822.00   0.73209411   0.03341588
8824.00   0.74013358   0.03586238
8826.00   0.73304319   0.03626194
8828.00   0.75201088   0.03613847
8830.00   0.74163818   0.03430510
8832.00   0.72577554   0.03076799
8834.00   0.70752150   0.02759418
8836.00   0.71085268   0.02679208
8838.00   0.71611899   0.02577246
8840.00   0.72906893   0.02404930
8842.00   0.73701924   0.02232914
8844.00   0.72311234   0.02205752
8846.00   0.73490453   0.02261951
8848.00   0.74122006   0.02293532
8850.00   0.73746276   0.02279645
8852.00   0.73224115   0.02224361
8854.00   0.73937941   0.02127861
8856.00   0.73214000   0.02034932
8858.00   0.70987183   0.02031581
8860.00   0.70116717   0.02157352
8862.00   0.70897365   0.02346207
8864.00   0.69693536   0.02433453
8866.00   0.68078446   0.02424370
8868.00   0.69129223   0.02379551
8870.00   0.71097022   0.02290939
8872.00   0.69942570   0.02119000
8874.00   0.68027717   0.01966601
8876.00   0.68422776   0.02026824
8878.00   0.69377488   0.02368189
8880.00   0.68235332   0.02807540
8882.00   0.68991476   0.03088453
8884.00   0.66648012   0.03135767
8886.00   0.65440840   0.03092743
8888.00   0.66566879   0.02905053
8890.00   0.66172880   0.02522432
8892.00   0.63410968   0.02082197
8894.00   0.65892863   0.01995632
8896.00   0.67355746   0.02164799
8898.00   0.66737157   0.02363014
8900.00   0.65611267   0.02447323
8902.00   0.64954871   0.02446494
8904.00   0.67209578   0.02427988
8906.00   0.66719341   0.02291076
8908.00   0.65835071   0.02108281
8910.00   0.66012126   0.02084072
8912.00   0.65559179   0.02448786
8914.00   0.67522687   0.02904750
8916.00   0.66972893   0.03142455
8918.00   0.65335500   0.03180141
8920.00   0.64699203   0.03133940
8922.00   0.61144179   0.02916327
8924.00   0.61155581   0.02481183
8926.00   0.62036914   0.02064465
8928.00   0.62452722   0.01885927
8930.00   0.62404341   0.01879738
8932.00   0.61274022   0.01865763
8934.00   0.59696299   0.01876105
8936.00   0.59292918   0.02104409
8938.00   0.60503680   0.02482697
8940.00   0.60036355   0.02753020
8942.00   0.59991145   0.02690055
8944.00   0.59925836   0.02564196
8946.00   0.59595174   0.02432634
8948.00   0.58851331   0.02360699
8950.00   0.59215713   0.02596660
8952.00   0.62448144   0.03131533
8954.00   0.65693688   0.03513448
8956.00   0.63997602   0.03574256
8958.00   0.59141654   0.03378868
8960.00   0.57980675   0.03048369
8962.00   0.59132475   0.02639723
8964.00   0.58204979   0.02171216
8966.00   0.56464273   0.01878603
8968.00   0.54514498   0.01860263
8970.00   0.54708570   0.01865646
8972.00   0.54884166   0.01854214
8974.00   0.53458387   0.01817854
8976.00   0.52492017   0.01808533
8978.00   0.53486657   0.01885795
8980.00   0.53867048   0.02076788
8982.00   0.51814324   0.02372851
8984.00   0.49059644   0.02603114
8986.00   0.47897920   0.02636043
8988.00   0.53905582   0.02479960
8990.00   0.56308502   0.02261052
8992.00   0.54943341   0.02127346
8994.00   0.52363133   0.02224990
8996.00   0.50367308   0.02539800
8998.00   0.51027107   0.02844054
9000.00   0.52805781   0.02967617
9002.00   0.52414656   0.02878381
9004.00   0.51775748   0.02592148
9006.00   0.50749034   0.02159453
9008.00   0.51335883   0.01871392
9010.00   0.50130540   0.01764636
9012.00   0.48882294   0.01749309
9014.00   0.48711023   0.01760544
9016.00   0.48904693   0.01768467
9018.00   0.46559599   0.01747734
9020.00   0.46581069   0.01762525
9022.00   0.48075297   0.01782908
9024.00   0.48764464   0.01760425
9026.00   0.47379836   0.01685546
9028.00   0.47414827   0.01655907
9030.00   0.48322514   0.01702100
9032.00   0.48194245   0.01768135
9034.00   0.46182156   0.01811451
9036.00   0.45358405   0.01851988
9038.00   0.45787534   0.01872885
9040.00   0.45577550   0.01875616
9042.00   0.45666528   0.01906527
9044.00   0.46040690   0.01975205
9046.00   0.44870970   0.02029337
9048.00   0.45528436   0.02052931
9050.00   0.46942237   0.02036667
9052.00   0.46792385   0.01953919
9054.00   0.45246136   0.01809741
9056.00   0.43907943   0.01722001
9058.00   0.44247341   0.01720558
9060.00   0.45468840   0.01748478
9062.00   0.45376167   0.01760076
9064.00   0.43228555   0.01760508
9066.00   0.41013059   0.01769390
9068.00   0.43673000   0.01791559
9070.00   0.45487431   0.01785808
9072.00   0.44657922   0.01750183
9074.00   0.42773557   0.01712963
9076.00   0.44597864   0.01736338
9078.00   0.44824886   0.01762227
9080.00   0.43650746   0.01751681
9082.00   0.42571664   0.01717604
9084.00   0.43451631   0.01728000
9086.00   0.43661287   0.01757341
9088.00   0.43087086   0.01767921
9090.00   0.42647943   0.01772672
9092.00   0.42402256   0.01794639
9094.00   0.42130160   0.01836294
9096.00   0.42875075   0.01919953
9098.00   0.43174037   0.01994543
9100.00   0.41897234   0.02013031
9102.00   0.40439996   0.01962296
9104.00   0.42933059   0.01904786
9106.00   0.44905198   0.01803314
9108.00   0.44494495   0.01690316
9110.00   0.42913413   0.01627940
9112.00   0.41703233   0.01647405
9114.00   0.42364684   0.01669243
9116.00   0.45001206   0.01675350
9118.00   0.47222328   0.01675782
9120.00   0.47799590   0.01685685
9122.00   0.47703537   0.01736053
9124.00   0.47149548   0.01821378
9126.00   0.48306537   0.01910356
9128.00   0.45599595   0.01911907
9130.00   0.42125490   0.01841736
9132.00   0.42042875   0.01761170
9134.00   0.43263316   0.01711015
9136.00   0.43989000   0.01659781
9138.00   0.44265947   0.01613898
9140.00   0.44364879   0.01601747
9142.00   0.42496440   0.01633488
9144.00   0.41666302   0.01708938
9146.00   0.40664825   0.01818524
9148.00   0.40729216   0.01927545
9150.00   0.43403819   0.02010962
9152.00   0.46349883   0.02000640
9154.00   0.45173535   0.01913485
9156.00   0.44165412   0.01823305
9158.00   0.44314313   0.01766517
9160.00   0.44749865   0.01747875
9162.00   0.43075213   0.01738883
9164.00   0.43332446   0.01756276
9166.00   0.42905417   0.01779942
9168.00   0.41919532   0.01799638
9170.00   0.40125012   0.01791671
9172.00   0.43670782   0.01781584
9174.00   0.45240036   0.01739112
9176.00   0.43783411   0.01673781
9178.00   0.42374349   0.01627344
9180.00   0.42781356   0.01613068
9182.00   0.43679246   0.01611185
9184.00   0.43351948   0.01599882
9186.00   0.42186162   0.01587195
9188.00   0.41582641   0.01592987
9190.00   0.41692176   0.01605100
9192.00   0.42686880   0.01601958
9194.00   0.43682203   0.01583889
9196.00   0.44125044   0.01570699
9198.00   0.43726835   0.01571214
9200.00   0.40502021   0.01576185
9202.00   0.40071011   0.01631209
9204.00   0.42350626   0.01678873
9206.00   0.45144889   0.01694377
9208.00   0.45490012   0.01812196
9210.00   0.46062163   0.01902415
9212.00   0.47077569   0.01893781
9214.00   0.48386970   0.01831424
9216.00   0.48764369   0.01841111
9218.00   0.46867022   0.01809074
9220.00   0.45302200   0.01780929
9222.00   0.45640993   0.01768222
9224.00   0.45498869   0.01752998
9226.00   0.44728243   0.01732383
9228.00   0.44708976   0.01712245
9230.00   0.45021853   0.01676146
9232.00   0.44172928   0.01639698
9234.00   0.43811312   0.01627859
9236.00   0.44687712   0.01639056
9238.00   0.44523382   0.01639104
9240.00   0.44832906   0.01646083
9242.00   0.44795743   0.01651296
9244.00   0.43731388   0.01647587
9246.00   0.43347457   0.01646565
9248.00   0.46132788   0.01655588
9250.00   0.46162009   0.01655652
9252.00   0.44407371   0.01647766
9254.00   0.42806342   0.01635929
9256.00   0.42738083   0.01620156
9258.00   0.44593897   0.01627142
9260.00   0.46247253   0.01630652
9262.00   0.45529780   0.01609062
9264.00   0.44406328   0.01596634
9266.00   0.44478139   0.01622639
9268.00   0.44255674   0.01655274
9270.00   0.44281903   0.01701371
9272.00   0.44641438   0.01754412
9274.00   0.45227584   0.01801638
9276.00   0.46593523   0.01846041
9278.00   0.47152725   0.01894686
9280.00   0.45976838   0.01910306
9282.00   0.44639289   0.01909337
9284.00   0.45081425   0.01926101
9286.00   0.46003202   0.01966575
9288.00   0.45280060   0.02010621
9290.00   0.45426190   0.02070336
9292.00   0.46045789   0.02138637
9294.00   0.45635501   0.02194684
9296.00   0.46821633   0.02281860
9298.00   0.48419407   0.02605760
9300.00   0.48905525   0.03142394
9302.00   0.49632502   0.03749353
9304.00   0.49511695   0.04360020
9306.00   0.52529889   0.05279747
9308.00   0.52596146   0.06250425
9310.00   0.49195656   0.06804699
9312.00   0.46606693   0.07018921
9314.00   0.50697577   0.07222316
9316.00   0.49683547   0.07269995
9318.00   0.43625650   0.06720503
9320.00   0.43207777   0.05972345
9322.00   0.50061399   0.05472794
9324.00   0.52846497   0.05289413
9326.00   0.50164342   0.04989390
9328.00   0.45094872   0.04482673
9330.00   0.41578543   0.04220633
9332.00   0.40983105   0.04504162
9334.00   0.42269203   0.05041865
9336.00   0.38942003   0.05066172
9338.00   0.38441518   0.04683222
9340.00   0.42594513   0.03993125
9342.00   0.50728834   0.03344563
9344.00   0.50927407   0.02974438
9346.00   0.47473681   0.02900373
9348.00   0.42605197   0.03076652
9350.00   0.40510201   0.03379356
9352.00   0.42235267   0.03588535
9354.00   0.47999385   0.03381805
9356.00   0.48076633   0.03019965
9358.00   0.48000646   0.02859927
9360.00   0.48137775   0.03011422
9362.00   0.45881343   0.03399482
9364.00   0.41547775   0.04075715
9366.00   0.41032708   0.05574067
9368.00   0.47877035   0.07710475
9370.00   0.51272279   0.09801704
9372.00   0.49536523   0.11321297
9374.00   0.43097267   0.11828190
9376.00   0.35137668   0.11108152
9378.00   0.34510884   0.09038586
9380.00   0.46204364   0.05863074
9382.00   0.44589448   0.03325715
9384.00   0.45163617   0.02321091
9386.00   0.46314541   0.02091786
9388.00   0.46023044   0.02006975
9390.00   0.45537302   0.01991215
9392.00   0.43972674   0.02124471
9394.00   0.44086885   0.02386046
9396.00   0.44921932   0.02718734
9398.00   0.45387891   0.02972970
9400.00   0.44033900   0.03039420
9402.00   0.44268981   0.03010980
9404.00   0.43048206   0.02874613
9406.00   0.42314854   0.02612942
9408.00   0.45026109   0.02408858
9410.00   0.45991436   0.02488324
9412.00   0.44262114   0.02846662
9414.00   0.45267275   0.03323048
9416.00   0.46948624   0.03741500
9418.00   0.45311904   0.04092523
9420.00   0.40101948   0.04436754
9422.00   0.40226087   0.04502312
9424.00   0.42841473   0.03852309
9426.00   0.45823860   0.02951597
9428.00   0.47029305   0.02493254
9430.00   0.44585988   0.02619973
9432.00   0.39536861   0.03458910
9434.00   0.31965682   0.05125658
9436.00   0.30745056   0.06541011
9438.00   0.38742265   0.06887438
9440.00   0.47537544   0.05735409
9442.00   0.45651737   0.04330719
9444.00   0.43367326   0.03236402
9446.00   0.42730787   0.02711198
9448.00   0.43523026   0.02857296
9450.00   0.41860029   0.03577400
9452.00   0.39061293   0.04699326
9454.00   0.39301395   0.05394840
9456.00   0.42637792   0.05421822
9458.00   0.46565700   0.04933025
9460.00   0.43287301   0.04375237
9462.00   0.39664885   0.03622213
9464.00   0.40676489   0.02939908
9466.00   0.43860641   0.02712503
9468.00   0.44063684   0.03114591
9470.00   0.44739154   0.03914614
9472.00   0.45017710   0.04735295
9474.00   0.44127187   0.05286634
9476.00   0.43325713   0.05392049
9478.00   0.45404002   0.04928290
9480.00   0.47732496   0.03939622
9482.00   0.48315573   0.02953907
9484.00   0.45219696   0.02337221
9486.00   0.41151944   0.02268304
9488.00   0.38858250   0.02468453
9490.00   0.39034322   0.02899662
9492.00   0.37843299   0.03519967
9494.00   0.37513408   0.04082994
9496.00   0.40586528   0.04333034
9498.00   0.45028058   0.04099878
9500.00   0.47878456   0.03597680
9502.00   0.46482384   0.03104619
9504.00   0.45071712   0.02789984
9506.00   0.45016053   0.02612071
9508.00   0.43763185   0.02428628
9510.00   0.40773210   0.02410410
9512.00   0.40830195   0.02652209
9514.00   0.42646828   0.02986175
9516.00   0.44849554   0.03176660
9518.00   0.45895255   0.03102757
9520.00   0.47053108   0.02923965
9522.00   0.48629332   0.02758029
9524.00   0.50706488   0.02628136
9526.00   0.52334696   0.02523605
9528.00   0.47874442   0.02455951
9530.00   0.46634188   0.02499321
9532.00   0.48406279   0.02595395
9534.00   0.50652468   0.02699691
9536.00   0.45884588   0.02704250
9538.00   0.44274983   0.02680043
9540.00   0.45809722   0.02621652
9542.00   0.48328266   0.02594670
9544.00   0.50347883   0.02711773
9546.00   0.50215167   0.03067522
9548.00   0.47361270   0.03427446
9550.00   0.44633496   0.03620354
9552.00   0.44362319   0.03618388
9554.00   0.48305467   0.03460955
9556.00   0.45536661   0.03145610
9558.00   0.45925680   0.03171057
9560.00   0.45987830   0.03679346
9562.00   0.46365988   0.04225491
9564.00   0.49046636   0.04249882
9566.00   0.46283722   0.03776650
9568.00   0.48188803   0.03332257
9570.00   0.48858771   0.02937860
9572.00   0.46714821   0.02556133
9574.00   0.43283105   0.02294423
9576.00   0.45684469   0.02262089
9578.00   0.48364329   0.02304568
9580.00   0.48998868   0.02350464
9582.00   0.47856960   0.02411179
9584.00   0.49743876   0.02597411
9586.00   0.56348634   0.02831790
9588.00   0.60330838   0.02884419
9590.00   0.58594960   0.02723617
9592.00   0.51864117   0.02428207
9594.00   0.48246709   0.02236524
9596.00   0.47137463   0.02190414
9598.00   0.47097632   0.02259185
9600.00   0.47073403   0.02387518
9602.00   0.47710285   0.02522925
9604.00   0.49248925   0.02579076
9606.00   0.48997688   0.02524013
9608.00   0.48851061   0.02432986
9610.00   0.48769438   0.02380154
9612.00   0.47853723   0.02426395
9614.00   0.46243429   0.02619861
9616.00   0.46510208   0.02871625
9618.00   0.45601130   0.03005219
9620.00   0.44086125   0.02939935
9622.00   0.46451902   0.02712886
9624.00   0.47674420   0.02416780
9626.00   0.46435609   0.02196532
9628.00   0.44000399   0.02104339
9630.00   0.43295762   0.02136218
9632.00   0.45166877   0.02213004
9634.00   0.47363576   0.02271939
9636.00   0.47057065   0.02256150
9638.00   0.44536376   0.02161305
9640.00   0.41901341   0.02066010
9642.00   0.43278635   0.02068628
9644.00   0.44461450   0.02078210
9646.00   0.44235244   0.02066377
9648.00   0.43510923   0.02053042
9650.00   0.43484941   0.02074379
9652.00   0.42946649   0.02153309
9654.00   0.43983075   0.02265766
9656.00   0.44326043   0.02347216
9658.00   0.43108582   0.02408405
9660.00   0.41938332   0.02490591
9662.00   0.41494676   0.02551905
9664.00   0.42378139   0.02538030
9666.00   0.44278932   0.02457692
9668.00   0.45089495   0.02347953
9670.00   0.43397343   0.02254036
9672.00   0.42357466   0.02234863
9674.00   0.41323161   0.02340209
9676.00   0.41072991   0.02504309
9678.00   0.42231464   0.02630270
9680.00   0.41824564   0.02615549
9682.00   0.43089655   0.02542334
9684.00   0.41623905   0.02412616
9686.00   0.39789954   0.02276829
9688.00   0.41773200   0.02219671
9690.00   0.40776381   0.02305988
9692.00   0.38815704   0.02579417
9694.00   0.38865983   0.02824422
9696.00   0.39715421   0.02931087
9698.00   0.39318633   0.02877241
9700.00   0.37620768   0.02724204
9702.00   0.37690029   0.02488835
9704.00   0.38214183   0.02300983
9706.00   0.38192251   0.02242596
9708.00   0.37598118   0.02306486
9710.00   0.36898795   0.02447150
9712.00   0.35354558   0.02727672
9714.00   0.34860739   0.03012980
9716.00   0.35181060   0.03185964
9718.00   0.36585268   0.03216437
9720.00   0.34218726   0.03171648
9722.00   0.33828354   0.02947251
9724.00   0.34669915   0.02581595
9726.00   0.34732375   0.02237958
9728.00   0.33569098   0.02176726
9730.00   0.33775613   0.02348320
9732.00   0.34641790   0.02544828
9734.00   0.34302488   0.02639803
9736.00   0.32992858   0.02606421
9738.00   0.31315851   0.02522785
9740.00   0.31624919   0.02432513
9742.00   0.32172489   0.02310265
9744.00   0.32194623   0.02173410
9746.00   0.32951716   0.02090296
9748.00   0.33663735   0.02051190
9750.00   0.33919990   0.02002428
9752.00   0.33448851   0.01947969
9754.00   0.32461765   0.01904790
9756.00   0.30269173   0.01862836
9758.00   0.30621561   0.01836803
9760.00   0.31841087   0.01798711
9762.00   0.32176086   0.01745237
9764.00   0.31623635   0.01697333
9766.00   0.31151387   0.01677296
9768.00   0.29912195   0.01679722
9770.00   0.29656494   0.01712432
9772.00   0.29965946   0.01751217
9774.00   0.30491227   0.01776885
9776.00   0.31428027   0.01791287
9778.00   0.31461409   0.01814307
9780.00   0.30938753   0.01946718
9782.00   0.30518103   0.02230845
9784.00   0.30653024   0.02620860
9786.00   0.30962840   0.02978017
9788.00   0.28408924   0.03149209
9790.00   0.29306492   0.03207419
9792.00   0.31908292   0.03167280
9794.00   0.31169298   0.03025831
9796.00   0.27888051   0.02814288
9798.00   0.29974923   0.02703321
9800.00   0.31423500   0.02597295
9802.00   0.30682907   0.02458511
9804.00   0.32204485   0.02336205
9806.00   0.31868246   0.02311841
9808.00   0.31506535   0.02354144
9810.00   0.30862021   0.02376375
9812.00   0.32168469   0.02354404
9814.00   0.33809355   0.02287606
9816.00   0.32959154   0.02183474
9818.00   0.33278233   0.02116670
9820.00   0.33291423   0.02076122
9822.00   0.32391739   0.02040096
9824.00   0.32368922   0.02026589
9826.00   0.33475411   0.02023112
9828.00   0.34275487   0.01996329
9830.00   0.34018314   0.01956580
9832.00   0.33485425   0.01922967
9834.00   0.34443894   0.01910517
9836.00   0.35272536   0.01932118
9838.00   0.35531855   0.02034431
9840.00   0.36535785   0.02258234
9842.00   0.37632588   0.02546142
9844.00   0.40147093   0.02756456
9846.00   0.38807639   0.02790218
9848.00   0.38204837   0.02735867
9850.00   0.40152326   0.02604836
9852.00   0.40472546   0.02360749
9854.00   0.37065303   0.02114734
9856.00   0.35899279   0.01998122
9858.00   0.37573460   0.01989197
9860.00   0.39225161   0.02166806
9862.00   0.39434424   0.02658599
9864.00   0.35726961   0.03468009
9866.00   0.35983300   0.04090355
9868.00   0.36800337   0.04454346
9870.00   0.39000753   0.04566397
9872.00   0.41996980   0.04494755
9874.00   0.37274823   0.04368547
9876.00   0.36844066   0.03829064
9878.00   0.40721020   0.03128961
9880.00   0.44318333   0.02635206
9882.00   0.45361137   0.02497238
9884.00   0.45209303   0.02525351
9886.00   0.43799552   0.02767030
9888.00   0.42004976   0.03037885
9890.00   0.41662332   0.03182161
9892.00   0.40732273   0.03171737
9894.00   0.40649045   0.03197083
9896.00   0.42172417   0.03121153
9898.00   0.44249806   0.02896829
9900.00   0.45184112   0.02570082
9902.00   0.46901596   0.02427314
9904.00   0.45206273   0.02678890
9906.00   0.44335857   0.03240502
9908.00   0.47010788   0.03897699
9910.00   0.51109284   0.04429946
9912.00   0.48685133   0.04661383
9914.00   0.46406031   0.04584649
9916.00   0.44550323   0.04265956
9918.00   0.43819281   0.03723448
9920.00   0.47231078   0.03009634
9922.00   0.46976289   0.02582219
9924.00   0.45718458   0.02392419
9926.00   0.46250990   0.02348202
9928.00   0.46429679   0.02369904
9930.00   0.47629163   0.02480691
9932.00   0.49970603   0.02731348
9934.00   0.49968156   0.03162591
9936.00   0.47405300   0.03718561
9938.00   0.44780803   0.04331687
9940.00   0.50787210   0.04955418
9942.00   0.50703073   0.05293186
9944.00   0.48072639   0.05343875
9946.00   0.49163032   0.05212497
9948.00   0.49557146   0.05028984
9950.00   0.51517272   0.04909809
9952.00   0.50162292   0.04882370
9954.00   0.54894370   0.05033230
9956.00   0.58855742   0.05230188
9958.00   0.56884611   0.05229048
9960.00   0.54744381   0.04924926
9962.00   0.53932941   0.04525610
9964.00   0.54754895   0.04131727
9966.00   0.55878288   0.03789558
9968.00   0.56138438   0.03525718
9970.00   0.53946024   0.03442204
9972.00   0.55321056   0.03416529
9974.00   0.56422395   0.03343816
9976.00   0.57426918   0.03190755
9978.00   0.57826382   0.03024344
9980.00   0.58626014   0.02912303
9982.00   0.58154750   0.02829839
9984.00   0.57537699   0.02769217
9986.00   0.57752478   0.02731068
9988.00   0.61166292   0.02760439
9990.00   0.61398357   0.02815176
9992.00   0.58046371   0.02910686
9994.00   0.55938888   0.03052603
9996.00   0.58003086   0.03189822
9998.00   0.59008735   0.03262320
10000.00   0.60054547   0.03377923
10002.00   0.64026314   0.03726971
10004.00   0.65991372   0.04366510
10006.00   0.60685104   0.05199200
10008.00   0.57913250   0.05891172
10010.00   0.59288692   0.06215345
10012.00   0.60408694   0.06219609
10014.00   0.60225564   0.05925235
10016.00   0.62377244   0.05346685
10018.00   0.62782675   0.04764711
10020.00   0.62218976   0.04489398
10022.00   0.62358087   0.04433612
10024.00   0.61920530   0.04382716
10026.00   0.65778571   0.04258046
10028.00   0.65309644   0.03942989
10030.00   0.64248168   0.03579368
10032.00   0.64275163   0.03319700
10034.00   0.65533245   0.03280010
10036.00   0.64629149   0.03372261
10038.00   0.65261215   0.03493078
10040.00   0.68285936   0.03591536
10042.00   0.68624467   0.03608822
10044.00   0.63115519   0.03515293
10046.00   0.60733712   0.03360048
10048.00   0.62024820   0.03241653
10050.00   0.64578104   0.03279006
10052.00   0.65646893   0.03490521
10054.00   0.64928311   0.03789854
10056.00   0.64520127   0.04041783
10058.00   0.65162009   0.04208575
10060.00   0.65476376   0.04281707
10062.00   0.65783173   0.04259909
10064.00   0.68022150   0.04151821
10066.00   0.69093686   0.04001551
10068.00   0.69033605   0.03893628
10070.00   0.67347431   0.03885761
10072.00   0.65973049   0.04077359
10074.00   0.65057343   0.04550162
10076.00   0.64363205   0.05155415
10078.00   0.64638472   0.05579099
10080.00   0.67656475   0.05766241
10082.00   0.69158363   0.05700986
10084.00   0.65058714   0.05329506
10086.00   0.62090576   0.04682523
10088.00   0.62498909   0.04035933
10090.00   0.64037347   0.03638629
10092.00   0.65887511   0.03629214
10094.00   0.62908417   0.03783004
10096.00   0.64029938   0.04111850
10098.00   0.65051001   0.04428322
10100.00   0.65783286   0.04627138
10102.00   0.66527838   0.04679971
10104.00   0.65218943   0.04585629
10106.00   0.63548249   0.04330650
10108.00   0.65099239   0.04018802
10110.00   0.65590245   0.03801674
10112.00   0.60226297   0.03852195
10114.00   0.58499187   0.04315738
10116.00   0.59614807   0.05165466
10118.00   0.64055842   0.06007856
10120.00   0.69278449   0.06579880
10122.00   0.61193186   0.06716266
10124.00   0.57890522   0.06568519
10126.00   0.62118733   0.06101204
10128.00   0.66210335   0.05365765
10130.00   0.61221391   0.04547210
10132.00   0.61509079   0.04218729
10134.00   0.62495381   0.04129246
10136.00   0.61744744   0.04123988
10138.00   0.60222143   0.04185448
10140.00   0.58927107   0.04313887
10142.00   0.58246315   0.04474803
10144.00   0.57570106   0.04726188
10146.00   0.57783639   0.05047804
10148.00   0.59301299   0.05336060
10150.00   0.59516805   0.05496368
10152.00   0.55914527   0.05568140
10154.00   0.53826028   0.05499525
10156.00   0.55760074   0.05334332
10158.00   0.57872057   0.05148994
10160.00   0.61007220   0.05212377
10162.00   0.62567443   0.05664936
10164.00   0.57435876   0.06434568
10166.00   0.58736676   0.07212641
10168.00   0.61420900   0.07699142
10170.00   0.55689031   0.07772545
10172.00   0.61128408   0.07669350
10174.00   0.57648081   0.07120551
10176.00   0.52128172   0.06346640
10178.00   0.50094938   0.05792567
10180.00   0.45988002   0.05845738
10182.00   0.49725044   0.06345185
10184.00   0.56452936   0.06850816
10186.00   0.58750939   0.07121635
10188.00   0.61964816   0.07158291
10190.00   0.55688214   0.06953845
10192.00   0.54655379   0.06554874
10194.00   0.56051105   0.06142899
10196.00   0.56595290   0.05917081
10198.00   0.56133860   0.06109175
10200.00   0.54564142   0.06593568
10202.00   0.50623012   0.07350401
10204.00   0.46415439   0.08145852
10206.00   0.45611671   0.08717237
10208.00   0.48951840   0.08861712
10210.00   0.48686591   0.08652773
10212.00   0.48168603   0.08105349
10214.00   0.48099169   0.07298221
10216.00   0.51008046   0.06598441
10218.00   0.54165679   0.06581694
10220.00   0.60388225   0.07003459
10222.00   0.56256878   0.07431684
10224.00   0.47074163   0.07721708
10226.00   0.41291118   0.07801282
10228.00   0.48008391   0.07562987
10230.00   0.51378226   0.07087716
10232.00   0.50506425   0.06507669
10234.00   0.46866527   0.05914121
10236.00   0.47538367   0.05470629
10238.00   0.51671535   0.05271418
10240.00   0.51044661   0.05192711
10242.00   0.48162913   0.05153634
10244.00   0.46844593   0.05153386
10246.00   0.47508439   0.05184349
10248.00   0.49061480   0.05241806
10250.00   0.50546831   0.05312391
10252.00   0.50528103   0.05390610
10254.00   0.47593054   0.05445871
10256.00   0.45519152   0.05508788
10258.00   0.40090623   0.05537971
10260.00   0.43231949   0.05710324
10262.00   0.45753548   0.05967133
10264.00   0.46045852   0.06272393
10266.00   0.46078598   0.06521633
10268.00   0.46696579   0.06743117
10270.00   0.43495023   0.06829389
10272.00   0.45039690   0.06996025
10274.00   0.56556803   0.07613171
10276.00   0.62741309   0.09064785
10278.00   0.55248803   0.11468307
10280.00   0.40166077   0.13823375
10282.00   0.33149567   0.15527995
10284.00   0.40806890   0.16350089
10286.00   0.36930618   0.16464692
10288.00   0.32812044   0.15750755
10290.00   0.34362125   0.14307155
10292.00   0.42914858   0.12687232
10294.00   0.52769703   0.11712021
10296.00   0.42722297   0.10952116
10298.00   0.41823527   0.10116223
10300.00   0.44538605   0.09275319
10302.00   0.47584710   0.08657479
10304.00   0.41977465   0.08486358
10306.00   0.39642486   0.08442322
10308.00   0.43570521   0.08417538
10310.00   0.42138955   0.08178958
10312.00   0.38631526   0.07784194
10314.00   0.44626808   0.07531852
10316.00   0.44619265   0.07348213
10318.00   0.38042262   0.07180184
10320.00   0.35667562   0.07211562
10322.00   0.39883387   0.07401180
10324.00   0.46757519   0.07485572
10326.00   0.41029561   0.07506283
10328.00   0.38089892   0.07553201
10330.00   0.38922235   0.07610742
10332.00   0.43027607   0.07714463
10334.00   0.48110104   0.08022014
10336.00   0.48708656   0.08480519
10338.00   0.48706481   0.09239298
10340.00   0.46126917   0.10117688
10342.00   0.42008957   0.10784572
10344.00   0.46147898   0.11194865
10346.00   0.44688073   0.11459640
10348.00   0.40836647   0.11254984
10350.00   0.44661054   0.10729707
10352.00   0.44224310   0.10045005
10354.00   0.42117372   0.09885653
10356.00   0.48141995   0.09902550
10358.00   0.54988927   0.09832037
10360.00   0.52791959   0.09855578
10362.00   0.36296025   0.10869380
10364.00   0.36610237   0.13089612
10366.00   0.26205814   0.15378040
10368.00   0.36998868   0.17145796
10370.00   0.18523698   0.18028422
10372.00   0.41359019   0.17963745
10374.00   0.64146227   0.16877921
10376.00   0.64103717   0.14692782
10378.00   0.43741289   0.12138171
10380.00   0.34921658   0.10695831
10382.00   0.43952355   0.10291845
10384.00   0.51711845   0.10464037
10386.00   0.49691296   0.10984386
10388.00   0.42547479   0.11886165
10390.00   0.46607396   0.13034569
10392.00   0.50704092   0.13940625
10394.00   0.40166435   0.14129281
10396.00   0.34347478   0.13930804
10398.00   0.35511088   0.13327044
10400.00   0.46203437   0.12537761
10402.00   0.46800980   0.11821460
10404.00   0.43865934   0.11613861
10406.00   0.52525967   0.12353427
10408.00   0.55098850   0.14085722
10410.00   0.31993520   0.16695511
10412.00   0.36043045   0.19537939
10414.00   0.16286851   0.21204154
10416.00   0.30382445   0.21800022
10418.00   0.21485813   0.21243870
10420.00   0.42005521   0.19418162
10422.00   0.33775246   0.16716021
10424.00   0.48117271   0.14554575
10426.00   0.52878237   0.13329475
10428.00   0.48512879   0.12722223
10430.00   0.44238281   0.12178173
10432.00   0.38604701   0.11906046
10434.00   0.28179148   0.11850723
10436.00   0.33778644   0.11927884
10438.00   0.54005450   0.12174827
10440.00   0.45382747   0.12716402
10442.00   0.35825408   0.13694486
10444.00   0.31876978   0.14680512
10446.00   0.38616315   0.15409236
10448.00   0.46572924   0.15852696
10450.00   0.52552193   0.15864475
10452.00   0.50491446   0.15245061
10454.00   0.43423375   0.14322247
10456.00   0.42599580   0.13997100
10458.00   0.41746140   0.14729327
10460.00   0.39320835   0.16962199
10462.00   0.50030988   0.19349241
10464.00   0.52533686   0.20958041
10466.00   0.38381135   0.21470340
10468.00   0.32973650   0.21314281
10470.00   0.49330667   0.20181322
10472.00   0.56073529   0.18129975
10474.00   0.52920622   0.15939133
10476.00   0.47057131   0.14583810
10478.00   0.23509312   0.13913102
10480.00   0.30539978   0.13843982
10482.00   0.49264011   0.14094369
10484.00   0.52549368   0.14318822
10486.00   0.61174613   0.14173593
10488.00   0.49488387   0.14171048
10490.00   0.51914024   0.14202332
10492.00   0.49224576   0.14339684
10494.00   0.40717661   0.14302765
10496.00   0.35969320   0.14376920
10498.00   0.35445699   0.14836209
10500.00   0.42437553   0.15594395
10502.00   0.56897426   0.16407152
10504.00   0.67289037   0.17242046
10506.00   0.56448990   0.17689739
10508.00   0.39968598   0.17641817
10510.00   0.45727620   0.17573988
10512.00   0.56411678   0.17529245
10514.00   0.69624901   0.17654057
10516.00   0.45086113   0.18326347
10518.00   0.62725562   0.19313753
10520.00   0.71792161   0.20065160
10522.00   0.58171254   0.20521791
10524.00   0.44266286   0.20220661
10526.00   0.44190931   0.19256385
10528.00   0.56866765   0.18008561
10530.00   0.53169900   0.16946393
10532.00   0.43210021   0.16212477
10534.00   0.46955365   0.15984018
10536.00   0.28419417   0.15972848
10538.00   0.43600073   0.15953262
10540.00   0.41988239   0.15927774
10542.00   0.39065564   0.15995936
10544.00   0.42055082   0.16265167
10546.00   0.51687515   0.16469194
10548.00   0.56625956   0.16605286
10550.00   0.63110733   0.16771434
10552.00   0.46743160   0.16712104
10554.00   0.56469822   0.16630855
10556.00   0.48398671   0.16585262
10558.00   0.47744593   0.16720927
10560.00   0.47117242   0.16705608
10562.00   0.54951656   0.16958493
10564.00   0.39367780   0.17156118
10566.00   0.31845579   0.17415214
10568.00   0.35452846   0.17749150
10570.00   0.42721203   0.18160538
10572.00   0.43546152   0.18257685
10574.00   0.45112261   0.18016268
10576.00   0.46633586   0.18262736
10578.00   0.49213335   0.19155180
10580.00   0.39026499   0.19904371
10582.00   0.56946653   0.20042475
10584.00   0.64945102   0.19938023
10586.00   0.53863335   0.19863236
10588.00   0.71908224   0.19635864
10590.00   0.57111627   0.19251280
10592.00   0.35709503   0.18595119
10594.00   0.35814419   0.18666553
10596.00   0.52516395   0.18658030
10598.00   0.55677301   0.18572909
10600.00   0.46971592   0.18360603
10602.00   0.49449578   0.18514581
10604.00   0.55262911   0.18696594
10606.00   0.54123515   0.18631774
10608.00   0.45137164   0.18410105
10610.00   0.37902120   0.18894692
10612.00   0.67961794   0.19254811
10614.00   0.78345090   0.19742167
10616.00   0.54208308   0.19320197
10618.00   0.35462499   0.19130065
10620.00   0.52176702   0.19144088
10622.00   0.60016733   0.19480126
10624.00   0.35904479   0.19773334
10626.00   0.41040218   0.19547276
10628.00   0.42479730   0.19481020
10630.00   0.54353899   0.19722451
10632.00   0.37317172   0.19790198
10634.00   0.37580776   0.20178683
10636.00   0.32993469   0.20129471
10638.00   0.29621682   0.20367056
10640.00   0.43553805   0.21047290
10642.00   0.62200344   0.21254921
10644.00   0.64521873   0.20250234
10646.00   0.49442610   0.21390392
10648.00   0.34010088   0.21006538
10650.00   0.23912032   0.21074001
10652.00   0.36202323   0.21207392
10654.00   0.77218890   0.21300687
10656.00   0.23690951   0.21729402
10658.00   0.11191294   0.21510078
10660.00   0.36850676   0.20805413
10662.00   0.53558052   0.20482275
10664.00   0.36195740   0.20852789
10666.00   0.33351070   0.21166170
10668.00   0.34818166   0.21450879
10670.00   0.54423189   0.22039649
10672.00   0.86582506   0.22608471
10674.00   0.57460296   0.23032631
10676.00   0.30387449   0.23709354
10678.00   0.30289114   0.24526724
10680.00   0.25848517   0.24692683
10682.00   0.28599727   0.25166985
10684.00   0.47271103   0.26192451
10686.00   0.65810287   0.27063358
10688.00   0.57050639   0.27373555
10690.00   0.68084240   0.27606869
10692.00   0.56504530   0.28719908
10694.00   0.76613134   0.29695818
10696.00   0.58160728   0.30082935
10698.00   0.16190755   0.30086368
10700.00   0.44516215   0.30717048
10702.00   0.39882439   0.32416165
10704.00   0.89987844   0.34202415
10706.00   0.44630930   0.35379744
10708.00   0.06002925   0.35602802
10710.00   0.25885856   0.36228952
10712.00   0.69016045   0.36871022
10714.00   0.65205449   0.37075925
10716.00   0.67035890   0.37952742
10718.00   0.21710584   0.42723054
