# File created by shivutils (I.Shivvers)
# wl(A)   flm    er(optional)
3226.00   7.33956718   1.40777636
3228.00   6.86479139   1.54898512
3230.00   6.65139961   1.63723528
3232.00   5.36563444   1.66218591
3234.00   5.09262753   1.62090695
3236.00   5.20030308   1.73636901
3238.00   6.05285978   1.82479692
3240.00   7.54495621   1.94348049
3242.00   7.73670959   1.97412372
3244.00   5.01912785   1.91289318
3246.00   7.39002943   1.88491130
3248.00   7.54061794   1.82428992
3250.00   6.70528841   1.72405660
3252.00   5.54276466   1.63825631
3254.00   7.61691189   1.62719333
3256.00   6.37332344   1.48772275
3258.00   5.60666370   1.41644466
3260.00   4.90700531   1.32821989
3262.00   6.15327358   1.30828440
3264.00   7.26936197   1.29704916
3266.00   4.45825577   1.21086919
3268.00   4.76464081   1.20678234
3270.00   5.28192139   1.21408129
3272.00   6.50019979   1.24975967
3274.00   5.68554020   1.27139807
3276.00   4.88174534   1.23049212
3278.00   5.29316425   1.22085810
3280.00   6.09568834   1.25635266
3282.00   5.49052334   1.24288082
3284.00   6.74918842   1.26632535
3286.00   6.10394192   1.19269645
3288.00   6.37994003   1.19706345
3290.00   4.90818596   1.12634647
3292.00   5.45655584   1.12681282
3294.00   5.92696524   1.14343262
3296.00   5.67686510   1.12514532
3298.00   4.60241508   1.10106099
3300.00   5.72023010   1.08768082
3302.00   6.59385920   1.06938338
3304.00   6.11227369   0.97870082
3306.00   6.31459999   0.96375835
3308.00   6.16124439   0.92023802
3310.00   5.55701685   0.88426828
3312.00   5.34150219   0.83898169
3314.00   6.74488115   0.82576329
3316.00   6.06160402   0.78472173
3318.00   6.17222500   0.78226846
3320.00   6.45726252   0.77079219
3322.00   6.58444548   0.74395168
3324.00   6.39845133   0.72832245
3326.00   6.77055979   0.75549948
3328.00   7.61371946   0.77056098
3330.00   7.63751745   0.75967062
3332.00   6.26634502   0.71410030
3334.00   6.69101191   0.73652726
3336.00   7.04749632   0.71991622
3338.00   7.95205402   0.75045830
3340.00   7.84294844   0.72635186
3342.00   6.85485125   0.68428665
3344.00   6.79779625   0.66708690
3346.00   7.27679062   0.67364663
3348.00   7.66344213   0.65752286
3350.00   8.17860794   0.65546381
3352.00   7.15663719   0.61595064
3354.00   7.27028465   0.61458290
3356.00   7.67558002   0.61769146
3358.00   7.56189442   0.58926654
3360.00   7.45984221   0.57699919
3362.00   8.14196682   0.57104856
3364.00   7.40257072   0.53976405
3366.00   7.63320160   0.54120183
3368.00   7.81218147   0.53706622
3370.00   7.23549318   0.52024847
3372.00   7.56403923   0.51934546
3374.00   8.18110180   0.52691084
3376.00   8.81532574   0.51721108
3378.00   7.91197205   0.47818455
3380.00   8.20136070   0.46301699
3382.00   7.87743855   0.44066963
3384.00   7.70338249   0.42938828
3386.00   8.30987740   0.42770573
3388.00   8.32413101   0.41953811
3390.00   8.10275650   0.40804741
3392.00   7.71436262   0.39695811
3394.00   8.41283989   0.40352041
3396.00   8.12693977   0.39173126
3398.00   8.25947762   0.39466488
3400.00   8.50184250   0.39615643
3402.00   8.32620049   0.38808763
3404.00   8.29714870   0.37918317
3406.00   8.20443344   0.37057748
3408.00   8.58358669   0.37896001
3410.00   8.60633469   0.37350303
3412.00   8.90643215   0.37911755
3414.00   9.13298988   0.38261637
3416.00   8.97921944   0.37385041
3418.00   9.35596752   0.38476503
3420.00   9.10045433   0.37416103
3422.00   9.19287014   0.36497656
3424.00   9.14970016   0.36317730
3426.00   9.06418133   0.35872710
3428.00   8.85336876   0.35617602
3430.00   8.87748909   0.35051084
3432.00   9.12853813   0.35247129
3434.00   9.12788963   0.35109130
3436.00   9.31664181   0.35163146
3438.00   8.97153568   0.34534386
3440.00   9.36079979   0.34925547
3442.00   9.22452164   0.34470519
3444.00   9.80413151   0.35092109
3446.00   10.53281212   0.35781878
3448.00   11.06378746   0.36151382
3450.00   11.72779942   0.36868694
3452.00   12.57214737   0.38016972
3454.00   12.71444511   0.37939787
3456.00   12.67231655   0.37622970
3458.00   13.59079647   0.38453865
3460.00   13.82703972   0.38588002
3462.00   13.72079182   0.38310215
3464.00   14.49406719   0.38951260
3466.00   14.63437939   0.38946879
3468.00   15.04276180   0.39098513
3470.00   15.69307613   0.39762759
3472.00   15.18142223   0.39042562
3474.00   15.04807949   0.38731077
3476.00   16.24991035   0.39869455
3478.00   16.29714394   0.39832565
3480.00   16.57450294   0.40265176
3482.00   16.48179436   0.40066326
3484.00   16.88507652   0.40230867
3486.00   16.44322968   0.39661998
3488.00   16.51343536   0.39561564
3490.00   17.04919815   0.39809492
3492.00   17.31561279   0.39807379
3494.00   16.72545242   0.39175862
3496.00   17.25266266   0.39491564
3498.00   17.83764267   0.39948377
3500.00   17.42033577   0.39288652
3502.00   17.50632095   0.39256158
3504.00   17.49955750   0.39083976
3506.00   18.07689476   0.39576080
3508.00   18.06698227   0.39394724
3510.00   17.95676994   0.39128023
3512.00   18.41995811   0.39475387
3514.00   18.83691406   0.39670506
3516.00   19.42115021   0.40063265
3518.00   19.21282959   0.39761347
3520.00   18.74171638   0.39260152
3522.00   18.75744820   0.39138573
3524.00   19.19185829   0.39352107
3526.00   19.21948242   0.39260718
3528.00   19.31741142   0.39335302
3530.00   19.80916023   0.39503524
3532.00   19.57632446   0.39108965
3534.00   19.58063316   0.39147970
3536.00   19.05768013   0.38537204
3538.00   19.06239128   0.38512617
3540.00   19.17760277   0.38582012
3542.00   19.33298111   0.38755718
3544.00   19.11125565   0.38465831
3546.00   19.25080872   0.38430768
3548.00   18.95100594   0.38007492
3550.00   18.92702293   0.37892547
3552.00   18.94034386   0.37840715
3554.00   19.50627708   0.38179976
3556.00   19.47896767   0.37932774
3558.00   18.50662994   0.37095258
3560.00   18.98910332   0.37253606
3562.00   19.53085327   0.37472275
3564.00   19.18602943   0.37031987
3566.00   19.08171082   0.36805844
3568.00   18.55163002   0.36118406
3570.00   19.06991959   0.36475790
3572.00   18.92329597   0.36280361
3574.00   18.48747826   0.35799587
3576.00   18.32501221   0.35419792
3578.00   18.65059280   0.35482359
3580.00   18.27065277   0.35019997
3582.00   18.06138611   0.34672931
3584.00   18.10478401   0.34597957
3586.00   18.18810654   0.34473789
3588.00   17.81224823   0.34086445
3590.00   18.04592323   0.34203359
3592.00   17.57293510   0.33722800
3594.00   17.35949707   0.33325562
3596.00   16.93933678   0.32893389
3598.00   17.24745369   0.33032671
3600.00   16.87949181   0.32541880
3602.00   16.22540283   0.31814036
3604.00   15.86296368   0.31343028
3606.00   15.53526402   0.30987749
3608.00   15.75056458   0.30965340
3610.00   15.50071812   0.30657980
3612.00   14.84560108   0.30068550
3614.00   14.46079636   0.29703555
3616.00   14.34319115   0.29516494
3618.00   14.01141834   0.29051152
3620.00   13.62294006   0.28527117
3622.00   13.56651688   0.28338441
3624.00   13.10592937   0.27778119
3626.00   12.79373550   0.27411044
3628.00   12.39652157   0.26895919
3630.00   12.04458904   0.26459464
3632.00   11.60125446   0.25995052
3634.00   11.12629795   0.25346932
3636.00   10.71668434   0.24800533
3638.00   10.20597649   0.24236301
3640.00   9.70598888   0.23603292
3642.00   9.91449642   0.23828705
3644.00   9.26430988   0.23102163
3646.00   8.97498703   0.23066700
3648.00   8.72095203   0.23415358
3650.00   8.53913498   0.23512156
3652.00   7.82316732   0.22726633
3654.00   7.86052322   0.22015730
3656.00   7.61464834   0.21253832
3658.00   7.17437983   0.20321548
3660.00   6.67367458   0.19672714
3662.00   6.69510460   0.19753784
3664.00   6.56474018   0.19461830
3666.00   6.20706701   0.18666473
3668.00   6.15988159   0.18193938
3670.00   5.97880554   0.17727967
3672.00   5.69190931   0.17365634
3674.00   5.62896681   0.17125230
3676.00   5.40923977   0.16769668
3678.00   5.22046185   0.16408984
3680.00   5.25592804   0.16379967
3682.00   5.29212761   0.16339353
3684.00   4.95317507   0.15846844
3686.00   4.88922739   0.15607746
3688.00   4.81997347   0.15509231
3690.00   4.80455971   0.15437831
3692.00   4.79567003   0.15360510
3694.00   4.89866495   0.15433179
3696.00   4.67634487   0.15109006
3698.00   4.75455284   0.15209064
3700.00   4.66918612   0.15063533
3702.00   4.62681866   0.14878686
3704.00   4.87097216   0.15049277
3706.00   4.76004744   0.14906818
3708.00   4.65299654   0.14676267
3710.00   4.78694153   0.14775084
3712.00   4.46488857   0.14356065
3714.00   4.65421152   0.14460100
3716.00   4.83560371   0.14622435
3718.00   4.79955482   0.14518012
3720.00   4.75096798   0.14382896
3722.00   4.94971848   0.14580819
3724.00   5.04104757   0.14623110
3726.00   4.89815426   0.14428808
3728.00   5.04119682   0.14585841
3730.00   5.06331348   0.14544509
3732.00   5.15050793   0.14553386
3734.00   5.04198360   0.14417353
3736.00   5.10306787   0.14528789
3738.00   5.30007887   0.14643654
3740.00   5.18393946   0.14549538
3742.00   5.49220037   0.14776789
3744.00   5.45938444   0.14607529
3746.00   5.67012024   0.14786646
3748.00   5.89156485   0.14965722
3750.00   5.90925884   0.14964598
3752.00   5.98844337   0.14953694
3754.00   6.29634476   0.15166321
3756.00   6.41714621   0.15232192
3758.00   6.60505581   0.15401794
3760.00   6.90496588   0.15589169
3762.00   7.07871437   0.15659551
3764.00   7.26055193   0.15790683
3766.00   7.44433260   0.15921831
3768.00   7.75187588   0.16141568
3770.00   8.17901134   0.16416711
3772.00   8.54449558   0.16742127
3774.00   8.62451172   0.16748856
3776.00   8.96940804   0.16991819
3778.00   9.25494766   0.17137666
3780.00   9.46408463   0.17251478
3782.00   9.45360374   0.17223471
3784.00   9.54792023   0.17280568
3786.00   9.73757648   0.17286865
3788.00   9.94253349   0.17387865
3790.00   10.06200314   0.17454261
3792.00   10.03337574   0.17373680
3794.00   10.32349491   0.17545308
3796.00   10.52561569   0.17582285
3798.00   10.70712280   0.17674951
3800.00   10.85818195   0.17711839
3802.00   10.89347935   0.17732447
3804.00   11.00158119   0.17715022
3806.00   11.00715637   0.17675479
3808.00   11.37764740   0.17893547
3810.00   11.60506439   0.17986517
3812.00   11.45678711   0.17818175
3814.00   11.70900059   0.17997001
3816.00   11.76979542   0.17942199
3818.00   11.68191147   0.17850548
3820.00   11.93756008   0.17944257
3822.00   12.13105392   0.18028022
3824.00   12.40135574   0.18157470
3826.00   12.74083519   0.18378055
3828.00   12.78818130   0.18385214
3830.00   13.11973000   0.18557572
3832.00   13.19550514   0.18542711
3834.00   13.37516594   0.18592799
3836.00   13.64337158   0.18695967
3838.00   13.69139957   0.18683305
3840.00   13.94893265   0.18808244
3842.00   14.13402271   0.18874195
3844.00   14.27420330   0.18884383
3846.00   14.38696003   0.18885486
3848.00   15.08708668   0.19247198
3850.00   15.34152317   0.19337331
3852.00   15.32227707   0.19282722
3854.00   15.53043842   0.19328035
3856.00   15.95137882   0.19490343
3858.00   16.57305336   0.19801408
3860.00   16.93456650   0.19948542
3862.00   17.22173500   0.20109795
3864.00   17.68699646   0.20287317
3866.00   17.70637894   0.20242813
3868.00   18.14343643   0.20423877
3870.00   18.75718117   0.20679809
3872.00   19.08435249   0.20850495
3874.00   19.26666069   0.20892254
3876.00   19.76072693   0.21093664
3878.00   20.03311729   0.21185222
3880.00   20.55389786   0.21355443
3882.00   20.89429474   0.21458705
3884.00   20.84227753   0.21404579
3886.00   20.93606377   0.21414869
3888.00   21.14666176   0.21472599
3890.00   21.24473000   0.21490890
3892.00   21.50878906   0.21588142
3894.00   21.76399994   0.21642944
3896.00   22.06737328   0.21750852
3898.00   22.14949417   0.21767822
3900.00   22.28035736   0.21793339
3902.00   22.42486954   0.21838450
3904.00   22.48389816   0.21869765
3906.00   22.80118179   0.22069272
3908.00   22.85571480   0.22127075
3910.00   22.83633232   0.22132474
3912.00   22.84142303   0.22071232
3914.00   22.90159416   0.21975411
3916.00   22.81707573   0.21799338
3918.00   22.77416801   0.21669291
3920.00   22.88134384   0.21689253
3922.00   22.83165550   0.21591412
3924.00   23.04286575   0.21636987
3926.00   23.35246277   0.21734330
3928.00   23.32732391   0.21660228
3930.00   23.35070610   0.21661030
3932.00   22.99677467   0.21476419
3934.00   22.95579720   0.21407823
3936.00   23.32983589   0.21528691
3938.00   24.23972321   0.21873653
3940.00   24.49692726   0.21965225
3942.00   24.51432991   0.21984057
3944.00   24.95841026   0.22138616
3946.00   24.98753738   0.22093646
3948.00   25.40746307   0.22207545
3950.00   25.50150681   0.22191228
3952.00   25.45663834   0.22114447
3954.00   25.25557899   0.21974447
3956.00   24.65530396   0.21694948
3958.00   24.90689468   0.21778059
3960.00   25.58839035   0.22048070
3962.00   26.12544250   0.22236022
3964.00   26.18153572   0.22197139
3966.00   25.73881340   0.21936758
3968.00   25.55423355   0.21808606
3970.00   25.24314308   0.21634662
3972.00   25.32210541   0.21655592
3974.00   25.43040466   0.21662603
3976.00   24.96961403   0.21445884
3978.00   24.42609978   0.21201025
3980.00   24.35608673   0.21136785
3982.00   24.17865562   0.21008559
3984.00   24.03917313   0.20909591
3986.00   23.86842918   0.20800881
3988.00   23.47029495   0.20588203
3990.00   22.93418121   0.20337406
3992.00   22.28680992   0.20047253
3994.00   22.27275658   0.20028758
3996.00   22.10453606   0.19936728
3998.00   22.03424454   0.19885017
4000.00   21.98914719   0.19782987
4002.00   21.87058830   0.19682635
4004.00   21.71147728   0.19571637
4006.00   21.29218102   0.19380647
4008.00   21.35743523   0.19398443
4010.00   21.17382812   0.19288021
4012.00   21.24319839   0.19297639
4014.00   20.99782944   0.19144091
4016.00   21.01998520   0.19146514
4018.00   20.94536781   0.19182506
4020.00   20.80347633   0.19177781
4022.00   20.99423981   0.19264588
4024.00   20.84564972   0.19158471
4026.00   20.69861031   0.19005263
4028.00   21.09543991   0.19071572
4030.00   21.09384918   0.19022225
4032.00   21.09056091   0.18946525
4034.00   21.26083183   0.18999085
4036.00   21.31082916   0.18955225
4038.00   21.40070915   0.18951917
4040.00   21.65296745   0.19035684
4042.00   22.00784111   0.19421251
4044.00   22.19480515   0.20130831
4046.00   22.32505989   0.20450638
4048.00   22.49848366   0.20384079
4050.00   22.33493423   0.19686714
4052.00   22.82323456   0.19471736
4054.00   23.05424118   0.19469045
4056.00   22.95809174   0.19387883
4058.00   23.19080544   0.19408366
4060.00   23.60582542   0.19503939
4062.00   23.82575035   0.19568819
4064.00   23.96465874   0.19585659
4066.00   23.98782539   0.19565997
4068.00   24.14386368   0.19579732
4070.00   24.21409798   0.19571315
4072.00   24.20256042   0.19528982
4074.00   24.28448486   0.19572616
4076.00   24.65811348   0.19775476
4078.00   24.67173767   0.19792955
4080.00   24.82951355   0.19796476
4082.00   25.02698708   0.19781567
4084.00   25.11044121   0.19764748
4086.00   25.41482925   0.19796284
4088.00   25.55841637   0.19780280
4090.00   25.61876678   0.19726306
4092.00   25.50903511   0.19626015
4094.00   25.55115509   0.19616441
4096.00   25.36299133   0.19504400
4098.00   25.61860466   0.19562389
4100.00   25.44029427   0.19460511
4102.00   25.43894577   0.19404243
4104.00   25.25817299   0.19310428
4106.00   24.99367523   0.19194703
4108.00   25.21365356   0.19242851
4110.00   25.42143059   0.19266745
4112.00   25.47525215   0.19261853
4114.00   25.31181526   0.19169652
4116.00   25.34542465   0.19140202
4118.00   25.16319466   0.19032480
4120.00   25.25083160   0.19029906
4122.00   24.96183014   0.18913227
4124.00   24.87148666   0.18839890
4126.00   24.81962967   0.18794069
4128.00   24.51778603   0.18659161
4130.00   24.37312317   0.18592826
4132.00   23.95532608   0.18432508
4134.00   23.64521599   0.18287998
4136.00   23.48907089   0.18186636
4138.00   23.09982300   0.18040717
4140.00   23.02083397   0.17971531
4142.00   23.07184029   0.17939715
4144.00   22.74044418   0.17760341
4146.00   22.39884758   0.17604034
4148.00   22.27694702   0.17529246
4150.00   22.43825340   0.17605695
4152.00   22.20779610   0.17507876
4154.00   22.17669106   0.17465155
4156.00   21.96622849   0.17335798
4158.00   22.07451439   0.17330465
4160.00   22.06497765   0.17315483
4162.00   21.81735992   0.17223887
4164.00   21.58025360   0.17152178
4166.00   21.43408966   0.17076454
4168.00   21.24848938   0.16931556
4170.00   20.91862297   0.16746968
4172.00   21.06744576   0.16746044
4174.00   20.79756737   0.16605370
4176.00   20.74142075   0.16579013
4178.00   20.66558075   0.16525418
4180.00   20.60287857   0.16467397
4182.00   20.38876152   0.16355769
4184.00   20.43990707   0.16344638
4186.00   20.49322510   0.16329354
4188.00   20.38181305   0.16271199
4190.00   20.75021744   0.16378468
4192.00   20.41467094   0.16239356
4194.00   20.21865463   0.16128133
4196.00   20.26216125   0.16105337
4198.00   20.07289886   0.16008797
4200.00   19.89894485   0.15923104
4202.00   19.82921791   0.15869881
4204.00   19.55059433   0.15767567
4206.00   19.39221764   0.15688860
4208.00   19.40839577   0.15674146
4210.00   19.00474548   0.15505166
4212.00   18.73820877   0.15384571
4214.00   18.63117790   0.15321569
4216.00   18.46081161   0.15233713
4218.00   18.20080948   0.15080588
4220.00   18.01120949   0.14993091
4222.00   17.77251434   0.14881794
4224.00   17.64612389   0.14789620
4226.00   17.33769989   0.14652455
4228.00   16.99872780   0.14513963
4230.00   17.07418633   0.14534670
4232.00   16.84826279   0.14425501
4234.00   16.65371513   0.14342193
4236.00   16.38999176   0.14239572
4238.00   16.19787025   0.14120860
4240.00   16.17568398   0.14078070
4242.00   16.07480621   0.14032391
4244.00   15.85068417   0.13994591
4246.00   15.60951424   0.13937324
4248.00   15.53029156   0.13870053
4250.00   15.27481461   0.13665897
4252.00   15.27662277   0.13593541
4254.00   14.98988628   0.13465436
4256.00   14.81568813   0.13373154
4258.00   14.67408848   0.13284010
4260.00   14.70373154   0.13266015
4262.00   14.66196442   0.13215008
4264.00   14.27741051   0.13044009
4266.00   14.09822559   0.12951624
4268.00   13.87238216   0.12846664
4270.00   13.88175869   0.12837824
4272.00   13.65200520   0.12714222
4274.00   13.60633755   0.12680471
4276.00   13.28417015   0.12540314
4278.00   13.16062260   0.12491251
4280.00   13.08479977   0.12447293
4282.00   12.81927776   0.12321665
4284.00   12.83380127   0.12304112
4286.00   12.75580406   0.12244390
4288.00   12.58981705   0.12152996
4290.00   12.41726780   0.12066850
4292.00   12.36015892   0.12034739
4294.00   12.27441502   0.11989026
4296.00   12.05961323   0.11880331
4298.00   12.16047668   0.11892122
4300.00   12.03809738   0.11819305
4302.00   12.04945564   0.11809348
4304.00   11.79048824   0.11709636
4306.00   11.63099861   0.11644162
4308.00   11.60382557   0.11622801
4310.00   11.50686359   0.11615508
4312.00   11.37356853   0.11609634
4314.00   11.39452171   0.11638664
4316.00   11.40643024   0.11610154
4318.00   11.49892139   0.11617214
4320.00   11.53461647   0.11638823
4322.00   11.58770561   0.11688557
4324.00   11.73111439   0.11710438
4326.00   11.84770203   0.11713310
4328.00   11.85397053   0.11690140
4330.00   12.00843811   0.11728342
4332.00   12.33545876   0.11863879
4334.00   12.31199741   0.11856535
4336.00   12.66371346   0.12008175
4338.00   12.69847870   0.12039148
4340.00   12.82169819   0.12103678
4342.00   12.90636730   0.12136476
4344.00   13.22983074   0.12294943
4346.00   13.21427441   0.12323235
4348.00   13.10768223   0.12280067
4350.00   13.25570869   0.12317751
4352.00   13.33340168   0.12358498
4354.00   13.53290176   0.13069740
4356.00   13.81806660   0.14097424
4358.00   13.91516972   0.14466526
4360.00   14.07915020   0.14213718
4362.00   14.30873013   0.13339207
4364.00   14.55246735   0.12916875
4366.00   14.59385777   0.12834655
4368.00   14.62926388   0.12811755
4370.00   14.76995564   0.12857041
4372.00   15.02398872   0.12968594
4374.00   15.10445690   0.13002971
4376.00   15.47658539   0.13119967
4378.00   15.46533394   0.13075154
4380.00   15.55112743   0.13059951
4382.00   15.52198124   0.13033120
4384.00   15.64724922   0.13060516
4386.00   15.65553665   0.13060412
4388.00   15.74706078   0.13088804
4390.00   15.88135815   0.13133717
4392.00   16.00930405   0.13172320
4394.00   16.29496384   0.13258764
4396.00   16.32605171   0.13284416
4398.00   16.54110146   0.13368043
4400.00   16.60861588   0.13401878
4402.00   16.63734818   0.13390893
4404.00   16.57967377   0.13344109
4406.00   16.55501556   0.13313252
4408.00   16.55114746   0.13290957
4410.00   16.50532150   0.13293605
4412.00   16.33844948   0.13234523
4414.00   15.97022629   0.13099284
4416.00   15.99546909   0.13085155
4418.00   15.78430939   0.12998438
4420.00   15.54802990   0.12889245
4422.00   15.50982475   0.12859520
4424.00   15.26249599   0.12749688
4426.00   15.23704433   0.12725157
4428.00   15.02674675   0.12654245
4430.00   14.86880970   0.12582903
4432.00   14.72621727   0.12523626
4434.00   14.77214813   0.12519430
4436.00   14.71965694   0.12493145
4438.00   14.63825417   0.12449475
4440.00   14.75464249   0.12481101
4442.00   14.60081291   0.12427051
4444.00   14.60123348   0.12409461
4446.00   14.59588718   0.12390530
4448.00   14.71671009   0.12429471
4450.00   14.68206310   0.12415434
4452.00   14.61893177   0.12370385
4454.00   14.71849537   0.12398314
4456.00   14.90444851   0.12463551
4458.00   14.96976757   0.12482937
4460.00   15.13283157   0.12550372
4462.00   15.40553665   0.12629935
4464.00   15.40289879   0.12627678
4466.00   15.66776276   0.12717345
4468.00   15.68311977   0.12724675
4470.00   16.02181244   0.12829360
4472.00   16.20741081   0.12891832
4474.00   16.31966591   0.12935168
4476.00   16.52167130   0.13008483
4478.00   16.66026306   0.13050012
4480.00   16.88468361   0.13117413
4482.00   17.14223289   0.13192815
4484.00   17.23997879   0.13225190
4486.00   17.31020927   0.13247252
4488.00   17.43019295   0.13273858
4490.00   17.59987831   0.13349020
4492.00   17.70177269   0.13370074
4494.00   17.84851265   0.13562168
4496.00   17.90443230   0.13470183
4498.00   17.89721107   0.13414697
4500.00   18.05561066   0.13472116
4502.00   18.21897507   0.13506827
4504.00   18.24013901   0.13496916
4506.00   18.24888420   0.13491693
4508.00   18.26882172   0.13492537
4510.00   18.50309944   0.13561064
4512.00   18.53459358   0.13577345
4514.00   18.52301025   0.13555890
4516.00   18.53691673   0.13543068
4518.00   18.60188293   0.13564833
4520.00   18.75238419   0.13607532
4522.00   18.87730980   0.13638020
4524.00   18.89071274   0.13621491
4526.00   19.01515961   0.13661179
4528.00   18.85774040   0.13602749
4530.00   18.97325325   0.13626543
4532.00   19.13811874   0.13681310
4534.00   19.03816986   0.13627163
4536.00   19.17016983   0.13664235
4538.00   19.24213219   0.13683340
4540.00   19.04629707   0.13609514
4542.00   19.04532051   0.13606785
4544.00   18.90002251   0.13554756
4546.00   18.87714577   0.13529652
4548.00   18.78841591   0.13474812
4550.00   18.67717934   0.13427486
4552.00   18.62398529   0.13391566
4554.00   18.36482430   0.13296527
4556.00   18.36742401   0.13292900
4558.00   18.22369766   0.13239667
4560.00   18.07036209   0.13168348
4562.00   18.09554672   0.13142358
4564.00   17.93474770   0.13083087
4566.00   17.99098015   0.13083661
4568.00   17.92735100   0.13054736
4570.00   17.73744965   0.12977815
4572.00   17.75262070   0.12982458
4574.00   17.61402702   0.12915435
4576.00   17.55199814   0.12879321
4578.00   17.53070259   0.12859270
4580.00   17.57920074   0.12849456
4582.00   17.57040215   0.12836793
4584.00   17.45743942   0.12783983
4586.00   17.39448929   0.12756544
4588.00   17.54857445   0.12791172
4590.00   17.29981232   0.12700084
4592.00   17.20176506   0.12650163
4594.00   17.09650993   0.12609224
4596.00   17.07576561   0.12585306
4598.00   17.07180023   0.12566182
4600.00   16.89085579   0.12495794
4602.00   16.86836052   0.12469451
4604.00   16.97404099   0.12490974
4606.00   16.93964958   0.12464804
4608.00   16.85627365   0.12437460
4610.00   16.90651703   0.12442435
4612.00   16.83703232   0.12408315
4614.00   16.80400467   0.12373379
4616.00   16.83309364   0.12380418
4618.00   16.83181000   0.12360711
4620.00   16.68729210   0.12300554
4622.00   16.68629646   0.12291169
4624.00   16.64555740   0.12263651
4626.00   16.43119240   0.12177827
4628.00   16.36754417   0.12166530
4630.00   16.40005493   0.12161624
4632.00   16.14966202   0.12059441
4634.00   16.20643806   0.12070324
4636.00   16.07851219   0.12018844
4638.00   16.00454521   0.11988700
4640.00   15.91808414   0.11952974
4642.00   15.64187527   0.11857390
4644.00   15.46805286   0.11782698
4646.00   15.44917393   0.11757588
4648.00   15.25300694   0.11697017
4650.00   15.16706753   0.11661548
4652.00   15.01352596   0.11595520
4654.00   14.73459148   0.11503985
4656.00   14.62859249   0.11480623
4658.00   14.51290798   0.11429488
4660.00   14.29865646   0.11355001
4662.00   14.07184887   0.11279614
4664.00   13.80929089   0.11194324
4666.00   13.61009979   0.11129578
4668.00   13.65248680   0.11146887
4670.00   13.54118919   0.11111096
4672.00   13.52180481   0.11098007
4674.00   13.42503643   0.11032006
4676.00   13.17193317   0.10926539
4678.00   13.12101555   0.10891733
4680.00   13.03946209   0.10845141
4682.00   12.85157108   0.10760084
4684.00   12.87638569   0.10776644
4686.00   12.76492596   0.10718770
4688.00   12.82635403   0.10734783
4690.00   12.97130871   0.10784567
4692.00   12.96683121   0.10765070
4694.00   12.91661644   0.10735316
4696.00   12.81684303   0.10701175
4698.00   12.92377186   0.10730898
4700.00   12.85329914   0.10698172
4702.00   12.86214542   0.10701560
4704.00   12.80552292   0.10680120
4706.00   12.77361107   0.10679112
4708.00   12.58977127   0.10610171
4710.00   12.62295723   0.10629867
4712.00   12.67639923   0.10640889
4714.00   12.74395561   0.10647779
4716.00   12.74210072   0.10643803
4718.00   12.74130917   0.10640933
4720.00   12.60511398   0.10578974
4722.00   12.66768360   0.10599449
4724.00   12.67148685   0.10616937
4726.00   12.62041950   0.10613845
4728.00   12.52069473   0.10601638
4730.00   12.59493637   0.10639593
4732.00   12.70658112   0.10677812
4734.00   12.50946808   0.10612106
4736.00   12.38406467   0.10574190
4738.00   12.32124805   0.10571451
4740.00   12.27094078   0.10565268
4742.00   12.22396851   0.10548723
4744.00   12.05130100   0.10440774
4746.00   11.85996342   0.10304573
4748.00   11.89698029   0.10277653
4750.00   11.75273037   0.10227370
4752.00   11.70605946   0.10190930
4754.00   11.60236454   0.10127810
4756.00   11.47810173   0.10058568
4758.00   11.51550961   0.10051230
4760.00   11.50156593   0.10030069
4762.00   11.30872059   0.09932553
4764.00   11.06329918   0.09835825
4766.00   11.05840588   0.09819497
4768.00   11.14063740   0.09847204
4770.00   11.18644047   0.09855591
4772.00   11.09832096   0.09830856
4774.00   11.22368908   0.09883451
4776.00   11.25086689   0.09905153
4778.00   11.22573471   0.09914618
4780.00   11.27180386   0.09926330
4782.00   11.38432312   0.09950562
4784.00   11.58386421   0.10019141
4786.00   11.70090389   0.10054893
4788.00   11.70683479   0.10057498
4790.00   11.73832417   0.10072364
4792.00   11.76606941   0.10075508
4794.00   11.96108150   0.10152090
4796.00   12.08507919   0.10189866
4798.00   12.18854904   0.10224491
4800.00   12.19433498   0.10218949
4802.00   12.19454670   0.10226585
4804.00   12.39817619   0.10305399
4806.00   12.56559372   0.10365004
4808.00   12.63544846   0.10399283
4810.00   12.61014366   0.10381273
4812.00   12.67246819   0.10397284
4814.00   12.70777607   0.10417794
4816.00   12.75848961   0.10436799
4818.00   12.68904972   0.10411967
4820.00   12.55036640   0.10366192
4822.00   12.50068665   0.10350180
4824.00   12.39000607   0.10303184
4826.00   12.32438946   0.10280955
4828.00   12.18707943   0.10227700
4830.00   11.98129940   0.10146802
4832.00   11.85826778   0.10093141
4834.00   11.71338272   0.10035330
4836.00   11.61555481   0.10018997
4838.00   11.51982403   0.09991600
4840.00   11.34876442   0.09900199
4842.00   11.11237335   0.09797288
4844.00   10.96840763   0.09729741
4846.00   10.72490788   0.09621207
4848.00   10.65359592   0.09603069
4850.00   10.57170773   0.09562272
4852.00   10.28068256   0.09439865
4854.00   10.02491665   0.09315566
4856.00   9.86526871   0.09234971
4858.00   9.73463345   0.09193831
4860.00   9.63897419   0.09154708
4862.00   9.43692112   0.09067306
4864.00   9.31937790   0.09020013
4866.00   9.17764759   0.08951394
4868.00   9.07147312   0.08895420
4870.00   8.94604969   0.08833091
4872.00   9.00257301   0.08857559
4874.00   8.80460835   0.08774488
4876.00   8.65517712   0.08710798
4878.00   8.69878864   0.08730873
4880.00   8.61059761   0.08694664
4882.00   8.45114994   0.08616774
4884.00   8.40378952   0.08585640
4886.00   8.49716473   0.08608253
4888.00   8.51771832   0.08632842
4890.00   8.52219391   0.08635020
4892.00   8.51767159   0.08627688
4894.00   8.55345535   0.08641460
4896.00   8.55088425   0.08649293
4898.00   8.61074162   0.08669885
4900.00   8.62226582   0.08673932
4902.00   8.74133015   0.08725818
4904.00   8.80828667   0.08760721
4906.00   8.76535702   0.08739221
4908.00   8.91338348   0.08802878
4910.00   8.90743828   0.08815675
4912.00   8.88301849   0.08803188
4914.00   8.93245411   0.08818866
4916.00   9.08523083   0.08888361
4918.00   9.15621758   0.08918458
4920.00   9.15673161   0.08910995
4922.00   9.11247921   0.08899969
4924.00   9.22562027   0.08941545
4926.00   9.26497746   0.08945923
4928.00   9.29003906   0.08946757
4930.00   9.26690388   0.08939141
4932.00   9.38530254   0.08996829
4934.00   9.31752777   0.08970698
4936.00   9.42566776   0.09019872
4938.00   9.44437027   0.09033575
4940.00   9.56083107   0.09076480
4942.00   9.53917599   0.09058750
4944.00   9.58909702   0.09085561
4946.00   9.57543087   0.09071212
4948.00   9.63806725   0.09094547
4950.00   9.76153660   0.09157975
4952.00   9.78457737   0.09171739
4954.00   9.83252144   0.09192076
4956.00   9.90825367   0.09219830
4958.00   9.89604664   0.09206138
4960.00   9.94229507   0.09227952
4962.00   10.03287506   0.09267709
4964.00   10.02431965   0.09271602
4966.00   10.01512527   0.09272283
4968.00   9.95356750   0.09259319
4970.00   9.94547558   0.09280936
4972.00   9.91237259   0.09291692
4974.00   9.86748219   0.09295200
4976.00   9.86608982   0.09349898
4978.00   10.01355362   0.09437081
4980.00   9.94814301   0.09458751
4982.00   9.90257454   0.09445962
4984.00   9.86526871   0.09416756
4986.00   9.80887890   0.09367061
4988.00   9.94153500   0.09384088
4990.00   9.83996010   0.09315526
4992.00   9.90899563   0.09322363
4994.00   9.94016171   0.09298386
4996.00   9.87709713   0.09238637
4998.00   9.90328789   0.09248400
5000.00   9.96892262   0.09264151
5002.00   9.95712566   0.09250005
5004.00   10.05346394   0.09281284
5006.00   10.05658722   0.09275424
5008.00   10.06680107   0.09282468
5010.00   10.14372826   0.09309221
5012.00   10.17973709   0.09327007
5014.00   10.16671371   0.09328917
5016.00   10.33045387   0.09387835
5018.00   10.40058994   0.09424535
5020.00   10.36981964   0.09431144
5022.00   10.36752319   0.09419397
5024.00   10.48126221   0.09452133
5026.00   10.48394775   0.09450499
5028.00   10.45356655   0.09452824
5030.00   10.67612171   0.09557433
5032.00   10.66419601   0.09542246
5034.00   10.64303017   0.09517799
5036.00   10.67270088   0.09520353
5038.00   10.75553608   0.09560585
5040.00   10.74455643   0.09552166
5042.00   10.72757339   0.09543984
5044.00   10.84726906   0.09594432
5046.00   10.86750412   0.09594719
5048.00   10.94551468   0.09623146
5050.00   11.01965046   0.09653877
5052.00   10.93891716   0.09619265
5054.00   11.00047493   0.09640651
5056.00   11.05160141   0.09663790
5058.00   11.16928387   0.09717592
5060.00   11.32493401   0.09788828
5062.00   11.51583672   0.09869887
5064.00   11.58073807   0.09915863
5066.00   11.62215233   0.09953082
5068.00   11.76112080   0.10008340
5070.00   11.81219482   0.10023888
5072.00   11.90752983   0.10048110
5074.00   11.99104881   0.10052343
5076.00   11.94828701   0.10038494
5078.00   12.01418400   0.10105013
5080.00   12.21189880   0.10258306
5082.00   12.14326096   0.10304225
5084.00   12.30349922   0.10375688
5086.00   12.26049137   0.10322663
5088.00   12.27785110   0.10273257
5090.00   12.42526054   0.10253145
5092.00   12.51422405   0.10233604
5094.00   12.54965019   0.10231284
5096.00   12.69854450   0.10306384
5098.00   12.71522141   0.10324606
5100.00   12.69193554   0.10308146
5102.00   12.80309963   0.10313872
5104.00   12.98643017   0.10355867
5106.00   12.97126198   0.10319871
5108.00   13.02462864   0.10335072
5110.00   13.16440010   0.10382813
5112.00   13.29179287   0.10434923
5114.00   13.22850800   0.10415432
5116.00   13.42778683   0.10478961
5118.00   13.46498394   0.10472417
5120.00   13.49039555   0.10470135
5122.00   13.51984978   0.10469100
5124.00   13.49086475   0.10453553
5126.00   13.75654888   0.10536832
5128.00   13.62707901   0.10487213
5130.00   13.52507687   0.10446686
5132.00   13.64137459   0.10483484
5134.00   13.65219116   0.10475340
5136.00   13.60149574   0.10458519
5138.00   13.58305359   0.10446251
5140.00   13.52009964   0.10428236
5142.00   13.43309975   0.10383688
5144.00   13.37145329   0.10364246
5146.00   13.31431770   0.10356606
5148.00   13.40009117   0.10390785
5150.00   13.22128487   0.10344105
5152.00   13.09797192   0.10303133
5154.00   12.96501064   0.10246591
5156.00   13.05273533   0.10255063
5158.00   13.03706074   0.10229426
5160.00   12.95020580   0.10174275
5162.00   13.02020264   0.10180746
5164.00   12.97026443   0.10154769
5166.00   12.96014309   0.10142169
5168.00   12.89006042   0.10099749
5170.00   12.82364082   0.10075232
5172.00   12.84283829   0.10080978
5174.00   12.65453053   0.10009944
5176.00   12.80023193   0.10055051
5178.00   12.80075264   0.10047947
5180.00   12.66615963   0.09998263
5182.00   12.66992950   0.09986226
5184.00   12.66329193   0.09988437
5186.00   12.84899426   0.10047958
5188.00   13.00027752   0.10101452
5190.00   12.98230171   0.10096836
5192.00   12.94877338   0.10095672
5194.00   12.95346546   0.10114595
5196.00   13.01315403   0.10144493
5198.00   13.09865856   0.10180221
5200.00   13.08438110   0.10172664
5202.00   13.15114212   0.10169020
5204.00   13.20288277   0.10172737
5206.00   12.98953342   0.10091937
5208.00   13.17329311   0.10163005
5210.00   13.18829823   0.10172817
5212.00   13.18625736   0.10165361
5214.00   13.28110600   0.10190330
5216.00   13.39570141   0.10230342
5218.00   13.31343555   0.10207016
5220.00   13.29896355   0.10201516
5222.00   13.37797832   0.10212518
5224.00   13.32865906   0.10188602
5226.00   13.33376217   0.10193344
5228.00   13.18410397   0.10140682
5230.00   13.08838654   0.10096059
5232.00   12.94470310   0.10050930
5234.00   12.92758083   0.10034575
5236.00   12.88032246   0.10018235
5238.00   12.77987480   0.09987422
5240.00   12.49693775   0.09880474
5242.00   12.46052170   0.09860507
5244.00   12.24055862   0.09772405
5246.00   11.96264744   0.09676433
5248.00   11.90117168   0.09644488
5250.00   11.74668217   0.09587919
5252.00   11.56990147   0.09521238
5254.00   11.27959633   0.09414157
5256.00   11.17294312   0.09374511
5258.00   10.89108372   0.09268802
5260.00   10.82516193   0.09228825
5262.00   10.65137291   0.09150103
5264.00   10.55735016   0.09100601
5266.00   10.33438587   0.09011441
5268.00   10.29743862   0.08997648
5270.00   10.09293079   0.08911704
5272.00   9.96175671   0.08858475
5274.00   9.79585361   0.08796197
5276.00   9.68334866   0.08747883
5278.00   9.56953239   0.08709060
5280.00   9.51715946   0.08678698
5282.00   9.44324112   0.08655053
5284.00   9.23958588   0.08576222
5286.00   9.20184040   0.08566061
5288.00   9.08686352   0.08521068
5290.00   9.13493729   0.08534899
5292.00   9.01718903   0.08486487
5294.00   9.03472328   0.08496813
5296.00   8.98947239   0.08480105
5298.00   9.01620197   0.08488843
5300.00   9.10400772   0.08533302
5302.00   9.07578468   0.08526018
5304.00   9.03105831   0.08515775
5306.00   8.99614143   0.08508570
5308.00   9.00373745   0.08523051
5310.00   9.04603481   0.08547695
5312.00   9.01033211   0.08528467
5314.00   8.98044872   0.08524774
5316.00   9.05056000   0.08552816
5318.00   9.03884125   0.08548862
5320.00   9.03978348   0.08550461
5322.00   9.09609318   0.08582253
5324.00   9.07933235   0.08588641
5326.00   9.00970554   0.08563316
5328.00   9.08009624   0.08610272
5330.00   9.11174774   0.08626971
5332.00   9.10747910   0.08630526
5334.00   9.07168388   0.08622900
5336.00   9.02065849   0.08611551
5338.00   8.96716404   0.08610493
5340.00   9.01915932   0.08646487
5342.00   9.09956551   0.08684533
5344.00   9.22609615   0.08745757
5346.00   9.28987598   0.08795572
5348.00   9.35538197   0.08837704
5350.00   9.26838779   0.08821793
5352.00   9.28732014   0.08839951
5354.00   9.46319962   0.08925374
5356.00   9.57377052   0.08977691
5358.00   9.55036449   0.08959570
5360.00   9.60846615   0.08973064
5362.00   9.68826008   0.09002417
5364.00   9.80646706   0.09044584
5366.00   9.83779049   0.09070026
5368.00   9.72255135   0.09037233
5370.00   9.85986900   0.09099680
5372.00   9.84779358   0.09123946
5374.00   9.80579567   0.09127621
5376.00   9.93236542   0.09188086
5378.00   9.94017696   0.09193617
5380.00   9.81797218   0.09150521
5382.00   9.89319801   0.09175878
5384.00   9.93553352   0.09208388
5386.00   9.95479012   0.09243456
5388.00   9.95232201   0.09270976
5390.00   9.82766628   0.09256318
5392.00   9.86317921   0.09327932
5394.00   9.90260696   0.09367216
5396.00   9.84278965   0.09383037
5398.00   10.02014446   0.09519316
5400.00   10.10699272   0.09610780
5402.00   10.06577206   0.09638129
5404.00   10.08879948   0.09711817
5406.00   10.20519066   0.09824057
5408.00   10.20817852   0.09873611
5410.00   10.05955124   0.09872372
5412.00   10.08879089   0.09954197
5414.00   10.01240444   0.09990586
5416.00   10.05690193   0.10051887
5418.00   9.94533730   0.10046629
5420.00   9.76982498   0.09994000
5422.00   9.85402489   0.10064421
5424.00   9.80002499   0.10062213
5426.00   9.79339695   0.10081420
5428.00   9.68704700   0.10064969
5430.00   9.58774376   0.10043421
5432.00   9.58263779   0.10075814
5434.00   9.57071304   0.10089800
5436.00   9.43278027   0.10056861
5438.00   9.35414791   0.10067961
5440.00   9.12533760   0.10007468
5442.00   9.00598717   0.09993069
5444.00   8.93586922   0.10007696
5446.00   8.77518559   0.09982578
5448.00   8.81273556   0.10048208
5450.00   8.72027016   0.10049593
5452.00   8.61201096   0.10041187
5454.00   8.56828690   0.10148081
5456.00   8.56140518   0.10575737
5458.00   8.49513245   0.11033925
5460.00   8.26245689   0.11188139
5462.00   8.21650410   0.11070469
5464.00   8.09355831   0.10650121
5466.00   8.07585335   0.10378771
5468.00   8.10929012   0.10213957
5470.00   8.07904148   0.10124291
5472.00   8.02815437   0.10102118
5474.00   7.87549496   0.10036062
5476.00   7.86500120   0.10040326
5478.00   7.83897352   0.10063273
5480.00   7.79277849   0.10095254
5482.00   7.84622574   0.10164585
5484.00   7.94791746   0.10215151
5486.00   7.95582294   0.10188158
5488.00   7.84283066   0.10116299
5490.00   7.94504261   0.10152441
5492.00   8.02593422   0.10206918
5494.00   8.12071800   0.10271648
5496.00   8.22878361   0.10331026
5498.00   8.27450562   0.10366875
5500.00   8.43045235   0.10451462
5502.00   8.49850750   0.10501812
5504.00   8.54365253   0.10537757
5506.00   8.59002876   0.10566609
5508.00   8.64944649   0.10625349
5510.00   8.87612343   0.10786325
5512.00   8.91955853   0.10839531
5514.00   9.21413040   0.11037735
5516.00   9.19085598   0.11046233
5518.00   9.15115452   0.11021032
5520.00   9.37958431   0.11174734
5522.00   9.42406845   0.11213099
5524.00   9.55557728   0.11277743
5526.00   9.73852921   0.11372346
5528.00   9.70106697   0.11353217
5530.00   9.68765163   0.11351793
5532.00   9.91934776   0.11471347
5534.00   9.94473171   0.11499344
5536.00   9.98093605   0.11532823
5538.00   10.18040276   0.11662983
5540.00   10.22785854   0.11700267
5542.00   10.35080242   0.11780319
5544.00   10.35583878   0.11780385
5546.00   10.50727463   0.11863142
5548.00   10.62343025   0.11932853
5550.00   10.69501019   0.11994544
5552.00   10.68785954   0.12003624
5554.00   10.69356823   0.12012897
5556.00   10.70501709   0.12040958
5558.00   10.50199986   0.11964163
5560.00   10.55008125   0.11992721
5562.00   10.66182804   0.12064882
5564.00   10.67143059   0.12092640
5566.00   10.62708282   0.12095756
5568.00   10.57217598   0.12077934
5570.00   10.45627880   0.12111678
5572.00   10.41411400   0.12835811
5574.00   10.59597969   0.13747172
5576.00   10.37521076   0.14097600
5578.00   10.28167439   0.13967903
5580.00   10.18912792   0.13271843
5582.00   10.06257248   0.12627418
5584.00   10.18777657   0.12342232
5586.00   10.22218609   0.12196607
5588.00   10.21506786   0.12158424
5590.00   10.16073132   0.12174427
5592.00   10.06800842   0.12157386
5594.00   10.15662193   0.12250990
5596.00   10.17914295   0.12302400
5598.00   10.07910252   0.12290516
5600.00   10.33709908   0.12467389
5602.00   10.36427116   0.08207683
5604.00   10.37742138   0.08152911
5606.00   10.40517139   0.08107587
5608.00   10.48123932   0.08082500
5610.00   10.56353378   0.08054797
5612.00   10.60437775   0.08011928
5614.00   10.55744171   0.07941292
5616.00   10.57635689   0.07897227
5618.00   10.62244987   0.07851522
5620.00   10.65356541   0.07806720
5622.00   10.64786339   0.07753058
5624.00   10.60081100   0.07683413
5626.00   10.57014656   0.07624685
5628.00   10.61299229   0.07591701
5630.00   10.59262276   0.07541896
5632.00   10.53522491   0.07475247
5634.00   10.48623276   0.07418344
5636.00   10.35905838   0.07414344
5638.00   10.25746918   0.07348268
5640.00   10.25802326   0.07260759
5642.00   10.28794575   0.07194898
5644.00   10.24806404   0.07164741
5646.00   10.19386673   0.07114020
5648.00   10.10970497   0.07058026
5650.00   10.02880669   0.06998122
5652.00   9.97679806   0.06938911
5654.00   9.94971180   0.06923392
5656.00   9.92365360   0.07138410
5658.00   9.90807438   0.07155885
5660.00   9.78332233   0.07070856
5662.00   9.63648510   0.06919840
5664.00   9.70948029   0.06831121
5666.00   9.65161705   0.07036999
5668.00   9.77369881   0.07795690
5670.00   9.81618500   0.07927762
5672.00   9.71957207   0.07506268
5674.00   9.60727215   0.07503031
5676.00   9.61924744   0.07526956
5678.00   9.56870842   0.07497003
5680.00   9.62468052   0.07975258
5682.00   9.90683174   0.08677694
5684.00   10.26590157   0.08606408
5686.00   10.00705338   0.07841142
5688.00   10.10109711   0.07308705
5690.00   10.26082706   0.07105915
5692.00   10.29872704   0.06867849
5694.00   10.46689510   0.06764055
5696.00   10.52888107   0.06706186
5698.00   10.56604767   0.06655915
5700.00   10.63989067   0.06629167
5702.00   10.75614357   0.06619906
5704.00   10.85318947   0.06609255
5706.00   10.89376640   0.06587945
5708.00   10.94611073   0.06578421
5710.00   10.99003410   0.06568034
5712.00   11.01486778   0.06549122
5714.00   11.04820251   0.06535488
5716.00   11.06439590   0.06514265
5718.00   11.07380581   0.06492861
5720.00   11.05348492   0.06464271
5722.00   11.02839661   0.06431998
5724.00   11.04580784   0.06412788
5726.00   10.99263382   0.06375989
5728.00   10.88922119   0.06327316
5730.00   10.81741047   0.06285601
5732.00   10.81055260   0.06262468
5734.00   10.76605129   0.06238473
5736.00   10.74176216   0.06290286
5738.00   10.67879295   0.06374539
5740.00   10.58840179   0.06384350
5742.00   10.51637650   0.06272567
5744.00   10.48796082   0.06138645
5746.00   10.41878986   0.06078866
5748.00   10.39551163   0.06042827
5750.00   10.37449265   0.06012787
5752.00   10.30165482   0.05984855
5754.00   10.19919968   0.05952032
5756.00   10.15073395   0.05931239
5758.00   10.09793091   0.05914323
5760.00   10.02143860   0.05894893
5762.00   9.92183208   0.05869013
5764.00   9.87429619   0.05860827
5766.00   9.83066940   0.05860463
5768.00   9.76031876   0.05846765
5770.00   9.68522549   0.05818194
5772.00   9.64909935   0.05785899
5774.00   9.65024376   0.05754670
5776.00   9.62630558   0.05712767
5778.00   9.55378151   0.05661131
5780.00   9.48029900   0.05620867
5782.00   9.48988724   0.05619556
5784.00   9.43885803   0.05608354
5786.00   9.38345051   0.05604799
5788.00   9.37362099   0.05612479
5790.00   9.39304638   0.05617783
5792.00   9.41986656   0.05612087
5794.00   9.44436455   0.05592638
5796.00   9.48325634   0.05570292
5798.00   9.49650192   0.05539533
5800.00   9.47814465   0.05504823
5802.00   9.46145248   0.05479777
5804.00   9.50328636   0.05478120
5806.00   9.50786591   0.05467109
5808.00   9.46515846   0.05444558
5810.00   9.44504929   0.05429885
5812.00   9.54689693   0.05450385
5814.00   9.56132507   0.05445972
5816.00   9.53408623   0.05432224
5818.00   9.51769161   0.05421415
5820.00   9.53774834   0.05418852
5822.00   9.62062073   0.05430347
5824.00   9.65062618   0.05430446
5826.00   9.69557190   0.05436672
5828.00   9.74936867   0.05447185
5830.00   9.78923321   0.05455320
5832.00   9.77951050   0.05447479
5834.00   9.81594086   0.05452543
5836.00   9.84431839   0.05455613
5838.00   9.86937618   0.05456895
5840.00   9.90111351   0.05460193
5842.00   9.88879776   0.05454589
5844.00   9.91231537   0.05456569
5846.00   9.94834137   0.05462203
5848.00   9.95515633   0.05461578
5850.00   9.93493176   0.05454209
5852.00   9.95206928   0.05457184
5854.00   9.93289948   0.05450405
5856.00   9.94497395   0.05453262
5858.00   9.97947025   0.05461756
5860.00   10.00223351   0.05464707
5862.00   10.03599167   0.05473993
5864.00   10.05513954   0.05478517
5866.00   10.06366348   0.05479394
5868.00   10.08831215   0.05482967
5870.00   10.12476158   0.05488912
5872.00   10.07895851   0.05484584
5874.00   10.03205967   0.05481619
5876.00   10.02638245   0.05497643
5878.00   10.04195976   0.05536298
5880.00   9.99963951   0.05586330
5882.00   9.90341282   0.05645572
5884.00   9.91549873   0.05773000
5886.00   9.88425446   0.05928763
5888.00   9.76229858   0.06062207
5890.00   9.65751457   0.06144550
5892.00   9.62558365   0.06203447
5894.00   9.65096474   0.06214338
5896.00   9.70432281   0.06124789
5898.00   9.78121376   0.05956100
5900.00   9.91774750   0.05803874
5902.00   10.05818939   0.05672625
5904.00   10.18593597   0.05539479
5906.00   10.25515270   0.05448223
5908.00   10.26135826   0.05417249
5910.00   10.27029228   0.05421631
5912.00   10.28437901   0.05429180
5914.00   10.27766991   0.05427681
5916.00   10.24220181   0.05417288
5918.00   10.20641708   0.05406723
5920.00   10.19711399   0.05401239
5922.00   10.12654305   0.05378277
5924.00   9.97397423   0.05342199
5926.00   9.83619881   0.05311589
5928.00   9.77911758   0.05298696
5930.00   9.80284882   0.05306335
5932.00   9.94041443   0.05333181
5934.00   10.03555584   0.05347914
5936.00   10.10416985   0.05355871
5938.00   10.17867088   0.05364393
5940.00   10.22515678   0.05362827
5942.00   10.14124870   0.05337027
5944.00   10.09455299   0.05318896
5946.00   10.10807228   0.05315218
5948.00   10.13010883   0.05317562
5950.00   10.07056618   0.05303792
5952.00   10.05962753   0.05299778
5954.00   10.03614044   0.05292457
5956.00   9.99505329   0.05278438
5958.00   9.96409035   0.05262592
5960.00   9.97877502   0.05259351
5962.00   10.00094414   0.05260080
5964.00   9.99468803   0.05256008
5966.00   9.92871380   0.05238635
5968.00   9.81971550   0.05210123
5970.00   9.79189110   0.05197743
5972.00   9.76272202   0.05191910
5974.00   9.71186829   0.05180611
5976.00   9.65594959   0.05163894
5978.00   9.62278938   0.05147751
5980.00   9.62780285   0.05142374
5982.00   9.63143539   0.05140039
5984.00   9.59089279   0.05128618
5986.00   9.52276611   0.05109222
5988.00   9.46907043   0.05090769
5990.00   9.40069580   0.05072823
5992.00   9.34457397   0.05058580
5994.00   9.29185390   0.05042242
5996.00   9.24605274   0.05026803
5998.00   9.24196625   0.05023460
6000.00   9.20778465   0.05009999
6002.00   9.13344860   0.04987332
6004.00   9.07233620   0.04968234
6006.00   9.04152107   0.04956387
6008.00   9.03318405   0.04951157
6010.00   8.96656322   0.04929410
6012.00   8.85775185   0.04899263
6014.00   8.79096413   0.04879490
6016.00   8.78702927   0.04874713
6018.00   8.75876617   0.04864579
6020.00   8.72068787   0.04850513
6022.00   8.61895752   0.04821159
6024.00   8.53906441   0.04798977
6026.00   8.53137207   0.04794973
6028.00   8.52979565   0.04789668
6030.00   8.49411678   0.04779302
6032.00   8.40775013   0.04756579
6034.00   8.35772705   0.04741203
6036.00   8.36203289   0.04738791
6038.00   8.34051609   0.04732319
6040.00   8.26795197   0.04708780
6042.00   8.22134590   0.04694128
6044.00   8.18338013   0.04682720
6046.00   8.13818359   0.04668377
6048.00   8.09273338   0.04655097
6050.00   8.05401230   0.04647043
6052.00   8.01541805   0.04633620
6054.00   7.97488213   0.04614859
6056.00   7.92490625   0.04600723
6058.00   7.88298988   0.04642491
6060.00   7.80377293   0.04600003
6062.00   7.75774670   0.04557250
6064.00   7.71393394   0.04534064
6066.00   7.63856697   0.04517740
6068.00   7.57732391   0.04499901
6070.00   7.55917740   0.04492205
6072.00   7.50539589   0.04476527
6074.00   7.40263557   0.04448863
6076.00   7.30607224   0.04421559
6078.00   7.28549862   0.04413298
6080.00   7.20953369   0.04388998
6082.00   7.10491657   0.04359387
6084.00   6.98319530   0.04326662
6086.00   6.87739563   0.04297593
6088.00   6.85923338   0.04290399
6090.00   6.78633213   0.04269239
6092.00   6.68522739   0.04242082
6094.00   6.57552147   0.04214339
6096.00   6.47361469   0.04189976
6098.00   6.38666487   0.04170153
6100.00   6.27523041   0.04143130
6102.00   6.16460133   0.04120286
6104.00   6.07655287   0.04106997
6106.00   5.99510288   0.04096299
6108.00   5.85164165   0.04075937
6110.00   5.74201488   0.04064917
6112.00   5.64538908   0.04048168
6114.00   5.54296303   0.04017044
6116.00   5.44785118   0.03977776
6118.00   5.36240292   0.03932951
6120.00   5.28968620   0.03888030
6122.00   5.22913933   0.03845786
6124.00   5.17405224   0.03809264
6126.00   5.12053013   0.03781480
6128.00   5.06786156   0.03757887
6130.00   4.97700119   0.03721209
6132.00   4.87925720   0.03684077
6134.00   4.80284405   0.03657435
6136.00   4.76096773   0.03643246
6138.00   4.71645164   0.03629899
6140.00   4.69545460   0.03624893
6142.00   4.69888687   0.03627175
6144.00   4.68964052   0.03624174
6146.00   4.60606909   0.03596905
6148.00   4.57284927   0.03589275
6150.00   4.56303596   0.03588524
6152.00   4.56331444   0.03592833
6154.00   4.55763435   0.03598554
6156.00   4.53955841   0.03600823
6158.00   4.53817177   0.03606115
6160.00   4.54297686   0.03606151
6162.00   4.55561066   0.03600171
6164.00   4.57907391   0.03591779
6166.00   4.57215023   0.03571961
6168.00   4.55740738   0.03550088
6170.00   4.55612326   0.03535851
6172.00   4.58998060   0.03536829
6174.00   4.65410709   0.03550664
6176.00   4.68561792   0.03557457
6178.00   4.69495106   0.03559990
6180.00   4.72006321   0.03575945
6182.00   4.77157021   0.03600786
6184.00   4.85312366   0.03621808
6186.00   4.90234327   0.03620705
6188.00   4.96604919   0.03640764
6190.00   5.03567600   0.03664770
6192.00   5.10540771   0.03685392
6194.00   5.17499352   0.03705351
6196.00   5.23072243   0.03724442
6198.00   5.30361080   0.03747164
6200.00   5.37855053   0.03770544
6202.00   5.45228100   0.03793771
6204.00   5.54076099   0.03821711
6206.00   5.59064770   0.03839526
6208.00   5.68001938   0.03867228
6210.00   5.80273151   0.03902196
6212.00   5.93367481   0.03937104
6214.00   6.04188204   0.03963513
6216.00   6.14390755   0.03990005
6218.00   6.24791622   0.04016681
6220.00   6.35815477   0.04043774
6222.00   6.46852970   0.04071908
6224.00   6.55626678   0.04098134
6226.00   6.63999462   0.04116860
6228.00   6.70435715   0.04135175
6230.00   6.78141737   0.04163091
6232.00   6.87641668   0.04199065
6234.00   6.95997143   0.04230889
6236.00   7.02630520   0.04256108
6238.00   7.11249161   0.04279580
6240.00   7.19647455   0.04296928
6242.00   7.26828623   0.04307903
6244.00   7.34311962   0.04317534
6246.00   7.43846560   0.04331975
6248.00   7.50296974   0.04339580
6250.00   7.55724192   0.04349744
6252.00   7.60867357   0.04366424
6254.00   7.63956738   0.04384761
6256.00   7.71795368   0.04412021
6258.00   7.76729679   0.04427932
6260.00   7.80851555   0.04438000
6262.00   7.88283253   0.04452155
6264.00   8.00696564   0.04475408
6266.00   8.03802872   0.04472081
6268.00   8.03531933   0.04467251
6270.00   8.06897640   0.04469946
6272.00   8.14346695   0.04492679
6274.00   8.16892433   0.04569574
6276.00   8.13958645   0.04559087
6278.00   8.16043377   0.04554869
6280.00   8.22736549   0.04580425
6282.00   8.31031322   0.04618552
6284.00   8.42816544   0.04634204
6286.00   8.52939796   0.04671290
6288.00   8.63930607   0.04690514
6290.00   8.70767212   0.04700789
6292.00   8.72626686   0.04745015
6294.00   8.84460545   0.04872929
6296.00   8.88418388   0.05003382
6298.00   8.88308334   0.05100092
6300.00   8.90205097   0.05147218
6302.00   8.96458721   0.05140208
6304.00   9.01131344   0.05089127
6306.00   9.04752827   0.04979712
6308.00   9.12033463   0.04861575
6310.00   9.18052673   0.04773694
6312.00   9.15883255   0.04729480
6314.00   9.13108158   0.04670785
6316.00   9.19398689   0.04738437
6318.00   9.30359173   0.04928174
6320.00   9.36264610   0.05116214
6322.00   9.29739952   0.05174257
6324.00   9.29946804   0.05422448
6326.00   9.34783936   0.05420139
6328.00   9.43236542   0.05227395
6330.00   9.52215576   0.05043607
6332.00   9.57708073   0.05126094
6334.00   9.57893944   0.05263063
6336.00   9.56593800   0.05324350
6338.00   9.58145332   0.05330524
6340.00   9.59929466   0.05274781
6342.00   9.56063652   0.05091248
6344.00   9.58737564   0.04900138
6346.00   9.57660580   0.04970036
6348.00   9.54295540   0.05079439
6350.00   9.52910042   0.05112698
6352.00   9.56120491   0.05286748
6354.00   9.56983280   0.05197766
6356.00   9.55806351   0.04903136
6358.00   9.54199028   0.04728089
6360.00   9.54469109   0.04851371
6362.00   9.58243561   0.04879406
6364.00   9.55503654   0.04870661
6366.00   9.55349445   0.04854105
6368.00   9.58099747   0.04827766
6370.00   9.59529877   0.04783208
6372.00   9.52126980   0.04716393
6374.00   9.51046944   0.04691830
6376.00   9.50294209   0.04685172
6378.00   9.49229527   0.04683357
6380.00   9.49125862   0.04682349
6382.00   9.49166870   0.04682640
6384.00   9.49931622   0.04680366
6386.00   9.46876144   0.04668521
6388.00   9.42351341   0.04652296
6390.00   9.39319801   0.04638539
6392.00   9.40939140   0.04637887
6394.00   9.39321136   0.04628859
6396.00   9.36313725   0.04621696
6398.00   9.33197594   0.04617818
6400.00   9.30671310   0.04613687
6402.00   9.29238510   0.04606722
6404.00   9.26695728   0.04595445
6406.00   9.25635147   0.04588891
6408.00   9.24119377   0.04582192
6410.00   9.19263840   0.04567222
6412.00   9.15143967   0.04554255
6414.00   9.13012505   0.04545476
6416.00   9.10812569   0.04537361
6418.00   9.08542252   0.04528721
6420.00   9.07198715   0.04519464
6422.00   9.05474091   0.04511933
6424.00   9.06805420   0.04511524
6426.00   9.05180550   0.04504480
6428.00   9.01632500   0.04493208
6430.00   8.99816895   0.04486060
6432.00   8.94683075   0.04471509
6434.00   8.89342594   0.04456776
6436.00   8.84475803   0.04442557
6438.00   8.82744789   0.04436706
6440.00   8.83415413   0.04438969
6442.00   8.78044319   0.04422724
6444.00   8.73065186   0.04408792
6446.00   8.71007156   0.04403114
6448.00   8.70823288   0.04401486
6450.00   8.70342255   0.04398112
6452.00   8.61150837   0.04374154
6454.00   8.56091785   0.04362076
6456.00   8.52755165   0.04353649
6458.00   8.48989296   0.04344190
6460.00   8.43186760   0.04332875
6462.00   8.40295601   0.04326370
6464.00   8.38175583   0.04322107
6466.00   8.35785675   0.04317986
6468.00   8.32816887   0.04310992
6470.00   8.30656052   0.04300667
6472.00   8.27551556   0.04286030
6474.00   8.22350121   0.04267172
6476.00   8.17763710   0.04251160
6478.00   8.15965748   0.04242442
6480.00   8.17313385   0.04239511
6482.00   8.14239693   0.04229427
6484.00   8.13657665   0.04225505
6486.00   8.13645172   0.04222805
6488.00   8.12258339   0.04217373
6490.00   8.08809376   0.04208211
6492.00   8.06152630   0.04205382
6494.00   8.04428768   0.04208756
6496.00   8.04380989   0.04216958
6498.00   8.05469990   0.04225339
6500.00   8.02930069   0.04222476
6502.00   8.01334095   0.04216082
6504.00   8.01405621   0.04209494
6506.00   8.01303291   0.04200723
6508.00   7.98966885   0.04186913
6510.00   7.96873856   0.04173907
6512.00   7.95553637   0.04162871
6514.00   7.93756485   0.04151752
6516.00   7.89424610   0.04137641
6518.00   7.83093309   0.04122347
6520.00   7.77676010   0.04108182
6522.00   7.82333803   0.04118467
6524.00   7.84761333   0.04125127
6526.00   7.82191086   0.04121103
6528.00   7.79438639   0.04117386
6530.00   7.82206631   0.04128362
6532.00   7.77696133   0.04118112
6534.00   7.70902872   0.04099746
6536.00   7.68911457   0.04090363
6538.00   7.73705673   0.04094752
6540.00   7.70002365   0.04077782
6542.00   7.69073248   0.04069977
6544.00   7.72074699   0.04075480
6546.00   7.74129343   0.04081259
6548.00   7.67833900   0.04067989
6550.00   7.63405561   0.04061595
6552.00   7.64208508   0.04062625
6554.00   7.62269402   0.04056556
6556.00   7.58157825   0.04046966
6558.00   7.60340261   0.04053086
6560.00   7.58618784   0.04045513
6562.00   7.58623695   0.04041867
6564.00   7.56718349   0.04033843
6566.00   7.51911545   0.04017806
6568.00   7.48789024   0.04004178
6570.00   7.53524065   0.04005858
6572.00   7.53574705   0.04002507
6574.00   7.52037954   0.03999277
6576.00   7.51885700   0.04000090
6578.00   7.50028753   0.03994113
6580.00   7.47508907   0.03983235
6582.00   7.48431540   0.03981006
6584.00   7.48776722   0.03976832
6586.00   7.45941734   0.03963679
6588.00   7.42434120   0.03950362
6590.00   7.43232155   0.03950032
6592.00   7.44569826   0.03951124
6594.00   7.44159412   0.03949025
6596.00   7.43122053   0.03946909
6598.00   7.44014263   0.03948769
6600.00   7.48858929   0.03965333
6602.00   7.50824928   0.03970564
6604.00   7.47530651   0.03958888
6606.00   7.40611458   0.03936945
6608.00   7.36848831   0.03922251
6610.00   7.32360077   0.03901832
6612.00   7.30856133   0.03890133
6614.00   7.28067589   0.03879084
6616.00   7.22003365   0.03863728
6618.00   7.25978518   0.03873666
6620.00   7.25313282   0.03871161
6622.00   7.25820160   0.03872168
6624.00   7.25720882   0.03870744
6626.00   7.21410751   0.03857443
6628.00   7.18968010   0.03849177
6630.00   7.16465759   0.03840844
6632.00   7.13028812   0.03830526
6634.00   7.08472252   0.03816973
6636.00   7.05941391   0.03807235
6638.00   7.06686115   0.03806478
6640.00   7.05175066   0.03803784
6642.00   7.04660273   0.03817713
6644.00   7.05306911   0.03843506
6646.00   7.05534744   0.03862576
6648.00   7.02479362   0.03872665
6650.00   6.99542332   0.03877296
6652.00   6.98494720   0.03920063
6654.00   6.97116232   0.03973643
6656.00   6.93460464   0.03962024
6658.00   6.92811584   0.03953090
6660.00   6.92141628   0.03958978
6662.00   6.90490103   0.03948338
6664.00   6.89886093   0.03899921
6666.00   6.91490459   0.03814392
6668.00   6.89725590   0.03845839
6670.00   6.90710545   0.04193840
6672.00   6.91340113   0.04437190
6674.00   6.88852787   0.04313011
6676.00   6.85192204   0.03705692
6678.00   6.83876610   0.03693267
6680.00   6.82071209   0.03719436
6682.00   6.80968666   0.03712720
6684.00   6.79989529   0.03707872
6686.00   6.80080891   0.03704574
6688.00   6.76779842   0.03694904
6690.00   6.74583721   0.03688442
6692.00   6.74274254   0.03686480
6694.00   6.74583006   0.03686453
6696.00   6.72405291   0.03681850
6698.00   6.69509125   0.03674932
6700.00   6.69381142   0.03675062
6702.00   6.70185566   0.03680229
6704.00   6.70684719   0.03686999
6706.00   6.71368647   0.03690342
6708.00   6.65882301   0.03675998
6710.00   6.64660072   0.03672621
6712.00   6.66676188   0.03675668
6714.00   6.67143059   0.03671630
6716.00   6.60854912   0.03650326
6718.00   6.60580111   0.03646615
6720.00   6.59893322   0.03642280
6722.00   6.58908463   0.03637953
6724.00   6.58861828   0.03636923
6726.00   6.58461666   0.03636181
6728.00   6.56546974   0.03630648
6730.00   6.55437374   0.03626335
6732.00   6.53368092   0.03619759
6734.00   6.48794746   0.03608239
6736.00   6.48921585   0.03608185
6738.00   6.48882198   0.03607076
6740.00   6.44756699   0.03595841
6742.00   6.39490604   0.03581694
6744.00   6.38223076   0.03576534
6746.00   6.36483002   0.03568711
6748.00   6.36319542   0.03565940
6750.00   6.37357330   0.03568269
6752.00   6.37535954   0.03569452
6754.00   6.36415195   0.03566857
6756.00   6.35612822   0.03563277
6758.00   6.34775734   0.03560171
6760.00   6.32898712   0.03555119
6762.00   6.29484177   0.03545246
6764.00   6.24524736   0.03529368
6766.00   6.24669456   0.03528346
6768.00   6.24826241   0.03528073
6770.00   6.22870922   0.03521680
6772.00   6.20839977   0.03514825
6774.00   6.22101498   0.03517430
6776.00   6.19816494   0.03511235
6778.00   6.15811348   0.03499829
6780.00   6.13077259   0.03490715
6782.00   6.11517620   0.03484631
6784.00   6.08722162   0.03476532
6786.00   6.08054256   0.03472728
6788.00   6.08350754   0.03473075
6790.00   6.07955503   0.03472719
6792.00   6.05734348   0.03467181
6794.00   6.03983450   0.03461017
6796.00   6.03996372   0.03459754
6798.00   6.03418255   0.03456664
6800.00   6.02048922   0.03451490
6802.00   6.01159716   0.03448310
6804.00   6.00915337   0.03448383
6806.00   6.00042677   0.03444992
6808.00   5.99341393   0.03441813
6810.00   5.98927212   0.03439339
6812.00   5.99045181   0.03438739
6814.00   5.99321890   0.03439688
6816.00   5.96656418   0.03431804
6818.00   5.94152403   0.03424636
6820.00   5.94004250   0.03425614
6822.00   5.95813465   0.03435817
6824.00   5.96547127   0.03450502
6826.00   5.96063519   0.03463232
6828.00   5.94777393   0.03474482
6830.00   5.93124914   0.03482008
6832.00   5.91436386   0.03482319
6834.00   5.92314339   0.03478687
6836.00   5.94143486   0.03470676
6838.00   5.94531250   0.03458156
6840.00   5.92252684   0.03441606
6842.00   5.88352966   0.03422884
6844.00   5.88786030   0.03407755
6846.00   5.92041254   0.03427334
6848.00   5.93075752   0.03427137
6850.00   5.91632557   0.03409865
6852.00   5.89673662   0.03401880
6854.00   5.89626789   0.03401094
6856.00   5.89912605   0.03404681
6858.00   5.89093733   0.03415963
6860.00   5.87236214   0.03434365
6862.00   5.86594486   0.03464790
6864.00   5.94497395   0.03543162
6866.00   5.98416948   0.03636354
6868.00   5.86838865   0.03708895
6870.00   5.67017841   0.03793092
6872.00   5.56683779   0.03931115
6874.00   5.69491196   0.04052213
6876.00   5.82663631   0.04037713
6878.00   5.90393257   0.03935048
6880.00   5.92403412   0.03812307
6882.00   5.91622972   0.03725459
6884.00   5.90369654   0.03634091
6886.00   5.80479431   0.03567412
6888.00   5.74524689   0.03569923
6890.00   5.74901390   0.03622982
6892.00   5.75299358   0.03660759
6894.00   5.71967173   0.03634886
6896.00   5.72557163   0.03629084
6898.00   5.74263763   0.03631639
6900.00   5.74536610   0.03620008
6902.00   5.73764515   0.03586172
6904.00   5.71217823   0.03560131
6906.00   5.69304419   0.03534820
6908.00   5.68146658   0.03516203
6910.00   5.66189957   0.03499949
6912.00   5.64161253   0.03476754
6914.00   5.66419411   0.03487481
6916.00   5.64056015   0.03461937
6918.00   5.60185051   0.03420865
6920.00   5.59178543   0.03401835
6922.00   5.62560654   0.03424780
6924.00   5.63035488   0.03419805
6926.00   5.59129810   0.03400746
6928.00   5.57312107   0.03387320
6930.00   5.59080887   0.03382015
6932.00   5.55477142   0.03360961
6934.00   5.53692865   0.03338560
6936.00   5.53048325   0.03335854
6938.00   5.52476692   0.03341401
6940.00   5.51479816   0.03341369
6942.00   5.48923445   0.03339380
6944.00   5.49085140   0.03351563
6946.00   5.53664398   0.03372916
6948.00   5.55383873   0.03371556
6950.00   5.49679518   0.03335671
6952.00   5.45596886   0.03325030
6954.00   5.49502897   0.03324371
6956.00   5.50463247   0.03309104
6958.00   5.48850393   0.03293361
6960.00   5.50072622   0.03301026
6962.00   5.54656792   0.03323472
6964.00   5.53018379   0.03310325
6966.00   5.50486851   0.03289865
6968.00   5.49957371   0.03279062
6970.00   5.52258778   0.03283170
6972.00   5.53200245   0.03283631
6974.00   5.54534435   0.03296898
6976.00   5.54826021   0.03307990
6978.00   5.53779650   0.03306733
6980.00   5.51863861   0.03294478
6982.00   5.54890347   0.03310541
6984.00   5.55512094   0.03309942
6986.00   5.53740025   0.03290600
6988.00   5.52715206   0.03282983
6990.00   5.56083965   0.03321677
6992.00   5.58401823   0.03331400
6994.00   5.56383038   0.03313556
6996.00   5.52981853   0.03298606
6998.00   5.51060104   0.03297418
7000.00   5.50402212   0.03292552
7002.00   5.52262449   0.03282698
7004.00   5.50900555   0.03282734
7006.00   5.50501156   0.03290564
7008.00   5.51609612   0.03295521
7010.00   5.50010872   0.03286798
7012.00   5.48905563   0.03280159
7014.00   5.52312660   0.03295625
7016.00   5.54932117   0.03308092
7018.00   5.52805805   0.03295107
7020.00   5.46916008   0.03255499
7022.00   5.45822239   0.03250713
7024.00   5.47333145   0.03265647
7026.00   5.46480465   0.03268661
7028.00   5.41677666   0.03248655
7030.00   5.39690018   0.03237419
7032.00   5.41831970   0.03246555
7034.00   5.45019817   0.03258587
7036.00   5.47163200   0.03266895
7038.00   5.48018646   0.03271698
7040.00   5.48492527   0.03273395
7042.00   5.47243261   0.03277186
7044.00   5.47321558   0.03277152
7046.00   5.47210598   0.03273936
7048.00   5.46283007   0.03271073
7050.00   5.48711491   0.03269403
7052.00   5.46368599   0.03277539
7054.00   5.44746399   0.03271914
7056.00   5.44819117   0.03264961
7058.00   5.46076775   0.03272233
7060.00   5.48455238   0.03276444
7062.00   5.41124773   0.03242626
7064.00   5.40317440   0.03240588
7066.00   5.44643879   0.03261597
7068.00   5.45118332   0.03264885
7070.00   5.40552330   0.03248856
7072.00   5.42925262   0.03250315
7074.00   5.42869091   0.03247891
7076.00   5.40974951   0.03242631
7078.00   5.41696358   0.03243273
7080.00   5.37580109   0.03227754
7082.00   5.39640331   0.03231037
7084.00   5.40154982   0.03234129
7086.00   5.39558315   0.03235482
7088.00   5.41446781   0.03241050
7090.00   5.39301968   0.03233609
7092.00   5.39664936   0.03232612
7094.00   5.40628767   0.03233484
7096.00   5.40296078   0.03229705
7098.00   5.38169193   0.03219575
7100.00   5.40397167   0.03228617
7102.00   5.38071537   0.03220478
7104.00   5.36593533   0.03216694
7106.00   5.37486076   0.03221168
7108.00   5.38629436   0.03220412
7110.00   5.38345337   0.03218177
7112.00   5.38314724   0.03218254
7114.00   5.38855171   0.03234535
7116.00   5.39575958   0.03251822
7118.00   5.40061855   0.03234558
7120.00   5.39732885   0.03234536
7122.00   5.38306236   0.03226051
7124.00   5.35753536   0.03216579
7126.00   5.33777094   0.03212955
7128.00   5.36963940   0.03216133
7130.00   5.36359024   0.03228711
7132.00   5.35339308   0.03223462
7134.00   5.35534143   0.03218245
7136.00   5.37429523   0.03226148
7138.00   5.37240601   0.03227632
7140.00   5.32077646   0.03207386
7142.00   5.32204914   0.03212747
7144.00   5.34905338   0.03225326
7146.00   5.35285568   0.03223110
7148.00   5.32266855   0.03213491
7150.00   5.34565163   0.03227587
7152.00   5.33590603   0.03223379
7154.00   5.31765938   0.03213898
7156.00   5.34065771   0.03222900
7158.00   5.35768747   0.03235546
7160.00   5.31234837   0.03217650
7162.00   5.25918102   0.03192789
7164.00   5.25525188   0.03199320
7166.00   5.30015182   0.03241015
7168.00   5.23607540   0.03223993
7170.00   5.17308044   0.03222149
7172.00   5.19528484   0.03248923
7174.00   5.22110415   0.03275618
7176.00   5.16783857   0.03276686
7178.00   5.18649387   0.03290807
7180.00   5.19799614   0.03300960
7182.00   5.21290398   0.03303738
7184.00   5.20558167   0.03302837
7186.00   5.15962029   0.03308149
7188.00   5.17735481   0.03346522
7190.00   5.16160202   0.03341338
7192.00   5.15749121   0.03321174
7194.00   5.17121458   0.03308230
7196.00   5.17710876   0.03308638
7198.00   5.13495159   0.03291694
#7200.00   5.04826736   0.03338264
#7202.00   4.92679405   0.03421884
#7204.00   4.82956314   0.03486491
#7206.00   4.83658504   0.03480931
#7208.00   4.93476295   0.03407506
#7210.00   5.08136559   0.03317961
7212.00   5.16523266   0.03229728
7214.00   5.17963123   0.03183085
7216.00   5.19293213   0.03194267
7218.00   5.24680519   0.03205936
7220.00   5.24226952   0.03210849
7222.00   5.21597004   0.03205164
7224.00   5.18972778   0.03191400
7226.00   5.15409517   0.03180771
7228.00   5.17337227   0.03193994
7230.00   5.19108677   0.03216068
7232.00   5.18835545   0.03243803
7234.00   5.14752913   0.03271646
7236.00   5.07177448   0.03298170
7238.00   5.07030773   0.03368749
7240.00   5.09958982   0.03423975
7242.00   5.08986855   0.03438961
7244.00   5.03965282   0.03418760
7246.00   5.03845596   0.03391446
7248.00   5.07164335   0.03357089
7250.00   5.08943176   0.03314298
7252.00   5.07125378   0.03272174
7254.00   5.03133631   0.03245309
7256.00   5.02900600   0.03254002
7258.00   5.07884407   0.03255764
7260.00   5.08025408   0.03239771
7262.00   5.05565643   0.03217693
7264.00   5.03056717   0.03199275
7266.00   4.94790602   0.03171609
7268.00   4.92348576   0.03176091
7270.00   4.94086218   0.03225479
7272.00   4.96460724   0.03292165
7274.00   4.96188259   0.03339038
7276.00   4.88084555   0.03333040
7278.00   4.85456276   0.03345714
7280.00   4.85269880   0.03344818
7282.00   4.88455677   0.03308437
7284.00   4.92652035   0.03236468
7286.00   4.90338707   0.03191680
7288.00   4.88045979   0.03170070
7290.00   4.85084629   0.03158660
7292.00   4.82892132   0.03159156
7294.00   4.83205986   0.03171609
7296.00   4.84908390   0.03160848
7298.00   4.82913780   0.03130672
7300.00   4.82657146   0.03123964
7302.00   4.85295010   0.03150412
7304.00   4.87137604   0.03184404
7306.00   4.83931780   0.03178187
7308.00   4.79438114   0.03146577
7310.00   4.78607178   0.03140892
7312.00   4.79676867   0.03171251
7314.00   4.78422976   0.03211242
7316.00   4.79644871   0.03219404
7318.00   4.77685595   0.03206165
7320.00   4.73798084   0.03166731
7322.00   4.70984936   0.03115113
7324.00   4.71972942   0.03079530
7326.00   4.75810862   0.03075926
7328.00   4.75840378   0.03083814
7330.00   4.73114681   0.03081146
7332.00   4.69950628   0.03068157
7334.00   4.68239403   0.03068646
7336.00   4.70135784   0.03113299
7338.00   4.71606064   0.03150958
7340.00   4.71641397   0.03166994
7342.00   4.70106030   0.03159203
7344.00   4.67078781   0.03131563
7346.00   4.61594296   0.03068157
7348.00   4.62574625   0.03030815
7350.00   4.67814350   0.03032998
7352.00   4.71211529   0.03053095
7354.00   4.66907024   0.03046970
7356.00   4.60942745   0.03022657
7358.00   4.56844425   0.03007659
7360.00   4.57576084   0.03020175
7362.00   4.62286901   0.03056038
7364.00   4.65470314   0.03086273
7366.00   4.61767769   0.03091061
7368.00   4.56525707   0.03078732
7370.00   4.53412914   0.03064395
7372.00   4.54070091   0.03059644
7374.00   4.56912279   0.03063045
7376.00   4.58408642   0.03036183
7378.00   4.55492496   0.02988866
7380.00   4.51672554   0.02955988
7382.00   4.51253080   0.02963042
7384.00   4.56586361   0.02999962
7386.00   4.53831244   0.02990502
7388.00   4.48943806   0.02969385
7390.00   4.46364546   0.02959889
7392.00   4.46600866   0.02965450
7394.00   4.42773962   0.02952273
7396.00   4.39673138   0.02956066
7398.00   4.38548326   0.02963979
7400.00   4.39525795   0.02975109
7402.00   4.42749929   0.02992377
7404.00   4.43386793   0.02985575
7406.00   4.41598034   0.02968092
7408.00   4.40689278   0.02978420
7410.00   4.40539360   0.03005730
7412.00   4.38916159   0.03012782
7414.00   4.37009859   0.02983877
7416.00   4.37864733   0.02948605
7418.00   4.37926483   0.02926848
7420.00   4.36889744   0.02917912
7422.00   4.35957766   0.02910496
7424.00   4.34229183   0.02897933
7426.00   4.33530664   0.02898651
7428.00   4.33324242   0.02901711
7430.00   4.33687258   0.02904767
7432.00   4.34514809   0.02910627
7434.00   4.32576942   0.02913545
7436.00   4.31482315   0.02913844
7438.00   4.33623028   0.02920121
7440.00   4.36334038   0.02926196
7442.00   4.34635830   0.02917840
7444.00   4.34310532   0.02905622
7446.00   4.32116890   0.02886518
7448.00   4.32559204   0.02880689
7450.00   4.34969711   0.02887321
7452.00   4.35831642   0.02891209
7454.00   4.32657766   0.02881392
7456.00   4.31747723   0.02879894
7458.00   4.30995846   0.02880134
7460.00   4.29617691   0.02879171
7462.00   4.29602671   0.02882738
7464.00   4.29111385   0.02886282
7466.00   4.26569128   0.02884340
7468.00   4.23913002   0.02884584
7470.00   4.21748829   0.02886481
7472.00   4.18032646   0.02875698
7474.00   4.15439749   0.02870939
7476.00   4.11390018   0.02863463
7478.00   4.07021904   0.02854364
7480.00   4.03866816   0.02846223
7482.00   3.99702001   0.02830134
7484.00   3.95059490   0.02811172
7486.00   3.91393089   0.02789478
7488.00   3.88759470   0.02768234
7490.00   3.86771965   0.02751549
7492.00   3.84383869   0.02737119
7494.00   3.83099699   0.02729304
7496.00   3.80453849   0.02718817
7498.00   3.78510666   0.02710839
7500.00   3.79561234   0.02712154
7502.00   3.79252005   0.02708990
7504.00   3.77555203   0.02702162
7506.00   3.76327372   0.02696288
7508.00   3.75563693   0.02692447
7510.00   3.75273514   0.02692197
7512.00   3.77607536   0.02700749
7514.00   3.75739288   0.02698452
7516.00   3.74667406   0.02702978
7518.00   3.74272251   0.02724347
7520.00   3.72169304   0.02757005
7522.00   3.72603846   0.02780332
7524.00   3.71009183   0.02782809
7526.00   3.69666910   0.02782363
7528.00   3.70602942   0.02777170
7530.00   3.72768092   0.02752902
7532.00   3.73778701   0.02724965
7534.00   3.75047064   0.02716229
7536.00   3.76506329   0.02714019
7538.00   3.77229381   0.02709668
7540.00   3.76220942   0.02701198
7542.00   3.76252580   0.02699124
7544.00   3.77307248   0.02700021
7546.00   3.77894688   0.02701452
7548.00   3.77681756   0.02701609
7550.00   3.78064537   0.02702527
7552.00   3.75799131   0.02698030
7554.00   3.76455569   0.02706962
7556.00   3.77582550   0.02715370
7558.00   3.78514433   0.02718637
7560.00   3.78736687   0.02717996
7562.00   3.82812500   0.02741710
7564.00   3.85699224   0.02752830
7566.00   3.85758066   0.02770129
7568.00   3.84676743   0.02799208
7570.00   3.86391592   0.02816817
7572.00   3.85416698   0.02804947
7574.00   3.85556865   0.02812324
7576.00   3.87299013   0.02812983
7578.00   3.89280939   0.02793301
7580.00   3.90357971   0.02783072
7582.00   3.91341496   0.02789886
7584.00   3.92810440   0.02805741
7586.00   3.94546103   0.02818445
7588.00   3.96109700   0.02829402
7590.00   4.00087929   0.02872630
7592.00   4.05253124   0.02958748
7594.00   4.07519341   0.03133517
7596.00   4.01987743   0.03455101
#7598.00   3.88130307   0.03962921
#7600.00   3.72446561   0.04659156
#7602.00   3.68017149   0.05333751
#7604.00   3.54668427   0.05751863
#7606.00   3.41367006   0.05939735
#7608.00   3.39612484   0.05921870
#7610.00   3.48872089   0.05620174
#7612.00   3.57338357   0.05149902
#7614.00   3.69428778   0.04621872
#7616.00   3.83496094   0.04135466
#7618.00   3.96694565   0.03773860
7620.00   4.08492756   0.03549751
7622.00   4.07792950   0.03467648
#7624.00   3.94694877   0.03545757
#7626.00   3.80778265   0.03748633
#7628.00   3.79129362   0.03994758
#7630.00   3.88268852   0.04171195
#7632.00   3.93820381   0.04214840
#7634.00   3.94964361   0.04156936
#7636.00   3.92040777   0.04044154
#7638.00   3.87985492   0.03931503
#7640.00   3.91097617   0.03849266
#7642.00   3.97605753   0.03810194
7644.00   4.04674053   0.03780023
7646.00   4.08221865   0.03723453
7648.00   4.06087637   0.03625789
7650.00   4.07512283   0.03544698
7652.00   4.07655430   0.03463192
7654.00   4.05684757   0.03385070
7656.00   4.04205036   0.03323252
7658.00   4.05944538   0.03285151
7660.00   4.07107830   0.03234999
7662.00   4.09319353   0.03198742
7664.00   4.09468269   0.03170276
7666.00   4.08279419   0.03140060
7668.00   4.10280418   0.03102190
7670.00   4.09002209   0.03050317
7672.00   4.08688927   0.03006366
7674.00   4.07006407   0.02971398
7676.00   4.04166555   0.02945080
7678.00   4.04691601   0.02929647
7680.00   4.06570625   0.02937648
7682.00   4.09663916   0.02950110
7684.00   4.12208652   0.02954295
7686.00   4.11793518   0.02942440
7688.00   4.06557751   0.02915865
7690.00   4.06824160   0.02900528
7692.00   4.04744768   0.02885726
7694.00   4.02800035   0.02881151
7696.00   4.04084396   0.02889603
7698.00   4.05480862   0.02888227
7700.00   4.05234146   0.02891376
7702.00   4.07620621   0.02891176
7704.00   4.07416916   0.02879953
7706.00   4.03169632   0.02871676
7708.00   4.04505205   0.02911513
7710.00   4.05445004   0.02979952
7712.00   4.05540133   0.03044068
7714.00   4.05371952   0.03081923
7716.00   4.06420612   0.03085995
7718.00   4.07672405   0.03054135
7720.00   4.05706644   0.03017883
7722.00   4.05953550   0.02977315
7724.00   4.07540894   0.02936272
7726.00   4.08973694   0.02908147
7728.00   4.11423874   0.02922117
7730.00   4.12032270   0.02920676
7732.00   4.09930182   0.02894501
7734.00   4.06760406   0.02858464
7736.00   4.05312634   0.02840709
7738.00   4.09448147   0.02871502
7740.00   4.13196421   0.02888924
7742.00   4.11362982   0.02883873
7744.00   4.06977940   0.02897082
7746.00   4.05902910   0.02966836
7748.00   4.04234409   0.03018648
7750.00   4.07287216   0.03049935
7752.00   4.10060024   0.03062341
7754.00   4.11491966   0.03061492
7756.00   4.12825775   0.03046790
7758.00   4.10854816   0.02966263
7760.00   4.08678007   0.02921882
7762.00   4.09602642   0.02937185
#7764.00   4.22327852   0.03100058
#7766.00   4.55425358   0.03451794
#7768.00   4.44926929   0.03335594
#7770.00   4.25855446   0.03144054
7772.00   4.13094711   0.03019555
7774.00   4.13010406   0.03013875
7776.00   4.21558094   0.03034027
7778.00   4.23994493   0.03045513
7780.00   4.23219728   0.03016799
7782.00   4.24254847   0.03001481
7784.00   4.26659679   0.03006825
7786.00   4.23432970   0.02977221
7788.00   4.15753937   0.02952291
7790.00   4.18148422   0.03006253
7792.00   4.20415688   0.03058216
7794.00   4.16754913   0.03056908
7796.00   4.13840628   0.03029712
7798.00   4.13372517   0.02993609
7800.00   4.14735222   0.02946342
7802.00   4.15542698   0.02913439
7804.00   4.14843225   0.02912368
7806.00   4.16189289   0.02942667
7808.00   4.18680906   0.02969825
7810.00   4.18725204   0.02968367
7812.00   4.16311073   0.02940631
7814.00   4.12956905   0.02916924
7816.00   4.09925461   0.02951130
7818.00   4.14989281   0.03027430
7820.00   4.16856289   0.03070213
7822.00   4.14143324   0.03070320
7824.00   4.10131216   0.03041109
7826.00   4.10032511   0.02994572
7828.00   4.09581470   0.02930595
7830.00   4.08545685   0.02872809
7832.00   4.08133030   0.02849199
7834.00   4.08609915   0.02867626
7836.00   4.08738708   0.02893163
7838.00   4.06343651   0.02898517
7840.00   4.03873587   0.02897809
7842.00   4.02565956   0.02896092
7844.00   4.01430893   0.02892023
7846.00   3.99088478   0.02889211
7848.00   3.96777296   0.02929223
7850.00   3.95928025   0.02985017
7852.00   3.94433498   0.03014512
7854.00   3.91570616   0.03001964
7856.00   3.90437937   0.03020479
7858.00   3.90653276   0.03007478
7860.00   3.88042164   0.02945470
7862.00   3.84619141   0.02882246
7864.00   3.83366466   0.02879564
7866.00   3.81263947   0.02886476
7868.00   3.79394531   0.02886328
7870.00   3.77855134   0.02884492
7872.00   3.74736547   0.02874602
7874.00   3.68724680   0.02846335
7876.00   3.63170862   0.02808077
7878.00   3.59046412   0.02767785
7880.00   3.55779123   0.02749724
7882.00   3.53535652   0.02758580
7884.00   3.52511954   0.02775341
7886.00   3.45821095   0.02769060
7888.00   3.40534925   0.02747618
7890.00   3.34970284   0.02724739
7892.00   3.30505753   0.02710528
7894.00   3.30673337   0.02700237
7896.00   3.24595261   0.02634152
7898.00   3.16514397   0.02568264
7900.00   3.10481691   0.02528483
7902.00   3.07920504   0.02516745
7904.00   3.05005693   0.02508261
7906.00   2.99511385   0.02514032
7908.00   2.97106743   0.02595043
7910.00   2.96891928   0.02696155
7912.00   2.94320512   0.02751132
7914.00   2.86413169   0.02732341
7916.00   2.83097720   0.02724382
7918.00   2.80526876   0.02693601
7920.00   2.78352237   0.02634193
7922.00   2.75842905   0.02556781
7924.00   2.67652798   0.02481556
7926.00   2.63774896   0.02458294
7928.00   2.59480715   0.02430112
7930.00   2.55087447   0.02403831
7932.00   2.51842022   0.02401978
7934.00   2.51713705   0.02427064
7936.00   2.52214527   0.02408366
7938.00   2.47420311   0.02374672
7940.00   2.40943885   0.02347399
7942.00   2.38206196   0.02365539
7944.00   2.36381841   0.02446637
7946.00   2.32268953   0.02458558
7948.00   2.30153990   0.02529339
7950.00   2.28924370   0.02548222
7952.00   2.25929546   0.02461844
7954.00   2.21085596   0.02483730
7956.00   2.17274618   0.02440883
7958.00   2.13859391   0.02379804
7960.00   2.09861708   0.02366063
7962.00   2.06404495   0.02417093
7964.00   2.03081083   0.02386405
7966.00   2.03962374   0.02356826
7968.00   2.04665160   0.02319465
7970.00   2.03491640   0.02249766
7972.00   2.00832152   0.02145175
7974.00   2.00764728   0.02123351
7976.00   2.00167894   0.02137459
7978.00   1.99250603   0.02155583
7980.00   1.99029994   0.02163639
7982.00   2.00350380   0.02160257
7984.00   1.99709940   0.02127568
7986.00   1.97549772   0.02117712
7988.00   1.96141601   0.02165647
7990.00   1.96015346   0.02239367
7992.00   1.96163535   0.02270622
7994.00   1.97180200   0.02277744
7996.00   1.97986197   0.02274647
7998.00   1.97760391   0.02224634
8000.00   1.97423577   0.02138583
8002.00   1.99157274   0.02083317
8004.00   2.01519156   0.02083331
8006.00   2.02274275   0.02089280
8008.00   2.01585484   0.02098746
8010.00   2.00281906   0.02111721
8012.00   1.98899555   0.02121786
8014.00   1.99433482   0.02129895
8016.00   1.99825001   0.02131613
8018.00   1.99223888   0.02134058
8020.00   1.98632705   0.02155328
8022.00   2.01955032   0.02224337
8024.00   2.02826166   0.02261438
8026.00   2.02149010   0.02261666
8028.00   1.99393916   0.02230505
8030.00   1.96473217   0.02181766
8032.00   1.97229135   0.02124268
8034.00   2.00704646   0.02095870
8036.00   2.01929855   0.02082828
8038.00   1.99768615   0.02068929
8040.00   1.96691370   0.02051696
8042.00   1.99156988   0.02055288
8044.00   2.00864649   0.02075060
8046.00   2.01588726   0.02096429
8048.00   2.00881529   0.02105431
8050.00   1.98985386   0.02097055
8052.00   1.98212552   0.02086538
8054.00   2.00766802   0.02108339
8056.00   2.02760077   0.02137567
8058.00   2.01632929   0.02148329
8060.00   1.98381186   0.02137089
8062.00   2.00888109   0.02153012
8064.00   2.00311232   0.02151367
8066.00   1.99118733   0.02125974
8068.00   1.98755491   0.02087765
8070.00   1.99793804   0.02060565
8072.00   1.99698329   0.02060883
8074.00   2.01918721   0.02074302
8076.00   2.02754593   0.02081769
8078.00   2.02789974   0.02084485
8080.00   2.03239799   0.02087487
8082.00   2.03307033   0.02082020
8084.00   2.02977061   0.02078779
8086.00   2.03228235   0.02081103
8088.00   2.05321503   0.02096134
8090.00   2.09407663   0.02126279
8092.00   2.12838316   0.02149045
8094.00   2.13413405   0.02157453
8096.00   2.14579391   0.02164702
8098.00   2.16358232   0.02170676
8100.00   2.15896463   0.02168344
8102.00   2.18543100   0.02196246
8104.00   2.21544147   0.02216880
8106.00   2.23117542   0.02214158
8108.00   2.23459053   0.02194821
8110.00   2.24815226   0.02184398
8112.00   2.27126551   0.02207128
8114.00   2.31630325   0.02239139
8116.00   2.35021162   0.02253236
8118.00   2.37410116   0.02256783
8120.00   2.42064190   0.02286820
8122.00   2.44083929   0.02290430
8124.00   2.42740917   0.02278662
8126.00   2.42134738   0.02271655
8128.00   2.44644022   0.02283771
8130.00   2.48979759   0.02316540
8132.00   2.54639888   0.02368523
8134.00   2.55374956   0.02389896
8136.00   2.53989935   0.02385055
8138.00   2.54902601   0.02379800
8140.00   2.60092926   0.02405988
8142.00   2.62475204   0.02424140
8144.00   2.62715340   0.02429539
8146.00   2.64912462   0.02448336
8148.00   2.70298767   0.02486143
8150.00   2.72049665   0.02491591
8152.00   2.69154692   0.02469200
8154.00   2.70769572   0.02478813
8156.00   2.76830459   0.02515520
8158.00   2.82714939   0.02548995
8160.00   2.86357260   0.02570366
8162.00   2.84177637   0.02563679
8164.00   2.82793212   0.02572178
8166.00   2.84823990   0.02600064
8168.00   2.89708233   0.02625908
8170.00   2.92525005   0.02607181
8172.00   2.93815708   0.02604296
8174.00   2.95908976   0.02606496
8176.00   2.98263693   0.02625711
8178.00   2.98903060   0.02677338
8180.00   2.93248177   0.02739650
8182.00   2.97196198   0.02784523
8184.00   3.00740814   0.02777925
8186.00   3.02292538   0.02759152
8188.00   3.03397369   0.02780071
8190.00   3.04543304   0.02803532
8192.00   3.05289340   0.02824695
8194.00   3.06797719   0.02826902
8196.00   3.08112240   0.02811394
8198.00   3.06897831   0.02789724
8200.00   3.09086514   0.02785957
8202.00   3.10330439   0.02749135
8204.00   3.10738397   0.02697301
8206.00   3.10474968   0.02648432
8208.00   3.08723927   0.02609340
8210.00   3.06470823   0.02578069
8212.00   3.02739334   0.02553389
8214.00   3.00676584   0.02546410
8216.00   3.01302433   0.02554509
8218.00   3.02547359   0.02561962
8220.00   3.01919413   0.02560067
8222.00   3.01606107   0.02571375
8224.00   3.03557730   0.02618779
8226.00   3.03955317   0.02677910
8228.00   2.95956588   0.02690497
8230.00   2.84229875   0.02666172
8232.00   2.83496332   0.02680717
8234.00   2.88304591   0.02667296
8236.00   2.91780210   0.02600581
8238.00   2.91309547   0.02547379
8240.00   2.91976237   0.02524269
8242.00   2.92058325   0.02516524
8244.00   2.90228462   0.02509673
8246.00   2.86750436   0.02491407
8248.00   2.83465195   0.02451635
8250.00   2.81569815   0.02429464
8252.00   2.82558417   0.02439712
8254.00   2.84997749   0.02464016
8256.00   2.85533619   0.02479246
8258.00   2.83416319   0.02491901
8260.00   2.81779170   0.02485242
8262.00   2.80420303   0.02467931
8264.00   2.79218984   0.02447025
8266.00   2.79132915   0.02434104
8268.00   2.81343508   0.02442985
8270.00   2.80053091   0.02433800
8272.00   2.78052020   0.02446318
8274.00   2.78312206   0.02507313
8276.00   2.80792332   0.02602004
8278.00   2.77570963   0.02645268
8280.00   2.76429772   0.02661229
8282.00   2.78953886   0.02699294
8284.00   2.82584143   0.02746278
8286.00   2.83455372   0.02761289
8288.00   2.83967090   0.02724056
8290.00   2.82141161   0.02706889
8292.00   2.83465838   0.02723386
8294.00   2.86884880   0.02745331
8296.00   2.88919353   0.02740036
8298.00   2.89382100   0.02731419
8300.00   2.91230702   0.02740061
8302.00   2.91774368   0.02716670
8304.00   2.91441059   0.02658633
8306.00   2.92407990   0.02602484
8308.00   2.92710733   0.02584360
8310.00   2.95534182   0.02582719
8312.00   2.98925042   0.02589992
8314.00   3.01568651   0.02600027
8316.00   3.04003811   0.02609282
8318.00   3.05425501   0.02597226
8320.00   3.04199600   0.02590464
8322.00   3.03177238   0.02588640
8324.00   3.03514862   0.02584244
8326.00   3.05369282   0.02571772
8328.00   3.08539701   0.02558971
8330.00   3.07750893   0.02552152
8332.00   3.05707216   0.02546021
8334.00   3.04857063   0.02546824
8336.00   3.05572367   0.02579549
8338.00   3.05506468   0.02682678
8340.00   3.08711767   0.02862589
8342.00   3.11308193   0.02996156
8344.00   3.11961937   0.03031007
8346.00   3.12967014   0.03008343
8348.00   3.12245512   0.02985070
8350.00   3.12906218   0.02891327
8352.00   3.12254286   0.02771505
8354.00   3.10300350   0.02692405
8356.00   3.10877371   0.02695664
8358.00   3.14938831   0.02683436
8360.00   3.15334940   0.02648919
8362.00   3.12307644   0.02611669
8364.00   3.09928846   0.02598252
8366.00   3.11074162   0.02613201
8368.00   3.12066936   0.02611720
8370.00   3.11041236   0.02575504
8372.00   3.10391688   0.02542376
8374.00   3.11075497   0.02548863
8376.00   3.12365389   0.02594566
8378.00   3.13110828   0.02639868
8380.00   3.13637877   0.02669031
8382.00   3.12636089   0.02662037
8384.00   3.09838867   0.02620567
8386.00   3.09795809   0.02606102
8388.00   3.11475229   0.02587080
8390.00   3.12872195   0.02571144
8392.00   3.13400364   0.02607011
8394.00   3.13411093   0.02718424
8396.00   3.11641431   0.02823114
8398.00   3.10858297   0.02856097
8400.00   3.12443185   0.02861660
8402.00   3.15536833   0.02837187
8404.00   3.18143606   0.02762189
8406.00   3.19246769   0.02635851
8408.00   3.20204592   0.02585721
8410.00   3.21480799   0.02610299
8412.00   3.22308969   0.02658707
8414.00   3.21540380   0.02674047
8416.00   3.21212530   0.02674093
8418.00   3.23496342   0.02671683
8420.00   3.25229025   0.02646389
8422.00   3.26331615   0.02634881
8424.00   3.30029583   0.02706476
8426.00   3.34173822   0.02861197
8428.00   3.34242535   0.02930679
8430.00   3.33143806   0.02946128
8432.00   3.33991861   0.02932034
8434.00   3.38823795   0.02890012
8436.00   3.41178751   0.02767487
8438.00   3.43201399   0.02672066
8440.00   3.44810057   0.02634231
8442.00   3.46205020   0.02642081
8444.00   3.48143959   0.02657459
8446.00   3.51743269   0.02694480
8448.00   3.52440357   0.02736722
8450.00   3.55254078   0.02772786
8452.00   3.60172033   0.02792159
8454.00   3.61659861   0.02791661
8456.00   3.60315180   0.02772548
8458.00   3.61108398   0.02770631
8460.00   3.64050651   0.02825932
8462.00   3.67277265   0.02914466
8464.00   3.68791294   0.02946842
8466.00   3.67751932   0.02946119
8468.00   3.69321489   0.02934939
8470.00   3.70748234   0.02881485
8472.00   3.71426249   0.02792990
8474.00   3.73182440   0.02749511
8476.00   3.75337887   0.02744621
8478.00   3.75352049   0.02744345
8480.00   3.75142026   0.02743332
8482.00   3.76273680   0.02744091
8484.00   3.78544998   0.02748601
8486.00   3.78674698   0.02756015
8488.00   3.78169012   0.02775224
8490.00   3.78902674   0.02800583
8492.00   3.81762695   0.02822265
8494.00   3.82821536   0.02827442
8496.00   3.83553314   0.02828040
8498.00   3.83953762   0.02838006
8500.00   3.84160256   0.02859570
8502.00   3.84761715   0.02885246
8504.00   3.85884237   0.02894689
8506.00   3.85814476   0.02892089
8508.00   3.87338471   0.02876946
8510.00   3.88865376   0.02842651
8512.00   3.87663746   0.02791027
8514.00   3.85885501   0.02764031
8516.00   3.86834955   0.02766464
8518.00   3.87378073   0.02770735
8520.00   3.87032986   0.02768936
8522.00   3.87061644   0.02767542
8524.00   3.86718321   0.02765934
8526.00   3.85586643   0.02759882
8528.00   3.85493326   0.02756757
8530.00   3.86532021   0.02759449
8532.00   3.87472153   0.02766164
8534.00   3.87184334   0.02774395
8536.00   3.86382222   0.02778328
8538.00   3.86735940   0.02781097
8540.00   3.87952566   0.02785173
8542.00   3.88018751   0.02790957
8544.00   3.86230636   0.02797144
8546.00   3.87589979   0.02808724
8548.00   3.88633156   0.02813172
8550.00   3.87454367   0.02805578
8552.00   3.85496044   0.02791213
8554.00   3.86460090   0.02774632
8556.00   3.87116051   0.02757321
8558.00   3.87919450   0.02750044
8560.00   3.89566278   0.02754427
8562.00   3.89619827   0.02752234
8564.00   3.90255404   0.02754973
8566.00   3.89084816   0.02751636
8568.00   3.87426472   0.02746144
8570.00   3.86783123   0.02743741
8572.00   3.85919070   0.02741519
8574.00   3.85403013   0.02741236
8576.00   3.86098099   0.02743621
8578.00   3.86528111   0.02743081
8580.00   3.85327721   0.02737123
8582.00   3.82376575   0.02729013
8584.00   3.82053494   0.02732825
8586.00   3.83419371   0.02739407
8588.00   3.84024191   0.02741138
8590.00   3.82763910   0.02737970
8592.00   3.82998037   0.02743737
8594.00   3.82545376   0.02741644
8596.00   3.83139467   0.02742642
8598.00   3.83689785   0.02743692
8600.00   3.82312298   0.02736883
8602.00   3.80281305   0.02721662
8604.00   3.78942466   0.02711937
8606.00   3.78902721   0.02710932
8608.00   3.78988194   0.02715469
8610.00   3.78457117   0.02723362
8612.00   3.78739500   0.02739847
8614.00   3.78407574   0.02757149
8616.00   3.77820420   0.02778406
8618.00   3.76845980   0.02802305
8620.00   3.75421739   0.02825580
8622.00   3.74426270   0.02849171
8624.00   3.72247815   0.02867932
8626.00   3.71964312   0.02886776
8628.00   3.74007297   0.02904798
8630.00   3.75814295   0.02913219
8632.00   3.74623013   0.02902753
8634.00   3.72938967   0.02881263
8636.00   3.70945883   0.02850908
8638.00   3.69435883   0.02815197
8640.00   3.70190001   0.02783370
8642.00   3.70764804   0.02762588
8644.00   3.71326256   0.02762894
8646.00   3.70207620   0.02774706
8648.00   3.68330383   0.02794471
8650.00   3.67665720   0.02822370
8652.00   3.67743492   0.02851484
8654.00   3.66360736   0.02866438
8656.00   3.66231155   0.02874854
8658.00   3.67909813   0.02879746
8660.00   3.68745852   0.02875892
8662.00   3.64982677   0.02856392
8664.00   3.65283394   0.02846631
8666.00   3.65855598   0.02834900
8668.00   3.64512110   0.02814799
8670.00   3.63606930   0.02795943
8672.00   3.62639666   0.02774764
8674.00   3.63280535   0.02757903
8676.00   3.62890768   0.02738456
8678.00   3.61445141   0.02717677
8680.00   3.60916471   0.02702324
8682.00   3.61662436   0.02692875
8684.00   3.60083437   0.02676328
8686.00   3.59183931   0.02661843
8688.00   3.60273004   0.02654781
8690.00   3.60665751   0.02650490
8692.00   3.60294032   0.02643219
8694.00   3.60100555   0.02639056
8696.00   3.58647919   0.02632469
8698.00   3.56808686   0.02625779
8700.00   3.58142519   0.02629828
8702.00   3.57037258   0.02629697
8704.00   3.57235909   0.02629247
8706.00   3.58575106   0.02629179
8708.00   3.58703709   0.02625303
8710.00   3.55273390   0.02611333
8712.00   3.54316378   0.02603968
8714.00   3.55763626   0.02603307
8716.00   3.57203722   0.02603997
8718.00   3.56750870   0.02601139
8720.00   3.56487322   0.02600785
8722.00   3.55540109   0.02598227
8724.00   3.55773783   0.02598929
8726.00   3.56709027   0.02601652
8728.00   3.56633544   0.02601431
8730.00   3.57245541   0.02602288
8732.00   3.57304907   0.02601540
8734.00   3.55757427   0.02596992
8736.00   3.54364204   0.02594999
8738.00   3.55607033   0.02602267
8740.00   3.54809713   0.02598294
8742.00   3.54179311   0.02594193
8744.00   3.55561018   0.02598605
8746.00   3.57165337   0.02604362
8748.00   3.54891253   0.02595540
8750.00   3.52044773   0.02584948
8752.00   3.51680779   0.02596520
8754.00   3.52528143   0.02643083
8756.00   3.52241421   0.02709192
8758.00   3.50574446   0.02769229
8760.00   3.49766612   0.02812557
8762.00   3.50248885   0.02879372
8764.00   3.50065184   0.02923235
8766.00   3.48632193   0.02913002
8768.00   3.47268581   0.02854563
8770.00   3.47223139   0.02842421
8772.00   3.46213293   0.02849808
8774.00   3.45203567   0.02859234
8776.00   3.45284605   0.02862704
8778.00   3.45936179   0.02858642
8780.00   3.43370581   0.02828040
8782.00   3.40796065   0.02750024
8784.00   3.40063477   0.02658819
8786.00   3.41436219   0.02605899
8788.00   3.42249823   0.02629481
8790.00   3.44201946   0.02642567
8792.00   3.41126823   0.02630879
8794.00   3.38302755   0.02609333
8796.00   3.37842178   0.02580566
8798.00   3.35676575   0.02525064
8800.00   3.37969780   0.02539246
8802.00   3.40933466   0.02546130
8804.00   3.40702152   0.02542568
8806.00   3.38463449   0.02548720
8808.00   3.41782451   0.02576227
8810.00   3.41435504   0.02574575
8812.00   3.39751530   0.02566074
8814.00   3.37439489   0.02544937
8816.00   3.34254122   0.02512881
8818.00   3.31162143   0.02508303
8820.00   3.30082989   0.02647032
8822.00   3.30220127   0.02862515
8824.00   3.29454565   0.03021494
8826.00   3.28187442   0.03059235
8828.00   3.27655697   0.03056240
8830.00   3.30138731   0.03072803
8832.00   3.32977390   0.02998168
8834.00   3.33479571   0.02861941
8836.00   3.30536366   0.02755773
8838.00   3.30847788   0.02735000
8840.00   3.31810093   0.02696770
8842.00   3.31889725   0.02632239
8844.00   3.31129456   0.02572407
8846.00   3.30672646   0.02559442
8848.00   3.30553484   0.02585293
8850.00   3.32077360   0.02602494
8852.00   3.32236648   0.02599948
8854.00   3.29696751   0.02571106
8856.00   3.26026869   0.02526573
8858.00   3.27393246   0.02527077
8860.00   3.31274247   0.02574125
8862.00   3.33533597   0.02642827
8864.00   3.33195424   0.02706763
8866.00   3.31796455   0.02741851
8868.00   3.26715708   0.02704887
8870.00   3.22166061   0.02651728
8872.00   3.18652105   0.02586142
8874.00   3.16031337   0.02518747
8876.00   3.13540077   0.02474465
8878.00   3.12467575   0.02509955
8880.00   3.07688093   0.02626242
8882.00   3.02580285   0.02748414
8884.00   2.99885631   0.02823359
8886.00   2.99530792   0.02836188
8888.00   2.97501612   0.02808708
8890.00   2.94702363   0.02686335
8892.00   2.93111110   0.02516011
8894.00   2.93541861   0.02390704
8896.00   2.94945049   0.02411531
8898.00   2.94776440   0.02487673
8900.00   2.92795563   0.02536075
8902.00   2.90254593   0.02549843
8904.00   2.88314772   0.02536762
8906.00   2.86325383   0.02494517
8908.00   2.85132265   0.02434257
8910.00   2.86462545   0.02385408
8912.00   2.87718439   0.02418552
8914.00   2.86478710   0.02547940
8916.00   2.83150148   0.02696521
8918.00   2.80280304   0.02759780
8920.00   2.79869318   0.02778313
8922.00   2.79419470   0.02741572
8924.00   2.77929258   0.02635227
8926.00   2.77469540   0.02446431
8928.00   2.76972651   0.02341092
8930.00   2.76337290   0.02319714
8932.00   2.76068449   0.02330836
8934.00   2.76159120   0.02326960
8936.00   2.74512386   0.02321970
8938.00   2.72480392   0.02362718
8940.00   2.73638296   0.02427565
8942.00   2.76027679   0.02477347
8944.00   2.75970578   0.02482419
8946.00   2.73885822   0.02460372
8948.00   2.73091340   0.02412476
8950.00   2.72395277   0.02395939
8952.00   2.72011042   0.02464663
8954.00   2.72428799   0.02614110
8956.00   2.71954298   0.02714311
8958.00   2.72069430   0.02731231
8960.00   2.73665309   0.02715658
8962.00   2.74884605   0.02662759
8964.00   2.74025774   0.02551997
8966.00   2.73568058   0.02451702
8968.00   2.73767972   0.02422002
8970.00   2.72587156   0.02393811
8972.00   2.70856428   0.02369473
8974.00   2.71237230   0.02396210
8976.00   2.76519704   0.02434395
8978.00   2.77402139   0.02415477
8980.00   2.77561045   0.02404001
8982.00   2.79347849   0.02439285
8984.00   2.81804562   0.02512064
8986.00   2.84965706   0.02599149
8988.00   2.81548882   0.02677652
8990.00   2.74457407   0.02696506
8992.00   2.69770384   0.02644589
8994.00   2.72328711   0.02559783
8996.00   2.76454687   0.02559379
8998.00   2.83517408   0.02608569
9000.00   2.88562632   0.02675324
9002.00   2.87131882   0.02721853
9004.00   2.78549194   0.02711263
9006.00   2.78238249   0.02615768
9008.00   2.82271123   0.02526871
9010.00   2.87020445   0.02479988
9012.00   2.91267061   0.02488435
9014.00   2.96086073   0.02546692
9016.00   3.04504299   0.02615741
9018.00   3.07029915   0.02641644
9020.00   3.05812597   0.02633968
9022.00   3.03862810   0.02609512
9024.00   2.99855089   0.02566334
9026.00   2.93152142   0.02528509
9028.00   2.88588619   0.02481271
9030.00   2.86252737   0.02431585
9032.00   2.84742355   0.02396134
9034.00   2.85063267   0.02399474
9036.00   2.87907839   0.02409090
9038.00   2.89323592   0.02420344
9040.00   2.88728046   0.02423024
9042.00   2.87358713   0.02420474
9044.00   2.86714268   0.02447467
9046.00   2.85460615   0.02461284
9048.00   2.83443928   0.02448233
9050.00   2.82092953   0.02438966
9052.00   2.82427454   0.02452685
9054.00   2.81069183   0.02419501
9056.00   2.78066373   0.02360168
9058.00   2.78769445   0.02343743
9060.00   2.81365752   0.02364451
9062.00   2.80566216   0.02378142
9064.00   2.74997282   0.02371047
9066.00   2.74415994   0.02385892
9068.00   2.75317717   0.02364907
9070.00   2.76580787   0.02445562
#9072.00   2.79873800   0.02752432
#9074.00   2.94463968   0.03278902
#9076.00   2.96672082   0.02994463
#9078.00   2.84323907   0.02568595
9080.00   2.70436573   0.02349511
9082.00   2.68321824   0.02390280
9084.00   2.68432426   0.02401650
9086.00   2.70932746   0.02417615
9088.00   2.69848180   0.02420431
9090.00   2.65874672   0.02404867
9092.00   2.65002966   0.02382483
9094.00   2.68194842   0.02385422
9096.00   2.65219831   0.02377994
9098.00   2.63479757   0.02397631
9100.00   2.65129256   0.02433349
9102.00   2.65911508   0.02433750
9104.00   2.65946579   0.02425674
9106.00   2.67953205   0.02438627
9108.00   2.66916609   0.02412070
9110.00   2.63276100   0.02341900
9112.00   2.65124035   0.02306387
9114.00   2.71073723   0.02315541
9116.00   2.71633506   0.02333841
9118.00   2.69063663   0.02354792
9120.00   2.66802740   0.02366657
9122.00   2.67622161   0.02354350
9124.00   2.74012661   0.02355253
9126.00   2.76057482   0.02372001
9128.00   2.74791908   0.02388313
9130.00   2.72101498   0.02399834
9132.00   2.65987873   0.02427392
9134.00   2.63253450   0.02437855
9136.00   2.63537693   0.02429167
9138.00   2.64198589   0.02412838
9140.00   2.64205837   0.02390698
9142.00   2.68336916   0.02343884
9144.00   2.70883989   0.02315530
9146.00   2.71913815   0.02322029
9148.00   2.71793079   0.02350237
9150.00   2.71289468   0.02388764
9152.00   2.70644832   0.02453369
9154.00   2.67993402   0.02504865
9156.00   2.64831781   0.02514723
9158.00   2.64681101   0.02489591
9160.00   2.68801188   0.02446980
9162.00   2.70950580   0.02384356
9164.00   2.70845366   0.02345323
9166.00   2.70855618   0.02331095
9168.00   2.72786713   0.02342876
9170.00   2.76807976   0.02380505
9172.00   2.77633095   0.02437382
9174.00   2.78623939   0.02486037
9176.00   2.74733400   0.02489980
9178.00   2.69694781   0.02449853
9180.00   2.70027256   0.02394946
9182.00   2.76376534   0.02385573
9184.00   2.78774738   0.02398838
9186.00   2.76704979   0.02386484
9188.00   2.74381566   0.02350826
9190.00   2.77107811   0.02332432
9192.00   2.82036257   0.02366454
9194.00   2.83981133   0.02403351
9196.00   2.81891012   0.02407538
9198.00   2.78740597   0.02382470
9200.00   2.79902387   0.02362505
9202.00   2.82106972   0.02333326
9204.00   2.84124517   0.02350635
9206.00   2.84651518   0.02365263
9208.00   2.83262300   0.02363373
9210.00   2.81918645   0.02379614
9212.00   2.84446573   0.02402751
9214.00   2.85252666   0.02423248
9216.00   2.86366582   0.02452945
9218.00   2.88062549   0.02477402
9220.00   2.90257454   0.02469724
9222.00   2.88331175   0.02445756
9224.00   2.87975669   0.02436113
9226.00   2.91757202   0.02469495
9228.00   2.99880123   0.02545367
9230.00   3.09717727   0.02627640
9232.00   3.12332392   0.02615620
9234.00   3.09083724   0.02591091
9236.00   3.03546429   0.02559643
9238.00   2.98623276   0.02520596
9240.00   2.95311546   0.02493747
9242.00   2.92502236   0.02476693
9244.00   2.89362144   0.02453742
9246.00   2.86041784   0.02433143
9248.00   2.83991432   0.02424059
9250.00   2.83602977   0.02411983
9252.00   2.84497929   0.02408285
9254.00   2.86169624   0.02418602
9256.00   2.87940454   0.02427814
9258.00   2.87825060   0.02418426
9260.00   2.83950377   0.02393812
9262.00   2.82176781   0.02389857
9264.00   2.83788896   0.02398631
9266.00   2.86719513   0.02402288
9268.00   2.87655640   0.02387652
9270.00   2.85195923   0.02365568
9272.00   2.83959818   0.02378835
9274.00   2.84525180   0.02412557
9276.00   2.85707307   0.02450019
9278.00   2.85526299   0.02480261
9280.00   2.83896875   0.02516385
9282.00   2.79380131   0.02536185
9284.00   2.78853393   0.02523580
9286.00   2.81214738   0.02514910
9288.00   2.82385397   0.02557019
9290.00   2.83928776   0.02571857
9292.00   2.83656335   0.02557237
9294.00   2.80421829   0.02552878
9296.00   2.78971314   0.02596710
9298.00   2.84040427   0.02700501
9300.00   2.87921715   0.02821242
9302.00   2.88155603   0.02973524
9304.00   2.87186575   0.03121860
9306.00   2.87775660   0.03285769
9308.00   2.93537116   0.03504863
9310.00   2.92313910   0.03692717
9312.00   2.89476633   0.03747631
9314.00   2.93460417   0.03749528
9316.00   2.97699356   0.03772445
9318.00   2.87462616   0.03840864
9320.00   2.76471472   0.03789944
9322.00   2.77954388   0.03704993
9324.00   2.80698538   0.03671987
9326.00   2.79177761   0.03653451
9328.00   2.75917387   0.03489849
9330.00   2.83697271   0.03244349
9332.00   2.92186165   0.03172382
9334.00   2.96352434   0.03315766
9336.00   2.94531202   0.03525354
9338.00   2.87779522   0.03569356
9340.00   2.86329031   0.03596893
9342.00   2.86188602   0.03673477
9344.00   2.80819130   0.03661078
9346.00   2.70345163   0.03461153
9348.00   2.65552807   0.03105253
9350.00   2.75981188   0.02921785
9352.00   2.90316105   0.02957993
9354.00   2.94092202   0.03134645
9356.00   2.83404207   0.03302313
9358.00   2.72156143   0.03306232
9360.00   2.71897411   0.03149895
9362.00   2.76166606   0.02999208
9364.00   2.83802986   0.02954922
9366.00   2.91117716   0.03093548
9368.00   2.87373972   0.03470091
9370.00   2.80290842   0.04126554
9372.00   2.72051525   0.04594424
9374.00   2.67606068   0.04687417
9376.00   2.69458294   0.04468100
9378.00   2.75024390   0.04462165
9380.00   2.72618747   0.04276475
9382.00   2.64301443   0.03755366
9384.00   2.61328506   0.03158157
9386.00   2.69761133   0.02915666
9388.00   2.73052263   0.02792525
9390.00   2.70391870   0.02681382
9392.00   2.71106148   0.02592224
9394.00   2.75257492   0.02562765
9396.00   2.78596044   0.02628028
9398.00   2.82299399   0.02765946
9400.00   2.83564782   0.02870245
9402.00   2.78323507   0.02877194
9404.00   2.73140812   0.02827038
9406.00   2.77631497   0.02809189
9408.00   2.82179213   0.02795998
9410.00   2.82698131   0.02798084
9412.00   2.73849249   0.02796206
9414.00   2.66497684   0.02833930
9416.00   2.75032115   0.02954327
9418.00   2.82937098   0.03035534
9420.00   2.84316540   0.03062003
9422.00   2.84284568   0.03078669
9424.00   2.85902619   0.03101585
9426.00   2.87574768   0.03118580
9428.00   2.83095741   0.03171951
9430.00   2.67823124   0.03096212
9432.00   2.61134720   0.03037910
9434.00   2.69552135   0.03125123
9436.00   2.83005476   0.03383434
9438.00   2.86954927   0.03772141
9440.00   2.79969311   0.04223144
9442.00   2.67475986   0.04349974
9444.00   2.56771302   0.03986659
9446.00   2.54706383   0.03223114
9448.00   2.56821656   0.02787156
9450.00   2.64896321   0.02716477
9452.00   2.74008560   0.02894649
9454.00   2.78501034   0.03165077
9456.00   2.74924231   0.03459460
9458.00   2.68584824   0.03613139
9460.00   2.63529325   0.03579904
9462.00   2.60490465   0.03395258
9464.00   2.59037590   0.03129636
9466.00   2.57327652   0.02852431
9468.00   2.59888411   0.02817527
9470.00   2.59355927   0.02954673
9472.00   2.60722446   0.03208208
9474.00   2.65744042   0.03460293
9476.00   2.66976643   0.03525521
9478.00   2.63495827   0.03639564
9480.00   2.64956164   0.03655861
9482.00   2.63865662   0.03470570
9484.00   2.54700756   0.03081272
9486.00   2.49673367   0.02718626
9488.00   2.58008385   0.02619326
9490.00   2.64626098   0.02635966
9492.00   2.68493128   0.02721987
9494.00   2.71691847   0.02893190
9496.00   2.69591475   0.03180796
9498.00   2.60217500   0.03492651
9500.00   2.51457477   0.03578248
9502.00   2.45384073   0.03430483
9504.00   2.42190123   0.03158604
9506.00   2.44280362   0.02864259
9508.00   2.52189589   0.02665124
9510.00   2.58109951   0.02568696
9512.00   2.62682962   0.02615457
9514.00   2.68466043   0.02812979
9516.00   2.67780781   0.03031892
9518.00   2.60254383   0.03197744
9520.00   2.50525260   0.03264225
9522.00   2.43243790   0.03219251
9524.00   2.41452265   0.03085698
9526.00   2.43875074   0.02920847
9528.00   2.46165657   0.02819711
9530.00   2.47543263   0.02767412
9532.00   2.49451089   0.02740160
9534.00   2.55639696   0.02731618
9536.00   2.61113071   0.02747074
9538.00   2.61330128   0.02776610
9540.00   2.60571146   0.02818310
9542.00   2.62682366   0.02884796
9544.00   2.67824030   0.02994223
9546.00   2.72722650   0.03161146
9548.00   2.75768304   0.03252685
9550.00   2.76022959   0.03256709
9552.00   2.72190666   0.03221558
9554.00   2.64361691   0.03230911
9556.00   2.53794527   0.03181073
9558.00   2.49106169   0.03066477
9560.00   2.48587465   0.02991070
9562.00   2.48240280   0.03037045
9564.00   2.43870950   0.03188841
9566.00   2.39614248   0.03319704
9568.00   2.35155320   0.03296094
9570.00   2.34005356   0.03133443
9572.00   2.37202597   0.02896849
9574.00   2.42407799   0.02674598
9576.00   2.41978884   0.02544762
9578.00   2.44540572   0.02577804
9580.00   2.46324492   0.02669156
9582.00   2.42517853   0.02700936
9584.00   2.34836626   0.02640529
9586.00   2.36971331   0.02632114
9588.00   2.40605187   0.02714893
9590.00   2.40589809   0.02819508
9592.00   2.35276914   0.02851541
9594.00   2.24697638   0.02730338
9596.00   2.26017618   0.02647668
9598.00   2.30560780   0.02595172
9600.00   2.33859992   0.02588278
9602.00   2.34056425   0.02623784
9604.00   2.30339551   0.02634399
9606.00   2.33775282   0.02710562
9608.00   2.34784412   0.02737194
9610.00   2.32773137   0.02688655
9612.00   2.31147051   0.02605851
9614.00   2.31166887   0.02585240
9616.00   2.36725068   0.02671567
9618.00   2.36871028   0.02742640
9620.00   2.32716751   0.02787252
9622.00   2.31297016   0.02836876
9624.00   2.31009436   0.02833479
9626.00   2.30577302   0.02756132
9628.00   2.29820871   0.02636101
9630.00   2.29194927   0.02524566
9632.00   2.28409958   0.02469246
9634.00   2.28395557   0.02479718
9636.00   2.30392289   0.02547238
9638.00   2.31016517   0.02616194
9640.00   2.29056978   0.02631805
9642.00   2.26893902   0.02575766
9644.00   2.29164362   0.02573808
9646.00   2.27873611   0.02578980
9648.00   2.23943758   0.02560937
9650.00   2.22008252   0.02525257
9652.00   2.26850629   0.02506437
9654.00   2.29255581   0.02506888
9656.00   2.29164791   0.02533248
9658.00   2.29505944   0.02568460
9660.00   2.29596210   0.02598845
9662.00   2.25574207   0.02624941
9664.00   2.19565725   0.02649239
9666.00   2.18141055   0.02664006
9668.00   2.22242999   0.02677222
9670.00   2.27825689   0.02679029
9672.00   2.26785088   0.02635272
9674.00   2.22507572   0.02557400
9676.00   2.20242500   0.02539878
9678.00   2.21903563   0.02588668
9680.00   2.25182414   0.02661572
9682.00   2.24581647   0.02701451
9684.00   2.24000931   0.02685560
9686.00   2.23112535   0.02611995
9688.00   2.22636127   0.02531824
9690.00   2.21360874   0.02490732
9692.00   2.18950748   0.02498968
9694.00   2.24354386   0.02619556
9696.00   2.26063180   0.02732462
9698.00   2.23156357   0.02765221
9700.00   2.19897413   0.02717408
9702.00   2.19213080   0.02689116
9704.00   2.18539333   0.02626827
9706.00   2.19761896   0.02556715
9708.00   2.20734692   0.02514712
9710.00   2.20720816   0.02539446
9712.00   2.23097467   0.02644217
9714.00   2.23265719   0.02748401
9716.00   2.20143032   0.02808316
9718.00   2.17397213   0.02834652
9720.00   2.18748569   0.02846672
9722.00   2.16702414   0.02791569
9724.00   2.15217447   0.02711751
9726.00   2.16251993   0.02622572
9728.00   2.16812658   0.02541467
9730.00   2.14227796   0.02497429
9732.00   2.13854885   0.02544238
9734.00   2.15423870   0.02630126
9736.00   2.17899656   0.02713712
9738.00   2.18586445   0.02752152
9740.00   2.16094971   0.02724488
9742.00   2.14233065   0.02679172
9744.00   2.14379096   0.02640866
9746.00   2.14077950   0.02599132
9748.00   2.12820816   0.02559165
9750.00   2.12055779   0.02538587
9752.00   2.12948489   0.02520769
9754.00   2.15616226   0.02528060
9756.00   2.16002560   0.02540845
9758.00   2.12944674   0.02536546
9760.00   2.08530855   0.02503511
9762.00   2.08363342   0.02503091
9764.00   2.10278511   0.02508567
9766.00   2.12686348   0.02505137
9768.00   2.14354420   0.02490393
9770.00   2.14259720   0.02470404
9772.00   2.14736557   0.02449269
9774.00   2.11949253   0.02442834
9776.00   2.10635471   0.02459677
9778.00   2.12492609   0.02491922
9780.00   2.13429737   0.02521241
9782.00   2.12150812   0.02596498
9784.00   2.09852886   0.02741500
9786.00   2.09192777   0.02928592
9788.00   2.10002542   0.03094633
9790.00   2.08788800   0.03165039
9792.00   2.12033224   0.03248305
9794.00   2.14886808   0.03267552
9796.00   2.13357306   0.03146704
9798.00   2.08790731   0.02923577
9800.00   2.12464976   0.02859025
9802.00   2.10689497   0.02800893
9804.00   2.07844591   0.02723493
9806.00   2.08522129   0.02668357
9808.00   2.12317014   0.02663422
9810.00   2.11593485   0.02673184
9812.00   2.12645292   0.02662929
9814.00   2.14359283   0.02673530
9816.00   2.13212729   0.02663348
9818.00   2.08552289   0.02604646
9820.00   2.07429504   0.02577966
9822.00   2.10227728   0.02588664
9824.00   2.12486601   0.02611761
9826.00   2.12465239   0.02624609
9828.00   2.11149168   0.02617683
9830.00   2.11112356   0.02608496
9832.00   2.10787392   0.02585092
9834.00   2.11054230   0.02566951
9836.00   2.12149334   0.02565768
9838.00   2.13253951   0.02582463
9840.00   2.14893174   0.02620280
9842.00   2.14332724   0.02690273
9844.00   2.12271833   0.02766493
9846.00   2.10502553   0.02824583
9848.00   2.09932971   0.02846161
9850.00   2.10408139   0.02835576
9852.00   2.09606028   0.02791137
9854.00   2.08765841   0.02707194
9856.00   2.07989168   0.02615825
9858.00   2.07045388   0.02572152
9860.00   2.06695819   0.02569818
9862.00   2.08608699   0.02619304
9864.00   2.09698200   0.02747428
9866.00   2.08798885   0.02953964
9868.00   2.06658101   0.03198898
9870.00   2.03651881   0.03370837
9872.00   1.99345374   0.03408366
9874.00   1.98536420   0.03361297
9876.00   2.02000499   0.03240084
9878.00   2.07501602   0.03026259
9880.00   2.09811211   0.02799397
9882.00   2.08396721   0.02700903
9884.00   2.06192255   0.02688014
9886.00   2.06546164   0.02719931
9888.00   2.09577847   0.02801554
9890.00   2.06230521   0.02887375
9892.00   2.03652644   0.02965378
9894.00   2.04469752   0.03012735
9896.00   2.07259321   0.03013660
9898.00   2.04858208   0.02954642
9900.00   2.01292872   0.02842378
9902.00   2.01935387   0.02753612
9904.00   2.03521013   0.02731287
9906.00   2.03947020   0.02808556
9908.00   2.03656387   0.02999854
9910.00   2.03284264   0.03264302
9912.00   2.03263712   0.03458292
9914.00   2.02949810   0.03538596
9916.00   2.02222109   0.03507485
9918.00   1.98704600   0.03380868
9920.00   2.00590682   0.03154342
9922.00   2.00166702   0.02918977
9924.00   1.98730898   0.02769427
9926.00   1.98185897   0.02738368
9928.00   1.97581077   0.02733857
9930.00   1.96771312   0.02736929
9932.00   1.98311710   0.02776074
9934.00   1.99621880   0.02869633
9936.00   1.99364722   0.03034952
9938.00   1.99817085   0.03272220
9940.00   1.98943090   0.03534201
9942.00   1.97548997   0.03772642
9944.00   1.97114539   0.03927947
9946.00   1.97596383   0.03957920
9948.00   1.94939685   0.03857440
9950.00   1.93651247   0.03774831
9952.00   1.93169522   0.03726767
9954.00   1.94069910   0.03736426
9956.00   1.96424401   0.03807770
9958.00   1.97396493   0.03907006
9960.00   1.96332979   0.03879673
9962.00   1.95530224   0.03743287
9964.00   1.95527351   0.03556823
9966.00   1.95771074   0.03397950
9968.00   1.96237469   0.03269856
9970.00   1.96356010   0.03199370
9972.00   1.95243430   0.03172639
9974.00   1.94165027   0.03162824
9976.00   1.95411563   0.03140426
9978.00   1.94251525   0.03073892
9980.00   1.90238833   0.02987217
9982.00   1.90096831   0.02943325
9984.00   1.93319345   0.02941391
9986.00   1.92418158   0.02919298
9988.00   1.88711190   0.02896944
9990.00   1.87140965   0.02894888
9992.00   1.86617947   0.02915193
9994.00   1.86950135   0.02961567
9996.00   1.89274979   0.03037802
9998.00   1.88626540   0.03086691
10000.00   1.88950408   0.03119306
10002.00   1.89629793   0.03163285
10004.00   1.90527105   0.03290934
10006.00   1.91367447   0.03580329
10008.00   1.85215378   0.03988161
10010.00   1.84920430   0.04317400
10012.00   1.87709594   0.04488325
10014.00   1.89145541   0.04484338
10016.00   1.87466168   0.04332165
10018.00   1.85824192   0.04014783
10020.00   1.83188283   0.03743260
10022.00   1.83270931   0.03630620
10024.00   1.85797644   0.03648059
10026.00   1.84144568   0.03632094
10028.00   1.82499886   0.03560096
10030.00   1.82937789   0.03426484
10032.00   1.84920502   0.03280268
10034.00   1.86443651   0.03185766
10036.00   1.86175227   0.03188884
10038.00   1.84781873   0.03239373
10040.00   1.83818233   0.03291104
10042.00   1.82969069   0.03317968
10044.00   1.82749248   0.03321301
10046.00   1.83028901   0.03302770
10048.00   1.81205678   0.03246158
10050.00   1.81643164   0.03207602
10052.00   1.81998181   0.03215507
10054.00   1.79413676   0.03280677
10056.00   1.80676258   0.03424897
10058.00   1.82748032   0.03556028
10060.00   1.81922936   0.03625290
10062.00   1.80887604   0.03650306
10064.00   1.83704352   0.03664908
10066.00   1.82991862   0.03594732
10068.00   1.81003356   0.03581443
10070.00   1.80298233   0.03559412
10072.00   1.80357528   0.03534978
10074.00   1.79107189   0.03566442
10076.00   1.81127751   0.03817560
10078.00   1.83142495   0.04122965
10080.00   1.83446097   0.04345527
10082.00   1.82376599   0.04433821
10084.00   1.81650305   0.04398399
10086.00   1.79010606   0.04213333
10088.00   1.77683556   0.03904155
10090.00   1.77901375   0.03615839
10092.00   1.78273880   0.03465927
10094.00   1.77109480   0.03474350
10096.00   1.79039288   0.03564755
10098.00   1.81270337   0.03713411
10100.00   1.80120146   0.03843969
10102.00   1.76811051   0.03917470
10104.00   1.76074231   0.03933608
10106.00   1.76488042   0.03898488
10108.00   1.75780845   0.03795166
10110.00   1.76314640   0.03671791
10112.00   1.78140557   0.03598198
10114.00   1.76971412   0.03637104
10116.00   1.74910080   0.03836234
10118.00   1.75713599   0.04227244
10120.00   1.77525163   0.04633130
10122.00   1.77583694   0.04902116
10124.00   1.78459001   0.04980994
10126.00   1.78773224   0.04931304
10128.00   1.77401447   0.04685922
10130.00   1.75165260   0.04299731
10132.00   1.74433780   0.03932294
10134.00   1.78910708   0.03867066
10136.00   1.77533484   0.03833246
10138.00   1.76594067   0.03852813
10140.00   1.76575351   0.03902201
10142.00   1.76733661   0.03963302
10144.00   1.75295162   0.04024498
10146.00   1.75955832   0.04159655
10148.00   1.75733972   0.04307500
10150.00   1.74292922   0.04422501
10152.00   1.72697568   0.04485797
10154.00   1.74865162   0.04538679
10156.00   1.72201216   0.04501352
10158.00   1.71276450   0.04418741
10160.00   1.73561966   0.04356909
10162.00   1.76694679   0.04390575
10164.00   1.74579334   0.04562934
10166.00   1.70827866   0.04929049
10168.00   1.69915462   0.05293197
10170.00   1.73031569   0.05547556
10172.00   1.75495780   0.05632243
10174.00   1.71027040   0.05540165
10176.00   1.66967678   0.05246314
10178.00   1.68810487   0.04911339
10180.00   1.74476409   0.04710090
10182.00   1.78226054   0.04760122
10184.00   1.77863455   0.04993884
10186.00   1.75775433   0.05188854
10188.00   1.74044824   0.05295809
10190.00   1.74633145   0.05322541
10192.00   1.76309812   0.05279387
10194.00   1.72685313   0.05058702
10196.00   1.68734765   0.04846188
10198.00   1.68545783   0.04782786
10200.00   1.70313835   0.04891469
10202.00   1.70106053   0.05105259
10204.00   1.69138181   0.05459912
10206.00   1.73217523   0.05874395
10208.00   1.79017794   0.06174069
10210.00   1.82408690   0.06274818
10212.00   1.77128398   0.06154321
10214.00   1.72632587   0.05888811
10216.00   1.73508143   0.05539244
10218.00   1.73126554   0.05257951
10220.00   1.68963957   0.05186561
10222.00   1.68185306   0.05392372
10224.00   1.68551993   0.05624774
10226.00   1.66895628   0.05791558
10228.00   1.67630219   0.05856322
10230.00   1.71633482   0.05794106
10232.00   1.70237863   0.05555256
10234.00   1.65221953   0.05274514
10236.00   1.64636588   0.05060684
10238.00   1.67571008   0.04927891
10240.00   1.70944476   0.04862244
10242.00   1.69660497   0.04838525
10244.00   1.65065241   0.04797237
10246.00   1.63676488   0.04793038
10248.00   1.66755605   0.04847686
10250.00   1.71734476   0.04942646
10252.00   1.69253850   0.04967894
10254.00   1.66778326   0.04985932
10256.00   1.67573392   0.05034326
10258.00   1.66517556   0.05075100
10260.00   1.60807657   0.05088381
10262.00   1.61816812   0.05192674
10264.00   1.67134070   0.05377404
10266.00   1.69015098   0.05531172
10268.00   1.67593813   0.05621295
10270.00   1.65801239   0.05664159
10272.00   1.61802065   0.05694092
10274.00   1.66634059   0.05801117
10276.00   1.66519225   0.05998018
10278.00   1.67463636   0.06593169
10280.00   1.75810528   0.07710125
10282.00   1.71926522   0.09000622
10284.00   1.76050210   0.09860705
10286.00   1.75991845   0.10298000
10288.00   1.72807515   0.10353746
10290.00   1.67690277   0.10036030
10292.00   1.69138658   0.09206054
10294.00   1.69434547   0.08461660
10296.00   1.68400657   0.07989889
10298.00   1.68130326   0.07733904
10300.00   1.69220936   0.07437749
10302.00   1.63913167   0.06956990
10304.00   1.64273322   0.06729010
10306.00   1.65959144   0.06716597
10308.00   1.67503166   0.06782580
10310.00   1.69644976   0.06783744
10312.00   1.72299337   0.06778035
10314.00   1.68755138   0.06629813
10316.00   1.64490008   0.06451149
10318.00   1.62960458   0.06352798
10320.00   1.62917495   0.06384864
10322.00   1.66523862   0.06515160
10324.00   1.67145896   0.06583746
10326.00   1.65814197   0.06612188
10328.00   1.64765358   0.06647991
10330.00   1.68341398   0.06754905
10332.00   1.70400941   0.06827374
10334.00   1.70724618   0.06892689
10336.00   1.69762826   0.06992750
10338.00   1.66649818   0.07161140
10340.00   1.61368728   0.07437314
10342.00   1.63784766   0.07888760
10344.00   1.71502018   0.08341811
10346.00   1.72599804   0.08585249
10348.00   1.65707600   0.08597115
10350.00   1.64233410   0.08566307
10352.00   1.69044530   0.08415250
10354.00   1.68267751   0.08134146
10356.00   1.65326083   0.07907213
10358.00   1.64877677   0.07855719
10360.00   1.61081946   0.07797076
10362.00   1.56879008   0.07881485
10364.00   1.55860186   0.08402130
10366.00   1.61478257   0.09498543
10368.00   1.69608223   0.10870267
10370.00   1.70244265   0.11895622
10372.00   1.69574130   0.12316768
10374.00   1.61058915   0.12246107
10376.00   1.55790687   0.11687202
10378.00   1.62521958   0.10705409
10380.00   1.65106225   0.09549177
10382.00   1.69133162   0.09018101
10384.00   1.66064525   0.08751082
10386.00   1.61346292   0.08736643
10388.00   1.61051130   0.09027703
10390.00   1.53754508   0.09404536
10392.00   1.62221491   0.10074601
10394.00   1.69256639   0.10580434
10396.00   1.68941832   0.10812946
10398.00   1.64691126   0.10835321
10400.00   1.63713074   0.10585821
10402.00   1.68732727   0.10269486
10404.00   1.70838428   0.09992366
10406.00   1.67597938   0.09854141
10408.00   1.65766144   0.10041635
10410.00   1.56769824   0.10678656
10412.00   1.58706999   0.12195512
10414.00   1.62331533   0.13720009
10416.00   1.60652280   0.14707178
10418.00   1.58413148   0.15009663
10420.00   1.63830829   0.14892247
10422.00   1.70186067   0.14136843
10424.00   1.64707768   0.12784606
10426.00   1.53831291   0.11363216
10428.00   1.60883164   0.10870351
10430.00   1.59181118   0.10621784
10432.00   1.67720461   0.10638490
10434.00   1.68749917   0.10598972
10436.00   1.60347092   0.10453948
10438.00   1.60437751   0.10453330
10440.00   1.52634943   0.10408498
10442.00   1.53353381   0.10740069
10444.00   1.60301208   0.11321858
10446.00   1.64505458   0.11867692
10448.00   1.59655452   0.12134273
10450.00   1.63120139   0.12387264
10452.00   1.59914637   0.12369022
10454.00   1.55835152   0.12107369
10456.00   1.56047845   0.11762173
10458.00   1.58497083   0.11603792
10460.00   1.56395602   0.11832653
10462.00   1.60618007   0.12829673
10464.00   1.62104774   0.14037234
10466.00   1.55908346   0.14894551
10468.00   1.58119202   0.15202564
10470.00   1.55464005   0.15040202
10472.00   1.45932388   0.14361326
10474.00   1.41425896   0.13377789
10476.00   1.47235823   0.12411353
10478.00   1.51409280   0.11905526
10480.00   1.51201963   0.11806540
10482.00   1.50958538   0.11790650
10484.00   1.48509765   0.11733021
10486.00   1.46218264   0.11726089
10488.00   1.48587525   0.11848233
10490.00   1.46429336   0.11868185
10492.00   1.43318081   0.11843641
10494.00   1.47199917   0.11941543
10496.00   1.58990097   0.12205282
10498.00   1.51584983   0.12199579
10500.00   1.43592787   0.12285706
10502.00   1.38717854   0.12539460
10504.00   1.36321187   0.12848291
10506.00   1.32860231   0.13067558
10508.00   1.37768912   0.13468394
10510.00   1.36344600   0.13636693
10512.00   1.37703872   0.13609663
10514.00   1.45403242   0.13548017
10516.00   1.56565106   0.13706875
10518.00   1.47398520   0.14003216
10520.00   1.42815661   0.14546184
10522.00   1.40467167   0.15015596
10524.00   1.39214551   0.15236902
10526.00   1.32051027   0.15052909
10528.00   1.35931039   0.14750294
10530.00   1.44559526   0.14413957
10532.00   1.38539755   0.13873860
10534.00   1.24241400   0.13327247
10536.00   1.27053666   0.13268614
10538.00   1.36883259   0.13624263
10540.00   1.40913248   0.13820547
10542.00   1.39878047   0.13898051
10544.00   1.35044920   0.13898271
10546.00   1.31749463   0.13923857
10548.00   1.28177178   0.13976535
10550.00   1.30973864   0.14143254
10552.00   1.29909730   0.14190724
10554.00   1.23161161   0.14125362
10556.00   1.14160991   0.13994816
10558.00   1.19462204   0.14155798
10560.00   1.24982166   0.14506212
10562.00   1.31004930   0.14864174
10564.00   1.35395241   0.15117112
10566.00   1.29027975   0.15230799
10568.00   1.42022324   0.15894225
10570.00   1.51487112   0.16364878
10572.00   1.47887671   0.16473052
10574.00   1.31347299   0.16271868
10576.00   1.25198781   0.16138655
10578.00   1.40764201   0.16698836
10580.00   1.47646296   0.17134297
10582.00   1.49029803   0.17497940
10584.00   1.49186325   0.17800356
10586.00   1.33088636   0.17597185
10588.00   1.24616599   0.17448144
10590.00   1.33612514   0.17639598
10592.00   1.49363518   0.17996126
10594.00   1.52320802   0.18112978
10596.00   1.42402220   0.17932139
10598.00   1.51646221   0.18276270
10600.00   1.51721513   0.18435940
10602.00   1.39611316   0.18297882
10604.00   1.32065654   0.18231028
10606.00   1.46790266   0.18789586
10608.00   1.62263250   0.19322146
10610.00   1.56518245   0.19190949
10612.00   1.43387461   0.18890175
10614.00   1.49019718   0.19274212
10616.00   1.60363448   0.19716638
10618.00   1.53317928   0.19712791
10620.00   1.45734501   0.19724548
10622.00   1.44773579   0.19873494
10624.00   1.48834538   0.20082453
10626.00   1.59430242   0.20530456
10628.00   1.67521560   0.20800568
10630.00   1.64916468   0.20814195
10632.00   1.58533597   0.20863985
10634.00   1.55404806   0.21179339
10636.00   1.49614227   0.21331093
10638.00   1.46157479   0.21262519
10640.00   1.48585999   0.21344498
10642.00   1.54396701   0.21746004
10644.00   1.56784177   0.22256067
10646.00   1.63516665   0.22653073
10648.00   1.60618234   0.22660020
10650.00   1.55100989   0.22664547
10652.00   1.52739978   0.22815523
10654.00   1.57064223   0.23008355
10656.00   1.55387878   0.22934857
10658.00   1.56392086   0.22938544
10660.00   1.60717165   0.23097494
10662.00   1.60399389   0.23177455
10664.00   1.38245535   0.22722855
10666.00   1.34962511   0.22687477
10668.00   1.61250174   0.23589110
10670.00   1.70560431   0.23881891
10672.00   1.46801019   0.23130110
10674.00   1.42371345   0.23141697
10676.00   1.63821268   0.24398093
10678.00   1.72885954   0.24913213
10680.00   1.71234870   0.25106210
10682.00   1.65181029   0.25362954
10684.00   1.42385936   0.25070697
10686.00   1.35029721   0.25246441
10688.00   1.55222583   0.26114869
10690.00   1.73442316   0.26797077
10692.00   1.67050982   0.26752082
10694.00   1.45606041   0.26321262
10696.00   1.48228884   0.26079082
10698.00   1.72183657   0.26746440
10700.00   1.86561203   0.27402496
10702.00   1.68228233   0.27229697
10704.00   1.59418488   0.27505457
10706.00   1.64056849   0.28078693
10708.00   1.76274061   0.28406030
10710.00   1.85320354   0.28679115
10712.00   1.78149533   0.28968453
10714.00   1.68933964   0.28546298
10716.00   1.63178539   0.27852890
10718.00   1.44148958   0.27265614
10720.00   1.36439323   0.27654332
