# File created by shivutils (I.Shivvers)
# wl(A)   flm    er(optional)
3632.00   0.69563448   0.04081281
3634.00   0.56025684   0.03838921
3636.00   0.61985701   0.03899440
3638.00   0.58474940   0.03814230
3640.00   0.66324240   0.03967551
3642.00   0.57202280   0.03914889
3644.00   0.63368720   0.04057578
3646.00   0.56507057   0.03978567
3648.00   0.57647443   0.04696305
3650.00   0.54227555   0.05457692
3652.00   0.63660681   0.05383692
3654.00   0.60984206   0.04854326
3656.00   0.57108325   0.04533005
3658.00   0.56479162   0.03960185
3660.00   0.56897193   0.03875462
3662.00   0.63873935   0.04339239
3664.00   0.60739720   0.04334202
3666.00   0.57506317   0.03806953
3668.00   0.52118206   0.03405193
3670.00   0.58317244   0.03435909
3672.00   0.58677083   0.03426438
3674.00   0.57213479   0.03399058
3676.00   0.60888273   0.03407447
3678.00   0.52267575   0.03204975
3680.00   0.49544400   0.03127404
3682.00   0.57656455   0.03241660
3684.00   0.55903429   0.03220675
3686.00   0.55976176   0.03201509
3688.00   0.54105824   0.03163762
3690.00   0.49341452   0.03083660
3692.00   0.46701375   0.03039973
3694.00   0.46809503   0.03021475
3696.00   0.48018429   0.03042880
3698.00   0.46940994   0.03069998
3700.00   0.48969436   0.03134654
3702.00   0.45241126   0.03042174
3704.00   0.45216241   0.03030701
3706.00   0.44396332   0.02991800
3708.00   0.40634000   0.02870931
3710.00   0.53649557   0.03050494
3712.00   0.50018859   0.02989764
3714.00   0.44678861   0.02873769
3716.00   0.42757440   0.02797414
3718.00   0.38286480   0.02752132
3720.00   0.45508724   0.02845731
3722.00   0.41210043   0.02730636
3724.00   0.43626371   0.02762862
3726.00   0.40669861   0.02698825
3728.00   0.41289404   0.02746432
3730.00   0.37985799   0.02701458
3732.00   0.39418766   0.02739150
3734.00   0.42000967   0.02780209
3736.00   0.36967683   0.02703050
3738.00   0.34479493   0.02661428
3740.00   0.39524573   0.02812709
3742.00   0.37088943   0.02728573
3744.00   0.36367297   0.02647224
3746.00   0.40917182   0.02674346
3748.00   0.34338307   0.02542447
3750.00   0.37992814   0.02564560
3752.00   0.34857798   0.02522827
3754.00   0.34066954   0.02492623
3756.00   0.32966879   0.02475788
3758.00   0.29947448   0.02388755
3760.00   0.30907413   0.02357003
3762.00   0.33445469   0.02381241
3764.00   0.28311551   0.02287182
3766.00   0.31493723   0.02316639
3768.00   0.26414156   0.02160632
3770.00   0.30713129   0.02299152
3772.00   0.30929971   0.02313863
3774.00   0.26299492   0.02200448
3776.00   0.25054628   0.02143247
3778.00   0.30488604   0.02235917
3780.00   0.28631538   0.02206941
3782.00   0.28385407   0.02172714
3784.00   0.30428508   0.02235258
3786.00   0.26289833   0.02121739
3788.00   0.26178697   0.02105176
3790.00   0.24920893   0.02153453
3792.00   0.27138162   0.02193449
3794.00   0.28102383   0.02154394
3796.00   0.27178031   0.02089220
3798.00   0.29831970   0.02101528
3800.00   0.25191718   0.02043605
3802.00   0.27583590   0.02123575
3804.00   0.27889067   0.02091758
3806.00   0.27134916   0.02049743
3808.00   0.29030713   0.02062442
3810.00   0.28238270   0.02047366
3812.00   0.27041668   0.02049000
3814.00   0.25483331   0.02037141
3816.00   0.26200557   0.02049790
3818.00   0.25815254   0.02002148
3820.00   0.28563148   0.02043647
3822.00   0.28982985   0.02068303
3824.00   0.28260657   0.02030437
3826.00   0.31110182   0.02084214
3828.00   0.29733968   0.02124957
3830.00   0.32624486   0.02230387
3832.00   0.30796114   0.02196548
3834.00   0.36139268   0.02227429
3836.00   0.37761548   0.02232804
3838.00   0.39846125   0.02243955
3840.00   0.35939991   0.02160929
3842.00   0.37790942   0.02201109
3844.00   0.37897313   0.02178420
3846.00   0.40305683   0.02175785
3848.00   0.44684309   0.02214039
3850.00   0.45431522   0.02214771
3852.00   0.42977190   0.02179234
3854.00   0.49718937   0.02260387
3856.00   0.50735629   0.02250022
3858.00   0.54329026   0.02286549
3860.00   0.53284085   0.02281816
3862.00   0.53047472   0.02287435
3864.00   0.60379177   0.02386321
3866.00   0.58827955   0.02346913
3868.00   0.63435245   0.02387648
3870.00   0.61483973   0.02343004
3872.00   0.64439601   0.02393147
3874.00   0.70525002   0.02535773
3876.00   0.74975359   0.02563915
3878.00   0.75975776   0.02522762
3880.00   0.82888269   0.02578664
3882.00   0.88769454   0.02622263
3884.00   0.85795516   0.02605194
3886.00   0.89342773   0.02645967
3888.00   0.94815379   0.02674001
3890.00   0.96961099   0.02694613
3892.00   0.98795825   0.02708755
3894.00   1.02509344   0.02761436
3896.00   1.00200737   0.02743695
3898.00   1.04169905   0.02777304
3900.00   1.03422225   0.02780152
3902.00   1.06508100   0.02813991
3904.00   1.05639088   0.02854748
3906.00   1.09958744   0.03031927
3908.00   1.08843064   0.03117655
3910.00   1.12310934   0.03165717
3912.00   1.12045527   0.03157726
3914.00   1.18859124   0.03135208
3916.00   1.25529802   0.03064891
3918.00   1.20857584   0.02953253
3920.00   1.18852055   0.02890113
3922.00   1.22648299   0.02906474
3924.00   1.22472942   0.02900282
3926.00   1.26904583   0.02912234
3928.00   1.22877419   0.02852010
3930.00   1.28634870   0.02912293
3932.00   1.27040207   0.02947613
3934.00   1.26079154   0.02942666
3936.00   1.33775115   0.02944810
3938.00   1.35436225   0.02931422
3940.00   1.35817850   0.02958029
3942.00   1.35524678   0.02997554
3944.00   1.35836720   0.03028999
3946.00   1.33117521   0.02978891
3948.00   1.36638796   0.02952856
3950.00   1.40214229   0.02956720
3952.00   1.38127494   0.02916750
3954.00   1.43039370   0.02946212
3956.00   1.44546390   0.02957294
3958.00   1.50552976   0.02989533
3960.00   1.47216344   0.03034474
3962.00   1.51284313   0.03076307
3964.00   1.44983590   0.02947641
3966.00   1.50300050   0.02940410
3968.00   1.51525295   0.02936736
3970.00   1.51034629   0.02922127
3972.00   1.51454365   0.02926804
3974.00   1.53808486   0.02954446
3976.00   1.54188120   0.02949647
3978.00   1.58757055   0.02985221
3980.00   1.55809152   0.02957108
3982.00   1.59948444   0.02981080
3984.00   1.64362812   0.02992362
3986.00   1.59294224   0.02941874
3988.00   1.59878635   0.02959581
3990.00   1.50556183   0.02883198
3992.00   1.53305340   0.02896264
3994.00   1.57336700   0.02953609
3996.00   1.57964349   0.03005300
3998.00   1.52419031   0.02946532
4000.00   1.49910283   0.02871074
4002.00   1.51242149   0.02853215
4004.00   1.56347263   0.02871083
4006.00   1.52616596   0.02857677
4008.00   1.53382254   0.02885843
4010.00   1.51437783   0.02883990
4012.00   1.49687290   0.02855536
4014.00   1.49722803   0.02832719
4016.00   1.49921334   0.02837383
4018.00   1.50542939   0.02923677
4020.00   1.47545958   0.03020957
4022.00   1.49825883   0.03093247
4024.00   1.45906997   0.03036369
4026.00   1.43398440   0.02922249
4028.00   1.42379403   0.02838392
4030.00   1.35820615   0.02764835
4032.00   1.40407658   0.02784640
4034.00   1.35729980   0.02718175
4036.00   1.36735320   0.02708600
4038.00   1.35724235   0.02694367
4040.00   1.34195328   0.02686202
4042.00   1.33956921   0.02725408
4044.00   1.35945356   0.03378911
4046.00   1.37675238   0.04118548
4048.00   1.31788278   0.03923401
4050.00   1.28959286   0.03043065
4052.00   1.29011261   0.02734868
4054.00   1.25420082   0.02691282
4056.00   1.22473383   0.02637188
4058.00   1.20077789   0.02551214
4060.00   1.17433810   0.02493243
4062.00   1.17548347   0.02482155
4064.00   1.23310077   0.02527656
4066.00   1.13616955   0.02452189
4068.00   1.12830198   0.02423169
4070.00   1.11183548   0.02391332
4072.00   1.11640120   0.02371304
4074.00   1.06937873   0.02379849
4076.00   1.10989952   0.02566397
4078.00   1.04927826   0.02590314
4080.00   1.01980722   0.02504744
4082.00   1.00642335   0.02420058
4084.00   0.96206474   0.02351162
4086.00   0.97769779   0.02336799
4088.00   0.98518652   0.02291866
4090.00   0.94153261   0.02189652
4092.00   0.87879729   0.02109392
4094.00   0.88592845   0.02112479
4096.00   0.88551039   0.02107681
4098.00   0.85465986   0.02077569
4100.00   0.84975958   0.02070349
4102.00   0.83786267   0.02040598
4104.00   0.83124590   0.02016995
4106.00   0.80009168   0.01992843
4108.00   0.89585400   0.02083737
4110.00   0.82857186   0.02017764
4112.00   0.82084668   0.02009504
4114.00   0.83505076   0.02019764
4116.00   0.82842249   0.02007901
4118.00   0.81157392   0.01978308
4120.00   0.82514155   0.01970987
4122.00   0.83007234   0.01979789
4124.00   0.83757722   0.01997037
4126.00   0.82254523   0.01991648
4128.00   0.84254849   0.01999558
4130.00   0.86253250   0.02039762
4132.00   0.81385946   0.02034769
4134.00   0.86211652   0.02080463
4136.00   0.85149711   0.02037023
4138.00   0.85731810   0.02047816
4140.00   0.86146283   0.02080162
4142.00   0.83016247   0.02018221
4144.00   0.88985199   0.02029070
4146.00   0.87314135   0.01997654
4148.00   0.88686460   0.02014643
4150.00   0.83532119   0.02006241
4152.00   0.87164724   0.02074988
4154.00   0.87543929   0.02068998
4156.00   0.85810900   0.02017519
4158.00   0.82605779   0.01975114
4160.00   0.85954273   0.01996756
4162.00   0.85874468   0.02036442
4164.00   0.85732967   0.02102691
4166.00   0.86288738   0.02112853
4168.00   0.86170775   0.02049921
4170.00   0.87837011   0.02021039
4172.00   0.85725152   0.01981005
4174.00   0.86897504   0.01963830
4176.00   0.88183916   0.01991155
4178.00   0.86474437   0.01985612
4180.00   0.87041944   0.01970155
4182.00   0.85466146   0.01941409
4184.00   0.87257075   0.01947994
4186.00   0.90386981   0.01971685
4188.00   0.88730758   0.01960207
4190.00   0.87452227   0.01956045
4192.00   0.92860925   0.01994334
4194.00   0.92715299   0.01992266
4196.00   0.93654895   0.01985693
4198.00   0.90508932   0.01951730
4200.00   0.96107829   0.01991054
4202.00   0.94128400   0.01983459
4204.00   0.95626074   0.01998494
4206.00   1.00922537   0.02046513
4208.00   0.97922778   0.02026000
4210.00   0.97182858   0.02038933
4212.00   0.98612416   0.02049325
4214.00   1.00470686   0.02049177
4216.00   1.01009166   0.02047669
4218.00   1.00558770   0.02039204
4220.00   0.97475022   0.02012784
4222.00   1.03998840   0.02045397
4224.00   1.02564752   0.02047687
4226.00   1.00431681   0.02024523
4228.00   1.04929388   0.02051120
4230.00   1.05050743   0.02061904
4232.00   1.04225075   0.02068051
4234.00   1.02906525   0.02063171
4236.00   1.00652552   0.02062774
4238.00   1.05239487   0.02100027
4240.00   1.02285981   0.02057100
4242.00   1.04162431   0.02045289
4244.00   1.01453245   0.02095229
4246.00   1.04311955   0.02217332
4248.00   1.03745961   0.02205575
4250.00   0.99827456   0.02060439
4252.00   1.07348287   0.02069387
4254.00   0.99992514   0.02012709
4256.00   1.05133677   0.02050961
4258.00   1.02935326   0.02032902
4260.00   1.01221478   0.02011890
4262.00   1.03549194   0.02018513
4264.00   1.05600679   0.02026006
4266.00   1.03926265   0.02017933
4268.00   1.06726968   0.02028549
4270.00   1.03837693   0.02018346
4272.00   1.03453445   0.02009372
4274.00   1.00677359   0.01991938
4276.00   1.05746830   0.02028716
4278.00   1.08875179   0.02053472
4280.00   1.07942867   0.02051137
4282.00   1.04313028   0.02022015
4284.00   1.07656646   0.02048462
4286.00   1.06627774   0.02028118
4288.00   1.08429015   0.02030094
4290.00   1.05702841   0.02013949
4292.00   1.04906535   0.02007587
4294.00   1.06181872   0.02029132
4296.00   1.03801966   0.02007656
4298.00   1.02535558   0.01994942
4300.00   1.06630599   0.02014431
4302.00   1.07166636   0.02017669
4304.00   1.07770145   0.02025717
4306.00   1.05816352   0.02019824
4308.00   1.07920063   0.02035859
4310.00   1.07537961   0.02038974
4312.00   1.11743951   0.02124735
4314.00   1.07507253   0.02138875
4316.00   1.08932972   0.02109060
4318.00   1.10585701   0.02107917
4320.00   1.12908220   0.02136201
4322.00   1.11282218   0.02131836
4324.00   1.10584533   0.02107882
4326.00   1.12165260   0.02108483
4328.00   1.09238410   0.02053819
4330.00   1.12262046   0.02057165
4332.00   1.06468523   0.02014804
4334.00   1.09294951   0.02038105
4336.00   1.10891211   0.02058928
4338.00   1.14548528   0.02093934
4340.00   1.13704634   0.02094809
4342.00   1.06861413   0.02060124
4344.00   1.12910414   0.02104811
4346.00   1.09188461   0.02128708
4348.00   1.12456465   0.02160966
4350.00   1.07724679   0.02112045
4352.00   1.06721389   0.02094425
4354.00   1.07090890   0.02212915
4356.00   1.10372257   0.03129172
4358.00   1.02758253   0.03702849
4360.00   1.05043590   0.03433595
4362.00   1.05859447   0.02634571
4364.00   1.06063211   0.02227712
4366.00   1.04308689   0.02110113
4368.00   1.03131974   0.02080668
4370.00   1.03887022   0.02070393
4372.00   1.04413879   0.02093967
4374.00   1.02998435   0.02102721
4376.00   1.04940879   0.02100977
4378.00   1.00873458   0.02034030
4380.00   1.00388265   0.02012942
4382.00   1.00380111   0.02000153
4384.00   0.99187547   0.01983940
4386.00   1.00449216   0.01984992
4388.00   0.96937132   0.01962840
4390.00   0.98464268   0.01974533
4392.00   0.96619022   0.01967597
4394.00   0.96451348   0.01954602
4396.00   0.97828209   0.01959954
4398.00   0.94476694   0.01968522
4400.00   0.91577113   0.01973302
4402.00   0.92385370   0.01969277
4404.00   0.93474841   0.01956894
4406.00   0.90476722   0.01940059
4408.00   0.90706235   0.01936456
4410.00   0.89780134   0.01930863
4412.00   0.89579546   0.01931925
4414.00   0.88101792   0.01944459
4416.00   0.86123323   0.01936793
4418.00   0.84653264   0.01908156
4420.00   0.83564699   0.01889997
4422.00   0.83670563   0.01890439
4424.00   0.77413177   0.01844258
4426.00   0.77511853   0.01836934
4428.00   0.76254839   0.01824834
4430.00   0.76486301   0.01828992
4432.00   0.72670066   0.01807617
4434.00   0.71706080   0.01795532
4436.00   0.73624480   0.01804328
4438.00   0.74384034   0.01807198
4440.00   0.72868651   0.01799163
4442.00   0.67525369   0.01763931
4444.00   0.68592614   0.01770545
4446.00   0.63966048   0.01732611
4448.00   0.69275039   0.01757900
4450.00   0.66306657   0.01737417
4452.00   0.64019388   0.01726412
4454.00   0.63943869   0.01717901
4456.00   0.60585761   0.01696460
4458.00   0.61963773   0.01706021
4460.00   0.64237964   0.01713027
4462.00   0.65650821   0.01726239
4464.00   0.64172524   0.01713251
4466.00   0.64821804   0.01711120
4468.00   0.59419966   0.01672376
4470.00   0.64048600   0.01699801
4472.00   0.64424026   0.01699560
4474.00   0.63266242   0.01698033
4476.00   0.62193161   0.01682603
4478.00   0.63058174   0.01686589
4480.00   0.64720333   0.01697271
4482.00   0.65822327   0.01705871
4484.00   0.64975202   0.01700292
4486.00   0.63437027   0.01684578
4488.00   0.70594835   0.01726987
4490.00   0.68499666   0.01719475
4492.00   0.68746996   0.01727388
4494.00   0.70441914   0.01741337
4496.00   0.69143832   0.01727756
4498.00   0.69396812   0.01726312
4500.00   0.72744113   0.01738494
4502.00   0.72585893   0.01726790
4504.00   0.73730713   0.01728707
4506.00   0.77908283   0.01753787
4508.00   0.80053467   0.01760244
4510.00   0.75905877   0.01721116
4512.00   0.78143680   0.01744110
4514.00   0.80899882   0.01750569
4516.00   0.82363009   0.01746799
4518.00   0.86570853   0.01771042
4520.00   0.87964177   0.01775583
4522.00   0.85977387   0.01763869
4524.00   0.88638711   0.01768510
4526.00   0.91741198   0.01785158
4528.00   0.96373773   0.01811126
4530.00   0.98027593   0.01815878
4532.00   0.98003566   0.01817147
4534.00   0.98300397   0.01815162
4536.00   0.99514604   0.01819811
4538.00   1.04933143   0.01841836
4540.00   1.05111063   0.01839189
4542.00   1.08476496   0.01865727
4544.00   1.10658765   0.01874877
4546.00   1.13652611   0.01878924
4548.00   1.11785984   0.01863022
4550.00   1.17914808   0.01883717
4552.00   1.19460273   0.01889342
4554.00   1.23301852   0.01906924
4556.00   1.24744833   0.01913121
4558.00   1.23677170   0.01903156
4560.00   1.27942014   0.01920345
4562.00   1.33359063   0.01940445
4564.00   1.33520150   0.01931811
4566.00   1.31509519   0.01917749
4568.00   1.35788310   0.01939939
4570.00   1.36443102   0.01933762
4572.00   1.37191319   0.01947695
4574.00   1.36343575   0.01937295
4576.00   1.42495108   0.01965131
4578.00   1.45854199   0.01974346
4580.00   1.47828591   0.01978198
4582.00   1.50492930   0.01980641
4584.00   1.50167680   0.01974417
4586.00   1.58421004   0.02010442
4588.00   1.57789516   0.02008717
4590.00   1.58439708   0.02008458
4592.00   1.59633589   0.02016476
4594.00   1.62598252   0.02030184
4596.00   1.61916339   0.02022867
4598.00   1.70380437   0.02055866
4600.00   1.67783189   0.02040580
4602.00   1.72215164   0.02055912
4604.00   1.72800708   0.02057267
4606.00   1.75297403   0.02070250
4608.00   1.75537908   0.02071203
4610.00   1.78461885   0.02083826
4612.00   1.81904221   0.02093728
4614.00   1.83406162   0.02090626
4616.00   1.85066581   0.02095964
4618.00   1.89384174   0.02109467
4620.00   1.93036520   0.02125729
4622.00   1.95500910   0.02135414
4624.00   1.94958293   0.02131281
4626.00   2.00082326   0.02151440
4628.00   1.97423387   0.02139099
4630.00   1.98488498   0.02146298
4632.00   2.00526977   0.02149315
4634.00   2.08802891   0.02182774
4636.00   2.07220435   0.02172137
4638.00   2.12539291   0.02193240
4640.00   2.12154984   0.02192323
4642.00   2.14944220   0.02201107
4644.00   2.19062018   0.02213921
4646.00   2.17019296   0.02205512
4648.00   2.17188287   0.02208206
4650.00   2.16420770   0.02207716
4652.00   2.24275064   0.02240797
4654.00   2.27779126   0.02252921
4656.00   2.26312685   0.02254490
4658.00   2.25994682   0.02258419
4660.00   2.28060174   0.02267450
4662.00   2.27268744   0.02270074
4664.00   2.28797793   0.02282832
4666.00   2.27079225   0.02284906
4668.00   2.31408167   0.02314155
4670.00   2.32088304   0.02317350
4672.00   2.28256726   0.02296278
4674.00   2.30317664   0.02293134
4676.00   2.32859778   0.02291789
4678.00   2.30213547   0.02272269
4680.00   2.31643653   0.02266352
4682.00   2.29125547   0.02253038
4684.00   2.33313799   0.02263736
4686.00   2.33025146   0.02257904
4688.00   2.31986928   0.02251639
4690.00   2.28697443   0.02235689
4692.00   2.26387906   0.02221821
4694.00   2.25189161   0.02214717
4696.00   2.27057338   0.02216335
4698.00   2.21673107   0.02189312
4700.00   2.20072508   0.02183436
4702.00   2.18576097   0.02178328
4704.00   2.16632438   0.02171139
4706.00   2.18017864   0.02182790
4708.00   2.15460944   0.02175282
4710.00   2.09970737   0.02154387
4712.00   2.03975153   0.02122951
4714.00   2.07925630   0.02135150
4716.00   2.00817537   0.02097153
4718.00   1.98587239   0.02082597
4720.00   1.97753286   0.02077002
4722.00   1.91943109   0.02053472
4724.00   1.91548252   0.02047454
4726.00   1.92481971   0.02065019
4728.00   1.87707448   0.02072383
4730.00   1.83643138   0.02067825
4732.00   1.81945086   0.02057788
4734.00   1.75339448   0.02034466
4736.00   1.75508702   0.02041010
4738.00   1.75592065   0.02059039
4740.00   1.72850311   0.02059260
4742.00   1.65613985   0.02049354
4744.00   1.66848421   0.02038821
4746.00   1.61010361   0.01960731
4748.00   1.58386254   0.01908406
4750.00   1.54463601   0.01887514
4752.00   1.53769970   0.01886643
4754.00   1.51962280   0.01875396
4756.00   1.49641705   0.01847762
4758.00   1.50017321   0.01832646
4760.00   1.45489144   0.01800884
4762.00   1.44701684   0.01790673
4764.00   1.41380298   0.01771754
4766.00   1.40014160   0.01757651
4768.00   1.40194166   0.01755394
4770.00   1.39172351   0.01749432
4772.00   1.32244432   0.01709789
4774.00   1.35317004   0.01724645
4776.00   1.33013332   0.01725603
4778.00   1.29510033   0.01720775
4780.00   1.28628993   0.01716956
4782.00   1.25392091   0.01689270
4784.00   1.23237872   0.01665860
4786.00   1.22048211   0.01648382
4788.00   1.20300853   0.01641388
4790.00   1.19502831   0.01638326
4792.00   1.13295019   0.01602437
4794.00   1.11444235   0.01586524
4796.00   1.09882271   0.01569930
4798.00   1.09979665   0.01568793
4800.00   1.05699873   0.01543569
4802.00   1.01229501   0.01518513
4804.00   1.00386977   0.01510599
4806.00   1.00726640   0.01514020
4808.00   0.96350992   0.01489395
4810.00   0.94459236   0.01476489
4812.00   0.92452461   0.01464022
4814.00   0.90086794   0.01452325
4816.00   0.87994188   0.01441681
4818.00   0.85574585   0.01429182
4820.00   0.84475154   0.01423416
4822.00   0.79778206   0.01400480
4824.00   0.78759509   0.01395081
4826.00   0.77190357   0.01391714
4828.00   0.76852113   0.01386332
4830.00   0.75020444   0.01373616
4832.00   0.75632662   0.01381987
4834.00   0.73767024   0.01370571
4836.00   0.71912736   0.01361717
4838.00   0.71565425   0.01371456
4840.00   0.69343883   0.01355293
4842.00   0.69557869   0.01350102
4844.00   0.69845283   0.01342031
4846.00   0.69358289   0.01338750
4848.00   0.69473869   0.01338958
4850.00   0.69965053   0.01343059
4852.00   0.67563331   0.01329035
4854.00   0.69327289   0.01331319
4856.00   0.69261289   0.01324969
4858.00   0.70056397   0.01328362
4860.00   0.67010146   0.01315122
4862.00   0.69912469   0.01337579
4864.00   0.70893222   0.01346165
4866.00   0.71398723   0.01348372
4868.00   0.74733853   0.01360695
4870.00   0.72048384   0.01345525
4872.00   0.72291869   0.01345397
4874.00   0.71802485   0.01345753
4876.00   0.73480153   0.01359114
4878.00   0.73007166   0.01361062
4880.00   0.73449141   0.01364094
4882.00   0.74714339   0.01368486
4884.00   0.77326638   0.01378130
4886.00   0.76613295   0.01368910
4888.00   0.79727215   0.01386481
4890.00   0.79916877   0.01384777
4892.00   0.79374921   0.01385976
4894.00   0.78118539   0.01379785
4896.00   0.79946661   0.01388646
4898.00   0.82295328   0.01395974
4900.00   0.82473683   0.01398671
4902.00   0.83618861   0.01401432
4904.00   0.82829833   0.01395730
4906.00   0.82927722   0.01406064
4908.00   0.84730452   0.01417074
4910.00   0.83230597   0.01405920
4912.00   0.84381944   0.01410667
4914.00   0.84300739   0.01415275
4916.00   0.81365049   0.01396529
4918.00   0.80289686   0.01384950
4920.00   0.83041525   0.01399285
4922.00   0.82266426   0.01393995
4924.00   0.81979686   0.01389404
4926.00   0.81812871   0.01383399
4928.00   0.81115210   0.01373611
4930.00   0.80601978   0.01367714
4932.00   0.81440932   0.01370264
4934.00   0.83776861   0.01389672
4936.00   0.82612222   0.01387118
4938.00   0.83763450   0.01395835
4940.00   0.82981020   0.01392420
4942.00   0.85452139   0.01406219
4944.00   0.85393506   0.01401063
4946.00   0.85095465   0.01397810
4948.00   0.85465419   0.01394902
4950.00   0.85377777   0.01399764
4952.00   0.88093346   0.01430372
4954.00   0.89269418   0.01441501
4956.00   0.87417394   0.01421447
4958.00   0.90506512   0.01433126
4960.00   0.89933693   0.01435752
4962.00   0.90120590   0.01440083
4964.00   0.92538089   0.01455878
4966.00   0.94081342   0.01470704
4968.00   0.92953902   0.01472516
4970.00   0.92867833   0.01483118
4972.00   0.96288484   0.01521731
4974.00   0.95124382   0.01534967
4976.00   0.93890584   0.01553180
4978.00   0.94884586   0.01594737
4980.00   0.95533770   0.01633439
4982.00   0.98235750   0.01666152
4984.00   0.96389604   0.01652770
4986.00   0.97265244   0.01634930
4988.00   0.97444731   0.01605485
4990.00   0.97297269   0.01580558
4992.00   0.97607529   0.01557157
4994.00   0.98193765   0.01537579
4996.00   0.98016137   0.01519715
4998.00   1.00364852   0.01514270
5000.00   1.02698112   0.01516265
5002.00   1.01958811   0.01506050
5004.00   1.03330159   0.01507432
5006.00   1.01610947   0.01492608
5008.00   1.03364086   0.01500212
5010.00   1.03385627   0.01495748
5012.00   1.04704332   0.01499483
5014.00   1.02122355   0.01489010
5016.00   1.03965497   0.01502915
5018.00   1.01301968   0.01494174
5020.00   1.04128015   0.01511343
5022.00   1.05360544   0.01514520
5024.00   1.04093170   0.01501771
5026.00   1.03858161   0.01494924
5028.00   1.02861392   0.01495552
5030.00   1.02168238   0.01498903
5032.00   0.99981850   0.01486631
5034.00   1.02300417   0.01489813
5036.00   0.99584448   0.01468504
5038.00   1.00407255   0.01470477
5040.00   0.97512674   0.01452905
5042.00   0.95512056   0.01443043
5044.00   0.97271550   0.01455866
5046.00   0.93900675   0.01436954
5048.00   0.94289231   0.01438841
5050.00   0.92698383   0.01429944
5052.00   0.92993468   0.01430310
5054.00   0.91696620   0.01423146
5056.00   0.88596427   0.01405805
5058.00   0.87996137   0.01398268
5060.00   0.84532255   0.01388001
5062.00   0.84649646   0.01399514
5064.00   0.84184337   0.01403720
5066.00   0.81844437   0.01403060
5068.00   0.80281693   0.01417983
5070.00   0.80788618   0.01418182
5072.00   0.79766804   0.01396204
5074.00   0.78320390   0.01382121
5076.00   0.77466351   0.01371866
5078.00   0.76334482   0.01383112
5080.00   0.75302267   0.01434708
5082.00   0.75748271   0.01500017
5084.00   0.75811327   0.01539952
5086.00   0.77086800   0.01541461
5088.00   0.74522382   0.01484921
5090.00   0.75236845   0.01430872
5092.00   0.76380253   0.01392892
5094.00   0.76005477   0.01369496
5096.00   0.76389229   0.01381985
5098.00   0.75572330   0.01396289
5100.00   0.77584261   0.01406183
5102.00   0.75205803   0.01372275
5104.00   0.76587898   0.01362100
5106.00   0.77202225   0.01351206
5108.00   0.77195406   0.01348798
5110.00   0.79704958   0.01360774
5112.00   0.79689950   0.01361505
5114.00   0.78950030   0.01366769
5116.00   0.81916666   0.01386433
5118.00   0.81260675   0.01372778
5120.00   0.82374257   0.01372368
5122.00   0.83539033   0.01374252
5124.00   0.83510560   0.01369165
5126.00   0.82257003   0.01361397
5128.00   0.83790290   0.01370988
5130.00   0.85462940   0.01381701
5132.00   0.85295200   0.01381946
5134.00   0.87704134   0.01394856
5136.00   0.88516635   0.01396892
5138.00   0.88371658   0.01399323
5140.00   0.88429147   0.01398978
5142.00   0.90783495   0.01415186
5144.00   0.90033406   0.01414290
5146.00   0.90405190   0.01424622
5148.00   0.90114218   0.01436772
5150.00   0.91470903   0.01460727
5152.00   0.93092608   0.01485190
5154.00   0.94174844   0.01491609
5156.00   0.95012563   0.01487473
5158.00   0.96349931   0.01477029
5160.00   0.94879735   0.01455971
5162.00   0.96704340   0.01454775
5164.00   0.98873001   0.01458780
5166.00   0.99869412   0.01460593
5168.00   0.97926509   0.01448375
5170.00   1.00054371   0.01457014
5172.00   0.99976921   0.01454851
5174.00   1.00462329   0.01460402
5176.00   1.00873280   0.01462580
5178.00   0.99787205   0.01457533
5180.00   1.02432299   0.01470387
5182.00   0.99913603   0.01457131
5184.00   1.02312446   0.01469674
5186.00   1.03743601   0.01479859
5188.00   0.99422169   0.01461207
5190.00   1.01352918   0.01468604
5192.00   1.02996528   0.01474946
5194.00   1.02031219   0.01471820
5196.00   1.01570821   0.01471668
5198.00   1.02431655   0.01481506
5200.00   1.01880670   0.01477873
5202.00   1.02031291   0.01475641
5204.00   1.03079963   0.01479351
5206.00   1.02323568   0.01476449
5208.00   1.02324498   0.01483857
5210.00   1.03982329   0.01497928
5212.00   1.05452204   0.01500981
5214.00   1.03450668   0.01483616
5216.00   1.04108441   0.01487819
5218.00   1.05717635   0.01499155
5220.00   1.03577590   0.01488116
5222.00   1.03343141   0.01486194
5224.00   1.03168273   0.01478751
5226.00   1.05002820   0.01482949
5228.00   1.07633054   0.01495860
5230.00   1.04400074   0.01478241
5232.00   1.06012261   0.01488551
5234.00   1.08066845   0.01498500
5236.00   1.06947672   0.01495926
5238.00   1.06400394   0.01496529
5240.00   1.05410028   0.01490144
5242.00   1.08351552   0.01499729
5244.00   1.07256770   0.01489459
5246.00   1.08038223   0.01493384
5248.00   1.08089983   0.01489704
5250.00   1.09937012   0.01499168
5252.00   1.10874689   0.01504889
5254.00   1.11010385   0.01512163
5256.00   1.10528338   0.01520159
5258.00   1.10784340   0.01521782
5260.00   1.11531365   0.01523101
5262.00   1.12555277   0.01519831
5264.00   1.13493705   0.01519584
5266.00   1.13123786   0.01512350
5268.00   1.16753173   0.01528808
5270.00   1.20087528   0.01545766
5272.00   1.18722785   0.01541687
5274.00   1.19174981   0.01546981
5276.00   1.17863238   0.01541460
5278.00   1.21153378   0.01555627
5280.00   1.20205557   0.01551786
5282.00   1.24853480   0.01574853
5284.00   1.23824084   0.01574897
5286.00   1.29514229   0.01601630
5288.00   1.27873158   0.01589892
5290.00   1.26811540   0.01586001
5292.00   1.29496610   0.01595857
5294.00   1.30122876   0.01603181
5296.00   1.34704530   0.01621758
5298.00   1.35028791   0.01626075
5300.00   1.33490551   0.01617884
5302.00   1.36431539   0.01635099
5304.00   1.36266279   0.01634993
5306.00   1.40933740   0.01652935
5308.00   1.39002156   0.01643703
5310.00   1.42975903   0.01667392
5312.00   1.44544041   0.01672577
5314.00   1.46282816   0.01683405
5316.00   1.44551897   0.01674731
5318.00   1.47140062   0.01685003
5320.00   1.46548820   0.01682207
5322.00   1.48818374   0.01692369
5324.00   1.46259236   0.01685283
5326.00   1.49171937   0.01696837
5328.00   1.49261105   0.01699456
5330.00   1.52415276   0.01717599
5332.00   1.52569473   0.01721045
5334.00   1.56795418   0.01738537
5336.00   1.55071580   0.01729376
5338.00   1.54805171   0.01737757
5340.00   1.56310236   0.01749254
5342.00   1.58027792   0.01759877
5344.00   1.59421074   0.01762441
5346.00   1.61537552   0.01784897
5348.00   1.60219383   0.01788773
5350.00   1.61614811   0.01797425
5352.00   1.62126708   0.01802489
5354.00   1.66063976   0.01830584
5356.00   1.68235874   0.01832565
5358.00   1.65059006   0.01811551
5360.00   1.63659763   0.01796631
5362.00   1.67840302   0.01802547
5364.00   1.71907532   0.01820406
5366.00   1.71102309   0.01813196
5368.00   1.71430016   0.01814654
5370.00   1.66810656   0.01797031
5372.00   1.71637654   0.01825917
5374.00   1.70068073   0.01830958
5376.00   1.73570204   0.01847085
5378.00   1.71903360   0.01839735
5380.00   1.77040970   0.01861111
5382.00   1.73823237   0.01849675
5384.00   1.76387656   0.01865980
5386.00   1.76341224   0.01869183
5388.00   1.75687754   0.01874841
5390.00   1.77529001   0.01896718
5392.00   1.74711752   0.01896702
5394.00   1.81691313   0.01928069
5396.00   1.81566143   0.01935357
5398.00   1.84200239   0.01952943
5400.00   1.78722525   0.01935979
5402.00   1.82676637   0.01956278
5404.00   1.83494592   0.01969614
5406.00   1.86170900   0.01998998
5408.00   1.84192109   0.01999774
5410.00   1.83618510   0.02015750
5412.00   1.85107565   0.02044022
5414.00   1.85399711   0.02066125
5416.00   1.85572064   0.02089879
5418.00   1.86929762   0.02110774
5420.00   1.83734024   0.02110058
5422.00   1.86467719   0.02126430
5424.00   1.86851931   0.02133161
5426.00   1.88272393   0.02146279
5428.00   1.86606085   0.02145785
5430.00   1.85946786   0.02150969
5432.00   1.87793410   0.02167775
5434.00   1.85928917   0.02166359
5436.00   1.89619589   0.02197804
5438.00   1.90662801   0.02213525
5440.00   1.92422199   0.02231727
5442.00   1.92472243   0.02240415
5444.00   1.92102373   0.02260239
5446.00   1.94502842   0.02282992
5448.00   1.93903291   0.02284295
5450.00   1.89071739   0.02274931
5452.00   1.90483987   0.02284761
5454.00   1.93481743   0.02306825
5456.00   1.91706920   0.02440603
5458.00   1.92297888   0.02754783
5460.00   1.86664522   0.02911411
5462.00   1.91244948   0.02862333
5464.00   1.87727296   0.02735942
5466.00   1.91649115   0.02630171
5468.00   1.87989128   0.02504663
5470.00   1.91149974   0.02441878
5472.00   1.86613989   0.02361740
5474.00   1.88085306   0.02340743
5476.00   1.85087895   0.02317884
5478.00   1.84920418   0.02330299
5480.00   1.82250679   0.02344963
5482.00   1.82045650   0.02360064
5484.00   1.78898752   0.02344002
5486.00   1.80298436   0.02340598
5488.00   1.80630410   0.02328850
5490.00   1.79142392   0.02312691
5492.00   1.76999891   0.02302475
5494.00   1.75458872   0.02292968
5496.00   1.76789260   0.02292149
5498.00   1.75306833   0.02290721
5500.00   1.73305392   0.02285463
5502.00   1.73099780   0.02288340
5504.00   1.70644164   0.02271716
5506.00   1.73310494   0.02285596
5508.00   1.69670987   0.02269176
5510.00   1.71093154   0.02281197
5512.00   1.68084824   0.02278772
5514.00   1.69538200   0.02291498
5516.00   1.66403794   0.02282616
5518.00   1.63734972   0.02273934
5520.00   1.62598968   0.02277232
5522.00   1.63314736   0.02267797
5524.00   1.61951149   0.02261850
5526.00   1.60902250   0.02259778
5528.00   1.66028047   0.02270513
5530.00   1.60941541   0.02240656
5532.00   1.64859188   0.02262427
5534.00   1.65500939   0.02272664
5536.00   1.69303393   0.02294322
5538.00   1.68622017   0.02290973
5540.00   1.70077991   0.02308098
5542.00   1.68767858   0.02304523
5544.00   1.71809685   0.02324024
5546.00   1.68842220   0.02313200
5548.00   1.74389052   0.02341829
5550.00   1.72761834   0.02335257
5552.00   1.73657155   0.02339203
5554.00   1.76430523   0.02355601
5556.00   1.79099929   0.02373056
5558.00   1.82035124   0.02393568
5560.00   1.80912411   0.02393554
5562.00   1.80865979   0.02408291
5564.00   1.81950068   0.02422539
5566.00   1.93864477   0.03857309
5568.00   1.96361065   0.03946038
5570.00   1.96101093   0.04027516
5572.00   1.92717707   0.04121330
5574.00   1.93267071   0.04289851
5576.00   1.92762613   0.04422632
5578.00   1.95434320   0.04433559
5580.00   2.03508472   0.04339586
5582.00   2.06632376   0.04177689
5584.00   2.01177812   0.03921030
5586.00   2.01430511   0.03632274
5588.00   2.02910709   0.03451807
5590.00   2.03595471   0.03390580
5592.00   2.05160785   0.03386745
5594.00   2.08389878   0.03386341
5596.00   2.09975243   0.03371738
5598.00   2.09767413   0.03348569
5600.00   2.08167267   0.03316814
5602.00   2.07341123   0.03290210
5604.00   2.05633545   0.03262927
5606.00   2.04939866   0.03242673
5608.00   2.06420970   0.03228919
5610.00   2.07512450   0.03212771
5612.00   2.07271791   0.03195589
5614.00   2.04857254   0.03164627
5616.00   2.07046890   0.03160399
5618.00   2.06587625   0.03139699
5620.00   2.04191756   0.03108356
5622.00   2.03150845   0.03088620
5624.00   2.02174664   0.03070778
5626.00   2.03628278   0.03062983
5628.00   2.03232074   0.03043027
5630.00   1.99584723   0.03006563
5632.00   1.97609997   0.02982755
5634.00   1.94641626   0.02951584
5636.00   1.92221403   0.02932475
5638.00   1.89556551   0.02915770
5640.00   1.88025761   0.02899073
5642.00   1.86885202   0.02864164
5644.00   1.84499741   0.02842142
5646.00   1.82480526   0.02818217
5648.00   1.79234231   0.02784743
5650.00   1.75163591   0.02748513
5652.00   1.73826802   0.02733676
5654.00   1.71433020   0.02711348
5656.00   1.66192877   0.02672859
5658.00   1.61590540   0.02642658
5660.00   1.59623659   0.02633209
5662.00   1.58603275   0.02630516
5664.00   1.57147646   0.02626177
5666.00   1.56002057   0.02630114
5668.00   1.54318750   0.02636359
5670.00   1.50699317   0.02635513
5672.00   1.48267496   0.02636568
5674.00   1.46705759   0.02640823
5676.00   1.44751012   0.02647515
5678.00   1.43380880   0.02665360
5680.00   1.41138601   0.02694068
5682.00   1.37899303   0.02723242
5684.00   1.37831819   0.02765628
5686.00   1.36677933   0.02791277
5688.00   1.34719884   0.02787765
5690.00   1.31753552   0.02743091
5692.00   1.31999350   0.02687667
5694.00   1.31275940   0.02611607
5696.00   1.29543221   0.02527691
5698.00   1.27487183   0.02450533
5700.00   1.26022613   0.02393850
5702.00   1.24508214   0.02347794
5704.00   1.23038089   0.02311099
5706.00   1.21597826   0.02282948
5708.00   1.19548142   0.02256757
5710.00   1.17319107   0.02232061
5712.00   1.16757584   0.02217044
5714.00   1.16016781   0.02202414
5716.00   1.14233375   0.02179164
5718.00   1.13065195   0.02153276
5720.00   1.11995029   0.02127159
5722.00   1.09093416   0.02097224
5724.00   1.07192850   0.02071904
5726.00   1.05206525   0.02046886
5728.00   1.03863442   0.02026488
5730.00   1.04203045   0.02019288
5732.00   1.02628458   0.02000666
5734.00   1.01344109   0.01983224
5736.00   1.01072848   0.01974792
5738.00   1.01313019   0.01972940
5740.00   1.01320732   0.01969678
5742.00   0.98921078   0.01950897
5744.00   0.97749525   0.01938603
5746.00   0.98661757   0.01939932
5748.00   0.99275726   0.01944439
5750.00   0.99006295   0.01942465
5752.00   0.98930508   0.01942685
5754.00   0.98049361   0.01939707
5756.00   0.96954411   0.01939850
5758.00   0.97443408   0.01952332
5760.00   0.96925539   0.01964098
5762.00   0.96359891   0.01987204
5764.00   0.97045964   0.02027442
5766.00   0.97458267   0.02069404
5768.00   0.98441434   0.02103982
5770.00   0.98606020   0.02111056
5772.00   0.97794819   0.02091966
5774.00   0.98303050   0.02064692
5776.00   1.00040317   0.02033190
5778.00   1.01338923   0.02000101
5780.00   1.00684083   0.01976218
5782.00   1.01249194   0.01986530
5784.00   1.02844238   0.02023941
5786.00   1.04170096   0.02067373
5788.00   1.05866301   0.02116348
5790.00   1.08226728   0.02148518
5792.00   1.09398842   0.02153540
5794.00   1.09174597   0.02133389
5796.00   1.10496187   0.02107257
5798.00   1.11677849   0.02074448
5800.00   1.13155890   0.02051805
5802.00   1.16054237   0.02051746
5804.00   1.16524541   0.02048399
5806.00   1.16900337   0.02049758
5808.00   1.19458103   0.02062213
5810.00   1.21525991   0.02072270
5812.00   1.23416328   0.02081950
5814.00   1.25932217   0.02095164
5816.00   1.27566803   0.02108159
5818.00   1.29191089   0.02125637
5820.00   1.30550301   0.02145354
5822.00   1.32294166   0.02163530
5824.00   1.35040855   0.02173802
5826.00   1.37958372   0.02181569
5828.00   1.40220773   0.02191420
5830.00   1.41253912   0.02200748
5832.00   1.42223132   0.02210050
5834.00   1.44847488   0.02229501
5836.00   1.47159672   0.02243772
5838.00   1.50385392   0.02263056
5840.00   1.53320348   0.02282553
5842.00   1.53794956   0.02288233
5844.00   1.54217088   0.02290782
5846.00   1.59220350   0.02321792
5848.00   1.62439954   0.02342314
5850.00   1.63389051   0.02351935
5852.00   1.65990818   0.02369916
5854.00   1.68665421   0.02389862
5856.00   1.70792377   0.02404366
5858.00   1.73232508   0.02420898
5860.00   1.75191534   0.02438947
5862.00   1.77522659   0.02459010
5864.00   1.79992402   0.02481921
5866.00   1.82509136   0.02502517
5868.00   1.83959043   0.02514631
5870.00   1.84644544   0.02520191
5872.00   1.86468756   0.02526786
5874.00   1.90031338   0.02539918
5876.00   1.92006290   0.02551268
5878.00   1.93358958   0.02585834
5880.00   1.94557226   0.02669328
5882.00   1.95544851   0.02832275
5884.00   1.94044113   0.03106535
5886.00   1.92413437   0.03485703
5888.00   1.94134474   0.03854867
5890.00   1.95711374   0.04122991
5892.00   1.95712006   0.04286196
5894.00   1.95511913   0.04342766
5896.00   1.99241602   0.04185320
5898.00   2.04596877   0.03876826
5900.00   2.07212758   0.03537521
5902.00   2.08866215   0.03218544
5904.00   2.10929847   0.02885140
5906.00   2.14667916   0.02677582
5908.00   2.15620208   0.02610913
5910.00   2.16966462   0.02624891
5912.00   2.17790866   0.02632474
5914.00   2.18571925   0.02637974
5916.00   2.19515419   0.02643897
5918.00   2.18822670   0.02641591
5920.00   2.17634511   0.02633963
5922.00   2.19714427   0.02643777
5924.00   2.20126915   0.02645547
5926.00   2.19769168   0.02645836
5928.00   2.20062566   0.02652328
5930.00   2.21675563   0.02663910
5932.00   2.21586442   0.02665477
5934.00   2.21333361   0.02661156
5936.00   2.20391083   0.02648054
5938.00   2.19032454   0.02628288
5940.00   2.16492295   0.02603211
5942.00   2.16511798   0.02591782
5944.00   2.18033552   0.02588197
5946.00   2.16590500   0.02577038
5948.00   2.13802075   0.02567493
5950.00   2.13267994   0.02567878
5952.00   2.16083217   0.02582127
5954.00   2.16219950   0.02580428
5956.00   2.15403843   0.02571180
5958.00   2.14723420   0.02561943
5960.00   2.12862706   0.02548243
5962.00   2.11072278   0.02533384
5964.00   2.09309983   0.02520030
5966.00   2.07913709   0.02510355
5968.00   2.05130887   0.02495673
5970.00   2.04058099   0.02489450
5972.00   2.00395894   0.02473543
5974.00   1.98030329   0.02463622
5976.00   1.99287951   0.02467188
5978.00   1.99943531   0.02465685
5980.00   1.97627389   0.02448287
5982.00   1.95624912   0.02435592
5984.00   1.95036876   0.02429158
5986.00   1.93891680   0.02419531
5988.00   1.91712523   0.02405699
5990.00   1.89453554   0.02392809
5992.00   1.86794627   0.02377679
5994.00   1.84587431   0.02365531
5996.00   1.83750725   0.02360257
5998.00   1.82921803   0.02353776
6000.00   1.81197298   0.02342732
6002.00   1.79341114   0.02330462
6004.00   1.76083231   0.02310328
6006.00   1.74360645   0.02297899
6008.00   1.72743940   0.02285517
6010.00   1.70806885   0.02269847
6012.00   1.69986641   0.02259899
6014.00   1.69384384   0.02252671
6016.00   1.65651572   0.02230213
6018.00   1.62564099   0.02211128
6020.00   1.60985339   0.02201355
6022.00   1.60657215   0.02199089
6024.00   1.60030174   0.02194421
6026.00   1.58058071   0.02182367
6028.00   1.55740261   0.02165667
6030.00   1.53093517   0.02150370
6032.00   1.50482237   0.02134460
6034.00   1.49408185   0.02124803
6036.00   1.48204184   0.02113377
6038.00   1.47238731   0.02106588
6040.00   1.44553661   0.02088844
6042.00   1.42411995   0.02073198
6044.00   1.42083943   0.02066465
6046.00   1.40302002   0.02054019
6048.00   1.37722504   0.02039324
6050.00   1.36411464   0.02029944
6052.00   1.34708261   0.02016936
6054.00   1.33154011   0.02005287
6056.00   1.31854713   0.01996789
6058.00   1.30983698   0.01989830
6060.00   1.29047585   0.01977513
6062.00   1.27924740   0.01967584
6064.00   1.27342999   0.01960285
6066.00   1.25192118   0.01946998
6068.00   1.23589671   0.01937460
6070.00   1.23336864   0.01933077
6072.00   1.22296309   0.01924827
6074.00   1.20418549   0.01912802
6076.00   1.17554569   0.01894194
6078.00   1.17315924   0.01890310
6080.00   1.15655744   0.01878022
6082.00   1.15421057   0.01875106
6084.00   1.15800202   0.01875411
6086.00   1.13449752   0.01862375
6088.00   1.11494601   0.01851122
6090.00   1.10882080   0.01848111
6092.00   1.10704052   0.01848868
6094.00   1.10613334   0.01853133
6096.00   1.10251033   0.01855143
6098.00   1.08813667   0.01853360
6100.00   1.07714736   0.01855188
6102.00   1.06574237   0.01860232
6104.00   1.07934892   0.01882712
6106.00   1.08005846   0.01907833
6108.00   1.06687629   0.01929473
6110.00   1.06031322   0.01956137
6112.00   1.06728280   0.01979721
6114.00   1.05813551   0.01981172
6116.00   1.05532610   0.01971963
6118.00   1.04761851   0.01944011
6120.00   1.04796278   0.01911367
6122.00   1.06481266   0.01888671
6124.00   1.07190979   0.01866488
6126.00   1.06247604   0.01843526
6128.00   1.06686175   0.01835021
6130.00   1.08305967   0.01838067
6132.00   1.07656014   0.01830382
6134.00   1.07318354   0.01824848
6136.00   1.07912099   0.01826422
6138.00   1.08698809   0.01832271
6140.00   1.08542717   0.01834410
6142.00   1.08565378   0.01835595
6144.00   1.09969044   0.01842382
6146.00   1.11667383   0.01850645
6148.00   1.11433482   0.01848918
6150.00   1.10912669   0.01848523
6152.00   1.11567962   0.01860355
6154.00   1.12533844   0.01875510
6156.00   1.13081431   0.01888916
6158.00   1.12743711   0.01897718
6160.00   1.13263941   0.01903137
6162.00   1.13257885   0.01892143
6164.00   1.12255561   0.01871011
6166.00   1.12440193   0.01852624
6168.00   1.12506390   0.01829826
6170.00   1.11854303   0.01805331
6172.00   1.13184977   0.01800491
6174.00   1.13362849   0.01796505
6176.00   1.12977111   0.01790346
6178.00   1.12600803   0.01780421
6180.00   1.12418807   0.01776912
6182.00   1.13001633   0.01778543
6184.00   1.14252198   0.01782965
6186.00   1.14248049   0.01782093
6188.00   1.12727106   0.01775089
6190.00   1.13447344   0.01779070
6192.00   1.13647377   0.01778430
6194.00   1.12326729   0.01769288
6196.00   1.11337757   0.01764303
6198.00   1.12062442   0.01767921
6200.00   1.10799074   0.01759318
6202.00   1.10543716   0.01757829
6204.00   1.11724937   0.01766566
6206.00   1.12059557   0.01772346
6208.00   1.11602509   0.01775106
6210.00   1.10686481   0.01770570
6212.00   1.10243738   0.01766015
6214.00   1.10675371   0.01762642
6216.00   1.11191940   0.01757485
6218.00   1.11007559   0.01751632
6220.00   1.11069214   0.01747756
6222.00   1.11048853   0.01744178
6224.00   1.11308682   0.01743751
6226.00   1.10868073   0.01739062
6228.00   1.11213875   0.01741688
6230.00   1.11803496   0.01755248
6232.00   1.13048375   0.01779499
6234.00   1.14225829   0.01804926
6236.00   1.14695168   0.01823053
6238.00   1.13765109   0.01826403
6240.00   1.13869321   0.01822658
6242.00   1.14576674   0.01812641
6244.00   1.15631378   0.01799876
6246.00   1.17583692   0.01794074
6248.00   1.18691087   0.01785483
6250.00   1.19700301   0.01790850
6252.00   1.20108974   0.01805425
6254.00   1.21245158   0.01827150
6256.00   1.21745396   0.01846504
6258.00   1.21699440   0.01856242
6260.00   1.21448791   0.01853537
6262.00   1.22531259   0.01849152
6264.00   1.22535408   0.01832904
6266.00   1.22564423   0.01817009
6268.00   1.24532163   0.01820234
6270.00   1.26491487   0.01831440
6272.00   1.25694227   0.01827206
6274.00   1.24792731   0.01823794
6276.00   1.25635922   0.01851048
6278.00   1.26784086   0.01875844
6280.00   1.27664232   0.01884328
6282.00   1.28032148   0.01881160
6284.00   1.29849184   0.01882175
6286.00   1.28791702   0.01868643
6288.00   1.27946866   0.01861136
6290.00   1.29477072   0.01868509
6292.00   1.31617785   0.01882479
6294.00   1.32066119   0.01899329
6296.00   1.31472635   0.01928991
6298.00   1.31693876   0.01968020
6300.00   1.31354034   0.01989155
6302.00   1.30976617   0.01993251
6304.00   1.30264330   0.01989230
6306.00   1.30758274   0.01970818
6308.00   1.32828963   0.01945105
6310.00   1.33208740   0.01910033
6312.00   1.32341003   0.01876860
6314.00   1.32456541   0.01853815
6316.00   1.32160556   0.01836671
6318.00   1.31266153   0.01823506
6320.00   1.29858601   0.01811038
6322.00   1.28172779   0.01798921
6324.00   1.28045237   0.01803579
6326.00   1.27935064   0.01811182
6328.00   1.27509117   0.01809508
6330.00   1.26002121   0.01796345
6332.00   1.24950457   0.01785393
6334.00   1.23650873   0.01774118
6336.00   1.22869778   0.01756196
6338.00   1.22685373   0.01740815
6340.00   1.22864687   0.01734914
6342.00   1.21054614   0.01725229
6344.00   1.18856955   0.01713380
6346.00   1.17270684   0.01705852
6348.00   1.16441715   0.01701131
6350.00   1.15753329   0.01695003
6352.00   1.14761448   0.01691122
6354.00   1.12884629   0.01686064
6356.00   1.11300576   0.01678942
6358.00   1.10074472   0.01675788
6360.00   1.08950925   0.01679060
6362.00   1.07005775   0.01666040
6364.00   1.05717218   0.01650132
6366.00   1.03965771   0.01630099
6368.00   1.02560604   0.01610825
6370.00   1.01361191   0.01588283
6372.00   0.99956423   0.01566359
6374.00   0.97758657   0.01549229
6376.00   0.96224123   0.01541689
6378.00   0.96004301   0.01544108
6380.00   0.94268751   0.01537120
6382.00   0.92585772   0.01530673
6384.00   0.92110157   0.01527754
6386.00   0.92093801   0.01522858
6388.00   0.91820645   0.01514220
6390.00   0.90221691   0.01498159
6392.00   0.89000124   0.01485396
6394.00   0.87298304   0.01466403
6396.00   0.85084146   0.01460971
6398.00   0.86610973   0.01486909
6400.00   0.87564778   0.01573929
6402.00   0.86794734   0.01596711
6404.00   0.85220122   0.01558073
6406.00   0.85351598   0.01492686
6408.00   0.83512735   0.01454152
6410.00   0.84701830   0.01446706
6412.00   0.84988761   0.01447435
6414.00   0.85098594   0.01448210
6416.00   0.85745603   0.01452339
6418.00   0.86200231   0.01454508
6420.00   0.87773103   0.01459157
6422.00   0.88007599   0.01456641
6424.00   0.88271683   0.01456408
6426.00   0.88047642   0.01452061
6428.00   0.88552642   0.01450638
6430.00   0.89834785   0.01456286
6432.00   0.90648293   0.01461226
6434.00   0.91410142   0.01465637
6436.00   0.92586160   0.01472697
6438.00   0.93823177   0.01480228
6440.00   0.95317030   0.01489051
6442.00   0.96039003   0.01493525
6444.00   0.96041369   0.01493704
6446.00   0.96001863   0.01492665
6448.00   0.97359705   0.01502774
6450.00   0.98942727   0.01513309
6452.00   0.99904794   0.01519929
6454.00   1.00908959   0.01526997
6456.00   1.02534997   0.01538156
6458.00   1.05001843   0.01554594
6460.00   1.06518459   0.01569135
6462.00   1.06981719   0.01579441
6464.00   1.06882668   0.01585964
6466.00   1.07889974   0.01598320
6468.00   1.08967352   0.01607719
6470.00   1.10407305   0.01611885
6472.00   1.11917067   0.01610621
6474.00   1.12719762   0.01604246
6476.00   1.13149464   0.01598271
6478.00   1.14192200   0.01596327
6480.00   1.15471733   0.01597933
6482.00   1.16783559   0.01601756
6484.00   1.18519938   0.01609068
6486.00   1.20606089   0.01618828
6488.00   1.21620035   0.01623406
6490.00   1.22833669   0.01631780
6492.00   1.23208904   0.01639981
6494.00   1.24063790   0.01657009
6496.00   1.25836194   0.01683653
6498.00   1.27870452   0.01704550
6500.00   1.29932988   0.01720984
6502.00   1.31582391   0.01732497
6504.00   1.32308149   0.01732706
6506.00   1.33257186   0.01724037
6508.00   1.34937322   0.01722477
6510.00   1.35763252   0.01719737
6512.00   1.36992681   0.01717936
6514.00   1.37366247   0.01710459
6516.00   1.36756742   0.01704654
6518.00   1.36727989   0.01705507
6520.00   1.38669062   0.01718258
6522.00   1.40737534   0.01731025
6524.00   1.42003286   0.01738049
6526.00   1.44557655   0.01754798
6528.00   1.45688391   0.01768886
6530.00   1.45336401   0.01774239
6532.00   1.46453321   0.01783299
6534.00   1.47706974   0.01790382
6536.00   1.48792207   0.01793749
6538.00   1.49208319   0.01789685
6540.00   1.50887144   0.01790566
6542.00   1.52541721   0.01793317
6544.00   1.53561783   0.01796217
6546.00   1.53321970   0.01796469
6548.00   1.53268754   0.01801092
6550.00   1.54680288   0.01815782
6552.00   1.56556284   0.01830091
6554.00   1.57041454   0.01833097
6556.00   1.56706131   0.01830713
6558.00   1.57065964   0.01828247
6560.00   1.57728541   0.01823316
6562.00   1.59234476   0.01822313
6564.00   1.61121953   0.01830353
6566.00   1.62041438   0.01836743
6568.00   1.61883080   0.01834955
6570.00   1.61559153   0.01831487
6572.00   1.61546910   0.01833327
6574.00   1.62982273   0.01847250
6576.00   1.64038956   0.01855504
6578.00   1.64629757   0.01857633
6580.00   1.65838301   0.01860428
6582.00   1.66961348   0.01859310
6584.00   1.65547001   0.01841343
6586.00   1.64934206   0.01829724
6588.00   1.65366209   0.01828411
6590.00   1.66199172   0.01831880
6592.00   1.66292858   0.01834541
6594.00   1.65943098   0.01835083
6596.00   1.64689291   0.01829587
6598.00   1.63991213   0.01827604
6600.00   1.64905012   0.01835419
6602.00   1.64785540   0.01836430
6604.00   1.64215362   0.01831060
6606.00   1.63736665   0.01825296
6608.00   1.63096750   0.01818410
6610.00   1.62342131   0.01808963
6612.00   1.62089527   0.01800697
6614.00   1.61053085   0.01790970
6616.00   1.60093212   0.01785405
6618.00   1.59170341   0.01781426
6620.00   1.58109093   0.01775498
6622.00   1.56925881   0.01769373
6624.00   1.56391895   0.01768243
6626.00   1.55623186   0.01766025
6628.00   1.55158138   0.01764309
6630.00   1.53394651   0.01756046
6632.00   1.51946366   0.01748983
6634.00   1.50794756   0.01741436
6636.00   1.50089169   0.01735759
6638.00   1.48086548   0.01723729
6640.00   1.46560717   0.01713604
6642.00   1.45764923   0.01705931
6644.00   1.44916284   0.01698209
6646.00   1.43042290   0.01685838
6648.00   1.41594470   0.01676855
6650.00   1.40144455   0.01669369
6652.00   1.38715637   0.01661876
6654.00   1.36350620   0.01649151
6656.00   1.34185660   0.01636948
6658.00   1.33210027   0.01630860
6660.00   1.31656253   0.01623235
6662.00   1.29453385   0.01612161
6664.00   1.27466202   0.01602049
6666.00   1.25677001   0.01591725
6668.00   1.23592436   0.01577356
6670.00   1.23312938   0.01572955
6672.00   1.21696198   0.01563318
6674.00   1.19130528   0.01548003
6676.00   1.16835582   0.01534125
6678.00   1.15304232   0.01526262
6680.00   1.12274361   0.01507373
6682.00   1.10180724   0.01494158
6684.00   1.08842528   0.01484686
6686.00   1.08003330   0.01477064
6688.00   1.06049454   0.01464273
6690.00   1.04005778   0.01449984
6692.00   1.01743925   0.01434805
6694.00   0.99870127   0.01424275
6696.00   0.98746747   0.01419581
6698.00   0.96551561   0.01407006
6700.00   0.93964624   0.01391817
6702.00   0.91963881   0.01382226
6704.00   0.91047019   0.01382864
6706.00   0.89787537   0.01379625
6708.00   0.87803441   0.01367438
6710.00   0.85763478   0.01352714
6712.00   0.83632708   0.01336432
6714.00   0.82367706   0.01321494
6716.00   0.80945629   0.01303273
6718.00   0.79640049   0.01290762
6720.00   0.78400689   0.01280526
6722.00   0.75827879   0.01261036
6724.00   0.74441022   0.01248887
6726.00   0.73803139   0.01242798
6728.00   0.72324371   0.01231778
6730.00   0.69577861   0.01210651
6732.00   0.67646152   0.01195135
6734.00   0.66870928   0.01190184
6736.00   0.66055226   0.01185472
6738.00   0.64916813   0.01175882
6740.00   0.64163369   0.01170272
6742.00   0.62674278   0.01160192
6744.00   0.61345893   0.01149686
6746.00   0.60607249   0.01140310
6748.00   0.59406382   0.01128646
6750.00   0.57979792   0.01116376
6752.00   0.57026213   0.01107921
6754.00   0.55858082   0.01097034
6756.00   0.55396146   0.01092715
6758.00   0.54502481   0.01084876
6760.00   0.53537637   0.01075893
6762.00   0.53069544   0.01069818
6764.00   0.52151000   0.01060572
6766.00   0.51369810   0.01054225
6768.00   0.50637645   0.01049363
6770.00   0.49825755   0.01041885
6772.00   0.48959795   0.01033084
6774.00   0.48462820   0.01029166
6776.00   0.47704792   0.01021992
6778.00   0.46260056   0.01008225
6780.00   0.45466745   0.01001025
6782.00   0.45037806   0.00999625
6784.00   0.44030866   0.00991746
6786.00   0.44283700   0.00990849
6788.00   0.43760952   0.00983797
6790.00   0.42868766   0.00974999
6792.00   0.42863020   0.00974078
6794.00   0.42095685   0.00966189
6796.00   0.41706964   0.00961178
6798.00   0.41635466   0.00960289
6800.00   0.41192815   0.00956597
6802.00   0.40124813   0.00946447
6804.00   0.39301810   0.00937927
6806.00   0.39092913   0.00935846
6808.00   0.38931116   0.00933057
6810.00   0.38609990   0.00928806
6812.00   0.38447252   0.00927171
6814.00   0.38635254   0.00930581
6816.00   0.38544568   0.00929708
6818.00   0.37955689   0.00924643
6820.00   0.37404466   0.00921845
6822.00   0.37393010   0.00934556
6824.00   0.37261727   0.00966032
6826.00   0.36782169   0.01001876
6828.00   0.36587122   0.01036499
6830.00   0.36653423   0.01066340
6832.00   0.36878988   0.01087414
6834.00   0.36341837   0.01069953
6836.00   0.35403028   0.01032274
6838.00   0.35486031   0.01001843
6840.00   0.35175776   0.00969477
6842.00   0.34652328   0.00934205
6844.00   0.35051799   0.00922534
6846.00   0.35551643   0.00920925
6848.00   0.35306308   0.00910953
6850.00   0.34887102   0.00896896
6852.00   0.34899235   0.00893914
6854.00   0.35340014   0.00897174
6856.00   0.35659721   0.00907668
6858.00   0.35851002   0.00938891
6860.00   0.35567430   0.00988762
6862.00   0.35361877   0.01029601
6864.00   0.35458517   0.01073127
6866.00   0.36031020   0.01147128
6868.00   0.35621879   0.01225459
6870.00   0.34900010   0.01234650
6872.00   0.34943047   0.01174544
6874.00   0.35770318   0.01120143
6876.00   0.36231399   0.01082255
6878.00   0.36856982   0.01048919
6880.00   0.37198314   0.01010483
6882.00   0.37166187   0.00989206
6884.00   0.37542549   0.01002229
6886.00   0.37949964   0.01030209
6888.00   0.37795892   0.01042136
6890.00   0.37341562   0.01039793
6892.00   0.37694809   0.01042384
6894.00   0.37908599   0.01036436
6896.00   0.38102803   0.01025785
6898.00   0.38361248   0.01018353
6900.00   0.38831010   0.01015400
6902.00   0.38486186   0.01005024
6904.00   0.38377419   0.00998333
6906.00   0.38720956   0.00998080
6908.00   0.38768157   0.01004447
6910.00   0.39351797   0.01017145
6912.00   0.39864811   0.01024525
6914.00   0.40062842   0.01022356
6916.00   0.39833674   0.01014361
6918.00   0.40121698   0.01019877
6920.00   0.40754279   0.01034854
6922.00   0.41172969   0.01043452
6924.00   0.41249478   0.01044201
6926.00   0.41328523   0.01043032
6928.00   0.41390276   0.01031755
6930.00   0.41557261   0.01006568
6932.00   0.40957808   0.00979523
6934.00   0.40797186   0.00974955
6936.00   0.41769624   0.00999120
6938.00   0.42834708   0.01027625
6940.00   0.42318550   0.01033579
6942.00   0.41244653   0.01030643
6944.00   0.41790900   0.01048016
6946.00   0.42771339   0.01072854
6948.00   0.43451023   0.01083338
6950.00   0.43868724   0.01084822
6952.00   0.44088623   0.01078790
6954.00   0.44231907   0.01060533
6956.00   0.44559395   0.01028025
6958.00   0.44496623   0.01003841
6960.00   0.43885741   0.00987459
6962.00   0.43776527   0.00982252
6964.00   0.44599882   0.00990795
6966.00   0.44592050   0.00997525
6968.00   0.44594026   0.01001713
6970.00   0.44507214   0.01002989
6972.00   0.44458461   0.01008992
6974.00   0.45154533   0.01031259
6976.00   0.44851664   0.01040666
6978.00   0.45148644   0.01044467
6980.00   0.45278242   0.01042287
6982.00   0.45836857   0.01039835
6984.00   0.46001038   0.01028544
6986.00   0.45819137   0.01010449
6988.00   0.46207497   0.01003532
6990.00   0.45851704   0.00997883
6992.00   0.45620224   0.00996087
6994.00   0.46129677   0.00997531
6996.00   0.47312334   0.01007386
6998.00   0.47284976   0.01011563
7000.00   0.46753907   0.01011979
7002.00   0.46449840   0.01013347
7004.00   0.46441212   0.01016567
7006.00   0.46467543   0.01023885
7008.00   0.46751860   0.01032643
7010.00   0.47532991   0.01038256
7012.00   0.47688660   0.01033357
7014.00   0.46872672   0.01025259
7016.00   0.47118339   0.01023722
7018.00   0.47969031   0.01020511
7020.00   0.47986424   0.01008553
7022.00   0.47150525   0.00994365
7024.00   0.47394952   0.00998697
7026.00   0.47630921   0.01008112
7028.00   0.47752616   0.01013450
7030.00   0.47900769   0.01013974
7032.00   0.48109639   0.01010328
7034.00   0.48372293   0.01009025
7036.00   0.47619215   0.01005599
7038.00   0.47134116   0.01003953
7040.00   0.47593388   0.01007696
7042.00   0.47477570   0.01010170
7044.00   0.47059330   0.01014501
7046.00   0.47684002   0.01027345
7048.00   0.47803703   0.01034082
7050.00   0.47206950   0.01030709
7052.00   0.47019148   0.01026801
7054.00   0.47228697   0.01019648
7056.00   0.47614694   0.01014922
7058.00   0.47852293   0.01012938
7060.00   0.48206827   0.01015003
7062.00   0.47680435   0.01011101
7064.00   0.48505178   0.01018193
7066.00   0.48176658   0.01018444
7068.00   0.48124686   0.01019805
7070.00   0.47395316   0.01010412
7072.00   0.47196341   0.01005987
7074.00   0.47269014   0.01005834
7076.00   0.47277066   0.01006254
7078.00   0.47138882   0.01007482
7080.00   0.47664288   0.01013564
7082.00   0.47684953   0.01011384
7084.00   0.47352991   0.01008932
7086.00   0.47076297   0.01010162
7088.00   0.47062585   0.01013661
7090.00   0.46974882   0.01014841
7092.00   0.47291532   0.01013894
7094.00   0.47656500   0.01013480
7096.00   0.47726342   0.01005972
7098.00   0.47444925   0.00992059
7100.00   0.47382191   0.00986154
7102.00   0.47352365   0.00984476
7104.00   0.47475037   0.00986423
7106.00   0.47634959   0.00988742
7108.00   0.47322166   0.00985407
7110.00   0.47567645   0.00986487
7112.00   0.47606769   0.00985477
7114.00   0.47628567   0.00985860
7116.00   0.48209834   0.00992825
7118.00   0.48532787   0.00997133
7120.00   0.47358885   0.00987712
7122.00   0.46493962   0.00983902
7124.00   0.47636637   0.00997582
7126.00   0.48477268   0.01005326
7128.00   0.48011780   0.01002561
7130.00   0.47631040   0.00999089
7132.00   0.47691783   0.00999466
7134.00   0.48230782   0.01001874
7136.00   0.48803446   0.01003645
7138.00   0.48217690   0.01000406
7140.00   0.48838493   0.01009016
7142.00   0.49443731   0.01020452
7144.00   0.49499857   0.01026404
7146.00   0.49334559   0.01024330
7148.00   0.49184465   0.01022183
7150.00   0.49497938   0.01022069
7152.00   0.50244087   0.01022760
7154.00   0.50521827   0.01020234
7156.00   0.50640529   0.01019629
7158.00   0.51659101   0.01030174
7160.00   0.52042943   0.01037911
7162.00   0.52462274   0.01046145
7164.00   0.52338797   0.01052392
7166.00   0.52511263   0.01071121
7168.00   0.53232455   0.01096022
7170.00   0.53362840   0.01116818
7172.00   0.53651386   0.01133375
7174.00   0.53781945   0.01141779
7176.00   0.53907067   0.01147284
7178.00   0.53332013   0.01138696
7180.00   0.54309398   0.01138412
7182.00   0.55385286   0.01147392
7184.00   0.55408686   0.01166156
7186.00   0.54916167   0.01171903
7188.00   0.56572253   0.01177382
7190.00   0.57135034   0.01172489
7192.00   0.57198578   0.01170711
7194.00   0.58343571   0.01182071
7196.00   0.59299833   0.01184188
7198.00   0.59653544   0.01189090
7200.00   0.59657961   0.01197022
7202.00   0.59104061   0.01193724
7204.00   0.59673697   0.01188078
7206.00   0.60899377   0.01181095
7208.00   0.61338860   0.01160201
7210.00   0.61813122   0.01138135
7212.00   0.62836409   0.01128641
7214.00   0.63630676   0.01129339
7216.00   0.63122183   0.01125679
7218.00   0.63899785   0.01130314
7220.00   0.64447153   0.01135361
7222.00   0.64520049   0.01142104
7224.00   0.66325092   0.01162282
7226.00   0.66080779   0.01163944
7228.00   0.65269959   0.01159704
7230.00   0.65282750   0.01173355
7232.00   0.66544276   0.01224720
7234.00   0.67214924   0.01303900
7236.00   0.67965716   0.01397622
7238.00   0.68872076   0.01472762
7240.00   0.69291568   0.01544509
7242.00   0.70237476   0.01619774
7244.00   0.70750135   0.01624960
7246.00   0.70812792   0.01555511
7248.00   0.71744663   0.01487846
7250.00   0.72312266   0.01440579
7252.00   0.72824687   0.01397093
7254.00   0.72464961   0.01342133
7256.00   0.72744972   0.01309286
7258.00   0.72997379   0.01288948
7260.00   0.73469996   0.01276917
7262.00   0.72627330   0.01267526
7264.00   0.74015433   0.01283921
7266.00   0.74597996   0.01283703
7268.00   0.74621409   0.01278681
7270.00   0.74981850   0.01312364
7272.00   0.76937300   0.01426628
7274.00   0.77362639   0.01536395
7276.00   0.76801032   0.01586213
7278.00   0.77304608   0.01595562
7280.00   0.78644705   0.01576694
7282.00   0.78852850   0.01498707
7284.00   0.78340262   0.01404646
7286.00   0.79773265   0.01386249
7288.00   0.80266362   0.01407384
7290.00   0.80719346   0.01415957
7292.00   0.81257528   0.01388949
7294.00   0.81036854   0.01356873
7296.00   0.81005424   0.01333135
7298.00   0.81601596   0.01336141
7300.00   0.82196403   0.01368604
7302.00   0.81424505   0.01386521
7304.00   0.82395905   0.01389188
7306.00   0.82772350   0.01379188
7308.00   0.82748252   0.01375796
7310.00   0.83525872   0.01390786
7312.00   0.83875304   0.01447671
7314.00   0.84034920   0.01499364
7316.00   0.84866160   0.01527661
7318.00   0.85685724   0.01526961
7320.00   0.86869240   0.01498299
7322.00   0.86851043   0.01420572
7324.00   0.86504763   0.01363546
7326.00   0.86498660   0.01358826
7328.00   0.87336779   0.01381462
7330.00   0.87371987   0.01388895
7332.00   0.87234849   0.01389457
7334.00   0.87759668   0.01397457
7336.00   0.88852024   0.01433399
7338.00   0.89167541   0.01486824
7340.00   0.88748950   0.01501129
7342.00   0.88834625   0.01504537
7344.00   0.89198500   0.01502016
7346.00   0.90100843   0.01469518
7348.00   0.89899969   0.01386593
7350.00   0.89980012   0.01336177
7352.00   0.89969081   0.01329989
7354.00   0.89605659   0.01351038
7356.00   0.89828801   0.01381100
7358.00   0.90767545   0.01398268
7360.00   0.91244245   0.01405183
7362.00   0.91965842   0.01415624
7364.00   0.91855425   0.01432236
7366.00   0.91203719   0.01455423
7368.00   0.90865225   0.01467419
7370.00   0.90986109   0.01470223
7372.00   0.89578867   0.01452405
7374.00   0.88996154   0.01412706
7376.00   0.89948368   0.01355085
7378.00   0.91782445   0.01325929
7380.00   0.91834116   0.01318416
7382.00   0.90956426   0.01312399
7384.00   0.89476275   0.01302675
7386.00   0.88690418   0.01303177
7388.00   0.88123769   0.01326201
7390.00   0.88554198   0.01347978
7392.00   0.88660073   0.01354130
7394.00   0.88650626   0.01356713
7396.00   0.88074970   0.01367012
7398.00   0.87808722   0.01389691
7400.00   0.87506419   0.01398001
7402.00   0.87913638   0.01398563
7404.00   0.87730056   0.01389444
7406.00   0.87222165   0.01370977
7408.00   0.85753471   0.01320157
7410.00   0.85679406   0.01281355
7412.00   0.86032695   0.01265624
7414.00   0.85607415   0.01263512
7416.00   0.84748310   0.01260056
7418.00   0.84955090   0.01258940
7420.00   0.84070182   0.01249991
7422.00   0.82690114   0.01240234
7424.00   0.82216650   0.01243567
7426.00   0.82055479   0.01258798
7428.00   0.82571316   0.01270721
7430.00   0.82625145   0.01274720
7432.00   0.82092470   0.01281228
7434.00   0.81385463   0.01295480
7436.00   0.80217344   0.01297016
7438.00   0.80051059   0.01293765
7440.00   0.80522418   0.01293061
7442.00   0.80232638   0.01284298
7444.00   0.79462379   0.01257891
7446.00   0.79551291   0.01229866
7448.00   0.79685766   0.01216787
7450.00   0.78927565   0.01208863
7452.00   0.77581328   0.01200562
7454.00   0.78489894   0.01207694
7456.00   0.79144639   0.01214750
7458.00   0.79673123   0.01222991
7460.00   0.79493350   0.01230030
7462.00   0.78421706   0.01233609
7464.00   0.77644444   0.01236167
7466.00   0.77257413   0.01245196
7468.00   0.78088886   0.01266319
7470.00   0.79194707   0.01285005
7472.00   0.79098731   0.01286999
7474.00   0.78706759   0.01287457
7476.00   0.78964359   0.01298639
7478.00   0.79343623   0.01306941
7480.00   0.79651785   0.01308634
7482.00   0.79978985   0.01306792
7484.00   0.79688531   0.01295853
7486.00   0.79366797   0.01277168
7488.00   0.79470557   0.01259568
7490.00   0.79978353   0.01246607
7492.00   0.80776471   0.01241693
7494.00   0.81295556   0.01241152
7496.00   0.81458473   0.01242547
7498.00   0.80986476   0.01236940
7500.00   0.80981332   0.01230762
7502.00   0.82350451   0.01234636
7504.00   0.83770353   0.01243841
7506.00   0.83463222   0.01240682
7508.00   0.83409500   0.01238359
7510.00   0.84052199   0.01243195
7512.00   0.84719563   0.01252816
7514.00   0.84135795   0.01253685
7516.00   0.83771712   0.01259822
7518.00   0.84414130   0.01292205
7520.00   0.85557252   0.01345688
7522.00   0.86671543   0.01383525
7524.00   0.86915845   0.01394463
7526.00   0.87243062   0.01401531
7528.00   0.87646502   0.01395692
7530.00   0.88396883   0.01363767
7532.00   0.87595063   0.01318525
7534.00   0.87557954   0.01300325
7536.00   0.87824279   0.01294594
7538.00   0.87854642   0.01286305
7540.00   0.87258726   0.01275836
7542.00   0.87919360   0.01279161
7544.00   0.88653660   0.01282637
7546.00   0.89054924   0.01280913
7548.00   0.89461190   0.01279669
7550.00   0.90081209   0.01283608
7552.00   0.89662290   0.01288505
7554.00   0.89606142   0.01297634
7556.00   0.89912301   0.01306485
7558.00   0.90009499   0.01308521
7560.00   0.89670688   0.01304886
7562.00   0.90018177   0.01305744
7564.00   0.90860748   0.01312810
7566.00   0.91525120   0.01330186
7568.00   0.91994619   0.01361280
7570.00   0.91205215   0.01381458
7572.00   0.90981436   0.01387392
7574.00   0.91341716   0.01386015
7576.00   0.91194552   0.01369831
7578.00   0.90064597   0.01333189
7580.00   0.89875096   0.01306774
7582.00   0.90205699   0.01308059
7584.00   0.90146381   0.01316402
7586.00   0.89847636   0.01318764
7588.00   0.90252781   0.01323082
7590.00   0.89905709   0.01330350
7592.00   0.89558131   0.01415811
7594.00   0.88755131   0.01626070
7596.00   0.88498259   0.01957403
7598.00   0.86927372   0.02295989
7600.00   0.86091286   0.02753370
7602.00   0.86587554   0.03238575
7604.00   0.86834449   0.03553986
7606.00   0.84715605   0.03550886
7608.00   0.85809159   0.03305184
7610.00   0.85343790   0.02914369
7612.00   0.84182626   0.02469405
7614.00   0.83176976   0.02049957
7616.00   0.82733077   0.01748245
7618.00   0.81777555   0.01582975
7620.00   0.81873912   0.01573538
7622.00   0.81410056   0.01675571
7624.00   0.79810852   0.01820041
7626.00   0.78940511   0.01949774
7628.00   0.77773124   0.02000188
7630.00   0.77146941   0.01999678
7632.00   0.76769733   0.01964758
7634.00   0.76724362   0.01906680
7636.00   0.75148249   0.01815404
7638.00   0.74101633   0.01740359
7640.00   0.73644108   0.01684409
7642.00   0.72980386   0.01633202
7644.00   0.71783859   0.01583864
7646.00   0.70933390   0.01534042
7648.00   0.69672102   0.01494210
7650.00   0.69351482   0.01465928
7652.00   0.69584018   0.01439366
7654.00   0.69596958   0.01413811
7656.00   0.68814296   0.01385763
7658.00   0.68500346   0.01377127
7660.00   0.68133903   0.01361791
7662.00   0.66902304   0.01326420
7664.00   0.66307396   0.01299277
7666.00   0.65361601   0.01268792
7668.00   0.63820642   0.01226699
7670.00   0.63643354   0.01195082
7672.00   0.64022428   0.01175113
7674.00   0.63076895   0.01156326
7676.00   0.63564539   0.01155666
7678.00   0.63108271   0.01145327
7680.00   0.62453407   0.01136042
7682.00   0.61667627   0.01132929
7684.00   0.61501807   0.01133677
7686.00   0.62093639   0.01139090
7688.00   0.62457347   0.01142368
7690.00   0.61979681   0.01139399
7692.00   0.62555188   0.01145977
7694.00   0.62699372   0.01156243
7696.00   0.62253267   0.01163654
7698.00   0.62060666   0.01162081
7700.00   0.62810832   0.01161467
7702.00   0.63828379   0.01164440
7704.00   0.63920116   0.01155233
7706.00   0.63675070   0.01169962
7708.00   0.62828344   0.01238813
7710.00   0.63547206   0.01344320
7712.00   0.65052634   0.01446224
7714.00   0.65260750   0.01526182
7716.00   0.64888215   0.01537752
7718.00   0.64356178   0.01492994
7720.00   0.64100236   0.01425490
7722.00   0.65970802   0.01367294
7724.00   0.66966838   0.01290029
7726.00   0.67978817   0.01248815
7728.00   0.68158770   0.01231884
7730.00   0.68311054   0.01217684
7732.00   0.70052749   0.01211535
7734.00   0.70049477   0.01195726
7736.00   0.71042609   0.01193351
7738.00   0.72005194   0.01197022
7740.00   0.72628403   0.01204393
7742.00   0.73317569   0.01208566
7744.00   0.74496800   0.01262555
7746.00   0.75308663   0.01376002
7748.00   0.75556564   0.01471311
7750.00   0.76292282   0.01506748
7752.00   0.76750678   0.01514750
7754.00   0.77186078   0.01509708
7756.00   0.77388936   0.01461265
7758.00   0.77677137   0.01386995
7760.00   0.78350526   0.01343533
7762.00   0.79019523   0.01338546
7764.00   0.80234462   0.01332169
7766.00   0.81107301   0.01304188
7768.00   0.82271975   0.01283835
7770.00   0.82934076   0.01294471
7772.00   0.83545035   0.01304351
7774.00   0.84727240   0.01323104
7776.00   0.85523385   0.01351006
7778.00   0.84843022   0.01364144
7780.00   0.84678823   0.01354257
7782.00   0.85334390   0.01349152
7784.00   0.85708302   0.01342309
7786.00   0.86200768   0.01335014
7788.00   0.86659908   0.01359217
7790.00   0.87128288   0.01443898
7792.00   0.86721295   0.01491365
7794.00   0.86578274   0.01501647
7796.00   0.88208038   0.01504004
7798.00   0.89278668   0.01481677
7800.00   0.88331652   0.01396811
7802.00   0.88697225   0.01341862
7804.00   0.89122123   0.01349133
7806.00   0.89709848   0.01387005
7808.00   0.90481734   0.01411149
7810.00   0.91649866   0.01422772
7812.00   0.92289400   0.01415512
7814.00   0.92211574   0.01403836
7816.00   0.92238808   0.01436698
7818.00   0.91175526   0.01515494
7820.00   0.90718102   0.01562982
7822.00   0.90854090   0.01570099
7824.00   0.91069716   0.01557716
7826.00   0.91528565   0.01516493
7828.00   0.92322683   0.01421898
7830.00   0.92016393   0.01345928
7832.00   0.91476488   0.01318006
7834.00   0.90920192   0.01324038
7836.00   0.90197229   0.01347857
7838.00   0.90184975   0.01381061
7840.00   0.90661269   0.01400050
7842.00   0.90618008   0.01405711
7844.00   0.90312523   0.01413285
7846.00   0.89096886   0.01430798
7848.00   0.88953280   0.01497755
7850.00   0.89110565   0.01568482
7852.00   0.89326710   0.01607944
7854.00   0.88428849   0.01617969
7856.00   0.87885475   0.01630722
7858.00   0.87113518   0.01589541
7860.00   0.86587900   0.01501465
7862.00   0.86738855   0.01439574
7864.00   0.87279719   0.01437664
7866.00   0.86424810   0.01449658
7868.00   0.85727280   0.01448524
7870.00   0.85059124   0.01442408
7872.00   0.85148835   0.01443337
7874.00   0.85559577   0.01447193
7876.00   0.85441017   0.01439992
7878.00   0.83442158   0.01411768
7880.00   0.81906158   0.01390924
7882.00   0.80870914   0.01387642
7884.00   0.80720592   0.01407220
7886.00   0.80484557   0.01435003
7888.00   0.79673773   0.01442496
7890.00   0.79306251   0.01438495
7892.00   0.79556608   0.01435119
7894.00   0.79337221   0.01413672
7896.00   0.78664827   0.01344958
7898.00   0.77856070   0.01277817
7900.00   0.76436210   0.01243194
7902.00   0.75193214   0.01232526
7904.00   0.75155205   0.01231005
7906.00   0.74541920   0.01257813
7908.00   0.73794478   0.01348561
7910.00   0.73101330   0.01458032
7912.00   0.71738595   0.01531956
7914.00   0.70087963   0.01567859
7916.00   0.69055653   0.01596329
7918.00   0.68751335   0.01565602
7920.00   0.68955827   0.01468650
7922.00   0.68850583   0.01373846
7924.00   0.67736059   0.01345022
7926.00   0.66717166   0.01328833
7928.00   0.66373003   0.01313362
7930.00   0.65930396   0.01297301
7932.00   0.64859867   0.01277285
7934.00   0.63399523   0.01252686
7936.00   0.62787658   0.01216401
7938.00   0.62212276   0.01165452
7940.00   0.61805683   0.01127603
7942.00   0.61314970   0.01125759
7944.00   0.60711962   0.01150848
7946.00   0.59506172   0.01174279
7948.00   0.58394480   0.01180179
7950.00   0.57655269   0.01172864
7952.00   0.56676871   0.01158017
7954.00   0.56341863   0.01128300
7956.00   0.55285817   0.01090144
7958.00   0.54659241   0.01112391
7960.00   0.54656285   0.01210033
7962.00   0.53912139   0.01302673
7964.00   0.52480823   0.01323389
7966.00   0.51544887   0.01318218
7968.00   0.51014382   0.01289595
7970.00   0.50402790   0.01216634
7972.00   0.49641934   0.01118815
7974.00   0.48319426   0.01098831
7976.00   0.47594297   0.01127870
7978.00   0.47372934   0.01154341
7980.00   0.47109962   0.01155114
7982.00   0.47054949   0.01143797
7984.00   0.46416965   0.01102403
7986.00   0.45540276   0.01070232
7988.00   0.44857407   0.01114758
7990.00   0.43971264   0.01221153
7992.00   0.43117622   0.01264422
7994.00   0.42702982   0.01273493
7996.00   0.41847262   0.01258657
7998.00   0.41220832   0.01197401
8000.00   0.40378657   0.01064716
8002.00   0.39815128   0.00971040
8004.00   0.39418134   0.00936822
8006.00   0.38981190   0.00934045
8008.00   0.38016641   0.00947450
8010.00   0.37195143   0.00981367
8012.00   0.37196150   0.01006427
8014.00   0.36483559   0.01010294
8016.00   0.34887075   0.00998038
8018.00   0.34705254   0.00997598
8020.00   0.34128276   0.01022712
8022.00   0.34116414   0.01093198
8024.00   0.33352980   0.01139004
8026.00   0.32274032   0.01150079
8028.00   0.31554607   0.01135183
8030.00   0.30972752   0.01085361
8032.00   0.30783129   0.00986672
8034.00   0.30149150   0.00891637
8036.00   0.29473162   0.00840293
8038.00   0.28877386   0.00824065
8040.00   0.28455091   0.00814493
8042.00   0.27859166   0.00805952
8044.00   0.27119994   0.00804870
8046.00   0.26457858   0.00817826
8048.00   0.25688502   0.00839320
8050.00   0.25017595   0.00849529
8052.00   0.24786110   0.00849059
8054.00   0.24829693   0.00850916
8056.00   0.24803311   0.00866127
8058.00   0.24101180   0.00889838
8060.00   0.23322982   0.00903570
8062.00   0.22175427   0.00898606
8064.00   0.21334891   0.00886443
8066.00   0.20820363   0.00860404
8068.00   0.20514667   0.00796857
8070.00   0.19604339   0.00725826
8072.00   0.18795557   0.00691743
8074.00   0.18308403   0.00688915
8076.00   0.18191598   0.00690586
8078.00   0.18276356   0.00693301
8080.00   0.18011968   0.00694672
8082.00   0.17061825   0.00685258
8084.00   0.16163045   0.00672032
8086.00   0.16165490   0.00671621
8088.00   0.15648212   0.00675620
8090.00   0.14954618   0.00680897
8092.00   0.14902052   0.00687004
8094.00   0.14930359   0.00687874
8096.00   0.13870546   0.00688250
8098.00   0.13122304   0.00706059
8100.00   0.13160409   0.00719544
8102.00   0.12909155   0.00714543
8104.00   0.12280327   0.00704759
8106.00   0.11655674   0.00692170
8108.00   0.11550436   0.00665221
8110.00   0.11465272   0.00632530
8112.00   0.11182372   0.00611781
8114.00   0.10889379   0.00606217
8116.00   0.10210454   0.00591947
8118.00   0.10067252   0.00586844
8120.00   0.09943690   0.00583447
8122.00   0.09712067   0.00577955
8124.00   0.09260660   0.00569914
8126.00   0.08505824   0.00557272
8128.00   0.08678434   0.00560710
8130.00   0.08717036   0.00571030
8132.00   0.08496368   0.00586348
8134.00   0.08220246   0.00600631
8136.00   0.07802582   0.00605501
8138.00   0.07592877   0.00602449
8140.00   0.07666918   0.00609806
8142.00   0.07552294   0.00619579
8144.00   0.07051453   0.00618215
8146.00   0.07252886   0.00618114
8148.00   0.07115275   0.00615316
8150.00   0.06767098   0.00605400
8152.00   0.06847259   0.00592390
8154.00   0.06971253   0.00573912
8156.00   0.06252065   0.00547313
8158.00   0.06206759   0.00545734
8160.00   0.06595976   0.00567332
8162.00   0.06268254   0.00586202
8164.00   0.06158525   0.00584517
8166.00   0.05814992   0.00571341
8168.00   0.05565779   0.00569787
8170.00   0.05487688   0.00574791
8172.00   0.05542331   0.00575047
8174.00   0.05330051   0.00596423
8176.00   0.05221051   0.00674104
8178.00   0.05086457   0.00799116
8180.00   0.05399254   0.00913608
8182.00   0.06103120   0.00962749
8184.00   0.05957176   0.00966861
8186.00   0.05242568   0.00971260
8188.00   0.05008643   0.00989716
8190.00   0.05434397   0.01028026
8192.00   0.05884296   0.01070636
8194.00   0.06086044   0.01083356
8196.00   0.05800725   0.01089207
8198.00   0.05220780   0.01062935
8200.00   0.05039822   0.00968780
8202.00   0.05578867   0.00817517
8204.00   0.05107994   0.00708303
8206.00   0.05225348   0.00668218
8208.00   0.05399717   0.00652125
8210.00   0.05084275   0.00628552
8212.00   0.04739405   0.00607453
8214.00   0.05133506   0.00586325
8216.00   0.05174772   0.00563943
8218.00   0.04698843   0.00542674
8220.00   0.04597681   0.00537268
8222.00   0.04815149   0.00534880
8224.00   0.04673791   0.00540987
8226.00   0.04463543   0.00569636
8228.00   0.04085729   0.00594753
8230.00   0.03958205   0.00586664
8232.00   0.04230621   0.00556279
8234.00   0.04325492   0.00524613
8236.00   0.04067866   0.00498532
8238.00   0.03881429   0.00487656
8240.00   0.03769642   0.00489412
8242.00   0.03719768   0.00499084
8244.00   0.03967473   0.00509400
8246.00   0.04202633   0.00507510
8248.00   0.04121297   0.00491393
8250.00   0.03913225   0.00480320
8252.00   0.04075277   0.00485656
8254.00   0.04207258   0.00490656
8256.00   0.03954989   0.00484991
8258.00   0.03898155   0.00479776
8260.00   0.03946180   0.00474566
8262.00   0.03992270   0.00469251
8264.00   0.04009466   0.00464230
8266.00   0.04299585   0.00464088
8268.00   0.04299654   0.00460936
8270.00   0.04291445   0.00471350
8272.00   0.04413933   0.00530324
8274.00   0.04322486   0.00650408
8276.00   0.04094312   0.00798508
8278.00   0.04197389   0.00928391
8280.00   0.04374973   0.00997230
8282.00   0.04567711   0.01052966
8284.00   0.04848053   0.01120416
8286.00   0.04560900   0.01152204
8288.00   0.04356128   0.01101195
8290.00   0.04751136   0.01054466
8292.00   0.04619753   0.01065917
8294.00   0.04185998   0.01091786
8296.00   0.04100672   0.01088993
8298.00   0.04796959   0.01076076
8300.00   0.05468487   0.01068448
8302.00   0.05300725   0.01015333
8304.00   0.05233411   0.00898819
8306.00   0.04826875   0.00744609
8308.00   0.04897081   0.00689409
8310.00   0.05124707   0.00682993
8312.00   0.05317846   0.00689461
8314.00   0.05379241   0.00687903
8316.00   0.05521034   0.00652089
8318.00   0.05498080   0.00580737
8320.00   0.05593034   0.00544707
8322.00   0.05489211   0.00525126
8324.00   0.05695103   0.00508099
8326.00   0.05935985   0.00493458
8328.00   0.06198185   0.00496118
8330.00   0.06050311   0.00497775
8332.00   0.06072653   0.00505259
8334.00   0.06565204   0.00524134
8336.00   0.06293836   0.00564939
8338.00   0.06473568   0.00781683
8340.00   0.06896272   0.01108780
8342.00   0.07171167   0.01319359
8344.00   0.07919130   0.01365857
8346.00   0.07862539   0.01380668
8348.00   0.07763431   0.01391308
8350.00   0.07794022   0.01262394
8352.00   0.07918557   0.01043855
8354.00   0.07665666   0.00920120
8356.00   0.07740805   0.00886650
8358.00   0.07591272   0.00813192
8360.00   0.07918601   0.00745326
8362.00   0.08799437   0.00733217
8364.00   0.09122039   0.00742503
8366.00   0.08643010   0.00730285
8368.00   0.08324830   0.00699630
8370.00   0.08369277   0.00645141
8372.00   0.08611725   0.00584381
8374.00   0.08796597   0.00569517
8376.00   0.09331048   0.00645020
8378.00   0.10114641   0.00759569
8380.00   0.10279128   0.00832863
8382.00   0.09834343   0.00845982
8384.00   0.10151800   0.00842356
8386.00   0.10398827   0.00809775
8388.00   0.10397947   0.00721510
8390.00   0.10868304   0.00636794
#8392.00   0.12547596   0.00670004
#8394.00   0.10472065   0.00940283
#8396.00   0.08924723   0.01213222
#8398.00   0.09421130   0.01321322
8400.00   0.12052422   0.01258796
#8402.00   0.11236819   0.01142554
#8404.00   0.17219956   0.01052448
8406.00   0.13053712   0.00822634
8408.00   0.13527876   0.00690462
#8410.00   0.15874517   0.00771558
8412.00   0.13573457   0.00857132
8414.00   0.13834448   0.00901988
8416.00   0.14661439   0.00910645
8418.00   0.15032186   0.00898189
8420.00   0.15324940   0.00847143
8422.00   0.15773202   0.00783891
8424.00   0.16438980   0.00877329
8426.00   0.17685579   0.01114080
8428.00   0.18864803   0.01286399
8430.00   0.19439737   0.01324634
8432.00   0.19417326   0.01315066
8434.00   0.19330220   0.01234785
8436.00   0.19951735   0.01047536
8438.00   0.20410760   0.00822258
8440.00   0.20611636   0.00707130
8442.00   0.21340555   0.00711051
8444.00   0.21538992   0.00720077
8446.00   0.21938515   0.00779904
8448.00   0.23423465   0.00909631
8450.00   0.25623995   0.01064818
8452.00   0.26090530   0.01098702
#8454.00   0.29181942   0.00989649
#8456.00   0.25632662   0.00966448
8458.00   0.28054920   0.01043734
8460.00   0.27992880   0.01057207
8462.00   0.27821958   0.01179344
8464.00   0.27754548   0.01237507
8466.00   0.27903858   0.01246827
8468.00   0.28989220   0.01232897
8470.00   0.29422566   0.01151846
8472.00   0.30015063   0.00982045
8474.00   0.30234721   0.00854031
8476.00   0.30449331   0.00819269
8478.00   0.31175229   0.00829916
8480.00   0.31789839   0.00831806
8482.00   0.32142401   0.00828176
8484.00   0.32880983   0.00833291
8486.00   0.33094001   0.00848898
8488.00   0.33287120   0.00895726
8490.00   0.34275380   0.00969658
8492.00   0.34649637   0.01004291
8494.00   0.34971121   0.01014957
8496.00   0.35757330   0.01021666
8498.00   0.36729515   0.01035904
8500.00   0.36728087   0.01078350
8502.00   0.36046067   0.01124164
8504.00   0.36913767   0.01153721
8506.00   0.38417742   0.01162922
8508.00   0.38360247   0.01140719
8510.00   0.38464198   0.01060863
8512.00   0.38601318   0.00957403
8514.00   0.39457497   0.00901725
8516.00   0.40068117   0.00898651
8518.00   0.38560960   0.00890840
8520.00   0.39128482   0.00897960
8522.00   0.40276715   0.00907596
8524.00   0.41206393   0.00914244
8526.00   0.42043510   0.00919363
8528.00   0.42176914   0.00917173
8530.00   0.42336950   0.00916614
8532.00   0.43022239   0.00935399
8534.00   0.43537799   0.00967917
8536.00   0.42964387   0.00989233
8538.00   0.42950764   0.00997199
8540.00   0.43910909   0.01007259
8542.00   0.44631410   0.01028385
8544.00   0.44225988   0.01051318
8546.00   0.43391776   0.01063731
8548.00   0.44099250   0.01073752
8550.00   0.45500824   0.01084546
8552.00   0.45983925   0.01075300
8554.00   0.45404077   0.01032171
8556.00   0.44931388   0.00974523
8558.00   0.44824862   0.00941596
8560.00   0.45328429   0.00939015
8562.00   0.45567238   0.00942015
8564.00   0.45858899   0.00944522
8566.00   0.45998129   0.00946347
8568.00   0.46444812   0.00952961
8570.00   0.46281478   0.00955622
8572.00   0.46489891   0.00961976
8574.00   0.46708485   0.00967239
8576.00   0.46776590   0.00967650
8578.00   0.46635762   0.00963633
8580.00   0.46806827   0.00963356
8582.00   0.46972728   0.00968146
8584.00   0.47039437   0.00979815
8586.00   0.47238612   0.00993288
8588.00   0.47188672   0.00997087
8590.00   0.46753958   0.00999859
8592.00   0.47576299   0.01018485
8594.00   0.48746848   0.01037068
8596.00   0.47827992   0.01025112
8598.00   0.46617317   0.01012612
8600.00   0.47297069   0.01013489
8602.00   0.48759630   0.01013236
8604.00   0.48633602   0.00993379
8606.00   0.47550702   0.00979361
8608.00   0.47578815   0.00991282
8610.00   0.47762242   0.01013832
8612.00   0.47733489   0.01042557
8614.00   0.48419023   0.01085831
8616.00   0.48986468   0.01133879
8618.00   0.49312636   0.01181184
8620.00   0.48969713   0.01223801
8622.00   0.48250148   0.01265990
8624.00   0.47897255   0.01301248
8626.00   0.48588696   0.01334531
8628.00   0.48359227   0.01350924
8630.00   0.47324792   0.01348312
8632.00   0.47217229   0.01337109
8634.00   0.47965240   0.01313893
8636.00   0.47767639   0.01273113
8638.00   0.47618091   0.01222905
8640.00   0.48057628   0.01172810
8642.00   0.48438153   0.01133776
8644.00   0.48342243   0.01120950
8646.00   0.48339438   0.01140461
8648.00   0.48054576   0.01176405
8650.00   0.48318994   0.01228579
8652.00   0.49096799   0.01285388
8654.00   0.49980697   0.01324864
8656.00   0.49252915   0.01336257
8658.00   0.48480806   0.01335381
8660.00   0.48875535   0.01338542
8662.00   0.48941767   0.01330449
8664.00   0.48555708   0.01316834
8666.00   0.49096856   0.01301835
8668.00   0.49850678   0.01283325
8670.00   0.49332413   0.01255180
8672.00   0.48850608   0.01227746
8674.00   0.48920846   0.01202123
8676.00   0.48913419   0.01174993
8678.00   0.49097601   0.01151200
8680.00   0.49427235   0.01129500
8682.00   0.48967615   0.01100263
8684.00   0.48587498   0.01076690
8686.00   0.49666229   0.01064924
8688.00   0.50951576   0.01055976
8690.00   0.50608712   0.01040180
8692.00   0.49893609   0.01024646
8694.00   0.49473628   0.01012253
8696.00   0.49626872   0.01008977
8698.00   0.49957630   0.01008980
8700.00   0.50608438   0.01009070
8702.00   0.50440013   0.01008454
8704.00   0.50545418   0.01010937
8706.00   0.50701559   0.01007192
8708.00   0.51265091   0.01002129
8710.00   0.51243335   0.00996274
8712.00   0.51506728   0.00990661
8714.00   0.50963515   0.00976770
8716.00   0.51022720   0.00970569
8718.00   0.51400024   0.00972699
8720.00   0.51429600   0.00972551
8722.00   0.50715780   0.00968759
8724.00   0.50982279   0.00971922
8726.00   0.51666409   0.00977343
8728.00   0.51671612   0.00976868
8730.00   0.51488596   0.00975448
8732.00   0.51781183   0.00976644
8734.00   0.52436930   0.00982383
8736.00   0.51876575   0.00981206
8738.00   0.51957774   0.00985396
8740.00   0.52318215   0.00989651
8742.00   0.52985716   0.00995117
8744.00   0.52731085   0.00993470
8746.00   0.52414751   0.00990274
8748.00   0.52751905   0.00990082
8750.00   0.52672571   0.00989390
8752.00   0.52838373   0.01013246
8754.00   0.53638989   0.01094515
8756.00   0.54179281   0.01231219
8758.00   0.53564417   0.01362853
8760.00   0.52579731   0.01443568
8762.00   0.52675867   0.01542216
8764.00   0.54077864   0.01636609
8766.00   0.54316235   0.01635841
8768.00   0.54479289   0.01542651
8770.00   0.54408795   0.01492276
8772.00   0.55488700   0.01500744
8774.00   0.55918127   0.01515463
8776.00   0.55743819   0.01510764
8778.00   0.55281574   0.01501291
8780.00   0.55733728   0.01478982
8782.00   0.55909431   0.01397004
8784.00   0.55321354   0.01252378
8786.00   0.56304067   0.01157230
8788.00   0.57284802   0.01169832
8790.00   0.57209325   0.01190719
8792.00   0.56551200   0.01193708
8794.00   0.57269311   0.01186651
8796.00   0.58300591   0.01149085
8798.00   0.58879066   0.01080890
8800.00   0.58714145   0.01038835
8802.00   0.58799082   0.01033016
8804.00   0.58335024   0.01033213
8806.00   0.58631331   0.01042514
8808.00   0.58340907   0.01045323
8810.00   0.58003730   0.01045103
8812.00   0.58433419   0.01049219
8814.00   0.58700782   0.01048964
8816.00   0.59521580   0.01046258
8818.00   0.59662968   0.01053934
8820.00   0.59409946   0.01182796
8822.00   0.58910489   0.01436291
8824.00   0.58701974   0.01688593
8826.00   0.59673697   0.01801845
8828.00   0.59937912   0.01830069
8830.00   0.58856720   0.01819097
8832.00   0.57292503   0.01740877
8834.00   0.57580709   0.01577318
8836.00   0.58507234   0.01444261
8838.00   0.58958751   0.01393864
8840.00   0.58698273   0.01345573
8842.00   0.58601636   0.01244111
8844.00   0.58941251   0.01155963
8846.00   0.59318209   0.01150155
8848.00   0.59638453   0.01176346
8850.00   0.60080725   0.01193709
8852.00   0.60816008   0.01201011
8854.00   0.61671066   0.01190946
8856.00   0.61012536   0.01139343
8858.00   0.59673166   0.01087190
8860.00   0.58645111   0.01085788
8862.00   0.58299041   0.01153647
8864.00   0.58583587   0.01253064
8866.00   0.57785338   0.01294025
8868.00   0.57021880   0.01289896
8870.00   0.56770343   0.01265312
8872.00   0.57677323   0.01218789
8874.00   0.57641971   0.01119625
8876.00   0.57455033   0.01037537
8878.00   0.57712901   0.01061218
8880.00   0.57592547   0.01214556
8882.00   0.57680136   0.01445665
8884.00   0.56158257   0.01566187
8886.00   0.56028205   0.01597458
8888.00   0.56133252   0.01579908
8890.00   0.55918485   0.01499323
8892.00   0.55426216   0.01296900
8894.00   0.55913895   0.01102364
8896.00   0.56066364   0.01057620
8898.00   0.56184179   0.01152353
8900.00   0.56542653   0.01281192
8902.00   0.55910325   0.01322470
8904.00   0.55794030   0.01322961
8906.00   0.55472738   0.01300222
8908.00   0.55208224   0.01233080
8910.00   0.54890227   0.01113694
8912.00   0.54903966   0.01084612
8914.00   0.54632813   0.01264530
8916.00   0.55218035   0.01504056
8918.00   0.56742817   0.01653063
8920.00   0.56925583   0.01675031
8922.00   0.55795974   0.01653633
8924.00   0.56104267   0.01545769
8926.00   0.56114757   0.01335608
8928.00   0.55622548   0.01123203
8930.00   0.54555005   0.01049683
8932.00   0.54082912   0.01042003
8934.00   0.54651994   0.01039356
8936.00   0.54715949   0.01055275
8938.00   0.54461342   0.01131626
8940.00   0.54195386   0.01243198
8942.00   0.53405857   0.01295762
8944.00   0.53203410   0.01313106
8946.00   0.53521681   0.01308655
8948.00   0.52838957   0.01253596
8950.00   0.52739453   0.01166966
8952.00   0.52459234   0.01253482
8954.00   0.51876527   0.01461094
8956.00   0.51845026   0.01613923
8958.00   0.52718240   0.01634594
8960.00   0.52460909   0.01647235
8962.00   0.52155048   0.01619456
8964.00   0.52081591   0.01454790
8966.00   0.51970047   0.01202117
8968.00   0.51433372   0.01065995
8970.00   0.51046163   0.01066629
8972.00   0.50636578   0.01080381
8974.00   0.51074886   0.01081226
8976.00   0.51238912   0.01065805
8978.00   0.50744200   0.01054911
8980.00   0.50182182   0.01054480
8982.00   0.49838364   0.01092432
8984.00   0.48719969   0.01184326
8986.00   0.47641072   0.01333980
8988.00   0.48048720   0.01495444
8990.00   0.48611498   0.01544001
8992.00   0.48248029   0.01418177
8994.00   0.47716632   0.01239182
8996.00   0.47933069   0.01207680
8998.00   0.48223338   0.01351586
9000.00   0.48422131   0.01499452
9002.00   0.47932291   0.01582651
9004.00   0.48270646   0.01594891
9006.00   0.48200119   0.01500038
9008.00   0.47088864   0.01271731
9010.00   0.46196666   0.01081553
9012.00   0.45474878   0.01006829
9014.00   0.44191840   0.00997695
9016.00   0.43734393   0.01003786
9018.00   0.43708196   0.00998818
9020.00   0.42984560   0.00981438
9022.00   0.41933993   0.00976554
9024.00   0.42206439   0.00996769
9026.00   0.41879818   0.00992492
9028.00   0.41214356   0.00966795
9030.00   0.41451994   0.00954339
9032.00   0.41013274   0.00960533
9034.00   0.39980423   0.00984208
9036.00   0.39741006   0.00996644
9038.00   0.40158316   0.01011230
9040.00   0.40405491   0.01030874
9042.00   0.40250817   0.01044306
9044.00   0.39533219   0.01051289
9046.00   0.39040026   0.01089078
9048.00   0.38928309   0.01117158
9050.00   0.38670945   0.01135075
9052.00   0.38652301   0.01139311
9054.00   0.38094363   0.01083953
9056.00   0.37717938   0.00972224
9058.00   0.37486520   0.00903350
9060.00   0.37450495   0.00900424
9062.00   0.37141982   0.00920561
9064.00   0.36772701   0.00920890
9066.00   0.37221611   0.00930194
9068.00   0.37293682   0.00953830
9070.00   0.36886239   0.00976167
9072.00   0.36951098   0.00980066
9074.00   0.36729804   0.00941431
9076.00   0.36224017   0.00909634
9078.00   0.35776648   0.00914704
9080.00   0.35588753   0.00932860
9082.00   0.35394290   0.00925607
9084.00   0.35526797   0.00917522
9086.00   0.35642835   0.00931444
9088.00   0.36218452   0.00960877
9090.00   0.36375621   0.00978536
9092.00   0.35652432   0.00975696
9094.00   0.35125577   0.00966291
9096.00   0.35081682   0.00989039
9098.00   0.35000828   0.01035367
9100.00   0.35224760   0.01073299
9102.00   0.36376503   0.01081774
9104.00   0.36713162   0.01088674
9106.00   0.36514854   0.01086496
9108.00   0.35781637   0.01025568
9110.00   0.35195494   0.00916454
9112.00   0.34953856   0.00846267
9114.00   0.35146832   0.00850307
9116.00   0.35187998   0.00886068
9118.00   0.35314211   0.00912516
9120.00   0.35038039   0.00898633
9122.00   0.34838358   0.00861823
9124.00   0.35455498   0.00854775
9126.00   0.35717726   0.00874795
9128.00   0.35404325   0.00908952
9130.00   0.35636866   0.00949319
9132.00   0.35873166   0.00971808
9134.00   0.35976478   0.00992503
9136.00   0.36272097   0.00991669
9138.00   0.36066660   0.00950732
9140.00   0.35627589   0.00893548
9142.00   0.35795012   0.00872195
9144.00   0.36216387   0.00869223
9146.00   0.36221471   0.00874929
9148.00   0.35840634   0.00902913
9150.00   0.36257863   0.00974093
9152.00   0.36596259   0.01058962
9154.00   0.36418295   0.01106105
9156.00   0.36839864   0.01108881
9158.00   0.36951062   0.01065134
9160.00   0.37161645   0.01015042
9162.00   0.37297252   0.00979571
9164.00   0.37225190   0.00954203
9166.00   0.37254283   0.00932626
9168.00   0.37010774   0.00910162
9170.00   0.37373456   0.00919891
9172.00   0.37314144   0.00960440
9174.00   0.36530402   0.00987284
9176.00   0.36657992   0.00985217
9178.00   0.37734294   0.00951910
9180.00   0.38312450   0.00924609
9182.00   0.38037297   0.00913835
9184.00   0.37927452   0.00912248
9186.00   0.37978593   0.00902938
9188.00   0.38461360   0.00887438
9190.00   0.38270000   0.00877544
9192.00   0.37895313   0.00884813
9194.00   0.37969470   0.00901998
9196.00   0.38169512   0.00906816
9198.00   0.38317418   0.00888260
9200.00   0.38587403   0.00868620
9202.00   0.39576021   0.00871810
9204.00   0.39982507   0.00886292
9206.00   0.39483818   0.00898975
9208.00   0.39464298   0.00907645
9210.00   0.40138373   0.00918443
9212.00   0.40434122   0.00943897
9214.00   0.40307131   0.00978400
9216.00   0.40852991   0.01013972
9218.00   0.42455876   0.01043877
9220.00   0.43213424   0.01055596
9222.00   0.42703462   0.01042475
9224.00   0.42031363   0.01019319
9226.00   0.41989195   0.01001911
9228.00   0.41692802   0.00986902
9230.00   0.40997303   0.00961852
9232.00   0.40377304   0.00936166
9234.00   0.39889142   0.00922020
9236.00   0.39625338   0.00923550
9238.00   0.39937735   0.00925921
9240.00   0.40426669   0.00925848
9242.00   0.41009060   0.00935056
9244.00   0.41633633   0.00954209
9246.00   0.41204360   0.00959806
9248.00   0.40648034   0.00956924
9250.00   0.40403831   0.00953604
9252.00   0.40540791   0.00947475
9254.00   0.40624666   0.00932917
9256.00   0.41427407   0.00929913
9258.00   0.41721296   0.00938164
9260.00   0.41326049   0.00941367
9262.00   0.41288385   0.00937559
9264.00   0.41936597   0.00929846
9266.00   0.42561606   0.00921628
9268.00   0.42231455   0.00915479
9270.00   0.41411027   0.00914627
9272.00   0.41405085   0.00925793
9274.00   0.42171118   0.00947326
9276.00   0.42721137   0.00981168
9278.00   0.42182314   0.01011592
9280.00   0.41437256   0.01024783
9282.00   0.41682503   0.01036920
9284.00   0.42200574   0.01064416
9286.00   0.42482862   0.01088605
9288.00   0.42969099   0.01095589
9290.00   0.42648804   0.01093679
9292.00   0.42626464   0.01108158
9294.00   0.43224224   0.01138149
9296.00   0.42782378   0.01162437
9298.00   0.42258027   0.01220314
9300.00   0.42721996   0.01380022
9302.00   0.43472806   0.01621597
9304.00   0.43773094   0.01857945
9306.00   0.43670359   0.02164797
9308.00   0.43226627   0.02594134
9310.00   0.43557623   0.02876702
9312.00   0.44229731   0.02893281
9314.00   0.45378974   0.02982468
9316.00   0.43688357   0.03208334
9318.00   0.42287850   0.03139221
9320.00   0.42706701   0.02834748
9322.00   0.44390300   0.02733695
9324.00   0.44246742   0.02828037
9326.00   0.44187638   0.02661978
9328.00   0.44257569   0.02270564
9330.00   0.44131610   0.01881887
9332.00   0.45280758   0.01784923
9334.00   0.45478427   0.02016998
9336.00   0.45397401   0.02213615
9338.00   0.45947424   0.02239553
9340.00   0.46891427   0.02255488
9342.00   0.45740363   0.02430518
9344.00   0.44897962   0.02359636
9346.00   0.45230937   0.01941936
9348.00   0.46922401   0.01537303
9350.00   0.46946359   0.01422398
9352.00   0.47001281   0.01526231
9354.00   0.46718201   0.01766548
9356.00   0.45159355   0.01862057
9358.00   0.43447605   0.01722646
9360.00   0.44350949   0.01488853
9362.00   0.46033147   0.01409496
9364.00   0.46696281   0.01450905
9366.00   0.46452788   0.01671039
9368.00   0.44905761   0.02219844
9370.00   0.46390852   0.03184089
#9372.00   0.59649324   0.04769082
#9374.00   0.94453937   0.08761951
#9376.00   1.04209661   0.09764703
#9378.00   0.81491244   0.07698813
9380.00   0.45971718   0.04725546
9382.00   0.42808494   0.03144840
9384.00   0.45886743   0.02035567
9386.00   0.47457185   0.01447573
9388.00   0.46289691   0.01320445
9390.00   0.47417852   0.01209088
9392.00   0.48123780   0.01152583
9394.00   0.48855340   0.01166169
9396.00   0.49395910   0.01254198
9398.00   0.48667431   0.01409584
9400.00   0.47986507   0.01581938
9402.00   0.47851801   0.01624604
9404.00   0.48629221   0.01583878
9406.00   0.48612595   0.01520245
9408.00   0.49228653   0.01476599
9410.00   0.48203358   0.01397452
9412.00   0.47380903   0.01366832
9414.00   0.48027220   0.01481254
9416.00   0.48135582   0.01686194
9418.00   0.48535833   0.01860843
9420.00   0.49083742   0.01904020
9422.00   0.49237823   0.01887465
9424.00   0.48911145   0.01913893
9426.00   0.49006924   0.01969658
9428.00   0.47249055   0.01866159
9430.00   0.46871164   0.01594954
9432.00   0.48371503   0.01431612
9434.00   0.49434122   0.01544901
9436.00   0.48748437   0.01954366
9438.00   0.48099431   0.02655293
9440.00   0.47387275   0.03666170
9442.00   0.46821085   0.03810998
9444.00   0.46623215   0.03041264
9446.00   0.48654926   0.01988207
9448.00   0.48721540   0.01492019
9450.00   0.48144889   0.01360775
9452.00   0.48582450   0.01561347
9454.00   0.48903489   0.02014536
9456.00   0.47564659   0.02506302
9458.00   0.46352538   0.02785513
9460.00   0.45353699   0.02734368
9462.00   0.45155081   0.02409993
9464.00   0.45289436   0.01945941
9466.00   0.45845735   0.01588231
9468.00   0.47936246   0.01472640
9470.00   0.49010286   0.01604005
9472.00   0.48906967   0.01909163
9474.00   0.48586670   0.02220422
9476.00   0.47928917   0.02393182
9478.00   0.48019493   0.02589351
9480.00   0.47975862   0.02731445
9482.00   0.47309566   0.02493775
9484.00   0.47363567   0.01847991
9486.00   0.48188567   0.01381503
9488.00   0.48343301   0.01221648
9490.00   0.48646793   0.01223169
9492.00   0.48799062   0.01320334
9494.00   0.47938946   0.01511351
9496.00   0.46445790   0.01863747
9498.00   0.47154418   0.02486220
9500.00   0.47537184   0.02769248
9502.00   0.47192001   0.02537917
9504.00   0.47222695   0.02009348
9506.00   0.48939109   0.01703268
9508.00   0.49936116   0.01485971
9510.00   0.49824718   0.01312790
9512.00   0.49648085   0.01234964
9514.00   0.48979107   0.01312103
9516.00   0.48440981   0.01496901
9518.00   0.47960854   0.01692977
9520.00   0.46820191   0.01786288
9522.00   0.46392384   0.01759434
9524.00   0.46545777   0.01639517
9526.00   0.48297834   0.01566990
9528.00   0.45998529   0.01459677
9530.00   0.50781834   0.01376641
9532.00   0.50458056   0.01386597
9534.00   0.52033532   0.01545170
9536.00   0.52722698   0.01543316
9538.00   0.54513472   0.01515949
9540.00   0.53134918   0.01503887
9542.00   0.51579279   0.01497913
9544.00   0.50328481   0.01517655
9546.00   0.49571276   0.01550634
9548.00   0.49562109   0.01635369
9550.00   0.49618998   0.01758451
9552.00   0.49431241   0.01907168
9554.00   0.49277937   0.02109702
9556.00   0.48938751   0.02092513
9558.00   0.48559988   0.01841543
9560.00   0.49027622   0.01613981
9562.00   0.49273896   0.01788027
9564.00   0.47522739   0.02316393
9566.00   0.49775323   0.02557890
9568.00   0.50609326   0.02462425
9570.00   0.49969020   0.02179936
9572.00   0.47661257   0.01802925
9574.00   0.47673944   0.01446363
9576.00   0.48776984   0.01262937
9578.00   0.49734864   0.01272672
9580.00   0.49352336   0.01343811
9582.00   0.48442307   0.01318161
9584.00   0.48381278   0.01263215
9586.00   0.48815599   0.01291117
9588.00   0.49788094   0.01418231
9590.00   0.49635482   0.01546363
9592.00   0.48215747   0.01522097
9594.00   0.48360991   0.01428087
9596.00   0.48555541   0.01348744
9598.00   0.48028055   0.01290237
9600.00   0.47662959   0.01253714
9602.00   0.47952235   0.01310354
9604.00   0.48111060   0.01445573
9606.00   0.48300847   0.01547254
9608.00   0.48691353   0.01550270
9610.00   0.49343535   0.01472436
9612.00   0.49053130   0.01389465
9614.00   0.48404422   0.01353747
9616.00   0.48290190   0.01403056
9618.00   0.48345089   0.01520646
9620.00   0.49000284   0.01657439
9622.00   0.47778580   0.01718390
9624.00   0.46652174   0.01688293
9626.00   0.46216950   0.01557054
9628.00   0.47271720   0.01368184
9630.00   0.47304264   0.01219595
9632.00   0.48069617   0.01184318
9634.00   0.48066458   0.01222266
9636.00   0.47444463   0.01283332
9638.00   0.46747670   0.01304648
9640.00   0.47826007   0.01261360
9642.00   0.48274103   0.01229128
9644.00   0.48616347   0.01248082
9646.00   0.47660437   0.01265133
9648.00   0.46977878   0.01244988
9650.00   0.47772419   0.01235282
9652.00   0.48408255   0.01242264
9654.00   0.48437110   0.01253695
9656.00   0.48375130   0.01269531
9658.00   0.48001409   0.01293173
9660.00   0.46884713   0.01342682
9662.00   0.46515512   0.01444048
9664.00   0.46732375   0.01538046
9666.00   0.47569513   0.01576917
9668.00   0.48978505   0.01568669
9670.00   0.48984632   0.01524389
9672.00   0.48278549   0.01435231
9674.00   0.48240408   0.01353719
9676.00   0.47165987   0.01339890
9678.00   0.47035062   0.01441903
9680.00   0.47685251   0.01562510
9682.00   0.47088733   0.01574720
9684.00   0.46599945   0.01509057
9686.00   0.47240281   0.01447659
9688.00   0.47200009   0.01371044
9690.00   0.47039166   0.01305780
9692.00   0.47793594   0.01351458
9694.00   0.46093434   0.01357992
9696.00   0.44597143   0.01449552
9698.00   0.46062970   0.01525608
9700.00   0.47337925   0.01554763
9702.00   0.45928362   0.01626171
9704.00   0.45801893   0.01455412
9706.00   0.45122448   0.01314536
9708.00   0.44881380   0.01269285
9710.00   0.44537500   0.01280810
9712.00   0.44330487   0.01339891
9714.00   0.44797125   0.01451967
9716.00   0.44300309   0.01572201
9718.00   0.43302071   0.01589985
9720.00   0.42704788   0.01583017
9722.00   0.42126763   0.01588459
9724.00   0.43231544   0.01570629
9726.00   0.43085888   0.01423267
9728.00   0.42137635   0.01260242
9730.00   0.42508778   0.01210195
9732.00   0.42826486   0.01278756
9734.00   0.41488269   0.01401046
9736.00   0.41102591   0.01494865
9738.00   0.41398942   0.01501383
9740.00   0.41740397   0.01473119
9742.00   0.41888753   0.01442088
9744.00   0.40740553   0.01379551
9746.00   0.39478043   0.01307642
9748.00   0.38726497   0.01257863
9750.00   0.38440314   0.01218645
9752.00   0.38784862   0.01181434
9754.00   0.38759282   0.01153402
9756.00   0.38759026   0.01147915
9758.00   0.38919774   0.01143296
9760.00   0.38856277   0.01134474
9762.00   0.38503894   0.01126621
9764.00   0.37501001   0.01102467
9766.00   0.36479273   0.01058816
9768.00   0.36283728   0.01024902
9770.00   0.36581215   0.01012570
9772.00   0.36399296   0.01014269
9774.00   0.36166263   0.01027585
9776.00   0.36356637   0.01046035
9778.00   0.36251721   0.01063237
9780.00   0.36520800   0.01091709
9782.00   0.36796308   0.01136434
9784.00   0.35679844   0.01212356
9786.00   0.34227356   0.01349754
9788.00   0.33566579   0.01512490
9790.00   0.33488286   0.01646702
9792.00   0.33715549   0.01718752
9794.00   0.34459165   0.01706352
9796.00   0.34530202   0.01612303
9798.00   0.33675602   0.01498252
9800.00   0.33357894   0.01432918
9802.00   0.33167073   0.01411433
9804.00   0.32483032   0.01353384
9806.00   0.32065296   0.01276209
9808.00   0.31934237   0.01229028
9810.00   0.31639239   0.01231996
9812.00   0.31358579   0.01256521
9814.00   0.31406805   0.01262281
9816.00   0.31260774   0.01239526
9818.00   0.30686438   0.01189930
9820.00   0.31027579   0.01140115
9822.00   0.30928221   0.01119369
9824.00   0.30750799   0.01126830
9826.00   0.30320814   0.01118886
9828.00   0.29948601   0.01099565
9830.00   0.29972059   0.01089131
9832.00   0.29449692   0.01067186
9834.00   0.29622519   0.01042413
9836.00   0.29540011   0.01014153
9838.00   0.29837269   0.01002753
9840.00   0.29523703   0.01012270
9842.00   0.28840697   0.01078877
9844.00   0.29255411   0.01222193
9846.00   0.30709311   0.01358360
9848.00   0.31120083   0.01419977
9850.00   0.30791870   0.01410024
9852.00   0.30396774   0.01342773
9854.00   0.29730237   0.01221230
9856.00   0.29149523   0.01091767
9858.00   0.29212749   0.01016960
9860.00   0.29345152   0.01003554
9862.00   0.30017650   0.01023376
9864.00   0.29164341   0.01101412
9866.00   0.28366986   0.01314319
9868.00   0.29112461   0.01626805
9870.00   0.30262390   0.01871413
9872.00   0.28561708   0.01951979
9874.00   0.27459097   0.01932506
9876.00   0.28358194   0.01822102
9878.00   0.29205826   0.01580405
9880.00   0.28895372   0.01298838
9882.00   0.28737471   0.01151158
9884.00   0.29114604   0.01123738
9886.00   0.29878896   0.01151904
9888.00   0.30408832   0.01228177
9890.00   0.29644409   0.01367702
9892.00   0.29433930   0.01491293
9894.00   0.30108139   0.01561431
9896.00   0.30614495   0.01578478
9898.00   0.30671707   0.01553365
9900.00   0.30323315   0.01422161
9902.00   0.29991958   0.01259064
9904.00   0.29572698   0.01150007
9906.00   0.29886481   0.01176793
9908.00   0.30402899   0.01367737
9910.00   0.31389788   0.01682878
9912.00   0.31338179   0.01940791
9914.00   0.30672109   0.02072784
9916.00   0.30279046   0.02081284
9918.00   0.30576518   0.02004973
9920.00   0.30686888   0.01781739
9922.00   0.31025073   0.01487919
9924.00   0.30822030   0.01249674
9926.00   0.30698216   0.01171517
9928.00   0.31178644   0.01165705
9930.00   0.31505606   0.01173467
9932.00   0.31044573   0.01199306
9934.00   0.31132030   0.01298182
9936.00   0.31788814   0.01520619
9938.00   0.32625231   0.01858803
9940.00   0.31878510   0.02226890
9942.00   0.32059789   0.02579764
9944.00   0.33140793   0.02846257
9946.00   0.35369268   0.02938883
9948.00   0.34506801   0.02856907
9950.00   0.33596447   0.02727474
9952.00   0.33466688   0.02622917
9954.00   0.34921536   0.02569430
9956.00   0.33174038   0.02563431
9958.00   0.31719890   0.02645408
9960.00   0.34558892   0.02684694
9962.00   0.36733803   0.02571626
9964.00   0.35002470   0.02312451
9966.00   0.35257569   0.02097117
9968.00   0.36999926   0.01946704
9970.00   0.36862254   0.01829840
9972.00   0.35436806   0.01770226
9974.00   0.35413864   0.01774506
9976.00   0.35375389   0.01748490
9978.00   0.35868955   0.01665582
9980.00   0.36410573   0.01561085
9982.00   0.36296597   0.01474852
9984.00   0.36372077   0.01423573
9986.00   0.36960351   0.01385936
9988.00   0.37861156   0.01367749
9990.00   0.37910259   0.01360994
9992.00   0.37774277   0.01381134
9994.00   0.36831269   0.01431582
9996.00   0.38094774   0.01533625
9998.00   0.39761123   0.01630083
10000.00   0.40669954   0.01686864
10002.00   0.39996853   0.01710307
10004.00   0.40415907   0.01790267
10006.00   0.39533845   0.02045640
10008.00   0.40234414   0.02507559
10010.00   0.40727845   0.02955403
10012.00   0.41056356   0.03214006
10014.00   0.40517414   0.03264843
10016.00   0.39939618   0.03163207
10018.00   0.39409506   0.02882171
10020.00   0.40410987   0.02521852
10022.00   0.41675973   0.02329406
10024.00   0.40762517   0.02302899
10026.00   0.41628894   0.02304795
10028.00   0.43567514   0.02269594
10030.00   0.43901038   0.02138416
10032.00   0.42742375   0.01901663
10034.00   0.42663613   0.01721575
10036.00   0.42928219   0.01670291
10038.00   0.43853691   0.01732407
10040.00   0.44556364   0.01831484
10042.00   0.44552979   0.01890604
10044.00   0.44577351   0.01902854
10046.00   0.43523279   0.01871647
10048.00   0.44059858   0.01821202
10050.00   0.45286366   0.01741592
10052.00   0.46512553   0.01705220
10054.00   0.45882535   0.01784208
10056.00   0.45937169   0.01963513
10058.00   0.46096727   0.02136528
10060.00   0.46218452   0.02251762
10062.00   0.47148919   0.02323215
10064.00   0.47405538   0.02339158
10066.00   0.47594929   0.02289298
10068.00   0.48377800   0.02205453
10070.00   0.48514935   0.02133016
10072.00   0.48406330   0.02098531
10074.00   0.48196697   0.02119193
10076.00   0.48699939   0.02287328
10078.00   0.48565826   0.02588394
10080.00   0.48922649   0.02889870
10082.00   0.48040912   0.03026277
10084.00   0.47224107   0.03039587
10086.00   0.47179317   0.02920362
10088.00   0.48609319   0.02635177
10090.00   0.48765266   0.02242312
10092.00   0.46883705   0.01970210
10094.00   0.47390962   0.01908562
10096.00   0.49416581   0.02000953
10098.00   0.50780195   0.02179587
10100.00   0.50537992   0.02399525
10102.00   0.49446288   0.02538380
10104.00   0.48897409   0.02589126
10106.00   0.49650612   0.02570333
10108.00   0.50541300   0.02466522
10110.00   0.50524735   0.02257666
10112.00   0.51197702   0.02080900
10114.00   0.51382995   0.02034302
10116.00   0.52333009   0.02198222
10118.00   0.52212507   0.02579601
10120.00   0.52450532   0.03098910
10122.00   0.52272707   0.03475108
10124.00   0.51347405   0.03642443
10126.00   0.50958019   0.03635545
10128.00   0.49591407   0.03445688
10130.00   0.50816941   0.03049760
10132.00   0.52514064   0.02608714
10134.00   0.53089780   0.02330445
10136.00   0.52763659   0.02279254
10138.00   0.52238327   0.02279205
10140.00   0.52055448   0.02306213
10142.00   0.51359338   0.02352031
10144.00   0.52193683   0.02450484
10146.00   0.52751464   0.02600061
10148.00   0.52043015   0.02801536
10150.00   0.51965207   0.02994514
10152.00   0.51190150   0.03113472
10154.00   0.51272029   0.03176399
10156.00   0.52185082   0.03191503
10158.00   0.49667326   0.03086404
10160.00   0.50764680   0.02945472
10162.00   0.50865906   0.02864730
10164.00   0.49426270   0.02968530
10166.00   0.51478410   0.03348569
10168.00   0.50059754   0.03845385
10170.00   0.49435464   0.04192862
10172.00   0.51870769   0.04349297
10174.00   0.48792255   0.04296340
10176.00   0.45713007   0.04080291
10178.00   0.47678837   0.03666519
10180.00   0.48185816   0.03248425
10182.00   0.47100934   0.03092924
10184.00   0.48479891   0.03277043
10186.00   0.47234181   0.03537070
10188.00   0.48200318   0.03690315
10190.00   0.48295000   0.03738164
10192.00   0.47249159   0.03693646
10194.00   0.46798274   0.03539621
10196.00   0.46107110   0.03263371
10198.00   0.45971572   0.03105071
10200.00   0.46458244   0.03149195
10202.00   0.45422256   0.03333620
10204.00   0.44056258   0.03659814
10206.00   0.45514011   0.04110669
10208.00   0.46442208   0.04441395
10210.00   0.46764708   0.04564859
10212.00   0.45535341   0.04496408
10214.00   0.42246494   0.04279184
10216.00   0.40696457   0.03856142
10218.00   0.41885388   0.03446459
10220.00   0.42646703   0.03335270
10222.00   0.43186566   0.03578085
10224.00   0.44796500   0.03909982
10226.00   0.42850015   0.04131417
10228.00   0.41498494   0.04242661
10230.00   0.41650584   0.04175740
10232.00   0.40737733   0.03882463
10234.00   0.40089831   0.03519771
10236.00   0.40030146   0.03188873
10238.00   0.40373787   0.02917279
10240.00   0.40788022   0.02747554
10242.00   0.41263190   0.02681953
10244.00   0.39206493   0.02615384
10246.00   0.38490829   0.02590708
10248.00   0.40822625   0.02633107
10250.00   0.41480783   0.02656774
10252.00   0.38710359   0.02531913
10254.00   0.39839554   0.02605708
10256.00   0.41756523   0.02669261
10258.00   0.39710739   0.02683237
10260.00   0.36749610   0.02784171
10262.00   0.37449393   0.02823364
10264.00   0.39652923   0.02986926
10266.00   0.40671334   0.03181152
10268.00   0.40461591   0.03368979
10270.00   0.39945319   0.03507988
10272.00   0.39069343   0.03570074
10274.00   0.37622139   0.03582273
10276.00   0.37199807   0.03614004
10278.00   0.36779633   0.03911573
10280.00   0.36003050   0.04739238
10282.00   0.37248242   0.06045451
10284.00   0.39554533   0.06999208
10286.00   0.40783092   0.07573694
10288.00   0.38311693   0.07695851
10290.00   0.37043282   0.07590160
10292.00   0.35679427   0.07043581
10294.00   0.38066849   0.06416365
10296.00   0.39314559   0.05794985
10298.00   0.39416647   0.05489470
10300.00   0.38618818   0.05183914
10302.00   0.41630244   0.04754845
10304.00   0.40069878   0.04358492
10306.00   0.38548315   0.04215566
10308.00   0.40023085   0.04276114
10310.00   0.39113083   0.04257122
10312.00   0.37479797   0.04232042
10314.00   0.37559697   0.03982474
10316.00   0.41007090   0.03814454
10318.00   0.47035560   0.03733621
10320.00   0.45351863   0.03623312
10322.00   0.37089974   0.03609635
10324.00   0.35409608   0.03653928
10326.00   0.35468239   0.03721334
10328.00   0.40548918   0.03951130
10330.00   0.37527636   0.03927517
10332.00   0.37569585   0.03893449
10334.00   0.40629220   0.03977432
10336.00   0.39397702   0.04055734
10338.00   0.36761388   0.04162047
10340.00   0.37822899   0.04447433
10342.00   0.40684244   0.04938607
10344.00   0.42868403   0.05404459
10346.00   0.36730093   0.05673692
10348.00   0.34075040   0.05766562
10350.00   0.40022364   0.05805877
10352.00   0.37117791   0.05627381
10354.00   0.36229983   0.05304606
10356.00   0.35957193   0.04958706
10358.00   0.35243472   0.04754354
10360.00   0.35894299   0.04597725
10362.00   0.35360721   0.04468939
10364.00   0.36219224   0.04527559
10366.00   0.40848625   0.05532037
10368.00   0.35611668   0.06667747
10370.00   0.27226630   0.07685041
10372.00   0.36753282   0.08312867
10374.00   0.40647101   0.08325846
10376.00   0.38673601   0.08147417
10378.00   0.33694038   0.07343616
10380.00   0.40952209   0.06398534
10382.00   0.42360577   0.05502966
10384.00   0.40224823   0.05137812
10386.00   0.42615914   0.05144298
10388.00   0.43130496   0.05041375
10390.00   0.43798485   0.05612941
10392.00   0.41525531   0.06194552
10394.00   0.40024090   0.06590171
10396.00   0.40413690   0.06840251
10398.00   0.42361274   0.07145896
10400.00   0.42051494   0.06998640
10402.00   0.40179005   0.06529281
10404.00   0.36639008   0.05848126
10406.00   0.39573336   0.05607193
10408.00   0.39575636   0.05619156
10410.00   0.37157178   0.05992262
10412.00   0.35898212   0.07273424
10414.00   0.40603414   0.08670745
10416.00   0.41592121   0.09659161
10418.00   0.48908374   0.10430726
10420.00   0.40872169   0.10294029
10422.00   0.43055117   0.09714389
10424.00   0.38547251   0.08600956
10426.00   0.40598294   0.07334156
10428.00   0.38443878   0.06595057
10430.00   0.33678445   0.06123678
10432.00   0.36013916   0.06018113
10434.00   0.40977395   0.05907788
10436.00   0.38471827   0.05713832
10438.00   0.39353153   0.05681944
10440.00   0.39882696   0.05706235
10442.00   0.41708604   0.05865154
10444.00   0.43057895   0.06263158
10446.00   0.43391815   0.06953380
10448.00   0.37442335   0.07396396
10450.00   0.30425307   0.07532128
10452.00   0.30605531   0.07337616
10454.00   0.35945120   0.07445245
10456.00   0.34424648   0.06937981
10458.00   0.33688319   0.06599347
10460.00   0.36759904   0.06378659
10462.00   0.38139975   0.07067551
10464.00   0.46832839   0.08331504
10466.00   0.36797443   0.09090818
10468.00   0.22570540   0.09729373
10470.00   0.28361747   0.09856892
10472.00   0.36325479   0.09563015
10474.00   0.36458492   0.08628470
10476.00   0.37039220   0.07624839
10478.00   0.37543046   0.06684560
10480.00   0.35101128   0.06249962
10482.00   0.32281995   0.06108975
10484.00   0.33637691   0.06197721
10486.00   0.34963667   0.06082363
10488.00   0.35434631   0.06160631
10490.00   0.34299517   0.06169413
10492.00   0.31626883   0.05844314
10494.00   0.30728999   0.05958784
10496.00   0.31623897   0.06032673
10498.00   0.33149967   0.06147021
10500.00   0.35547909   0.06289730
10502.00   0.35705540   0.06521553
10504.00   0.33238721   0.06937992
10506.00   0.31843373   0.07184781
10508.00   0.34501326   0.07594110
10510.00   0.36603487   0.08166871
10512.00   0.35666075   0.07920629
10514.00   0.30434754   0.07540716
10516.00   0.30419937   0.07215262
10518.00   0.33152398   0.07337769
10520.00   0.36776266   0.08090973
10522.00   0.37027475   0.09047225
10524.00   0.39001521   0.09359843
10526.00   0.38046566   0.09146165
10528.00   0.36121735   0.08911525
10530.00   0.36010709   0.08368615
10532.00   0.39981613   0.07660818
10534.00   0.42253965   0.06973276
10536.00   0.38701338   0.06799138
10538.00   0.34555778   0.06655734
10540.00   0.40412059   0.06671418
10542.00   0.37811103   0.06782237
10544.00   0.35653695   0.06717492
10546.00   0.33428061   0.06669775
10548.00   0.32824048   0.06870554
10550.00   0.36362362   0.06852009
10552.00   0.37717715   0.06906840
10554.00   0.39800659   0.07038429
10556.00   0.41913715   0.07158256
10558.00   0.40100035   0.07140347
10560.00   0.35642791   0.06929277
10562.00   0.35514724   0.06939314
10564.00   0.36139950   0.07063514
10566.00   0.36271954   0.07498843
10568.00   0.40311566   0.07775600
10570.00   0.31298044   0.07910794
10572.00   0.38277432   0.08101686
10574.00   0.35371184   0.08043071
10576.00   0.35704088   0.08022550
10578.00   0.42589211   0.08190703
10580.00   0.45102215   0.08391883
10582.00   0.31769145   0.08608714
10584.00   0.36456075   0.09166218
10586.00   0.38156462   0.09455424
10588.00   0.37262368   0.09383915
10590.00   0.32999325   0.09014873
10592.00   0.34039295   0.08531085
10594.00   0.35120904   0.08176873
10596.00   0.37321404   0.08035528
10598.00   0.41692469   0.08251364
10600.00   0.38709593   0.08421086
10602.00   0.37227622   0.08401968
10604.00   0.39346442   0.08306552
10606.00   0.47697869   0.08634088
10608.00   0.40320370   0.08406071
10610.00   0.34317112   0.08152616
10612.00   0.33187771   0.07925448
10614.00   0.25361651   0.07800943
10616.00   0.29554284   0.07909635
10618.00   0.40549663   0.08510325
10620.00   0.36071292   0.08377346
10622.00   0.38955012   0.08700971
10624.00   0.50238186   0.09042631
10626.00   0.39000449   0.08556851
10628.00   0.41067079   0.08709344
10630.00   0.40716165   0.08838899
10632.00   0.39356911   0.08765336
10634.00   0.38065243   0.09006467
10636.00   0.41926053   0.08944339
10638.00   0.37409911   0.09127569
10640.00   0.38725945   0.09261774
10642.00   0.40170929   0.09292955
10644.00   0.32775569   0.09073266
10646.00   0.47626650   0.09719332
10648.00   0.55191177   0.10050896
10650.00   0.43249038   0.09731700
10652.00   0.40065289   0.09728096
10654.00   0.34261504   0.09512585
10656.00   0.40647557   0.09797203
10658.00   0.40159497   0.09526798
10660.00   0.35892081   0.09282231
10662.00   0.31553903   0.09275609
10664.00   0.36661300   0.09432071
10666.00   0.25386497   0.09103295
10668.00   0.28366962   0.08932772
10670.00   0.30923268   0.09140557
10672.00   0.36328962   0.09532417
10674.00   0.30340365   0.09397312
10676.00   0.40174043   0.09549291
10678.00   0.28043553   0.09648115
10680.00   0.30946943   0.09988521
