# File created by shivutils (I.Shivvers)
# wl(A)   flm    er(optional)
3630.00   14.53420258   0.18802382
3632.00   14.11876106   0.18527941
3634.00   13.22813320   0.17884953
3636.00   13.06435585   0.17647126
3638.00   12.67032146   0.17332663
3640.00   12.39146614   0.17102633
3642.00   11.78331184   0.16694759
3644.00   11.31349277   0.16305657
3646.00   11.05380058   0.16099173
3648.00   10.63742352   0.16344693
3650.00   10.14660072   0.16749299
3652.00   9.71174335   0.16260530
3654.00   9.30623055   0.15360571
3656.00   8.86914444   0.14818335
3658.00   8.59280300   0.14110100
3660.00   8.13970089   0.13634838
3662.00   8.04368496   0.13883212
3664.00   7.63066769   0.13587667
3666.00   7.48926735   0.13004445
3668.00   7.01199675   0.12331629
3670.00   7.16018629   0.12334538
3672.00   6.64533472   0.11884101
3674.00   6.30607557   0.11592074
3676.00   6.26168680   0.11458202
3678.00   6.06723881   0.11248826
3680.00   5.91943836   0.11054762
3682.00   5.84499216   0.10921844
3684.00   5.68345356   0.10759932
3686.00   5.60769224   0.10650171
3688.00   5.62234116   0.10576253
3690.00   5.44383717   0.10437348
3692.00   5.32096720   0.10350921
3694.00   5.19808769   0.10179123
3696.00   5.22394085   0.10166434
3698.00   5.20664644   0.10153794
3700.00   5.31312084   0.10259397
3702.00   5.15868616   0.10094889
3704.00   5.00662327   0.09863859
3706.00   5.31325006   0.10071696
3708.00   5.07206249   0.09829532
3710.00   4.94119978   0.09643425
3712.00   4.92838430   0.09646716
3714.00   5.13640738   0.09745734
3716.00   5.08781528   0.09688378
3718.00   5.02823639   0.09570982
3720.00   5.10896206   0.09649495
3722.00   5.15985250   0.09700221
3724.00   5.25842285   0.09717410
3726.00   5.22762823   0.09690943
3728.00   5.28781605   0.09724961
3730.00   5.42536116   0.09823190
3732.00   5.55080795   0.09883646
3734.00   5.54689980   0.09845961
3736.00   5.65343189   0.09902267
3738.00   5.65012503   0.09911323
3740.00   5.80473328   0.09995770
3742.00   5.68654585   0.09888814
3744.00   6.04377747   0.10063692
3746.00   6.08951139   0.10022981
3748.00   6.12010098   0.10007893
3750.00   6.32779884   0.10174590
3752.00   6.34395075   0.10139478
3754.00   6.63107872   0.10286149
3756.00   6.64970541   0.10242122
3758.00   6.99443150   0.10403607
3760.00   7.32112169   0.10592028
3762.00   7.44189024   0.10637100
3764.00   7.58869743   0.10682861
3766.00   8.04607868   0.10900299
3768.00   8.27246761   0.10986581
3770.00   8.70208168   0.11229334
3772.00   8.96278381   0.11383308
3774.00   9.35960197   0.11548471
3776.00   9.52903080   0.11598902
3778.00   9.72949409   0.11681281
3780.00   9.99561882   0.11793505
3782.00   10.02856731   0.11750555
3784.00   10.31207943   0.11873007
3786.00   10.32906246   0.11814188
3788.00   10.31001186   0.11769451
3790.00   10.71141338   0.11973729
3792.00   11.07778549   0.12116876
3794.00   11.09603405   0.11986358
3796.00   11.09761429   0.11916029
3798.00   11.24747086   0.11942785
3800.00   11.42957497   0.11992102
3802.00   11.46000290   0.11984096
3804.00   11.72917271   0.12080059
3806.00   11.68255901   0.12004364
3808.00   11.81982517   0.12018006
3810.00   12.07648849   0.12110444
3812.00   12.13585472   0.12101917
3814.00   12.38067150   0.12181014
3816.00   12.43676758   0.12173418
3818.00   12.63581085   0.12202617
3820.00   12.75555992   0.12214546
3822.00   12.81974220   0.12211122
3824.00   13.18841076   0.12324702
3826.00   13.22206020   0.12299243
3828.00   13.63035583   0.12451923
3830.00   13.81906033   0.12539849
3832.00   13.89341259   0.12511641
3834.00   13.85360241   0.12450657
3836.00   14.24057770   0.12546273
3838.00   14.52048969   0.12627710
3840.00   14.81276798   0.12699920
3842.00   14.82484913   0.12644960
3844.00   15.24444675   0.12786724
3846.00   15.35096359   0.12780616
3848.00   15.70822239   0.12869458
3850.00   16.14255333   0.12988353
3852.00   16.52501297   0.13090388
3854.00   16.59883690   0.13069035
3856.00   16.84772873   0.13128656
3858.00   17.21725082   0.13204399
3860.00   17.70798683   0.13347153
3862.00   18.05328178   0.13439414
3864.00   18.73098564   0.13645414
3866.00   19.06658173   0.13710324
3868.00   19.42349815   0.13786747
3870.00   19.92423820   0.13920479
3872.00   20.44002151   0.14052786
3874.00   20.92646980   0.14195520
3876.00   21.36325264   0.14297521
3878.00   21.78081131   0.14382991
3880.00   22.21570206   0.14551549
3882.00   22.23317528   0.14510950
3884.00   22.65970993   0.14605357
3886.00   22.84442139   0.14630891
3888.00   22.95722198   0.14609161
3890.00   23.44816780   0.14718586
3892.00   23.27933884   0.14642566
3894.00   23.82922363   0.14770567
3896.00   23.64180183   0.14671458
3898.00   24.19008636   0.14789185
3900.00   24.39362335   0.14823870
3902.00   24.49406433   0.14816526
3904.00   24.81793022   0.14891784
3906.00   25.06840134   0.14990340
3908.00   24.82641029   0.14937770
3910.00   24.66211510   0.14860573
3912.00   25.00964928   0.14915721
3914.00   25.16474724   0.14888333
3916.00   24.97283173   0.14730518
3918.00   24.84410667   0.14635670
3920.00   25.00230026   0.14615287
3922.00   25.22397995   0.14625248
3924.00   25.42820549   0.14641465
3926.00   25.44834137   0.14619872
3928.00   25.46633148   0.14571659
3930.00   25.20087814   0.14468548
3932.00   24.30789185   0.14202130
3934.00   24.61037064   0.14258838
3936.00   26.03388214   0.14586659
3938.00   26.08999252   0.14553143
3940.00   26.34727287   0.14607535
3942.00   26.29586411   0.14574429
3944.00   26.82917213   0.14695701
3946.00   27.27787209   0.14772250
3948.00   27.29677963   0.14724675
3950.00   27.62296677   0.14764978
3952.00   27.57124329   0.14711046
3954.00   27.29334259   0.14594001
3956.00   25.99864578   0.14210528
3958.00   26.88988495   0.14424542
3960.00   27.95376587   0.14590943
3962.00   28.40111923   0.14672826
3964.00   28.62013626   0.14654642
3966.00   27.88880730   0.14406544
3968.00   27.53426170   0.14282992
3970.00   27.73761559   0.14305721
3972.00   27.65536880   0.14259022
3974.00   27.29728699   0.14140506
3976.00   27.01909065   0.14045578
3978.00   26.82054138   0.13959268
3980.00   26.48196793   0.13838807
3982.00   26.21101761   0.13747472
3984.00   25.81896591   0.13611588
3986.00   25.62089729   0.13513596
3988.00   25.26313591   0.13401572
3990.00   24.49437714   0.13179009
3992.00   24.07856560   0.13043718
3994.00   24.35990524   0.13092829
3996.00   24.52243614   0.13135219
3998.00   24.10809898   0.12989788
4000.00   23.90175819   0.12891647
4002.00   23.56439590   0.12763594
4004.00   23.44024849   0.12699038
4006.00   23.47596931   0.12679207
4008.00   23.09108353   0.12568238
4010.00   23.03216171   0.12535496
4012.00   23.06707764   0.12515017
4014.00   22.84891319   0.12425068
4016.00   22.68985367   0.12350017
4018.00   22.49300575   0.12322177
4020.00   22.41234016   0.12356322
4022.00   22.50355530   0.12389428
4024.00   22.50560379   0.12348705
4026.00   22.68036652   0.12312536
4028.00   22.86191559   0.12298672
4030.00   22.67761040   0.12215762
4032.00   22.77994347   0.12209375
4034.00   22.99615097   0.12228461
4036.00   23.30231667   0.12285423
4038.00   23.19234848   0.12230653
4040.00   23.36532211   0.12249316
4042.00   23.59733200   0.12310687
4044.00   24.06917000   0.12796433
4046.00   24.17536354   0.13381439
4048.00   24.32221031   0.13291453
4050.00   24.49040413   0.12701821
4052.00   24.87234688   0.12558469
4054.00   25.07282829   0.12581809
4056.00   25.02931976   0.12549625
4058.00   25.28546906   0.12633894
4060.00   25.68664169   0.12696715
4062.00   25.79532623   0.12695189
4064.00   26.11047173   0.12753892
4066.00   26.35455132   0.12798020
4068.00   26.39920807   0.12785387
4070.00   26.72839165   0.12838715
4072.00   26.82380486   0.12837842
4074.00   26.96837616   0.12871210
4076.00   27.25727654   0.13005376
4078.00   27.54163170   0.13106601
4080.00   27.77860069   0.13104875
4082.00   27.65635490   0.13034607
4084.00   28.00706100   0.13083649
4086.00   27.95781708   0.13043807
4088.00   28.28078842   0.13087429
4090.00   28.49453163   0.13091302
4092.00   28.67102051   0.13106078
4094.00   28.64478302   0.13082641
4096.00   28.97180939   0.13137712
4098.00   28.95984459   0.13121401
4100.00   29.02504349   0.13118409
4102.00   28.79138947   0.13037568
4104.00   28.65853310   0.12992023
4106.00   28.74741936   0.12996565
4108.00   28.94578362   0.13028562
4110.00   28.57406044   0.12920825
4112.00   28.70730591   0.12928043
4114.00   28.73096466   0.12924065
4116.00   28.66040230   0.12882063
4118.00   28.75651550   0.12871575
4120.00   28.67770386   0.12829421
4122.00   28.66271782   0.12799667
4124.00   28.34991455   0.12711702
4126.00   28.37542152   0.12697154
4128.00   28.21628571   0.12636846
4130.00   28.04220581   0.12569775
4132.00   27.48057175   0.12439959
4134.00   27.16263390   0.12338364
4136.00   26.87107277   0.12224207
4138.00   26.71796227   0.12171482
4140.00   26.31596947   0.12065787
4142.00   26.10493660   0.11976264
4144.00   25.86260414   0.11866426
4146.00   25.51636696   0.11764386
4148.00   25.37755775   0.11621340
4150.00   25.33337593   0.11584742
4152.00   25.29684639   0.11573838
4154.00   25.07437134   0.11496605
4156.00   24.82572174   0.11400194
4158.00   24.74161339   0.11358744
4160.00   24.98370934   0.11394249
4162.00   24.81408501   0.11361448
4164.00   24.58898926   0.11337316
4166.00   24.58279800   0.11318444
4168.00   24.44427299   0.11251893
4170.00   24.33893013   0.11194389
4172.00   23.85342789   0.11075788
4174.00   23.82312393   0.11040419
4176.00   23.74818993   0.11013586
4178.00   23.50952911   0.10963272
4180.00   23.51076889   0.10949479
4182.00   23.44291878   0.10910898
4184.00   23.54122162   0.10919099
4186.00   23.44476509   0.10881151
4188.00   23.40766335   0.10862906
4190.00   23.43443298   0.10853212
4192.00   23.68433380   0.10892683
4194.00   23.35568428   0.10809723
4196.00   23.17348099   0.10738906
4198.00   23.09023857   0.10693779
4200.00   22.91994476   0.10639586
4202.00   22.70909119   0.10573638
4204.00   22.36264801   0.10478633
4206.00   22.26171875   0.10444158
4208.00   22.15192032   0.10399765
4210.00   21.78456306   0.10303520
4212.00   21.59845924   0.10239009
4214.00   21.37134743   0.10155594
4216.00   21.39467049   0.10134919
4218.00   20.95499611   0.10011803
4220.00   20.78521538   0.09949719
4222.00   20.44642448   0.09844716
4224.00   20.14779282   0.09750284
4226.00   20.00613022   0.09703898
4228.00   19.62611198   0.09592837
4230.00   19.70009232   0.09595629
4232.00   19.35658455   0.09503455
4234.00   19.14051056   0.09434352
4236.00   18.68055153   0.09313330
4238.00   18.63856125   0.09295984
4240.00   18.44670677   0.09222107
4242.00   18.28318596   0.09149410
4244.00   18.11823654   0.09130437
4246.00   17.88718033   0.09123169
4248.00   17.52271843   0.09028010
4250.00   17.55054283   0.08942712
4252.00   17.41955948   0.08867012
4254.00   17.18204498   0.08800431
4256.00   16.85652351   0.08706354
4258.00   16.87464714   0.08694407
4260.00   16.59846306   0.08662383
4262.00   16.53010941   0.08628567
4264.00   16.46635056   0.08605120
4266.00   16.22775459   0.08535603
4268.00   16.12847137   0.08493751
4270.00   15.83178902   0.08408572
4272.00   15.75590038   0.08383249
4274.00   15.35683632   0.08265947
4276.00   15.19220352   0.08226301
4278.00   15.22033691   0.08220109
4280.00   15.06241798   0.08168314
4282.00   14.80658436   0.08104248
4284.00   14.69018078   0.08056089
4286.00   14.62733650   0.08026600
4288.00   14.55025291   0.07992766
4290.00   14.41396427   0.07950590
4292.00   14.30343914   0.07917381
4294.00   14.07699394   0.07858271
4296.00   14.01770401   0.07834532
4298.00   13.86501980   0.07783358
4300.00   13.76850414   0.07745899
4302.00   13.61667728   0.07697282
4304.00   13.52302361   0.07674062
4306.00   13.49015236   0.07668883
4308.00   13.33345509   0.07626831
4310.00   13.23807144   0.07598031
4312.00   13.05613899   0.07589759
4314.00   13.02483654   0.07605030
4316.00   12.99631977   0.07570011
4318.00   13.22759438   0.07622486
4320.00   13.30738354   0.07650378
4322.00   13.35836315   0.07657807
4324.00   13.39461708   0.07657107
4326.00   13.55957317   0.07680981
4328.00   13.80306244   0.07716807
4330.00   13.71932793   0.07691082
4332.00   14.00410938   0.07752652
4334.00   14.18596077   0.07794957
4336.00   14.55304050   0.07899818
4338.00   14.46858501   0.07881774
4340.00   14.89747906   0.07988422
4342.00   15.01735783   0.08015768
4344.00   15.22693253   0.08069688
4346.00   15.39918232   0.08139404
4348.00   15.35652542   0.08136045
4350.00   15.55675411   0.08159332
4352.00   15.73924446   0.08179829
4354.00   15.79667950   0.08289559
4356.00   15.92965031   0.09100416
4358.00   15.78228760   0.09606566
4360.00   16.37646103   0.09407753
4362.00   16.55830574   0.08725769
4364.00   16.64780998   0.08382010
4366.00   16.92332649   0.08364670
4368.00   17.00432587   0.08358885
4370.00   17.24861526   0.08391185
4372.00   17.43604088   0.08434699
4374.00   17.54770088   0.08459100
4376.00   17.75253487   0.08477379
4378.00   17.84857559   0.08461136
4380.00   17.90238571   0.08441448
4382.00   17.89068413   0.08415547
4384.00   18.06564140   0.08428643
4386.00   18.16870308   0.08440825
4388.00   18.16255379   0.08418057
4390.00   18.25201797   0.08426980
4392.00   18.29567719   0.08419777
4394.00   18.43419456   0.08431281
4396.00   18.71468925   0.08474212
4398.00   18.82657433   0.08502214
4400.00   18.94789886   0.08522495
4402.00   18.96214294   0.08505388
4404.00   19.06592560   0.08505752
4406.00   19.11609459   0.08500487
4408.00   18.99877167   0.08461247
4410.00   18.92879677   0.08433504
4412.00   18.67115784   0.08374319
4414.00   18.70539284   0.08380808
4416.00   18.55808067   0.08340418
4418.00   18.46840286   0.08305711
4420.00   18.22472763   0.08247355
4422.00   18.15584183   0.08217280
4424.00   17.72205925   0.08119493
4426.00   17.77108574   0.08121715
4428.00   17.58752823   0.08074626
4430.00   17.38088989   0.08031972
4432.00   17.28617287   0.08004747
4434.00   17.36457825   0.08016554
4436.00   17.26111603   0.07993286
4438.00   17.29568863   0.07994493
4440.00   17.31772041   0.07996823
4442.00   17.19099045   0.07959752
4444.00   17.19730949   0.07953806
4446.00   17.20702744   0.07959081
4448.00   17.22334671   0.07951180
4450.00   17.25880432   0.07953557
4452.00   17.18371391   0.07940212
4454.00   17.29330826   0.07949853
4456.00   17.47650146   0.07983425
4458.00   17.47026443   0.07971127
4460.00   17.60829926   0.07992905
4462.00   17.76072884   0.08016035
4464.00   17.91385651   0.08029687
4466.00   18.24932480   0.08090867
4468.00   18.47899246   0.08130267
4470.00   18.57796288   0.08132397
4472.00   18.78312683   0.08168411
4474.00   18.91846848   0.08189312
4476.00   19.20612717   0.08235952
4478.00   19.55346489   0.08292668
4480.00   19.50310516   0.08272649
4482.00   19.83186722   0.08324560
4484.00   20.12123680   0.08370414
4486.00   20.33261490   0.08401024
4488.00   20.48789597   0.08417492
4490.00   20.63539124   0.08464934
4492.00   20.78050995   0.08513957
4494.00   20.86260033   0.08520880
4496.00   21.02572632   0.08543354
4498.00   21.01360512   0.08532013
4500.00   21.18335152   0.08560400
4502.00   21.44382668   0.08598786
4504.00   21.55126762   0.08611296
4506.00   21.74829292   0.08637911
4508.00   21.66776466   0.08620033
4510.00   21.76582909   0.08631497
4512.00   21.83003616   0.08636770
4514.00   21.99368668   0.08664774
4516.00   22.05047989   0.08667198
4518.00   22.26884651   0.08697443
4520.00   22.44931984   0.08874629
4522.00   22.44466019   0.08799304
4524.00   22.52108574   0.08726144
4526.00   22.51931381   0.08722110
4528.00   22.55210304   0.08722199
4530.00   22.61837387   0.08731046
4532.00   22.52154541   0.08768250
4534.00   22.89932632   0.08767562
4536.00   22.83246994   0.08744896
4538.00   22.92257500   0.08754548
4540.00   22.85443687   0.08736996
4542.00   22.86688614   0.08731031
4544.00   22.81859398   0.08721773
4546.00   22.55066490   0.08657748
4548.00   22.41835594   0.08616497
4550.00   22.34550095   0.08590056
4552.00   22.11897659   0.08534279
4554.00   22.09457970   0.08516958
4556.00   22.03546524   0.08494391
4558.00   21.79351807   0.08440242
4560.00   21.61835670   0.08393863
4562.00   21.47212410   0.08343878
4564.00   21.31975937   0.08297330
4566.00   21.17845345   0.08258537
4568.00   21.21273232   0.08245695
4570.00   21.10096931   0.08209480
4572.00   20.96333885   0.08175239
4574.00   20.75723648   0.08126850
4576.00   20.72045898   0.08104448
4578.00   20.58699417   0.08063548
4580.00   20.55226707   0.08045777
4582.00   20.46361351   0.08017828
4584.00   20.60721397   0.08038457
4586.00   20.64036751   0.08043390
4588.00   20.60922050   0.08036473
4590.00   20.52573776   0.08020688
4592.00   20.52868843   0.08031684
4594.00   20.53145981   0.08041824
4596.00   20.75956345   0.08089191
4598.00   20.73981285   0.08093317
4600.00   20.73578453   0.08094806
4602.00   20.77701187   0.08111718
4604.00   20.75823402   0.08116553
4606.00   20.91304588   0.08159839
4608.00   21.00372124   0.08187190
4610.00   20.91042328   0.08151045
4612.00   20.98616219   0.08129006
4614.00   20.97271919   0.08119634
4616.00   21.12786484   0.08501724
4618.00   21.03066444   0.08132927
4620.00   21.01849174   0.08147782
4622.00   20.96023560   0.08135027
4624.00   20.79788017   0.08105897
4626.00   20.84447098   0.08115632
4628.00   20.80731010   0.08107287
4630.00   20.72828865   0.08085907
4632.00   20.50751305   0.08040947
4634.00   20.39792442   0.08010898
4636.00   20.32430267   0.07986175
4638.00   20.11705017   0.07936977
4640.00   20.19744301   0.07926593
4642.00   19.69475174   0.08180568
4644.00   19.76563072   0.07828251
4646.00   19.42090225   0.07758759
4648.00   19.24124527   0.07708621
4650.00   18.85585976   0.07622252
4652.00   18.69778442   0.07572515
4654.00   18.34108925   0.07488100
4656.00   18.01712799   0.07410580
4658.00   17.72691917   0.07343408
4660.00   17.50330353   0.07293874
4662.00   17.18591881   0.07219507
4664.00   16.80972099   0.07145648
4666.00   16.81904030   0.07144573
4668.00   16.55544090   0.07092545
4670.00   16.28690720   0.07033747
4672.00   16.22984886   0.07011328
4674.00   16.07905197   0.06980274
4676.00   15.85487270   0.06924353
4678.00   15.76594162   0.06892924
4680.00   15.74017620   0.06882089
4682.00   15.62074947   0.06856311
4684.00   15.47678757   0.06825547
4686.00   15.57758713   0.06845449
4688.00   15.66227341   0.06861051
4690.00   15.55778027   0.06839003
4692.00   15.73098278   0.06874081
4694.00   15.58605099   0.06845630
4696.00   15.79219627   0.06882013
4698.00   15.71454716   0.06862371
4700.00   15.69425583   0.06856256
4702.00   15.72268009   0.06863366
4704.00   15.73361588   0.06861292
4706.00   15.51502895   0.06822328
4708.00   15.66516399   0.06849923
4710.00   15.56279564   0.06819213
4712.00   15.48976231   0.06791972
4714.00   15.43627453   0.06767996
4716.00   15.28010654   0.06726544
4718.00   15.44943523   0.06750559
4720.00   15.33659077   0.06721583
4722.00   15.24314976   0.06700184
4724.00   15.14129734   0.06666180
4726.00   15.21025562   0.06693525
4728.00   15.14912510   0.06696620
4730.00   15.16156197   0.06701138
4732.00   15.07837200   0.06686539
4734.00   15.02703285   0.06680528
4736.00   14.94900322   0.06676225
4738.00   14.75290871   0.06646816
4740.00   14.74374294   0.06653345
4742.00   14.65299416   0.06650145
4744.00   14.40401649   0.06587273
4746.00   14.29224014   0.06529264
4748.00   14.34483910   0.06513202
4750.00   14.23117828   0.06490432
4752.00   14.07775879   0.06458905
4754.00   13.98639679   0.06431282
4756.00   13.89648628   0.06396703
4758.00   13.61967182   0.06347783
4760.00   13.45505714   0.06324699
4762.00   13.38961601   0.06304496
4764.00   13.43715096   0.06308281
4766.00   13.29376507   0.06269772
4768.00   13.31283283   0.06271584
4770.00   13.11028576   0.06220690
4772.00   13.29967976   0.06263490
4774.00   13.38234806   0.06280360
4776.00   13.20461750   0.06244165
4778.00   13.32203865   0.06275886
4780.00   13.33383656   0.06276772
4782.00   13.37207031   0.06275179
4784.00   13.48680592   0.06294154
4786.00   13.48809528   0.06289458
4788.00   13.52340889   0.06296137
4790.00   13.76314354   0.06349696
4792.00   13.95846367   0.06383769
4794.00   14.02565002   0.06396370
4796.00   14.10743713   0.06406867
4798.00   14.31422615   0.06450734
4800.00   14.36602402   0.06455509
4802.00   14.56310272   0.06498141
4804.00   14.76751804   0.06539899
4806.00   14.94062424   0.06574764
4808.00   15.01833820   0.06589922
4810.00   15.07893467   0.06602151
4812.00   15.14941120   0.06613799
4814.00   15.17338181   0.06614698
4816.00   15.18341160   0.06614388
4818.00   15.11806202   0.06601299
4820.00   15.14207363   0.06610205
4822.00   15.12137032   0.06602351
4824.00   15.07865334   0.06594287
4826.00   15.03500271   0.06578733
4828.00   14.76355362   0.06526399
4830.00   14.66867256   0.06504275
4832.00   14.60714436   0.06490035
4834.00   14.39320850   0.06441581
4836.00   14.14455414   0.06388512
4838.00   14.05542755   0.06372705
4840.00   13.89401627   0.06337535
4842.00   13.74525642   0.06296872
4844.00   13.49954605   0.06239099
4846.00   13.36297989   0.06203543
4848.00   13.04821110   0.06136119
4850.00   12.86939812   0.06091508
4852.00   12.63497639   0.06038168
4854.00   12.52729416   0.06007574
4856.00   12.23708916   0.05931951
4858.00   12.11505508   0.05903788
4860.00   11.91330338   0.05860552
4862.00   11.72111320   0.05816086
4864.00   11.60562420   0.05787502
4866.00   11.41839695   0.05742449
4868.00   11.24616528   0.05692672
4870.00   11.11078358   0.05657884
4872.00   10.88807201   0.05603300
4874.00   10.76245975   0.05572822
4876.00   10.78703499   0.05581582
4878.00   10.68723106   0.05553097
4880.00   10.51843739   0.05508195
4882.00   10.44411469   0.05489626
4884.00   10.46558189   0.05484588
4886.00   10.46048641   0.05478206
4888.00   10.39629269   0.05460072
4890.00   10.40638447   0.05529298
4892.00   10.40030575   0.05559848
4894.00   10.43116665   0.05459479
4896.00   10.57333660   0.05497034
4898.00   10.50354099   0.05449257
4900.00   10.67702007   0.05476727
4902.00   10.70726681   0.05475606
4904.00   10.71760750   0.05480105
4906.00   10.72931385   0.05483032
4908.00   10.79896450   0.05499201
4910.00   10.87048912   0.05513371
4912.00   11.02360344   0.05546932
4914.00   11.06903744   0.05555133
4916.00   11.18828297   0.05584220
4918.00   11.16590405   0.05571781
4920.00   11.25963688   0.05586661
4922.00   11.40977287   0.05620840
4924.00   11.33151722   0.05597963
4926.00   11.36528873   0.05598194
4928.00   11.43330383   0.05610221
4930.00   11.41132450   0.05598519
4932.00   11.49845600   0.05618308
4934.00   11.55906773   0.05629887
4936.00   11.54579067   0.05627760
4938.00   11.53009796   0.05618074
4940.00   11.59399414   0.05634831
4942.00   11.59954071   0.05634210
4944.00   11.70493317   0.05647166
4946.00   11.77547169   0.05659486
4948.00   11.87327385   0.05675264
4950.00   11.90692425   0.05684592
4952.00   11.95761871   0.05702334
4954.00   12.14286900   0.05744809
4956.00   12.14256001   0.05736246
4958.00   12.12014294   0.05728732
4960.00   12.18518066   0.05738093
4962.00   12.32593060   0.05769273
4964.00   12.22036457   0.05746154
4966.00   12.29275990   0.05768168
4968.00   12.29118443   0.05769682
4970.00   12.17652321   0.05752598
4972.00   12.14345264   0.05760933
4974.00   12.27886677   0.05801724
4976.00   12.14373398   0.05791914
4978.00   12.15276814   0.05821373
4980.00   12.17418957   0.05847291
4982.00   12.23700047   0.05876631
4984.00   12.20702553   0.05867149
4986.00   12.19017220   0.05844731
4988.00   12.12540340   0.05810545
4990.00   12.11017704   0.05790243
4992.00   12.15114498   0.05782373
4994.00   12.23890114   0.05783502
4996.00   12.19365788   0.05761589
4998.00   12.17747974   0.05746795
5000.00   12.18845081   0.05741859
5002.00   12.27869511   0.05757977
5004.00   12.29070473   0.05754291
5006.00   12.27887535   0.05750050
5008.00   12.37211704   0.05765110
5010.00   12.37358379   0.05762707
5012.00   12.39284897   0.05760385
5014.00   12.35943699   0.05754838
5016.00   12.51548290   0.05794663
5018.00   12.56303501   0.05807646
5020.00   12.67679691   0.05834373
5022.00   12.62447166   0.05818028
5024.00   12.76391697   0.05838074
5026.00   12.77553463   0.05838753
5028.00   12.86335468   0.05859294
5030.00   12.89451504   0.05866231
5032.00   13.00189972   0.05893024
5034.00   13.03598881   0.05889466
5036.00   12.98301220   0.05875321
5038.00   13.06273651   0.05891349
5040.00   13.09121990   0.05891195
5042.00   13.04220390   0.05875108
5044.00   13.15361595   0.05901154
5046.00   13.29447460   0.05928458
5048.00   13.30636501   0.05929661
5050.00   13.31925106   0.05927770
5052.00   13.39023113   0.05940175
5054.00   13.48641205   0.05958064
5056.00   13.53720379   0.05968997
5058.00   13.59975052   0.05983175
5060.00   13.74233055   0.06012963
5062.00   13.86048985   0.06041881
5064.00   13.93157101   0.06064168
5066.00   14.12385178   0.06110092
5068.00   14.27638531   0.06153041
5070.00   14.36044884   0.06170662
5072.00   14.38142014   0.06199037
5074.00   14.55900764   0.06232767
5076.00   14.64169693   0.06245928
5078.00   14.69061089   0.06272117
5080.00   14.86824512   0.06338985
5082.00   14.84841442   0.06374090
5084.00   15.12374687   0.06452251
5086.00   15.19294453   0.06460051
5088.00   15.29234791   0.06454089
5090.00   15.32733345   0.06432008
5092.00   15.45188522   0.06433102
5094.00   15.54426765   0.06439283
5096.00   15.61400604   0.06461697
5098.00   15.68642807   0.06486052
5100.00   15.74857998   0.06497879
5102.00   15.88350773   0.06514750
5104.00   16.04356384   0.06531007
5106.00   16.10179329   0.06536604
5108.00   16.06631470   0.06526323
5110.00   16.41110420   0.06587593
5112.00   16.40132713   0.06587476
5114.00   16.48908043   0.06604977
5116.00   16.47243118   0.06599490
5118.00   16.72956276   0.06645665
5120.00   16.82766724   0.06655014
5122.00   16.89815140   0.06665567
5124.00   17.01410103   0.06680834
5126.00   17.05460930   0.06686813
5128.00   17.09955788   0.06693046
5130.00   17.05776215   0.06682137
5132.00   17.10519600   0.06690283
5134.00   17.03243828   0.06671809
5136.00   17.07429504   0.06676610
5138.00   17.11840057   0.06681303
5140.00   17.10692406   0.06678393
5142.00   17.00060081   0.06656480
5144.00   16.95532608   0.06649231
5146.00   16.92703056   0.06646577
5148.00   16.75301361   0.06617470
5150.00   16.78485107   0.06631342
5152.00   16.69109344   0.06621353
5154.00   16.59842110   0.06601754
5156.00   16.45508766   0.06565202
5158.00   16.48636436   0.06562349
5160.00   16.39849663   0.06534042
5162.00   16.25846291   0.06498199
5164.00   16.43763924   0.06528596
5166.00   16.29928398   0.06495606
5168.00   16.22613716   0.06476149
5170.00   16.11792564   0.06452509
5172.00   16.08349037   0.06443720
5174.00   16.05687332   0.06436855
5176.00   15.98025799   0.06420957
5178.00   15.98177719   0.06419597
5180.00   15.90011311   0.06404033
5182.00   15.94925976   0.06407531
5184.00   15.89724541   0.06395274
5186.00   15.96855259   0.06412619
5188.00   16.01037788   0.06416583
5190.00   16.01824951   0.06415205
5192.00   16.04325676   0.06416852
5194.00   16.13482666   0.06434139
5196.00   16.30204964   0.06468924
5198.00   16.38467407   0.06488204
5200.00   16.41860199   0.06489553
5202.00   16.37764168   0.06478293
5204.00   16.32067490   0.06459524
5206.00   16.42794228   0.06474800
5208.00   16.47883034   0.06486563
5210.00   16.69260216   0.06526538
5212.00   16.56596756   0.06498499
5214.00   16.55579758   0.06490979
5216.00   16.61653709   0.06501166
5218.00   16.69773293   0.06512699
5220.00   16.62560272   0.06499179
5222.00   16.67360687   0.06503781
5224.00   16.71340561   0.06509154
5226.00   16.67586517   0.06493678
5228.00   16.55107880   0.06468398
5230.00   16.45624542   0.06450312
5232.00   16.30806923   0.06423064
5234.00   16.36985207   0.06400449
5236.00   16.22082138   0.06353479
5238.00   16.19869804   0.06347414
5240.00   15.98972797   0.06302080
5242.00   15.78469276   0.06261216
5244.00   15.59880733   0.06220625
5246.00   15.28400707   0.06157838
5248.00   15.10691643   0.06122383
5250.00   14.91519928   0.06084216
5252.00   14.77685928   0.06058177
5254.00   14.58699703   0.06019789
5256.00   14.32438946   0.05978496
5258.00   14.04919815   0.05923401
5260.00   13.78721237   0.05863359
5262.00   13.66832066   0.05830881
5264.00   13.49420547   0.05791179
5266.00   13.18606281   0.05729397
5268.00   13.08680439   0.05708592
5270.00   12.89376354   0.05667520
5272.00   12.67305183   0.05620237
5274.00   12.49296856   0.05581570
5276.00   12.32355022   0.05548529
5278.00   12.25120735   0.05529073
5280.00   12.05860138   0.05489450
5282.00   11.94527721   0.05462694
5284.00   11.83458042   0.05440625
5286.00   11.65925026   0.05404454
5288.00   11.48260117   0.05366378
5290.00   11.44258785   0.05354471
5292.00   11.38248825   0.05340563
5294.00   11.45030689   0.05354052
5296.00   11.38995361   0.05340973
5298.00   11.33368778   0.05328322
5300.00   11.29186535   0.05321407
5302.00   11.24390030   0.05312127
5304.00   11.30227947   0.05320316
5306.00   11.29265213   0.05322458
5308.00   11.26315594   0.05313088
5310.00   11.22167206   0.05308140
5312.00   11.10838509   0.05283960
5314.00   11.31857395   0.05330849
5316.00   11.23485088   0.05314078
5318.00   11.32426643   0.05331712
5320.00   11.23119736   0.05310753
5322.00   11.26065445   0.05320384
5324.00   11.26646614   0.05322153
5326.00   11.28534889   0.05327835
5328.00   11.35144711   0.05342182
5330.00   11.26172352   0.05326819
5332.00   11.25148201   0.05328772
5334.00   11.23031712   0.05324716
5336.00   11.20189095   0.05320342
5338.00   11.26904106   0.05336565
5340.00   11.30751610   0.05353492
5342.00   11.41284275   0.05379701
5344.00   11.45474911   0.05392056
5346.00   11.38976955   0.05388132
5348.00   11.42235184   0.05406277
5350.00   11.53322983   0.05430931
5352.00   11.52682781   0.05429650
5354.00   11.66604900   0.05473920
5356.00   11.75774765   0.05496996
5358.00   11.86915874   0.05513506
5360.00   11.93032360   0.05523993
5362.00   11.94131756   0.05523978
5364.00   12.05115795   0.05551898
5366.00   12.19489574   0.05585524
5368.00   12.28970718   0.05614089
5370.00   12.33294582   0.05629278
5372.00   12.40172100   0.05658742
5374.00   12.44533825   0.05679832
5376.00   12.52138996   0.05706741
5378.00   12.60762596   0.05731920
5380.00   12.65067673   0.05748962
5382.00   12.68945122   0.05767254
5384.00   12.70931244   0.05776072
5386.00   12.74825954   0.05796749
5388.00   12.72537804   0.05806400
5390.00   12.65381718   0.05816087
5392.00   12.63227654   0.05824905
5394.00   12.66068840   0.05844454
5396.00   12.52969933   0.05829471
5398.00   12.59770298   0.05861021
5400.00   12.60921669   0.05883520
5402.00   12.62037754   0.05899592
5404.00   12.59817028   0.05920211
5406.00   12.56920433   0.05935618
5408.00   12.41052151   0.05926021
5410.00   12.52602005   0.05981536
5412.00   12.46048737   0.05998641
5414.00   12.37600040   0.06020498
5416.00   12.37969017   0.06059001
5418.00   12.28901386   0.06065940
5420.00   12.21170425   0.06076379
5422.00   12.17054939   0.06093024
5424.00   12.04638577   0.06085555
5426.00   12.09342480   0.06123153
5428.00   11.99745560   0.06118314
5430.00   11.97135448   0.06134411
5432.00   11.86905670   0.06141556
5434.00   11.79973602   0.06147800
5436.00   11.75108433   0.06191925
5438.00   11.52693844   0.06168531
5440.00   11.45289230   0.06178791
5442.00   11.47068501   0.06212272
5444.00   11.42320061   0.06231793
5446.00   11.30051517   0.06229136
5448.00   11.13791466   0.06208576
5450.00   11.04678917   0.06210027
5452.00   10.77617741   0.06164597
5454.00   10.69506454   0.06180377
5456.00   10.67462540   0.06359456
5458.00   10.61957264   0.06664948
5460.00   10.38499260   0.06758194
5462.00   10.36940861   0.06662324
5464.00   10.24549007   0.06504640
5466.00   10.17546463   0.06369144
5468.00   10.00390148   0.06236671
5470.00   9.96906853   0.06156832
5472.00   9.98076153   0.06128939
5474.00   9.83044434   0.06073928
5476.00   9.86467266   0.06085266
5478.00   9.81514359   0.06093911
5480.00   9.69523430   0.06089370
5482.00   9.70027161   0.06115500
5484.00   9.72617912   0.06126845
5486.00   9.62723351   0.06094383
5488.00   9.76878071   0.06127533
5490.00   9.70546341   0.06110609
5492.00   9.72709274   0.06112125
5494.00   9.82717133   0.06149932
5496.00   9.93618774   0.06187572
5498.00   10.05857277   0.06235196
5500.00   10.09822178   0.06258353
5502.00   10.20132637   0.06297912
5504.00   10.36900520   0.06352811
5506.00   10.54608822   0.06419393
5508.00   10.55693150   0.06442685
5510.00   10.85956764   0.06541607
5512.00   10.92156315   0.06587884
5514.00   11.08765030   0.06649924
5516.00   11.24530888   0.06713507
5518.00   11.41266632   0.06784800
5520.00   11.43439960   0.06806958
5522.00   11.72353554   0.06894197
5524.00   11.86474514   0.06944209
5526.00   12.03398418   0.07005076
5528.00   12.23107719   0.07060577
5530.00   12.24012470   0.07076190
5532.00   12.36945057   0.07118238
5534.00   12.48019600   0.07154695
5536.00   12.59510708   0.07201106
5538.00   12.79832935   0.07269674
5540.00   12.90544128   0.07311417
5542.00   12.85740566   0.07311691
5544.00   12.97297478   0.07350549
5546.00   13.17920589   0.07413433
5548.00   13.20336819   0.07430337
5550.00   13.37457561   0.07488752
5552.00   13.46015739   0.07522190
5554.00   13.56423092   0.07553556
5556.00   13.65307331   0.07586385
5558.00   13.56836700   0.07580809
5560.00   13.75570393   0.07648318
5562.00   13.71944427   0.07657575
5564.00   13.79303551   0.07690958
5566.00   13.76166058   0.07697759
5568.00   13.75558186   0.07714015
5570.00   13.90003872   0.07778298
5572.00   13.75870991   0.08005849
5574.00   13.79672813   0.08532525
5576.00   13.41828632   0.11156748
5578.00   13.39048862   0.11200863
5580.00   13.54898262   0.11019514
5582.00   13.51166534   0.10790885
5584.00   13.38982487   0.10460945
5586.00   13.33764267   0.10187894
5588.00   13.38387489   0.10004536
5590.00   13.30054092   0.09855375
5592.00   13.19497681   0.09774341
5594.00   12.94363689   0.09731988
5596.00   12.83252430   0.09534079
5598.00   13.03857994   0.09443147
5600.00   13.00558662   0.09368218
5602.00   12.83869648   0.09304631
5604.00   12.94754219   0.09212568
5606.00   12.97110748   0.09149256
5608.00   12.96495724   0.09089290
5610.00   12.90994453   0.09016025
5612.00   12.86759853   0.08937132
5614.00   12.89641953   0.08875630
5616.00   12.88990021   0.08823711
5618.00   12.85795879   0.08763036
5620.00   12.91432571   0.08712330
5622.00   12.91839790   0.08665673
5624.00   12.86429501   0.08640247
5626.00   12.84910965   0.08581019
5628.00   12.82566452   0.08501434
5630.00   12.74920559   0.08422815
5632.00   12.65133667   0.08350586
5634.00   12.57601929   0.08288287
5636.00   12.54526901   0.08234980
5638.00   12.43084812   0.08168853
5640.00   12.31993484   0.08103970
5642.00   12.29674530   0.08056573
5644.00   12.32106590   0.08017601
5646.00   12.23560143   0.07965948
5648.00   12.03209209   0.07955369
5650.00   12.09412098   0.07961408
5652.00   11.93294907   0.08429902
5654.00   11.65457153   0.08119582
5656.00   11.49623585   0.08664551
5658.00   11.34052753   0.08925971
5660.00   11.30631638   0.09538412
5662.00   11.14490795   0.10084909
5664.00   10.98195171   0.11663218
5666.00   11.00362778   0.11389872
5668.00   11.02747726   0.12114330
5670.00   10.82353973   0.11889635
5672.00   11.21140385   0.11997937
5674.00   11.99186993   0.11617994
5676.00   12.34027958   0.11604617
5678.00   12.35094929   0.12721787
5680.00   12.65170193   0.11590280
5682.00   13.14239979   0.09885308
5684.00   13.18279457   0.09685816
5686.00   12.76239872   0.09115901
5688.00   12.67407322   0.08970217
5690.00   12.55462742   0.09228048
5692.00   12.37679672   0.08595569
5694.00   12.50026226   0.07942082
5696.00   12.71957016   0.08110677
5698.00   12.72526169   0.07694024
5700.00   12.65474796   0.07512162
5702.00   12.49497318   0.07415466
5704.00   12.70643806   0.07398361
5706.00   12.77176857   0.07400773
5708.00   12.83763313   0.07389396
5710.00   12.87798977   0.07379488
5712.00   12.85883331   0.07356863
5714.00   12.79710579   0.07323885
5716.00   12.75737762   0.07290334
5718.00   12.73924637   0.07256324
5720.00   12.71790504   0.07235068
5722.00   12.69919968   0.07203101
5724.00   12.66904163   0.07168925
5726.00   12.64359570   0.07142522
5728.00   12.58593941   0.07115499
5730.00   12.31834888   0.07075136
5732.00   12.27420330   0.07047399
5734.00   12.38542557   0.07018765
5736.00   12.32322216   0.06987786
5738.00   12.21987438   0.06951299
5740.00   11.98137188   0.06911393
5742.00   11.92226410   0.06885485
5744.00   11.87459278   0.06861906
5746.00   11.80676556   0.06830216
5748.00   11.74569225   0.06803217
5750.00   11.75496387   0.06798222
5752.00   11.79537582   0.06758343
5754.00   11.72467327   0.06730320
5756.00   11.67772102   0.06727016
5758.00   11.62824440   0.06701899
5760.00   11.62803745   0.06689727
5762.00   11.57047844   0.06706035
5764.00   11.41046524   0.06615713
5766.00   11.29130077   0.06609088
5768.00   11.27954292   0.06641448
5770.00   11.20755005   0.06619934
5772.00   11.13246155   0.06587661
5774.00   11.06932545   0.06546997
5776.00   10.93018055   0.06514651
5778.00   10.99794960   0.06469724
5780.00   10.79523468   0.06436967
5782.00   10.79451084   0.06436828
5784.00   10.91871738   0.06440992
5786.00   10.91709900   0.06449138
5788.00   10.90096092   0.06464103
5790.00   10.91680717   0.06468569
5792.00   10.92265320   0.06457459
5794.00   10.95354462   0.06446912
5796.00   11.01624107   0.06433963
5798.00   11.05775547   0.06409767
5800.00   11.04735565   0.06386056
5802.00   11.02949333   0.06373083
5804.00   11.02600670   0.06365091
5806.00   11.06062698   0.06361665
5808.00   11.08314323   0.06363568
5810.00   11.10596657   0.06363594
5812.00   11.11109924   0.06356155
5814.00   11.11078453   0.06356344
5816.00   10.97904968   0.06356353
5818.00   11.19713211   0.06364445
5820.00   11.25839710   0.06375026
5822.00   11.26112175   0.06386738
5824.00   11.12156582   0.06384016
5826.00   11.17641163   0.06391605
5828.00   11.20746708   0.06400692
5830.00   11.46218872   0.06420550
5832.00   11.53016853   0.06433628
5834.00   11.53285789   0.06439734
5836.00   11.58347225   0.06457543
5838.00   11.47767735   0.06466008
5840.00   11.51636982   0.06472746
5842.00   11.71837711   0.06476573
5844.00   11.74095154   0.06481632
5846.00   11.70822430   0.06477740
5848.00   11.54560375   0.06477063
5850.00   11.71123886   0.06481632
5852.00   11.78111649   0.06491575
5854.00   11.82097149   0.06502680
5856.00   11.81667709   0.06510887
5858.00   11.83869934   0.06519485
5860.00   11.89263153   0.06531009
5862.00   11.88222980   0.06530333
5864.00   11.66492748   0.06521320
5866.00   11.84062958   0.06532241
5868.00   11.88200569   0.06538606
5870.00   11.85557175   0.06529650
5872.00   11.80091286   0.06521601
5874.00   11.80199242   0.06531625
5876.00   11.81155014   0.06552378
5878.00   11.79108429   0.06592622
5880.00   11.68211555   0.06662609
5882.00   11.55137825   0.06778576
5884.00   11.50309563   0.06990389
5886.00   11.37149239   0.07264143
5888.00   11.23003006   0.07501066
5890.00   11.05225468   0.07672656
5892.00   11.22377110   0.07788450
5894.00   11.30334854   0.07817715
5896.00   11.42215538   0.07642820
5898.00   11.55979443   0.07378464
5900.00   11.54580402   0.07125946
5902.00   11.75672913   0.06882115
5904.00   11.88863182   0.06637403
5906.00   11.96715069   0.06506111
5908.00   12.06533241   0.06493822
5910.00   12.11635399   0.06513775
5912.00   12.12202644   0.06514221
5914.00   12.04045296   0.06495875
5916.00   11.93736267   0.06465891
5918.00   11.81524849   0.06432232
5920.00   11.71344948   0.06415851
5922.00   11.64957047   0.06387872
5924.00   11.62570858   0.06376091
5926.00   11.60398865   0.06378221
5928.00   11.47552776   0.06389606
5930.00   11.71079636   0.06413101
5932.00   11.88582325   0.06446553
5934.00   11.93501186   0.06458303
5936.00   11.98750401   0.06462560
5938.00   12.01978874   0.06445324
5940.00   11.99222469   0.06434032
5942.00   11.86986923   0.06386785
5944.00   11.85129261   0.06925345
5946.00   11.88768578   0.06858405
5948.00   11.92221546   0.06497305
5950.00   11.97838974   0.06368458
5952.00   11.99865913   0.06404217
5954.00   11.91107559   0.06395032
5956.00   11.92370796   0.06386402
5958.00   11.92859840   0.06380465
5960.00   11.86549377   0.06359873
5962.00   11.89489555   0.06357709
5964.00   11.82156658   0.06337386
5966.00   11.77495384   0.06318906
5968.00   11.75182152   0.06313977
5970.00   11.68401814   0.06292925
5972.00   11.65034866   0.06285452
5974.00   11.64442253   0.06281874
5976.00   11.57893181   0.06267718
5978.00   11.52108288   0.06255784
5980.00   11.38263416   0.06247103
5982.00   11.52032471   0.06239815
5984.00   11.46921730   0.06221336
5986.00   11.42760277   0.06205504
5988.00   11.40052986   0.06192859
5990.00   11.35527802   0.06179313
5992.00   11.31343651   0.06166895
5994.00   11.23867989   0.06147451
5996.00   11.17083931   0.06126377
5998.00   11.12838745   0.06114175
6000.00   11.08290291   0.06098453
6002.00   10.99254704   0.06071252
6004.00   10.94055367   0.06054712
6006.00   10.75687790   0.06043838
6008.00   10.68155670   0.06020445
6010.00   10.79513454   0.06008479
6012.00   10.77002335   0.05993268
6014.00   10.69681549   0.05968957
6016.00   10.62271309   0.05950308
6018.00   10.58100986   0.05938642
6020.00   10.54955673   0.05922156
6022.00   10.51780796   0.05909492
6024.00   10.46943760   0.05899451
6026.00   10.41601753   0.05878182
6028.00   10.31962585   0.05856746
6030.00   10.24360371   0.05836198
6032.00   10.19183826   0.05820856
6034.00   10.02513218   0.05807421
6036.00   10.09294796   0.05786178
6038.00   10.05377007   0.05774684
6040.00   9.89081669   0.05760303
6042.00   9.84259510   0.05744050
6044.00   9.94628716   0.05732991
6046.00   9.79883575   0.05726604
6048.00   9.72172165   0.05703488
6050.00   9.65781403   0.05683884
6052.00   9.73591709   0.05666079
6054.00   9.67892075   0.05646950
6056.00   9.62599754   0.05621712
6058.00   9.57685184   0.05601502
6060.00   9.47262669   0.05580279
6062.00   9.33417606   0.05576595
6064.00   9.30048847   0.05566399
6066.00   9.35960960   0.05546491
6068.00   9.22553730   0.05503295
6070.00   9.14755821   0.05475875
6072.00   8.93593597   0.05452287
6074.00   8.85001469   0.05425500
6076.00   8.77399540   0.05399886
6078.00   8.81948471   0.05373454
6080.00   8.69841957   0.05334320
6082.00   8.57250786   0.05291966
6084.00   8.47419834   0.05266624
6086.00   8.36827278   0.05238528
6088.00   8.12816620   0.05199295
6090.00   8.12887955   0.05164455
6092.00   8.02162170   0.05131285
6094.00   7.78273153   0.05097863
6096.00   7.59401560   0.05041134
6098.00   7.53115559   0.04995623
6100.00   7.39086628   0.04959759
6102.00   7.15481424   0.04928838
6104.00   7.03132677   0.04903208
6106.00   6.88134146   0.04874022
6108.00   6.73246717   0.04847889
6110.00   6.58349228   0.04821372
6112.00   6.44436693   0.04790443
6114.00   6.31493378   0.04747534
6116.00   6.22304869   0.04705767
6118.00   6.16112328   0.04665417
6120.00   6.09153938   0.04614903
6122.00   5.99573755   0.04552707
6124.00   5.89072180   0.04497493
6126.00   5.79550028   0.04449518
6128.00   5.67521143   0.04399092
6130.00   5.56936026   0.04356791
6132.00   5.51897192   0.04336992
6134.00   5.43456697   0.04306313
6136.00   5.35088539   0.04275705
6138.00   5.33144569   0.04266769
6140.00   5.29439592   0.04251068
6142.00   5.21688795   0.04223063
6144.00   5.17620516   0.04206591
6146.00   5.17376328   0.04204096
6148.00   5.14397573   0.04194183
6150.00   5.10584879   0.04184513
6152.00   5.10876131   0.04189502
6154.00   5.09055471   0.04187666
6156.00   5.06634045   0.04186323
6158.00   5.06163454   0.04187939
6160.00   5.06217384   0.04183814
6162.00   5.06689119   0.04173724
6164.00   5.06923485   0.04161199
6166.00   5.15842199   0.04145541
6168.00   5.17651129   0.04132013
6170.00   5.10868406   0.04124604
6172.00   5.13464212   0.04123918
6174.00   5.12875986   0.04116159
6176.00   5.16266251   0.04122405
6178.00   5.22444916   0.04139394
6180.00   5.29538012   0.04160349
6182.00   5.36515093   0.04179807
6184.00   5.40508890   0.04190240
6186.00   5.45528173   0.04207844
6188.00   5.54285192   0.04239929
6190.00   5.63973188   0.04272027
6192.00   5.73776388   0.04301692
6194.00   5.81586981   0.04326976
6196.00   5.88816786   0.04351000
6198.00   5.97059965   0.04377830
6200.00   6.03640318   0.04400645
6202.00   6.12005854   0.04426426
6204.00   6.20825243   0.04455477
6206.00   6.29435110   0.04485883
6208.00   6.42690086   0.04529145
6210.00   6.66703224   0.04565494
6212.00   6.75924206   0.04592238
6214.00   6.79833078   0.04633661
6216.00   6.94434118   0.04675606
6218.00   7.06488419   0.04709633
6220.00   7.19299841   0.04746230
6222.00   7.26201391   0.04761780
6224.00   7.40918255   0.04771030
6226.00   7.43449163   0.04808815
6228.00   7.59172297   0.04856707
6230.00   7.70982122   0.04897760
6232.00   7.90671444   0.04933599
6234.00   7.99963665   0.04968411
6236.00   7.98954535   0.05007800
6238.00   8.22137165   0.05041267
6240.00   8.18670177   0.05059652
6242.00   8.30576706   0.05074321
6244.00   8.62661552   0.05141783
6246.00   8.78728676   0.05196247
6248.00   8.81145859   0.05174774
6250.00   8.87062836   0.05199494
6252.00   8.87555408   0.05251806
6254.00   8.93240643   0.05267681
6256.00   9.09165764   0.05271183
6258.00   9.09171581   0.05320964
6260.00   9.20982456   0.05355576
6262.00   9.22762966   0.05336498
6264.00   9.25136471   0.05329064
6266.00   9.44990349   0.05357238
6268.00   9.54286003   0.05382602
6270.00   9.47871399   0.05391500
6272.00   9.64420128   0.05430217
6274.00   9.57428646   0.05488641
6276.00   9.62317181   0.05550908
6278.00   9.70634174   0.05605518
6280.00   9.90480518   0.05607131
6282.00   9.95712280   0.05569207
6284.00   9.87831020   0.05539221
6286.00   9.93818188   0.05539520
6288.00   10.03385639   0.05562404
6290.00   10.28691959   0.05602322
6292.00   10.42242050   0.05674720
6294.00   10.41153431   0.05760567
6296.00   10.40477467   0.05818934
6298.00   10.40732098   0.05867444
6300.00   10.60297966   0.05900612
6302.00   10.63032341   0.05894420
6304.00   10.62754822   0.05844480
6306.00   10.53925705   0.05785483
6308.00   10.81642723   0.05754003
6310.00   10.88398457   0.05728966
6312.00   10.90316772   0.05699794
6314.00   10.87323284   0.05652157
6316.00   10.68990612   0.05609432
6318.00   10.82593250   0.05622930
6320.00   10.90453148   0.05632025
6322.00   10.97189903   0.05630158
6324.00   10.90700054   0.05651474
6326.00   11.00923920   0.05708158
6328.00   11.04187870   0.05704186
6330.00   11.17458344   0.05679509
6332.00   11.17584991   0.05668156
6334.00   11.19161415   0.05672967
6336.00   11.14547729   0.05699712
6338.00   11.18597126   0.05691764
6340.00   11.23341370   0.05702442
6342.00   11.22428894   0.05701458
6344.00   11.11118031   0.05649870
6346.00   11.17541885   0.05610542
6348.00   11.19696236   0.05612661
6350.00   11.25444221   0.05634373
6352.00   11.29112625   0.05661042
6354.00   11.15081692   0.05654785
6356.00   11.07405376   0.05617698
6358.00   11.04515839   0.05622069
6360.00   11.17878723   0.05644747
6362.00   11.17954350   0.05657110
6364.00   11.17627716   0.05653485
6366.00   11.16078568   0.05639365
6368.00   11.15901470   0.05620207
6370.00   11.01855183   0.05593193
6372.00   11.00563049   0.05563273
6374.00   11.00676727   0.05549986
6376.00   11.13362122   0.05548972
6378.00   11.10003853   0.05556628
6380.00   10.94297791   0.05579044
6382.00   11.06796837   0.05573510
6384.00   11.02632236   0.05542405
6386.00   11.01743603   0.05518040
6388.00   11.02015114   0.05504083
6390.00   11.00500488   0.05491485
6392.00   10.97495937   0.05474237
6394.00   10.97060204   0.05462895
6396.00   10.96094894   0.05459852
6398.00   10.76630402   0.05454602
6400.00   10.73608875   0.05452056
6402.00   10.85793304   0.05448897
6404.00   10.87180138   0.05442614
6406.00   10.83407784   0.05432191
6408.00   10.66664124   0.05419733
6410.00   10.70125771   0.05390659
6412.00   10.64940453   0.05376361
6414.00   10.50011826   0.05368816
6416.00   10.50914669   0.05367687
6418.00   10.61684990   0.05358786
6420.00   10.58895206   0.05349492
6422.00   10.44801712   0.05338198
6424.00   10.40566063   0.05322840
6426.00   10.37656498   0.05311859
6428.00   10.35225964   0.05301799
6430.00   10.45915031   0.05294403
6432.00   10.29396725   0.05279739
6434.00   10.22053623   0.05259143
6436.00   10.16329861   0.05242266
6438.00   10.13889027   0.05233531
6440.00   10.23495102   0.05221079
6442.00   10.19476032   0.05207637
6444.00   10.12691307   0.05191233
6446.00   10.10414028   0.05184110
6448.00   9.95896816   0.05177849
6450.00   9.87743664   0.05154757
6452.00   9.78106976   0.05128742
6454.00   9.75410175   0.05120145
6456.00   9.74746323   0.05116568
6458.00   9.82147598   0.05096452
6460.00   9.75903416   0.05086234
6462.00   9.58033085   0.05080606
6464.00   9.55446625   0.05076398
6466.00   9.48967457   0.05062145
6468.00   9.40891743   0.05041651
6470.00   9.35105228   0.05021247
6472.00   9.29906178   0.05000177
6474.00   9.40780544   0.04989586
6476.00   9.28101444   0.04980167
6478.00   9.22556210   0.04958969
6480.00   9.19302845   0.04945135
6482.00   9.21205997   0.04946281
6484.00   9.22738934   0.04945689
6486.00   9.21053219   0.04937480
6488.00   9.17507648   0.04926652
6490.00   9.26377296   0.04920240
6492.00   9.10598850   0.04914377
6494.00   9.11419296   0.04926420
6496.00   9.13150501   0.04941575
6498.00   9.25354767   0.04948626
6500.00   9.12291813   0.04949928
6502.00   9.14071369   0.04953727
6504.00   9.23933792   0.04938052
6506.00   9.07523727   0.04913309
6508.00   9.00009060   0.04883099
6510.00   8.96438694   0.04866153
6512.00   8.90335751   0.04842703
6514.00   8.84206486   0.04820188
6516.00   8.80157566   0.04806766
6518.00   8.83456516   0.04816005
6520.00   8.86703014   0.04824579
6522.00   8.84614658   0.04818194
6524.00   8.83911037   0.04816596
6526.00   8.98315907   0.04823153
6528.00   8.83676529   0.04824771
6530.00   8.78145885   0.04816571
6532.00   8.88170433   0.04811950
6534.00   8.90293121   0.04815714
6536.00   8.90609264   0.04814935
6538.00   8.80112171   0.04809579
6540.00   8.78544903   0.04796951
6542.00   8.74758530   0.04780781
6544.00   8.68736553   0.04762539
6546.00   8.63568974   0.04750539
6548.00   8.65442657   0.04760109
6550.00   8.62661266   0.04759119
6552.00   8.62174129   0.04760103
6554.00   8.65894985   0.04768670
6556.00   8.68273640   0.04772725
6558.00   8.62423992   0.04752311
6560.00   8.58897686   0.04733343
6562.00   8.58565140   0.04725057
6564.00   8.59390545   0.04725182
6566.00   8.56772614   0.04717357
6568.00   8.55539227   0.04711184
6570.00   8.53839207   0.04703088
6572.00   8.53633213   0.04702891
6574.00   8.54322910   0.04709212
6576.00   8.54784012   0.04712236
6578.00   8.51497364   0.04702916
6580.00   8.49159622   0.04693344
6582.00   8.50669765   0.04690120
6584.00   8.52528000   0.04685671
6586.00   8.48234558   0.04667730
6588.00   8.45546246   0.04658146
6590.00   8.47785950   0.04663086
6592.00   8.49736214   0.04667538
6594.00   8.46970463   0.04658353
6596.00   8.47941875   0.04662721
6598.00   8.61494255   0.04670133
6600.00   8.48436642   0.04674020
6602.00   8.44712734   0.04669429
6604.00   8.45997143   0.04672695
6606.00   8.46216965   0.04668578
6608.00   8.45314026   0.04656680
6610.00   8.37760639   0.04625151
6612.00   8.29019260   0.04593258
6614.00   8.23255253   0.04574622
6616.00   8.35090446   0.04575170
6618.00   8.24536896   0.04576023
6620.00   8.22000980   0.04570033
6622.00   8.20184422   0.04565575
6624.00   8.20176315   0.04564816
6626.00   8.17280960   0.04556080
6628.00   8.14771271   0.04546581
6630.00   8.11150742   0.04533781
6632.00   8.06528378   0.04518458
6634.00   8.06241703   0.04514156
6636.00   8.05118465   0.04508609
6638.00   8.03879452   0.04503003
6640.00   8.02294445   0.04495730
6642.00   8.01626492   0.04489842
6644.00   7.99432373   0.04480764
6646.00   7.97168350   0.04472708
6648.00   7.93922281   0.04462229
6650.00   7.91439199   0.04453580
6652.00   7.89237833   0.04446220
6654.00   7.87058830   0.04439390
6656.00   7.88032961   0.04440448
6658.00   7.85547876   0.04431755
6660.00   7.81418848   0.04418738
6662.00   7.83568192   0.04423042
6664.00   7.82572317   0.04418628
6666.00   7.80837059   0.04412250
6668.00   7.78585100   0.04404037
6670.00   7.78237867   0.04401262
6672.00   7.77172279   0.04397507
6674.00   7.89018059   0.04398630
6676.00   7.88256216   0.04392170
6678.00   7.84824610   0.04383383
6680.00   7.80980778   0.04370761
6682.00   7.79304409   0.04363665
6684.00   7.67466116   0.04360097
6686.00   7.67130423   0.04356158
6688.00   7.64206076   0.04345636
6690.00   7.62740707   0.04339423
6692.00   7.62328196   0.04337896
6694.00   7.59828901   0.04331096
6696.00   7.54833460   0.04316561
6698.00   7.51000214   0.04304862
6700.00   7.53265047   0.04312528
6702.00   7.65526152   0.04319996
6704.00   7.56765556   0.04326256
6706.00   7.55388021   0.04322509
6708.00   7.50286055   0.04307624
6710.00   7.46174240   0.04294765
6712.00   7.45549917   0.04289811
6714.00   7.43835497   0.04281721
6716.00   7.42954683   0.04275283
6718.00   7.41787910   0.04268545
6720.00   7.39446592   0.04260083
6722.00   7.36806440   0.04250435
6724.00   7.36800241   0.04247862
6726.00   7.35504913   0.04242088
6728.00   7.32226181   0.04232161
6730.00   7.30932379   0.04227568
6732.00   7.32272148   0.04230164
6734.00   7.30403137   0.04224342
6736.00   7.26823282   0.04213285
6738.00   7.24952126   0.04206815
6740.00   7.23230314   0.04201692
6742.00   7.19779348   0.04190474
6744.00   7.15317392   0.04175536
6746.00   7.14892006   0.04173192
6748.00   7.17286921   0.04179178
6750.00   7.13513994   0.04167461
6752.00   7.10766983   0.04158839
6754.00   7.09030390   0.04153891
6756.00   7.05270576   0.04143231
6758.00   7.02997446   0.04136692
6760.00   7.02966356   0.04134637
6762.00   7.00735998   0.04125888
6764.00   6.97802782   0.04116004
6766.00   6.97020674   0.04111583
6768.00   6.95879555   0.04107086
6770.00   6.93640900   0.04099651
6772.00   6.92656326   0.04097284
6774.00   6.90829706   0.04091953
6776.00   6.88999128   0.04084698
6778.00   6.86320829   0.04074601
6780.00   6.79948664   0.04054696
6782.00   6.75972891   0.04041858
6784.00   6.76267624   0.04042644
6786.00   6.77656794   0.04046714
6788.00   6.78166151   0.04047078
6790.00   6.75438738   0.04038035
6792.00   6.72361755   0.04027891
6794.00   6.74139023   0.04031728
6796.00   6.72345352   0.04025447
6798.00   6.69949675   0.04018300
6800.00   6.68375206   0.04013193
6802.00   6.68100786   0.04011860
6804.00   6.67434072   0.04009238
6806.00   6.68218756   0.04010535
6808.00   6.66440010   0.04005000
6810.00   6.65451384   0.04001487
6812.00   6.65490961   0.04000645
6814.00   6.64228296   0.03996938
6816.00   6.63874292   0.03996046
6818.00   6.64637756   0.03998062
6820.00   6.65137434   0.04002385
6822.00   6.64426374   0.04008620
6824.00   6.64061403   0.04022976
6826.00   6.63314581   0.04039646
6828.00   6.65293837   0.04064466
6830.00   6.62665033   0.04073340
6832.00   6.60498476   0.04072492
6834.00   6.62637568   0.04071666
6836.00   6.61568308   0.04066707
6838.00   6.61598969   0.04057050
6840.00   6.61216211   0.04032941
6842.00   6.71903229   0.04009205
6844.00   6.63054705   0.04004192
6846.00   6.64406443   0.04012045
6848.00   6.64801073   0.04010119
6850.00   6.64569712   0.04013722
6852.00   6.64393377   0.04023628
6854.00   6.63231325   0.04010520
6856.00   6.59809446   0.03983361
6858.00   6.61818886   0.04026855
6860.00   6.67526865   0.04109375
6862.00   6.60515785   0.04175641
6864.00   6.36793280   0.04293497
6866.00   6.28143835   0.04561788
6868.00   6.57934332   0.05069202
6870.00   6.82445288   0.05378784
6872.00   6.68045044   0.05066283
6874.00   6.52959013   0.04763084
6876.00   6.54262543   0.04567878
6878.00   6.54450178   0.04392314
6880.00   6.46566582   0.04223935
6882.00   6.38130903   0.04144707
6884.00   6.40854597   0.04229229
6886.00   6.47927999   0.04340770
6888.00   6.48345900   0.04392147
6890.00   6.47004175   0.04393129
6892.00   6.46457148   0.04375995
6894.00   6.43124819   0.04343319
6896.00   6.40777922   0.04299724
6898.00   6.40299845   0.04261884
6900.00   6.41710091   0.04240991
6902.00   6.41470718   0.04222981
6904.00   6.42122412   0.04206244
6906.00   6.40173769   0.04174874
6908.00   6.36991453   0.04139270
6910.00   6.32910872   0.04104613
6912.00   6.32467318   0.04081013
6914.00   6.34257364   0.04079538
6916.00   6.31929636   0.04058684
6918.00   6.28343344   0.04028626
6920.00   6.24078226   0.04003759
6922.00   6.22721720   0.03999094
6924.00   6.19386292   0.03994164
6926.00   6.17143869   0.03979442
6928.00   6.18667793   0.03973111
6930.00   6.22909307   0.03989105
6932.00   6.22645950   0.03967084
6934.00   6.18352175   0.03937573
6936.00   6.13067245   0.03921669
6938.00   6.08856010   0.03926913
6940.00   6.12857866   0.03962260
6942.00   6.16300964   0.03971384
6944.00   6.15131760   0.03955885
6946.00   6.16269302   0.03961645
6948.00   6.22139406   0.03992262
6950.00   6.23640871   0.03986159
6952.00   6.17626524   0.03942979
6954.00   6.14275408   0.03921435
6956.00   6.17880774   0.03926133
6958.00   6.22167826   0.03926555
6960.00   6.21327066   0.03907913
6962.00   6.18839264   0.03880599
6964.00   6.20331240   0.03868472
6966.00   6.22811890   0.03867760
6968.00   6.21584368   0.03865379
6970.00   6.23674774   0.03881581
6972.00   6.25502443   0.03887027
6974.00   6.24364471   0.03884578
6976.00   6.21850777   0.03885216
6978.00   6.21717644   0.03895156
6980.00   6.22874308   0.03898383
6982.00   6.21728754   0.03889275
6984.00   6.19876862   0.03887669
6986.00   6.21438551   0.03904749
6988.00   6.22701597   0.03912159
6990.00   6.21834898   0.03912215
6992.00   6.23020601   0.03925762
6994.00   6.24380302   0.03934089
6996.00   6.22546625   0.03921773
6998.00   6.23346329   0.03959701
7000.00   6.24348068   0.03982586
7002.00   6.24044228   0.03963130
7004.00   6.23588896   0.03917242
7006.00   6.21173716   0.03899866
7008.00   6.17388010   0.03873530
7010.00   6.17360878   0.03870909
7012.00   6.18543482   0.03886381
7014.00   6.20306826   0.03905753
7016.00   6.21994829   0.03907377
7018.00   6.19123220   0.03874645
7020.00   6.12098265   0.03832586
7022.00   6.08441162   0.03814162
7024.00   6.10332632   0.03833631
7026.00   6.15876722   0.03874763
7028.00   6.18417215   0.03873491
7030.00   6.17776871   0.03852345
7032.00   6.16335917   0.03835370
7034.00   6.13071966   0.03825857
7036.00   6.10833216   0.03830335
7038.00   6.11905241   0.03848763
7040.00   6.12083626   0.03832920
7042.00   6.09438944   0.03804489
7044.00   6.09140396   0.03804117
7046.00   6.10063028   0.03821133
7048.00   6.10648727   0.03830637
7050.00   6.12565994   0.03853271
7052.00   6.15405655   0.03866973
7054.00   6.12796164   0.03840621
7056.00   6.11131048   0.03821888
7058.00   6.08567286   0.03820023
7060.00   6.05665636   0.03803559
7062.00   6.03811693   0.03788372
7064.00   6.07845354   0.03814881
7066.00   6.09893227   0.03838409
7068.00   6.08505392   0.03856125
7070.00   6.08235884   0.03890018
7072.00   6.08451843   0.03915679
7074.00   6.06006956   0.03855801
7076.00   6.05853462   0.03806644
7078.00   6.08505058   0.03805267
7080.00   6.09887171   0.03821848
7082.00   6.07623434   0.03809379
7084.00   6.06174707   0.03795298
7086.00   6.04046011   0.03788194
7088.00   6.02689219   0.03782168
7090.00   6.05401850   0.03791756
7092.00   6.09083033   0.03806110
7094.00   6.09009027   0.03800122
7096.00   6.04360199   0.03779788
7098.00   6.04205942   0.03776811
7100.00   6.05017090   0.03776925
7102.00   6.03933859   0.03768662
7104.00   5.99973154   0.03755575
7106.00   6.01538134   0.03770038
7108.00   6.02018166   0.03769409
7110.00   6.00398016   0.03756958
7112.00   5.99688864   0.03755620
7114.00   5.98712778   0.03751967
7116.00   6.00946569   0.03766533
7118.00   6.01609612   0.03770593
7120.00   6.01106644   0.03765342
7122.00   6.01095963   0.03763868
7124.00   6.00300407   0.03760334
7126.00   5.99560165   0.03761573
7128.00   5.99529076   0.03765697
7130.00   5.98671675   0.03761752
7132.00   5.94933939   0.03743331
7134.00   5.92028427   0.03730491
7136.00   5.95927191   0.03749345
7138.00   6.02483130   0.03788837
7140.00   6.05695772   0.03816862
7142.00   6.04640818   0.03805179
7144.00   5.99052191   0.03763268
7146.00   5.95745993   0.03756026
7148.00   5.93211222   0.03761318
7150.00   5.92069292   0.03753176
7152.00   5.88041449   0.03719378
7154.00   5.87122583   0.03715232
7156.00   5.88750601   0.03733820
7158.00   5.90603781   0.03752939
7160.00   5.89195061   0.03751634
7162.00   5.84198809   0.03743972
7164.00   5.81490755   0.03771361
7166.00   5.81810522   0.03823855
7168.00   5.80956030   0.03869588
7170.00   5.78479338   0.03897203
7172.00   5.75702620   0.03923610
7174.00   5.81597376   0.03960587
7176.00   5.89954758   0.03993713
7178.00   5.90628862   0.03984476
7180.00   5.80880117   0.03925791
7182.00   5.72018862   0.03932747
7184.00   5.82473707   0.04059832
7186.00   5.93162727   0.04119943
7188.00   5.84405518   0.04020797
7190.00   5.74734163   0.03947426
7192.00   5.82796478   0.04009531
7194.00   5.85661507   0.04010440
7196.00   5.77020121   0.03945376
7198.00   5.71149874   0.03920409
7200.00   5.78128195   0.03987392
7202.00   5.82617712   0.04003351
7204.00   5.84425974   0.03970085
7206.00   5.84571886   0.03906741
7208.00   5.82849503   0.03831319
7210.00   5.79790068   0.03762094
7212.00   5.76963568   0.03720469
7214.00   5.75600290   0.03710658
7216.00   5.75948572   0.03716453
7218.00   5.72991753   0.03701868
7220.00   5.70006418   0.03683881
7222.00   5.71157074   0.03701236
7224.00   5.76726007   0.03747895
7226.00   5.78920174   0.03773770
7228.00   5.72657919   0.03752998
7230.00   5.65693521   0.03782777
7232.00   5.73234320   0.03929895
7234.00   5.82955360   0.04041794
7236.00   5.77820015   0.04022449
7238.00   5.66639185   0.03990085
7240.00   5.64402199   0.04063602
7242.00   5.69614029   0.04139749
7244.00   5.72925186   0.04131715
7246.00   5.69091225   0.04032566
7248.00   5.57828188   0.03929728
7250.00   5.58085442   0.03937000
7252.00   5.68699884   0.03956160
7254.00   5.71853399   0.03903905
7256.00   5.63124466   0.03802097
7258.00   5.58704996   0.03766579
7260.00   5.55637026   0.03756478
7262.00   5.56889296   0.03790590
7264.00   5.64438438   0.03840036
7266.00   5.65874863   0.03815516
7268.00   5.56054258   0.03736858
7270.00   5.47103882   0.03764421
7272.00   5.44668150   0.03891524
7274.00   5.45850897   0.04023917
7276.00   5.50512075   0.04077740
7278.00   5.53252602   0.04024734
7280.00   5.52895021   0.03931507
7282.00   5.48626661   0.03830801
7284.00   5.44361639   0.03769606
7286.00   5.40442657   0.03771718
7288.00   5.42486811   0.03826543
7290.00   5.46384811   0.03844637
7292.00   5.47561407   0.03797046
7294.00   5.42229033   0.03702865
7296.00   5.35896635   0.03646364
7298.00   5.32818890   0.03662851
7300.00   5.36486292   0.03729362
7302.00   5.44154978   0.03793733
7304.00   5.47615051   0.03798947
7306.00   5.41574526   0.03738234
7308.00   5.39356470   0.03723873
7310.00   5.39720392   0.03751038
7312.00   5.35167933   0.03773255
7314.00   5.29170799   0.03781739
7316.00   5.34227133   0.03835885
7318.00   5.40741730   0.03850019
7320.00   5.36643839   0.03755895
7322.00   5.27741671   0.03618411
7324.00   5.26600504   0.03584655
7326.00   5.26307297   0.03593281
7328.00   5.24378681   0.03597805
7330.00   5.24293661   0.03605837
7332.00   5.25267744   0.03614789
7334.00   5.24528360   0.03611977
7336.00   5.20293856   0.03609456
7338.00   5.19089794   0.03645863
7340.00   5.21850729   0.03696783
7342.00   5.22146893   0.03713458
7344.00   5.17521906   0.03676776
7346.00   5.14878321   0.03614030
7348.00   5.15361977   0.03555098
7350.00   5.15271950   0.03513828
7352.00   5.13653517   0.03497322
7354.00   5.07951975   0.03491445
7356.00   5.05711699   0.03501813
7358.00   5.06797743   0.03518176
7360.00   5.09076357   0.03536524
7362.00   5.09594011   0.03554782
7364.00   5.07138777   0.03563317
7366.00   5.02833128   0.03567427
7368.00   5.01067019   0.03574510
7370.00   5.02089930   0.03579181
7372.00   5.03530741   0.03567805
7374.00   5.02309084   0.03523955
7376.00   5.00386953   0.03471344
7378.00   4.97779799   0.03438009
7380.00   4.96697569   0.03434506
7382.00   4.96107864   0.03427828
7384.00   4.93850517   0.03407499
7386.00   4.92247248   0.03408832
7388.00   4.92462635   0.03430740
7390.00   4.93814993   0.03452121
7392.00   4.92417526   0.03448606
7394.00   4.91175175   0.03445837
7396.00   4.90781069   0.03459367
7398.00   4.90884018   0.03471609
7400.00   4.89452696   0.03463341
7402.00   4.87585592   0.03461342
7404.00   4.83714437   0.03433977
7406.00   4.81877661   0.03404343
7408.00   4.82673216   0.03378740
7410.00   4.81599236   0.03349244
7412.00   4.79658222   0.03337524
7414.00   4.79596758   0.03339091
7416.00   4.79917479   0.03340172
7418.00   4.79110289   0.03335687
7420.00   4.77898407   0.03330791
7422.00   4.76418877   0.03326598
7424.00   4.74682236   0.03325898
7426.00   4.74236917   0.03331302
7428.00   4.74878120   0.03337974
7430.00   4.74988365   0.03338895
7432.00   4.74715233   0.03345622
7434.00   4.74000359   0.03352771
7436.00   4.73620796   0.03356047
7438.00   4.73019934   0.03351570
7440.00   4.74647951   0.03355587
7442.00   4.75625420   0.03352381
7444.00   4.76193762   0.03339094
7446.00   4.74447870   0.03317305
7448.00   4.73140097   0.03306026
7450.00   4.73418188   0.03307201
7452.00   4.74609137   0.03311625
7454.00   4.73662329   0.03308640
7456.00   4.71358299   0.03302300
7458.00   4.69075298   0.03297917
7460.00   4.69278240   0.03304928
7462.00   4.68874979   0.03310497
7464.00   4.65339565   0.03305434
7466.00   4.60408735   0.03297192
7468.00   4.57488871   0.03299020
7470.00   4.53447199   0.03294457
7472.00   4.47824907   0.03278532
7474.00   4.42940474   0.03264839
7476.00   4.37836885   0.03253417
7478.00   4.32259083   0.03238969
7480.00   4.27591944   0.03224258
7482.00   4.24238634   0.03211252
7484.00   4.22145128   0.03195995
7486.00   4.20922661   0.03177525
7488.00   4.18472815   0.03153153
7490.00   4.12992239   0.03120329
7492.00   4.10345888   0.03101598
7494.00   4.11195755   0.03100954
7496.00   4.12264776   0.03104311
7498.00   4.11675024   0.03099380
7500.00   4.07509422   0.03078863
7502.00   4.04796457   0.03064795
7504.00   4.04255438   0.03061934
7506.00   4.05575037   0.03066522
7508.00   4.06074095   0.03067581
7510.00   4.04546642   0.03062374
7512.00   4.03372574   0.03059958
7514.00   4.03920221   0.03065173
7516.00   4.04188013   0.03078003
7518.00   4.02439451   0.03111131
7520.00   4.01795769   0.03160104
7522.00   4.01504374   0.03191429
7524.00   4.01501226   0.03199196
7526.00   4.01733541   0.03205613
7528.00   4.01546431   0.03189141
7530.00   4.04797506   0.03155816
7532.00   4.07160902   0.03121321
7534.00   4.07348204   0.03104706
7536.00   4.08566809   0.03100135
7538.00   4.07677126   0.03086003
7540.00   4.06988144   0.03079610
7542.00   4.05645895   0.03074511
7544.00   4.05621910   0.03071560
7546.00   4.05142832   0.03064413
7548.00   4.05722332   0.03063435
7550.00   4.06886435   0.03070246
7552.00   4.09041548   0.03085141
7554.00   4.11691046   0.03105274
7556.00   4.14029121   0.03134501
7558.00   4.16569090   0.03150812
7560.00   4.17802954   0.03154015
7562.00   4.16765594   0.03146726
7564.00   4.17306757   0.03146439
7566.00   4.19159317   0.03170034
7568.00   4.20781374   0.03206568
7570.00   4.21689034   0.03237621
7572.00   4.20302534   0.03244118
7574.00   4.19303274   0.03226696
7576.00   4.22369289   0.03218379
7578.00   4.25512648   0.03203146
7580.00   4.25253677   0.03174644
7582.00   4.21174049   0.03145816
7584.00   4.19321966   0.03139216
7586.00   4.19147062   0.03135698
7588.00   4.14704180   0.03108648
#7590.00   4.03339720   0.03242460
#7592.00   3.91582274   0.04216029
#7594.00   3.99703693   0.06037243
#7596.00   4.45552969   0.06835818
#7598.00   4.43245888   0.07412777
#7600.00   4.24597216   0.08432640
#7602.00   4.00021124   0.09914456
#7604.00   4.04564905   0.09941701
#7606.00   4.13119459   0.09079239
#7608.00   4.12187195   0.07885353
#7610.00   4.20014000   0.06756967
#7612.00   4.34307671   0.05737174
#7614.00   4.61917686   0.05201253
#7616.00   4.37651300   0.04209613
#7618.00   3.98068714   0.03671745
#7620.00   3.91637921   0.03963407
7622.00   4.23390150   0.04711501
7624.00   4.39479303   0.05227002
7626.00   4.36695194   0.05386912
7628.00   4.29435968   0.05333918
7630.00   4.27953100   0.05246353
7632.00   4.31800318   0.05225722
7634.00   4.37990713   0.05145359
7636.00   4.36123371   0.04927594
7638.00   4.33011293   0.04740524
7640.00   4.38233232   0.04680666
7642.00   4.40171480   0.04476665
7644.00   4.42357969   0.04436820
7646.00   4.41771889   0.04314929
7648.00   4.42532063   0.04164641
7650.00   4.44495726   0.04126831
7652.00   4.46446657   0.03999782
7654.00   4.58411789   0.04020284
7656.00   4.59372997   0.03943766
7658.00   4.51544380   0.03792835
7660.00   4.49053717   0.03762470
7662.00   4.37087011   0.03584736
7664.00   4.38785315   0.03569546
7666.00   4.44433784   0.03557736
7668.00   4.41514540   0.03462023
7670.00   4.49008083   0.03492673
7672.00   4.48376608   0.03431511
7674.00   4.42184496   0.03370792
7676.00   4.41194153   0.03350584
7678.00   4.41354465   0.03326188
7680.00   4.39621735   0.03282520
7682.00   4.47560549   0.03351448
7684.00   4.49307680   0.03346661
7686.00   4.43941259   0.03296732
7688.00   4.45365334   0.03319154
7690.00   4.51024199   0.03352243
7692.00   4.46009779   0.03303744
7694.00   4.42073107   0.03274370
7696.00   4.42245388   0.03279813
7698.00   4.41555786   0.03270932
7700.00   4.41189289   0.03258703
7702.00   4.43112373   0.03263520
7704.00   4.44412804   0.03268458
7706.00   4.43371344   0.03281226
7708.00   4.39640522   0.03320630
7710.00   4.37468290   0.03382606
7712.00   4.39158249   0.03457900
7714.00   4.41642141   0.03522760
7716.00   4.44277620   0.03547869
7718.00   4.43015385   0.03498013
7720.00   4.41398621   0.03446354
7722.00   4.40963984   0.03379385
7724.00   4.42069149   0.03317238
7726.00   4.42641115   0.03282757
7728.00   4.44763803   0.03279074
7730.00   4.45505190   0.03274322
7732.00   4.45074606   0.03261952
7734.00   4.45572710   0.03251239
7736.00   4.46227932   0.03247706
7738.00   4.47836351   0.03264001
7740.00   4.47824478   0.03259001
7742.00   4.47242022   0.03261287
7744.00   4.46050215   0.03313263
7746.00   4.47010183   0.03428609
7748.00   4.50392580   0.03516397
7750.00   4.52319956   0.03537083
7752.00   4.51087046   0.03534581
7754.00   4.51813078   0.03527493
7756.00   4.50222731   0.03456766
7758.00   4.50443029   0.03386053
7760.00   4.53429461   0.03378465
7762.00   4.58922529   0.03402007
7764.00   4.61732340   0.03395567
7766.00   4.59761763   0.03347773
7768.00   4.59685373   0.03322530
7770.00   4.58300734   0.03321205
7772.00   4.58790541   0.03338858
7774.00   4.61877203   0.03363493
7776.00   4.62139559   0.03370010
7778.00   4.60346127   0.03368414
7780.00   4.58773756   0.03358233
7782.00   4.58809805   0.03346752
7784.00   4.59811449   0.03335365
7786.00   4.61735582   0.03338267
7788.00   4.63218737   0.03395749
7790.00   4.64654303   0.03474168
7792.00   4.64034081   0.03514899
7794.00   4.63465452   0.03505601
7796.00   4.65026093   0.03506083
7798.00   4.67067003   0.03480451
7800.00   4.66632605   0.03411468
7802.00   4.66020060   0.03353719
7804.00   4.65187836   0.03362114
7806.00   4.64640379   0.03383951
7808.00   4.63619661   0.03382643
7810.00   4.61980200   0.03373928
7812.00   4.61393976   0.03371683
7814.00   4.64010143   0.03385988
7816.00   4.65342093   0.03439782
7818.00   4.64145660   0.03499093
7820.00   4.64420748   0.03541493
7822.00   4.67588854   0.03562342
7824.00   4.68038940   0.03552829
7826.00   4.66492462   0.03486694
7828.00   4.66953421   0.03400703
7830.00   4.69475698   0.03352982
7832.00   4.69215250   0.03350483
7834.00   4.63402891   0.03322640
7836.00   4.57623339   0.03315446
7838.00   4.55275011   0.03328666
7840.00   4.56680298   0.03350436
7842.00   4.60367060   0.03376510
7844.00   4.61259222   0.03386801
7846.00   4.58678865   0.03390323
7848.00   4.58319330   0.03443804
7850.00   4.57674074   0.03516972
7852.00   4.54593039   0.03536442
7854.00   4.49664116   0.03529221
7856.00   4.47852945   0.03530714
7858.00   4.44531631   0.03485166
7860.00   4.38510704   0.03388085
7862.00   4.38740301   0.03347158
7864.00   4.39742088   0.03369604
7866.00   4.37670755   0.03379890
7868.00   4.35735464   0.03380150
7870.00   4.35265875   0.03379920
7872.00   4.29756498   0.03354585
7874.00   4.27866364   0.03337191
7876.00   4.26327801   0.03315259
7878.00   4.22672987   0.03286542
7880.00   4.17592955   0.03262763
7882.00   4.15490198   0.03258809
7884.00   4.12298679   0.03271553
7886.00   4.08702230   0.03286576
7888.00   4.04596472   0.03282159
7890.00   3.99637985   0.03257177
7892.00   3.95094991   0.03241856
7894.00   3.92336082   0.03207411
7896.00   3.89009833   0.03140466
7898.00   3.81958270   0.03069571
7900.00   3.79974914   0.03063317
7902.00   3.74850202   0.03035416
7904.00   3.66758990   0.02993758
7906.00   3.60250759   0.03016864
7908.00   3.59372020   0.03143974
7910.00   3.56002617   0.03264194
7912.00   3.51398683   0.03300129
7914.00   3.47471976   0.03315536
7916.00   3.43088984   0.03314366
7918.00   3.37760758   0.03254785
7920.00   3.33666682   0.03125153
7922.00   3.27961922   0.03015889
7924.00   3.26678348   0.02984910
7926.00   3.24695945   0.02972856
7928.00   3.19069099   0.02933090
7930.00   3.13152003   0.02889272
7932.00   3.10101438   0.02861089
7934.00   3.06256652   0.02832421
7936.00   3.01334500   0.02782076
7938.00   2.96810317   0.02714249
7940.00   2.90889907   0.02673575
7942.00   2.85471272   0.02660339
7944.00   2.81185412   0.02676704
7946.00   2.76187825   0.02691310
7948.00   2.71584630   0.02677702
7950.00   2.67102170   0.02647234
7952.00   2.64517236   0.02606258
7954.00   2.63551140   0.02612465
7956.00   2.56593704   0.02546797
7958.00   2.53271675   0.02596789
7960.00   2.52854919   0.02720184
7962.00   2.50656819   0.02804575
7964.00   2.48444533   0.02804265
7966.00   2.43981028   0.02758287
7968.00   2.42238688   0.02741227
7970.00   2.41956997   0.02631538
7972.00   2.39414358   0.02531602
7974.00   2.35574222   0.02500907
7976.00   2.32817912   0.02527430
7978.00   2.33308768   0.02538062
7980.00   2.30555749   0.02591818
7982.00   2.31227231   0.02529726
7984.00   2.34075904   0.02503870
7986.00   2.31684422   0.02488847
7988.00   2.28833961   0.02603713
7990.00   2.30153298   0.02685170
7992.00   2.29036880   0.02726809
7994.00   2.25346851   0.02705152
7996.00   2.25109220   0.02684403
7998.00   2.27426982   0.02608007
8000.00   2.28621006   0.02502212
8002.00   2.28979945   0.02428883
8004.00   2.29496861   0.02411042
8006.00   2.28493667   0.02410962
8008.00   2.27268291   0.02427039
8010.00   2.28751588   0.02476555
8012.00   2.31588697   0.02519001
8014.00   2.31424141   0.02516192
8016.00   2.29586482   0.02490965
8018.00   2.28904057   0.02496218
8020.00   2.28683257   0.02535553
8022.00   2.28468418   0.02594384
8024.00   2.29841137   0.02647102
8026.00   2.31670952   0.02665525
8028.00   2.30215740   0.02637800
8030.00   2.27963185   0.02571115
8032.00   2.27729607   0.02491990
8034.00   2.28879714   0.02436225
8036.00   2.28624153   0.02410371
8038.00   2.28578639   0.02402917
8040.00   2.29150510   0.02403722
8042.00   2.29693580   0.02408567
8044.00   2.29296374   0.02413074
8046.00   2.28874612   0.02424164
8048.00   2.29667211   0.02441960
8050.00   2.30921054   0.02457952
8052.00   2.30264306   0.02455202
8054.00   2.27768874   0.02438284
8056.00   2.26484656   0.02444462
8058.00   2.26379967   0.02473205
8060.00   2.27387905   0.02497140
8062.00   2.28830361   0.02505642
8064.00   2.29966235   0.02512489
8066.00   2.29231262   0.02481962
8068.00   2.27401233   0.02430234
8070.00   2.25894809   0.02389667
8072.00   2.27202034   0.02386165
8074.00   2.28044772   0.02389855
8076.00   2.27686834   0.02396802
8078.00   2.28095794   0.02403852
8080.00   2.29072666   0.02405883
8082.00   2.31632066   0.02417734
8084.00   2.33383918   0.02436439
8086.00   2.32599616   0.02420706
8088.00   2.32734442   0.02426224
8090.00   2.35657620   0.02461766
8092.00   2.37796426   0.02475261
8094.00   2.37614608   0.02468414
8096.00   2.37761712   0.02483105
8098.00   2.38312912   0.02502590
8100.00   2.39515162   0.02510070
8102.00   2.42008090   0.02518011
8104.00   2.43906713   0.02538394
8106.00   2.46042466   0.02541153
8108.00   2.47311425   0.02533409
8110.00   2.50801373   0.02549506
8112.00   2.54804373   0.02571431
8114.00   2.57029843   0.02571121
8116.00   2.57226944   0.02567092
8118.00   2.59790897   0.02582549
8120.00   2.64069653   0.02611014
8122.00   2.68526149   0.02638344
8124.00   2.69643879   0.02630595
8126.00   2.69415545   0.02635618
8128.00   2.70693946   0.02671902
8130.00   2.74293613   0.02725030
8132.00   2.77865720   0.02778185
8134.00   2.82426643   0.02802520
8136.00   2.81955075   0.02773007
8138.00   2.81658626   0.02760699
8140.00   2.87404442   0.02830565
8142.00   2.87053561   0.02823983
8144.00   2.85972404   0.02813984
8146.00   2.90551829   0.02868413
8148.00   2.96079826   0.02931793
8150.00   2.94992328   0.02894677
8152.00   2.98497462   0.02911208
8154.00   3.04656482   0.02925543
8156.00   3.03992200   0.02906428
8158.00   3.00266457   0.02912253
8160.00   3.08738923   0.03047039
8162.00   3.19946289   0.03150058
8164.00   3.18496394   0.03080387
8166.00   3.13801765   0.02993348
8168.00   3.23880672   0.03058952
8170.00   3.32257152   0.03065100
8172.00   3.26743317   0.02995791
8174.00   3.24288559   0.03062047
8176.00   3.32438207   0.03234854
8178.00   3.38937306   0.03310626
8180.00   3.34056854   0.03233880
8182.00   3.32458043   0.03196522
8184.00   3.35883307   0.03226526
8186.00   3.40589714   0.03285250
8188.00   3.43337917   0.03326115
8190.00   3.44227433   0.03341519
8192.00   3.41404915   0.03312404
8194.00   3.39435005   0.03306141
8196.00   3.41983485   0.03349712
8198.00   3.50077176   0.03376601
8200.00   3.50757861   0.03242299
8202.00   3.44231009   0.03079485
8204.00   3.38439155   0.02981918
8206.00   3.39034629   0.02979123
8208.00   3.42682528   0.03012633
8210.00   3.44241071   0.03036800
8212.00   3.41015267   0.03018053
8214.00   3.35675526   0.02999284
8216.00   3.34510112   0.03008882
8218.00   3.35283661   0.03086818
8220.00   3.32646656   0.03004301
8222.00   3.27542043   0.03042408
8224.00   3.27630234   0.03188437
8226.00   3.32792783   0.03414204
8228.00   3.40784550   0.03543013
8230.00   3.39103675   0.03369690
8232.00   3.32233119   0.03148304
8234.00   3.24933124   0.02985007
8236.00   3.20565224   0.02910580
8238.00   3.18884373   0.02911367
8240.00   3.19604325   0.02943185
8242.00   3.24470496   0.02960293
8244.00   3.25965381   0.02934564
8246.00   3.22311997   0.02874686
8248.00   3.18519187   0.02854052
8250.00   3.16303563   0.02864462
8252.00   3.15557170   0.02880745
8254.00   3.15129542   0.02899948
8256.00   3.18737221   0.02955651
8258.00   3.18443942   0.02927294
8260.00   3.14589238   0.02876839
8262.00   3.12046170   0.02835467
8264.00   3.10558772   0.02809725
8266.00   3.08495998   0.02796333
8268.00   3.04668641   0.02801028
8270.00   3.05713820   0.02861933
8272.00   3.12510419   0.02969995
8274.00   3.15271068   0.03078038
8276.00   3.11298490   0.03078948
8278.00   3.12673545   0.03130042
8280.00   3.15121293   0.03174959
8282.00   3.16383243   0.03192326
8284.00   3.10113454   0.03220292
8286.00   3.12744522   0.03254741
8288.00   3.19481182   0.03268786
8290.00   3.18976998   0.03226181
8292.00   3.15929604   0.03214891
8294.00   3.19174600   0.03273793
8296.00   3.17908573   0.03216451
8298.00   3.16298747   0.03191830
8300.00   3.16760278   0.03207787
8302.00   3.22427440   0.03220152
8304.00   3.29767632   0.03181646
8306.00   3.28294754   0.03035414
8308.00   3.22965217   0.02954935
8310.00   3.22726178   0.02966281
8312.00   3.28517413   0.03007257
8314.00   3.30119014   0.03023098
8316.00   3.34247875   0.03057881
8318.00   3.41823697   0.03110068
8320.00   3.46336079   0.03110906
8322.00   3.41835093   0.03009133
8324.00   3.35596776   0.02917274
8326.00   3.34882426   0.02916054
8328.00   3.40637469   0.02967894
8330.00   3.43795109   0.02995647
8332.00   3.44371128   0.02990096
8334.00   3.41962647   0.02965587
8336.00   3.43704224   0.03041715
8338.00   3.46257472   0.03223919
8340.00   3.46181583   0.03420352
8342.00   3.43392110   0.03501005
8344.00   3.42115283   0.03510229
8346.00   3.43355441   0.03541171
8348.00   3.43085599   0.03519708
8350.00   3.42731571   0.03379474
8352.00   3.43656564   0.03225112
8354.00   3.45558929   0.03178838
8356.00   3.45769048   0.03146143
8358.00   3.46651626   0.03091266
8360.00   3.46610260   0.03038465
8362.00   3.46913147   0.03028575
8364.00   3.48419094   0.03048640
8366.00   3.49495482   0.03044997
8368.00   3.46931624   0.03001819
8370.00   3.45372272   0.02960913
8372.00   3.48113608   0.02968931
8374.00   3.52228856   0.03001980
8376.00   3.52533507   0.03037520
8378.00   3.50063157   0.03068408
8380.00   3.48627400   0.03090323
8382.00   3.47540689   0.03093809
8384.00   3.47903252   0.03088610
8386.00   3.49193454   0.03057620
8388.00   3.50164294   0.02996690
8390.00   3.48334432   0.02946260
8392.00   3.50521207   0.03040545
8394.00   3.52556825   0.03219610
8396.00   3.52428555   0.03350011
8398.00   3.51683640   0.03371481
8400.00   3.54998016   0.03376191
8402.00   3.55447268   0.03339458
8404.00   3.53732777   0.03189288
8406.00   3.52914596   0.03012306
8408.00   3.55329323   0.02962186
8410.00   3.57775617   0.03031352
8412.00   3.58358955   0.03088365
8414.00   3.59346509   0.03109918
8416.00   3.60747457   0.03112221
8418.00   3.64045143   0.03109634
8420.00   3.66703057   0.03074998
8422.00   3.70726228   0.03077574
8424.00   3.72813225   0.03190875
8426.00   3.74769521   0.03368096
8428.00   3.77330852   0.03465389
8430.00   3.78199315   0.03480599
8432.00   3.78411984   0.03460770
8434.00   3.81091022   0.03379081
8436.00   3.84049487   0.03220595
8438.00   3.88658309   0.03090017
8440.00   3.91510844   0.03062715
8442.00   3.92500901   0.03064427
8444.00   3.95783806   0.03090711
8446.00   4.01119041   0.03147119
8448.00   4.02077579   0.03208908
8450.00   4.04943514   0.03244233
8452.00   4.08109426   0.03259466
8454.00   4.10663509   0.03262145
8456.00   4.13252354   0.03253640
8458.00   4.14696741   0.03252051
8460.00   4.17397165   0.03347443
8462.00   4.19846725   0.03444152
8464.00   4.21108580   0.03483073
8466.00   4.23057985   0.03487322
8468.00   4.25404024   0.03471036
8470.00   4.27056742   0.03383056
8472.00   4.27071381   0.03270874
8474.00   4.26932716   0.03205262
8476.00   4.28489685   0.03202682
8478.00   4.30368614   0.03208679
8480.00   4.32234859   0.03210679
8482.00   4.34259176   0.03213781
8484.00   4.34515047   0.03214969
8486.00   4.35599899   0.03229082
8488.00   4.35621691   0.03260991
8490.00   4.36541986   0.03292716
8492.00   4.37787342   0.03310171
8494.00   4.37232971   0.03311338
8496.00   4.37037325   0.03312049
8498.00   4.39557695   0.03335932
8500.00   4.40727997   0.03370902
8502.00   4.41733217   0.03401793
8504.00   4.43503952   0.03414942
8506.00   4.43669891   0.03411023
8508.00   4.41755676   0.03377213
8510.00   4.41427469   0.03317940
8512.00   4.42669106   0.03263510
8514.00   4.44272041   0.03244827
8516.00   4.44920015   0.03247837
8518.00   4.45346498   0.03251262
8520.00   4.46822786   0.03257349
8522.00   4.48996115   0.03264151
8524.00   4.49155283   0.03261532
8526.00   4.46609306   0.03248979
8528.00   4.48681974   0.03253511
8530.00   4.51256990   0.03263064
8532.00   4.49620247   0.03265091
8534.00   4.45682144   0.03264922
8536.00   4.47005892   0.03278743
8538.00   4.47473860   0.03281765
8540.00   4.47339058   0.03283541
8542.00   4.47569466   0.03294075
8544.00   4.48755312   0.03311301
8546.00   4.49430037   0.03319526
8548.00   4.48362589   0.03315717
8550.00   4.46282911   0.03305276
8552.00   4.46624327   0.03294623
8554.00   4.47896957   0.03272603
8556.00   4.47719812   0.03245702
8558.00   4.48321962   0.03237047
8560.00   4.49806547   0.03244445
8562.00   4.50223112   0.03251511
8564.00   4.48958349   0.03249311
8566.00   4.47752714   0.03272430
8568.00   4.49169874   0.03294330
8570.00   4.42349911   0.03215353
8572.00   4.45154285   0.03225150
8574.00   4.50724840   0.03219537
8576.00   4.45396566   0.03216201
8578.00   4.45809126   0.03217451
8580.00   4.47508049   0.03237364
8582.00   4.47045708   0.03227952
8584.00   4.44374609   0.03222633
8586.00   4.43772364   0.03227349
8588.00   4.46083498   0.03225407
8590.00   4.46248770   0.03220581
8592.00   4.47647476   0.03294735
8594.00   4.41217136   0.03224418
8596.00   4.41473961   0.03221494
8598.00   4.45052481   0.03215519
8600.00   4.42467642   0.03243074
8602.00   4.41535425   0.03210104
8604.00   4.41520643   0.03195067
8606.00   4.41935921   0.03194346
8608.00   4.38872290   0.03188985
8610.00   4.37030125   0.03190865
8612.00   4.37325048   0.03203809
8614.00   4.35788012   0.03215921
8616.00   4.34609604   0.03235086
8618.00   4.34412098   0.03258638
8620.00   4.32250786   0.03276119
8622.00   4.30857849   0.03296477
8624.00   4.31924438   0.03321511
8626.00   4.32196951   0.03340445
8628.00   4.30690384   0.03347350
8630.00   4.28501987   0.03340234
8632.00   4.31063128   0.03340168
8634.00   4.31695509   0.03325407
8636.00   4.29899740   0.03294897
8638.00   4.28964949   0.03261642
8640.00   4.29696894   0.03236388
8642.00   4.28582239   0.03216130
8644.00   4.28431559   0.03216458
8646.00   4.27236938   0.03227681
8648.00   4.25700521   0.03246208
8650.00   4.23980570   0.03268927
8652.00   4.23724079   0.03292477
8654.00   4.24085188   0.03309429
8656.00   4.22857285   0.03309244
8658.00   4.18471384   0.03292279
8660.00   4.17960930   0.03284271
8662.00   4.19512987   0.03280943
8664.00   4.20444441   0.03272642
8666.00   4.20837784   0.03260101
8668.00   4.20743799   0.03245121
8670.00   4.17892838   0.03220796
8672.00   4.16837835   0.03196343
8674.00   4.16275406   0.03183556
8676.00   4.11775589   0.03195267
8678.00   4.14086819   0.03243250
8680.00   4.14267731   0.03130146
8682.00   4.14995623   0.03119730
8684.00   4.15902424   0.03111401
8686.00   4.13037252   0.03091102
8688.00   4.10424709   0.03073560
8690.00   4.06427526   0.03103910
8692.00   4.12089968   0.03063132
8694.00   4.14135838   0.03073079
8696.00   4.14366388   0.03074997
8698.00   4.11386299   0.03062762
8700.00   4.09936857   0.03056869
8702.00   4.11009264   0.03062368
8704.00   4.12492132   0.03068832
8706.00   4.11941910   0.03063368
8708.00   4.09405184   0.03049887
8710.00   4.09976959   0.03049026
8712.00   4.10625410   0.03045618
8714.00   4.09312201   0.03033137
8716.00   4.08988905   0.03028519
8718.00   4.08578110   0.03026223
8720.00   4.08170652   0.03025437
8722.00   4.08929968   0.03029927
8724.00   4.09585238   0.03033279
8726.00   4.12204266   0.03042185
8728.00   4.12017775   0.03040537
8730.00   4.09691048   0.03031818
8732.00   4.07550049   0.03023600
8734.00   4.06262255   0.03018886
8736.00   4.04860258   0.03016220
8738.00   4.06780481   0.03024698
8740.00   4.08643103   0.03031879
8742.00   4.08815384   0.03031917
8744.00   4.05944824   0.03020175
8746.00   4.05391741   0.03017361
8748.00   4.06153250   0.03017985
8750.00   4.06968832   0.03022565
8752.00   4.06974840   0.03044662
8754.00   4.05810881   0.03105719
8756.00   4.03777027   0.03201412
8758.00   4.02253866   0.03290735
8760.00   4.02982712   0.03381303
8762.00   4.04050875   0.03469044
8764.00   4.05084753   0.03473961
8766.00   4.06790209   0.03547097
8768.00   4.09075165   0.03414726
8770.00   4.05250883   0.03358905
8772.00   3.98623085   0.03372477
8774.00   3.97429872   0.03382601
8776.00   3.94206619   0.03370593
8778.00   3.94338703   0.03364872
8780.00   3.95624995   0.03333440
8782.00   3.95313287   0.03239895
8784.00   3.92511845   0.03105888
8786.00   3.90247822   0.03051251
8788.00   3.90376735   0.03060924
8790.00   3.91741848   0.03076736
8792.00   3.94356656   0.03084707
8794.00   4.00776529   0.03133981
8796.00   4.02650404   0.03116488
8798.00   3.99012542   0.03042959
8800.00   3.93347383   0.02971235
8802.00   3.89494991   0.02946382
8804.00   3.87597752   0.02945792
8806.00   3.87663436   0.02958181
8808.00   3.88423848   0.02962732
8810.00   3.88349056   0.02958514
8812.00   3.88960910   0.02966698
8814.00   3.88579011   0.02969009
8816.00   3.86651802   0.02947017
8818.00   3.85090065   0.02981885
8820.00   3.83499742   0.03147127
8822.00   3.81009388   0.03412902
8824.00   3.78319716   0.03600354
8826.00   3.78566003   0.03657599
8828.00   3.77976632   0.03663490
8830.00   3.77790451   0.03651112
8832.00   3.77474618   0.03524127
8834.00   3.78229523   0.03337004
8836.00   3.79759622   0.03242304
8838.00   3.80446124   0.03214547
8840.00   3.81015134   0.03159323
8842.00   3.79653096   0.03063656
8844.00   3.80787015   0.03017051
8846.00   3.83070469   0.03043058
8848.00   3.86995625   0.03095255
8850.00   3.90893102   0.03132180
8852.00   3.93599510   0.03159660
8854.00   3.88353729   0.03103054
8856.00   3.81066728   0.03013050
8858.00   3.75525784   0.02954421
8860.00   3.70890427   0.02953959
8862.00   3.65844607   0.02987897
8864.00   3.61247945   0.03036249
8866.00   3.59213042   0.03052129
8868.00   3.57983875   0.03032458
8870.00   3.53553200   0.02997600
8872.00   3.50731254   0.02921165
8874.00   3.49790931   0.02832611
8876.00   3.48532557   0.02797619
8878.00   3.44759369   0.02864114
8880.00   3.41897106   0.03057273
8882.00   3.39080405   0.03237229
8884.00   3.36915970   0.03305124
8886.00   3.35677457   0.03299214
8888.00   3.33749843   0.03253489
8890.00   3.31906629   0.03120619
8892.00   3.32316613   0.02898846
8894.00   3.32880521   0.02767962
8896.00   3.32888293   0.02786190
8898.00   3.32211018   0.02883310
8900.00   3.28427577   0.02938068
8902.00   3.26868033   0.02950372
8904.00   3.25072098   0.02944264
8906.00   3.22803950   0.02910953
8908.00   3.21269917   0.02819897
8910.00   3.20969200   0.02737024
8912.00   3.20889378   0.02800127
8914.00   3.20619392   0.03012706
8916.00   3.19032383   0.03230638
8918.00   3.16847038   0.03305852
8920.00   3.16224766   0.03282620
8922.00   3.11717606   0.03198570
8924.00   3.08317757   0.03038873
8926.00   3.09365726   0.02837140
8928.00   3.11616063   0.02722043
8930.00   3.10795283   0.02692676
8932.00   3.10469556   0.02686121
8934.00   3.10282254   0.02681401
8936.00   3.08836484   0.02701274
8938.00   3.07287812   0.02775077
8940.00   3.06044865   0.02835432
8942.00   3.05402780   0.02868255
8944.00   3.05659366   0.02884924
8946.00   3.05448127   0.02880476
8948.00   3.04809928   0.02822465
8950.00   3.06779695   0.02864022
8952.00   3.10668826   0.03030303
8954.00   3.11808562   0.03190943
8956.00   3.06590486   0.03203703
8958.00   2.99779987   0.03191937
8960.00   3.00637722   0.03284162
8962.00   3.09465122   0.03307375
8964.00   3.15365005   0.03129720
8966.00   3.10575986   0.02852882
8968.00   3.03298092   0.02777611
8970.00   3.08979487   0.02875405
8972.00   3.15930557   0.02927113
8974.00   3.13591290   0.02835739
8976.00   3.07967877   0.02745863
8978.00   3.12793803   0.02816732
8980.00   3.16032887   0.02853264
8982.00   3.09963298   0.02869546
8984.00   3.02718043   0.03024020
8986.00   3.14370704   0.03427043
8988.00   3.31964612   0.03630652
8990.00   3.42429090   0.03529600
8992.00   3.36640286   0.03201621
8994.00   3.16642189   0.02883020
8996.00   3.10273933   0.02961038
8998.00   3.22515392   0.03292479
9000.00   3.42007446   0.03545496
9002.00   3.49832630   0.03602412
9004.00   3.47678089   0.03534524
9006.00   3.45413280   0.03352248
9008.00   3.37943840   0.03110951
9010.00   3.28438568   0.02941339
9012.00   3.22843862   0.02899442
9014.00   3.22819877   0.02930684
9016.00   3.29823995   0.02988274
9018.00   3.23251534   0.02899656
9020.00   3.15600848   0.02839794
9022.00   3.21025205   0.02933909
9024.00   3.30300331   0.02999444
9026.00   3.27218938   0.02899157
9028.00   3.23080420   0.02817247
9030.00   3.23301792   0.02791640
9032.00   3.23687720   0.02769806
9034.00   3.19659233   0.02734491
9036.00   3.15164733   0.02720452
9038.00   3.15120864   0.02764775
9040.00   3.19273639   0.02823821
9042.00   3.19742370   0.02818175
9044.00   3.17618942   0.02789933
9046.00   3.14858532   0.02788887
9048.00   3.14758611   0.02833511
9050.00   3.18805766   0.02902379
9052.00   3.22907186   0.02921270
9054.00   3.18589783   0.02801467
9056.00   3.09734154   0.02699010
9058.00   3.07048202   0.02710896
9060.00   3.12054348   0.02795103
9062.00   3.14498639   0.02813745
9064.00   3.07146049   0.02761283
9066.00   3.02764201   0.02790219
9068.00   3.07730508   0.02910397
9070.00   3.18090153   0.03012486
9072.00   3.17688441   0.02934193
9074.00   3.02796292   0.02767868
9076.00   2.95802045   0.02761800
9078.00   3.04163814   0.02887770
9080.00   3.12676430   0.02944989
9082.00   3.03945231   0.02817730
9084.00   3.00609136   0.02835529
9086.00   3.04202056   0.02886678
9088.00   3.03566432   0.02857373
9090.00   2.97178078   0.02773006
9092.00   2.95382953   0.02782917
9094.00   2.92707896   0.02765309
9096.00   2.92517114   0.02805139
9098.00   3.00613093   0.02914484
9100.00   3.06038666   0.02954162
9102.00   2.96188998   0.02858692
9104.00   2.95745444   0.02900347
9106.00   3.04424763   0.02937253
9108.00   3.04978251   0.02814341
9110.00   2.95158195   0.02619734
9112.00   2.88689995   0.02574209
9114.00   2.88840413   0.02670284
9116.00   2.98926997   0.02831503
9118.00   3.10612035   0.02897125
9120.00   3.03433228   0.02708857
9122.00   2.91948009   0.02605396
9124.00   2.88086247   0.02626818
9126.00   2.91695690   0.02755923
9128.00   3.01628280   0.02925915
9130.00   2.98278809   0.02936057
9132.00   2.93065071   0.02926481
9134.00   3.00257707   0.02989801
9136.00   3.08404803   0.02964352
9138.00   2.98581481   0.02720097
9140.00   2.91653061   0.02625328
9142.00   2.94774628   0.02640522
9144.00   2.97141814   0.02653852
9146.00   2.93884277   0.02661487
9148.00   2.86382580   0.02733879
9150.00   2.91633797   0.02949979
9152.00   3.04861951   0.03148495
9154.00   3.10460925   0.03145416
9156.00   3.04062748   0.02956811
9158.00   2.99830031   0.02808537
9160.00   2.98782539   0.02747594
9162.00   2.97843051   0.02706758
9164.00   2.97783089   0.02696703
9166.00   2.99174309   0.02723020
9168.00   2.96117330   0.02737954
9170.00   2.92647171   0.02808033
9172.00   3.02713370   0.02987534
9174.00   3.14847302   0.03080968
9176.00   3.15166855   0.02952118
9178.00   3.04570317   0.02756075
9180.00   2.97592926   0.02707305
9182.00   3.03530860   0.02774623
9184.00   3.13180089   0.02816819
9186.00   3.11437821   0.02736059
9188.00   3.04515839   0.02665217
9190.00   3.02800560   0.02686129
9192.00   3.08796048   0.02773268
9194.00   3.15943885   0.02834155
9196.00   3.19323611   0.02804261
9198.00   3.16696286   0.02719101
9200.00   3.13191724   0.02673555
9202.00   3.11740708   0.02687528
9204.00   3.14626002   0.02744201
9206.00   3.18557358   0.02788304
9208.00   3.18218112   0.02781129
9210.00   3.17514396   0.02794898
9212.00   3.23414612   0.02892985
9214.00   3.38753963   0.03058890
9216.00   3.51905942   0.03158307
9218.00   3.49765015   0.03099812
9220.00   3.40709662   0.03004833
9222.00   3.32618642   0.02931525
9224.00   3.25084400   0.02869885
9226.00   3.19296074   0.02815644
9228.00   3.16385055   0.02797051
9230.00   3.14949346   0.02787290
9232.00   3.14026761   0.02782808
9234.00   3.13609862   0.02787538
9236.00   3.13629556   0.02782186
9238.00   3.11874700   0.02770357
9240.00   3.09912276   0.02758163
9242.00   3.10463452   0.02767215
9244.00   3.13374710   0.02799333
9246.00   3.13374019   0.02788898
9248.00   3.11657119   0.02767325
9250.00   3.11204791   0.02755895
9252.00   3.11990905   0.02741139
9254.00   3.06617045   0.02685382
9256.00   3.02172208   0.02675440
9258.00   3.06003547   0.02743269
9260.00   3.13489509   0.02793134
9262.00   3.17156768   0.02763160
9264.00   3.11962342   0.02696480
9266.00   3.09025407   0.02687249
9268.00   3.10601354   0.02720830
9270.00   3.10756588   0.02751045
9272.00   3.06195569   0.02757621
9274.00   3.02738309   0.02786653
9276.00   3.06242108   0.02918946
9278.00   3.13455272   0.02998267
9280.00   3.11419940   0.02967935
9282.00   3.04713440   0.02933628
9284.00   3.08011270   0.02999944
9286.00   3.12206721   0.02983142
9288.00   3.06413436   0.02963375
9290.00   2.98993564   0.02948738
9292.00   2.98532844   0.03034362
9294.00   3.06909537   0.03170973
9296.00   3.02862287   0.03187081
9298.00   3.08375645   0.03318804
9300.00   3.15563226   0.03460145
9302.00   3.10075092   0.03526097
9304.00   2.95600581   0.03636613
9306.00   3.05075049   0.04191025
9308.00   3.21881366   0.04610978
9310.00   3.12659431   0.04544812
9312.00   2.90050864   0.04503365
9314.00   3.06763530   0.05257939
9316.00   3.28102207   0.05491471
9318.00   3.15277076   0.05044492
9320.00   2.89269638   0.04641026
9322.00   3.07357526   0.05153102
9324.00   3.34475899   0.05240741
9326.00   3.23532128   0.04625527
9328.00   2.91668391   0.03855498
9330.00   2.79709029   0.03785016
9332.00   2.98409677   0.04341385
9334.00   3.20511889   0.04798028
9336.00   3.14198494   0.04711522
9338.00   2.87127709   0.04472907
9340.00   2.82920241   0.04936592
9342.00   3.42980099   0.05838785
9344.00   3.66491008   0.05244840
9346.00   3.31149960   0.03835342
9348.00   2.86641574   0.03291971
9350.00   2.81143451   0.03454975
9352.00   3.10419345   0.04402795
9354.00   3.44008946   0.05031854
9356.00   3.53493333   0.04941937
9358.00   3.34458542   0.04212262
9360.00   2.99629521   0.03423590
9362.00   2.81702065   0.03306721
9364.00   2.89138699   0.03750460
9366.00   3.08529091   0.04487864
9368.00   3.29215360   0.05415143
9370.00   3.40470290   0.06199728
9372.00   3.06215954   0.05824767
9374.00   2.77158618   0.05806282
9376.00   2.85066295   0.06665977
9378.00   3.18152428   0.07414765
9380.00   3.34351850   0.06352375
9382.00   3.15469575   0.04691761
9384.00   3.11734390   0.03729645
9386.00   3.24088645   0.03595217
9388.00   3.18505573   0.03266815
9390.00   3.09319329   0.03043545
9392.00   3.06908417   0.03001808
9394.00   3.04756427   0.03065538
9396.00   3.01949811   0.03226618
9398.00   3.06778789   0.03505398
9400.00   3.12390614   0.03599834
9402.00   3.08633423   0.03499440
9404.00   2.99171567   0.03370663
9406.00   2.95559502   0.03397441
9408.00   3.11589885   0.03618211
9410.00   3.15170026   0.03509779
9412.00   2.98396564   0.03280417
9414.00   2.84764266   0.03249617
9416.00   2.89846230   0.03480648
9418.00   2.98873067   0.03609141
9420.00   2.95198464   0.03569135
9422.00   2.81179786   0.03664004
9424.00   2.81315422   0.03905157
9426.00   3.17949200   0.04877136
9428.00   3.41211796   0.04424255
9430.00   3.21332836   0.03637891
9432.00   2.88421559   0.03095159
9434.00   2.72437286   0.03533772
9436.00   2.75381470   0.04730192
9438.00   2.99747920   0.06449483
9440.00   3.29050350   0.06884482
9442.00   3.32046890   0.05934479
9444.00   3.04495716   0.04265296
9446.00   2.84992218   0.03382878
9448.00   2.76640201   0.03080651
9450.00   2.75265670   0.03234648
9452.00   2.84214497   0.03813805
9454.00   2.97837138   0.04519780
9456.00   3.04086232   0.04911594
9458.00   3.16405940   0.05118318
9460.00   3.12739182   0.04766474
9462.00   2.94456506   0.04064939
9464.00   2.74274468   0.03510663
9466.00   2.79797268   0.03489105
9468.00   2.93545842   0.03502063
9470.00   2.82949758   0.03657650
9472.00   2.80472565   0.03836863
9474.00   2.81133151   0.04242289
9476.00   2.77470589   0.04473266
9478.00   2.86250973   0.04995477
9480.00   3.02242446   0.05014355
9482.00   3.01399541   0.04255249
9484.00   2.81989646   0.03266609
9486.00   2.69382405   0.02892075
9488.00   2.61634326   0.02827505
9490.00   2.66089821   0.03145301
9492.00   2.83032107   0.03732134
9494.00   2.90671659   0.04209490
9496.00   2.84786701   0.04503774
9498.00   3.00626969   0.04977141
9500.00   3.16083717   0.04885811
9502.00   2.97567534   0.03965830
9504.00   2.73587441   0.03309372
9506.00   2.65436816   0.03059298
9508.00   2.64267135   0.02928685
9510.00   2.63247514   0.02895845
9512.00   2.62608600   0.03072073
9514.00   2.68631101   0.03526733
9516.00   2.80901408   0.04026912
9518.00   2.89305663   0.04257649
9520.00   2.90800023   0.04209496
9522.00   2.88178849   0.03998273
9524.00   2.80567074   0.03707843
9526.00   2.85094047   0.03614655
9528.00   2.92874241   0.03521028
9530.00   2.91269422   0.03377586
9532.00   2.89517212   0.03390275
9534.00   3.00370622   0.03575256
9536.00   3.02607846   0.03576930
9538.00   2.88128543   0.03455797
9540.00   2.74814200   0.03464771
9542.00   2.82139993   0.03705869
9544.00   2.87598968   0.03631717
9546.00   2.76163864   0.03413005
9548.00   2.57924175   0.03283167
9550.00   2.48228002   0.03425485
9552.00   2.58461738   0.03877605
9554.00   2.82292056   0.04158900
9556.00   2.85009122   0.03874933
9558.00   2.63800359   0.03364429
9560.00   2.46576405   0.03298619
9562.00   2.52949405   0.03869089
9564.00   2.71397376   0.04395967
9566.00   2.76265144   0.04351426
9568.00   2.72479320   0.03935508
9570.00   2.66896367   0.03520089
9572.00   2.56097007   0.03115034
9574.00   2.43540454   0.02852426
9576.00   2.42918134   0.02939335
9578.00   2.59320879   0.03248264
9580.00   2.73069549   0.03362218
9582.00   2.60941553   0.03143114
9584.00   2.44214702   0.03055271
9586.00   2.43654847   0.03294600
9588.00   2.60445809   0.03669539
9590.00   2.75818920   0.03773450
9592.00   2.66564679   0.03443750
9594.00   2.52326679   0.03156887
9596.00   2.47853971   0.03036509
9598.00   2.48665237   0.02983522
9600.00   2.44557500   0.02934690
9602.00   2.43643546   0.03066225
9604.00   2.50667715   0.03255212
9606.00   2.57176113   0.03292121
9608.00   2.54775667   0.03125499
9610.00   2.47821522   0.02994305
9612.00   2.46177793   0.03007336
9614.00   2.47309971   0.03120255
9616.00   2.46580958   0.03274992
9618.00   2.45765281   0.03417380
9620.00   2.50131011   0.03518428
9622.00   2.52692652   0.03478671
9624.00   2.55246544   0.03333520
9626.00   2.55054474   0.03133020
9628.00   2.47966623   0.02868463
9630.00   2.33620071   0.02677173
9632.00   2.26757264   0.02740304
9634.00   2.36954379   0.03045182
9636.00   2.54435992   0.03285548
9638.00   2.52802563   0.03118286
9640.00   2.38165069   0.02905927
9642.00   2.36170363   0.02953421
9644.00   2.46499586   0.03087590
9646.00   2.51874304   0.03065079
9648.00   2.43101978   0.02881565
9650.00   2.38618112   0.02832471
9652.00   2.39387798   0.02850354
9654.00   2.39231086   0.02867531
9656.00   2.33878517   0.02870310
9658.00   2.29976940   0.02927621
9660.00   2.38575006   0.03149431
9662.00   2.43745923   0.03232960
9664.00   2.39899158   0.03164677
9666.00   2.35234690   0.03092829
9668.00   2.41211867   0.03096141
9670.00   2.44731641   0.03008621
9672.00   2.39271021   0.02851956
9674.00   2.32339740   0.02771401
9676.00   2.31748867   0.02895444
9678.00   2.38565993   0.03124144
9680.00   2.43002629   0.03175460
9682.00   2.39299321   0.03071943
9684.00   2.31584620   0.02933425
9686.00   2.27578235   0.02848590
9688.00   2.29595876   0.02808470
9690.00   2.35201097   0.02843674
9692.00   2.35575747   0.02909065
9694.00   2.31460071   0.02988396
9696.00   2.30586100   0.03100476
9698.00   2.37516141   0.03248925
9700.00   2.39243674   0.03243357
9702.00   2.32318759   0.03077681
9704.00   2.23961353   0.02870956
9706.00   2.25716376   0.02812441
9708.00   2.28961182   0.02840487
9710.00   2.28967214   0.02895304
9712.00   2.28456116   0.03010499
9714.00   2.32868600   0.03198837
9716.00   2.29307675   0.03246399
9718.00   2.23537827   0.03227555
9720.00   2.22938442   0.03269655
9722.00   2.26571631   0.03309928
9724.00   2.27085900   0.03180869
9726.00   2.25313401   0.02945881
9728.00   2.24149990   0.02812264
9730.00   2.21168971   0.02831333
9732.00   2.19774985   0.02987698
9734.00   2.24265218   0.03182745
9736.00   2.28196025   0.03194096
9738.00   2.24331760   0.03099290
9740.00   2.21058106   0.03037301
9742.00   2.23188090   0.03030272
9744.00   2.26289296   0.02980787
9746.00   2.22997928   0.02914660
9748.00   2.20591640   0.02874729
9750.00   2.19735360   0.02853956
9752.00   2.20827675   0.02859743
9754.00   2.23207092   0.02912361
9756.00   2.25798821   0.02935728
9758.00   2.23841667   0.02902796
9760.00   2.21259260   0.02865767
9762.00   2.23729277   0.02870547
9764.00   2.26140976   0.02834540
9766.00   2.23813438   0.02742115
9768.00   2.19466209   0.02677787
9770.00   2.18525982   0.02687367
9772.00   2.20614982   0.02736849
9774.00   2.20732808   0.02779894
9776.00   2.19629669   0.02792158
9778.00   2.21604466   0.02833452
9780.00   2.25075722   0.02909663
9782.00   2.22693896   0.02975438
9784.00   2.16725564   0.03067241
9786.00   2.14617467   0.03291589
9788.00   2.17504883   0.03559847
9790.00   2.21517563   0.03738729
9792.00   2.22923350   0.03740900
9794.00   2.18023705   0.03573963
9796.00   2.16314244   0.03404738
9798.00   2.18118405   0.03314552
9800.00   2.20920634   0.03289956
9802.00   2.22623610   0.03193084
9804.00   2.19041800   0.03044623
9806.00   2.16771054   0.02944119
9808.00   2.16307473   0.02925038
9810.00   2.18818927   0.02973107
9812.00   2.17331028   0.02994667
9814.00   2.18241286   0.02977344
9816.00   2.19126058   0.02942313
9818.00   2.18374300   0.02902371
9820.00   2.13699102   0.02858674
9822.00   2.14787078   0.02882279
9824.00   2.15612197   0.02904101
9826.00   2.17807055   0.02903320
9828.00   2.18109202   0.02873935
9830.00   2.15735745   0.02850023
9832.00   2.15116310   0.02826750
9834.00   2.18044090   0.02821167
9836.00   2.17686558   0.02802628
9838.00   2.15603232   0.02808438
9840.00   2.18302059   0.02909306
9842.00   2.16566443   0.03021360
9844.00   2.13964939   0.03120031
9846.00   2.12611151   0.03189517
9848.00   2.13500285   0.03218302
9850.00   2.14020133   0.03170975
9852.00   2.14789510   0.03088783
9854.00   2.15891337   0.02977321
9856.00   2.15465617   0.02877728
9858.00   2.15403485   0.02846446
9860.00   2.15044141   0.02859394
9862.00   2.13222837   0.02914247
9864.00   2.12532759   0.03121637
9866.00   2.10733700   0.03438585
9868.00   2.07352948   0.03733385
9870.00   2.08548284   0.03952336
9872.00   2.11632442   0.04028301
9874.00   2.11481929   0.03919145
9876.00   2.09974504   0.03647761
9878.00   2.12436199   0.03329562
9880.00   2.13285303   0.03081293
9882.00   2.12515187   0.02980648
9884.00   2.11636424   0.02971416
9886.00   2.10336804   0.03006046
9888.00   2.09166837   0.03121398
9890.00   2.07171822   0.03253896
9892.00   2.04909873   0.03329939
9894.00   2.03990912   0.03351885
9896.00   2.05462623   0.03341618
9898.00   2.06263185   0.03268128
9900.00   2.05902171   0.03134650
9902.00   2.07304931   0.03030714
9904.00   2.08413935   0.03023022
9906.00   2.06955552   0.03160981
9908.00   2.04768348   0.03457697
9910.00   2.04205155   0.03798573
9912.00   2.03401685   0.04016219
9914.00   2.02466941   0.04080238
9916.00   2.02561736   0.04024357
9918.00   2.02770591   0.03823458
9920.00   2.02307844   0.03491136
9922.00   2.01704502   0.03178220
9924.00   1.99616492   0.03009746
9926.00   1.99832547   0.02981692
9928.00   2.00269866   0.02979335
9930.00   2.02778745   0.03007603
9932.00   2.05065084   0.03075038
9934.00   2.03186822   0.03191436
9936.00   2.00986886   0.03409209
9938.00   2.00225639   0.03715394
9940.00   1.99468374   0.04053530
9942.00   1.97585618   0.04331213
9944.00   1.94668043   0.04472211
9946.00   1.93775475   0.04448190
9948.00   1.96131766   0.04361027
9950.00   1.97721255   0.04279338
9952.00   1.95751703   0.04226470
9954.00   1.95045173   0.04247452
9956.00   1.95404005   0.04360527
9958.00   1.94193745   0.04445949
9960.00   1.95880890   0.04400665
9962.00   1.98238850   0.04217549
9964.00   1.98699844   0.03981788
9966.00   1.97420311   0.03781047
9968.00   1.95441592   0.03605644
9970.00   1.93649232   0.03497328
9972.00   1.93457353   0.03470391
9974.00   1.91348779   0.03443817
9976.00   1.89644492   0.03380021
9978.00   1.90527439   0.03301759
9980.00   1.90853691   0.03226170
9982.00   1.89328039   0.03166159
9984.00   1.88348675   0.03133269
9986.00   1.91605437   0.03136599
9988.00   1.91082287   0.03131893
9990.00   1.89867747   0.03143361
9992.00   1.90910757   0.03190526
9994.00   1.88185406   0.03245051
9996.00   1.88229144   0.03319762
9998.00   1.89484644   0.03377893
10000.00   1.90281045   0.03418999
10002.00   1.88909686   0.03483060
10004.00   1.88474941   0.03689975
10006.00   1.90281582   0.04144883
10008.00   1.87484610   0.04630948
10010.00   1.84564292   0.04977782
10012.00   1.83541906   0.05103327
10014.00   1.80518627   0.05044345
10016.00   1.81884158   0.04799944
10018.00   1.82529199   0.04428422
10020.00   1.81443703   0.04115577
10022.00   1.81212664   0.04025837
10024.00   1.82597983   0.04028130
10026.00   1.83250237   0.03997229
10028.00   1.81349242   0.03880664
10030.00   1.80355680   0.03691948
10032.00   1.81074870   0.03499210
10034.00   1.81972325   0.03409451
10036.00   1.82426679   0.03432512
10038.00   1.82382262   0.03505754
10040.00   1.81357920   0.03566285
10042.00   1.78915489   0.03578785
10044.00   1.77581322   0.03568036
10046.00   1.77919769   0.03533303
10048.00   1.78613698   0.03474491
10050.00   1.79063761   0.03423028
10052.00   1.79342222   0.03453141
10054.00   1.79539096   0.03588157
10056.00   1.76900756   0.03734626
10058.00   1.75196731   0.03852000
10060.00   1.77895010   0.03936573
10062.00   1.80158043   0.03978885
10064.00   1.77975833   0.03936274
10066.00   1.76514494   0.03856333
10068.00   1.78516066   0.03796762
10070.00   1.77704859   0.03757236
10072.00   1.74524403   0.03760234
10074.00   1.74043894   0.03916450
10076.00   1.76170123   0.04239582
10078.00   1.76708472   0.04599473
10080.00   1.75886536   0.04826151
10082.00   1.73158920   0.04863081
10084.00   1.71450102   0.04764286
10086.00   1.73608744   0.04527137
10088.00   1.72816694   0.04137929
10090.00   1.69973671   0.03786358
10092.00   1.70793283   0.03670588
10094.00   1.71508729   0.03694197
10096.00   1.72887421   0.03822645
10098.00   1.75239289   0.04024016
10100.00   1.76730525   0.04195834
10102.00   1.73322523   0.04245963
10104.00   1.71999419   0.04240725
10106.00   1.70928431   0.04163539
10108.00   1.68885183   0.04000127
10110.00   1.69278240   0.03837017
10112.00   1.71358490   0.03793941
10114.00   1.72451627   0.03913068
10116.00   1.70961726   0.04230976
10118.00   1.68943691   0.04725185
10120.00   1.71014917   0.05201162
10122.00   1.70782936   0.05444111
10124.00   1.70057905   0.05481790
10126.00   1.69215739   0.05338060
10128.00   1.69304430   0.04990750
10130.00   1.66649532   0.04487559
10132.00   1.65931451   0.04147593
10134.00   1.65595496   0.04023042
10136.00   1.68564379   0.04033854
10138.00   1.69872856   0.04071585
10140.00   1.67086267   0.04104302
10142.00   1.67112935   0.04182136
10144.00   1.69058168   0.04310324
10146.00   1.66353285   0.04443063
10148.00   1.64090192   0.04618257
10150.00   1.63976610   0.04754813
10152.00   1.63799477   0.04829450
10154.00   1.66010153   0.04867603
10156.00   1.66268730   0.04827918
10158.00   1.67082787   0.04718132
10160.00   1.67783678   0.04652013
10162.00   1.67953634   0.04738702
10164.00   1.65739286   0.05028543
10166.00   1.62198961   0.05504472
10168.00   1.56193542   0.05888124
10170.00   1.57483327   0.06109844
10172.00   1.57503891   0.06136299
10174.00   1.55634308   0.05983405
10176.00   1.58651578   0.05657077
10178.00   1.61494768   0.05244755
10180.00   1.60769331   0.05042315
10182.00   1.58344424   0.05148409
10184.00   1.57778394   0.05454440
10186.00   1.59172213   0.05709220
10188.00   1.62123919   0.05848417
10190.00   1.61787736   0.05847089
10192.00   1.57326806   0.05684894
10194.00   1.60533154   0.05448805
10196.00   1.63232791   0.05255704
10198.00   1.61677694   0.05212030
10200.00   1.61129415   0.05366076
10202.00   1.63488102   0.05713338
10204.00   1.61387014   0.06172736
10206.00   1.55138433   0.06576472
10208.00   1.56661427   0.06832022
10210.00   1.61958981   0.06918841
10212.00   1.59013689   0.06759253
10214.00   1.54209077   0.06370261
10216.00   1.45375919   0.05838583
10218.00   1.56748259   0.05592042
10220.00   1.58021438   0.05648522
10222.00   1.53463542   0.05871670
10224.00   1.53987980   0.06153144
10226.00   1.56323767   0.06353078
10228.00   1.59228659   0.06386439
10230.00   1.60339224   0.06229490
10232.00   1.59629667   0.05948615
10234.00   1.56741297   0.05630460
10236.00   1.57810879   0.05379264
10238.00   1.57530248   0.05191539
10240.00   1.54115200   0.05068065
10242.00   1.52514136   0.05027414
10244.00   1.52549613   0.05029945
10246.00   1.53778803   0.05066076
10248.00   1.54640496   0.05110299
10250.00   1.55386794   0.05157365
10252.00   1.53043616   0.05177524
10254.00   1.53840625   0.05238913
10256.00   1.53399086   0.05280662
10258.00   1.50750458   0.05306644
10260.00   1.50160170   0.05383791
10262.00   1.51978874   0.05517687
10264.00   1.53662300   0.05668983
10266.00   1.54869044   0.05832579
10268.00   1.54882622   0.05978810
10270.00   1.53046083   0.06077337
10272.00   1.52904081   0.06162507
10274.00   1.53122663   0.06255218
10276.00   1.55422544   0.06677561
10278.00   1.57460630   0.07726642
10280.00   1.60016620   0.09304588
10282.00   1.59252560   0.10805121
10284.00   1.57745981   0.11700070
10286.00   1.53791952   0.12042861
10288.00   1.54113829   0.11955015
10290.00   1.55641091   0.11390215
10292.00   1.53480232   0.10378102
10294.00   1.59462643   0.09543752
10296.00   1.57168865   0.09015650
10298.00   1.53176641   0.08608827
10300.00   1.46445322   0.08037518
10302.00   1.43510091   0.07511189
10304.00   1.45016432   0.07343439
10306.00   1.48040676   0.07380059
10308.00   1.54113889   0.07401875
10310.00   1.50089216   0.07347587
10312.00   1.51702440   0.07254099
10314.00   1.58339810   0.07088519
10316.00   1.54097116   0.06954328
10318.00   1.53613317   0.06885006
10320.00   1.49910414   0.06872699
10322.00   1.48742640   0.06939876
10324.00   1.49895585   0.07029403
10326.00   1.49722445   0.07096583
10328.00   1.47246301   0.07100679
10330.00   1.50045252   0.07085413
10332.00   1.37360883   0.07108722
10334.00   1.46353734   0.07258051
10336.00   1.47111428   0.07446170
10338.00   1.45892847   0.07700232
10340.00   1.44356155   0.08063350
10342.00   1.43808687   0.08649824
10344.00   1.48381329   0.09024740
10346.00   1.39302242   0.09214792
10348.00   1.49169433   0.09336122
10350.00   1.47707796   0.09158842
10352.00   1.39130020   0.08746266
10354.00   1.33601975   0.08371458
10356.00   1.35503411   0.08265144
10358.00   1.37250972   0.08226856
10360.00   1.40949583   0.08216958
10362.00   1.39994156   0.08473564
10364.00   1.36484015   0.09284832
10366.00   1.34297001   0.10762850
10368.00   1.37047589   0.12351358
10370.00   1.39762819   0.13270438
10372.00   1.45834255   0.13620360
10374.00   1.40710592   0.13437574
10376.00   1.51456773   0.12669194
10378.00   1.42209065   0.11027429
10380.00   1.40663087   0.09780125
10382.00   1.36495388   0.09135694
10384.00   1.34111583   0.08952042
10386.00   1.37716854   0.09076888
10388.00   1.40981257   0.09501455
10390.00   1.39841306   0.10162309
10392.00   1.46535945   0.10862523
10394.00   1.41248882   0.11296683
10396.00   1.36382627   0.11352596
10398.00   1.35490263   0.11228328
10400.00   1.44437742   0.10878045
10402.00   1.47807634   0.10395599
10404.00   1.47892535   0.10112367
10406.00   1.52479851   0.10170233
10408.00   1.53211176   0.10648213
10410.00   1.45403421   0.11898907
10412.00   1.40035856   0.13640694
10414.00   1.53224015   0.15333949
10416.00   1.38946342   0.16152374
10418.00   1.59545350   0.16551369
10420.00   1.59982979   0.16017480
10422.00   1.44486749   0.14603524
10424.00   1.39452064   0.12686522
10426.00   1.35310984   0.11452633
10428.00   1.39784336   0.10887266
10430.00   1.40297866   0.10542993
10432.00   1.36890876   0.10468407
10434.00   1.36593592   0.10302506
10436.00   1.33097196   0.10217562
10438.00   1.33411598   0.10250632
10440.00   1.38004255   0.10475015
10442.00   1.44463742   0.11010742
10444.00   1.42126548   0.11646114
10446.00   1.36670053   0.12138847
10448.00   1.42224121   0.12628263
10450.00   1.41159189   0.12779886
10452.00   1.35695171   0.12520450
10454.00   1.33510077   0.11997092
10456.00   1.37812138   0.11577483
10458.00   1.45715511   0.11540931
10460.00   1.38807428   0.12200090
10462.00   1.34850895   0.13478661
10464.00   1.32993615   0.14833470
10466.00   1.43044305   0.15852585
10468.00   1.48699951   0.16155946
10470.00   1.49544823   0.15890308
10472.00   1.38547325   0.14771317
10474.00   1.29544008   0.13229711
10476.00   1.27550006   0.12220454
10478.00   1.29364681   0.11759818
10480.00   1.35117185   0.11566308
10482.00   1.32302535   0.11500136
10484.00   1.34560204   0.11601432
10486.00   1.33604288   0.11547764
10488.00   1.34641016   0.11576629
10490.00   1.32386327   0.11545667
10492.00   1.29228258   0.11495277
10494.00   1.24143529   0.11543746
10496.00   1.30501199   0.11720822
10498.00   1.29410768   0.11794546
10500.00   1.20928347   0.11665346
10502.00   1.19730818   0.12081227
10504.00   1.24537957   0.12685303
10506.00   1.26391041   0.13076919
10508.00   1.23218095   0.13180816
10510.00   1.37181056   0.13480936
10512.00   1.30564213   0.13126455
10514.00   1.24654484   0.12871572
10516.00   1.31245315   0.13083407
10518.00   1.35220993   0.13799632
10520.00   1.14998710   0.14282489
10522.00   1.20026171   0.14462502
10524.00   1.29673457   0.14797699
10526.00   1.30925691   0.14582367
10528.00   1.46314025   0.14234024
10530.00   1.37281203   0.13158968
10532.00   1.28258944   0.12629078
10534.00   1.21248770   0.12467788
10536.00   1.22534204   0.12335803
10538.00   1.10576272   0.11956692
10540.00   1.22426867   0.12183183
10542.00   1.30943108   0.12373111
10544.00   1.20481026   0.12144777
10546.00   1.19092715   0.12226013
10548.00   1.26299894   0.12509145
10550.00   1.30570126   0.12638192
10552.00   1.22778189   0.12698703
10554.00   1.29683495   0.12877962
10556.00   1.32557797   0.12876377
10558.00   1.29281247   0.12482940
10560.00   1.22294974   0.12493140
10562.00   1.13171434   0.12542380
10564.00   1.25629425   0.12773398
10566.00   1.30761063   0.13341014
10568.00   1.40518022   0.13798892
10570.00   1.35192394   0.13554852
10572.00   1.33354437   0.13706613
10574.00   1.20424795   0.13314694
10576.00   1.20666313   0.13728562
10578.00   1.30108452   0.13867402
10580.00   1.28532612   0.13984203
10582.00   1.18913853   0.14141226
10584.00   1.25615454   0.14291835
10586.00   1.28488529   0.14481074
10588.00   1.17576361   0.14102715
10590.00   1.14233184   0.13672666
10592.00   1.05682039   0.13470796
10594.00   1.21052802   0.13589364
10596.00   1.16525853   0.13560659
10598.00   1.30227816   0.14038062
10600.00   1.35150754   0.14169146
10602.00   1.33618581   0.14299259
10604.00   1.32557368   0.13981074
10606.00   1.29867327   0.13947125
10608.00   1.17886734   0.13898811
10610.00   1.16810453   0.13831489
10612.00   1.24230456   0.14252423
10614.00   1.31724346   0.14486162
10616.00   1.24890447   0.14255869
10618.00   1.20225644   0.14164400
10620.00   1.18828487   0.14551619
10622.00   1.23403454   0.14268923
10624.00   1.28425157   0.14471674
10626.00   1.30628669   0.14703222
10628.00   1.33573222   0.14860231
10630.00   1.26537025   0.14978179
10632.00   1.27793086   0.14944214
10634.00   1.27813113   0.14991979
10636.00   1.28627682   0.15192075
10638.00   1.27966404   0.15634350
10640.00   1.27399695   0.15682471
10642.00   1.28147268   0.15738685
10644.00   1.32363546   0.15697436
10646.00   1.35066867   0.15736006
10648.00   1.15233588   0.15516558
10650.00   1.19538307   0.15826483
10652.00   1.25033736   0.15930320
10654.00   1.31712401   0.16345480
10656.00   1.37366056   0.16718550
10658.00   1.25660706   0.16283515
10660.00   1.29158795   0.16801602
10662.00   1.26223612   0.16544774
10664.00   1.14414740   0.16386832
10666.00   1.18792272   0.16379528
10668.00   1.13514125   0.16413328
10670.00   1.29064703   0.16942295
10672.00   1.31018794   0.17326291
10674.00   1.20326781   0.16908039
10676.00   1.14240944   0.17732200
10678.00   1.18694532   0.18042584
10680.00   1.05358899   0.17881429
10682.00   0.97841418   0.18221535
10684.00   1.17443371   0.19103378
10686.00   1.36632109   0.19954038
10688.00   1.25430250   0.19930820
10690.00   1.22960639   0.19782931
10692.00   1.21376121   0.20590717
10694.00   1.26454139   0.21174833
10696.00   1.18804049   0.21564507
10698.00   1.17445052   0.21333095
10700.00   1.25634277   0.21977694
10702.00   1.30560827   0.23186019
10704.00   1.19847775   0.23192990
10706.00   1.22164428   0.24536337
10708.00   1.22765076   0.25850898
10710.00   1.29358435   0.25837010
10712.00   1.07790768   0.25184551
