# File created by shivutils (I.Shivvers)
# wl(A)   flm    er(optional)
3626.00   0.99979347   0.46383199
3628.00   2.13633966   0.48170775
3630.00   1.70008743   0.45718917
3632.00   1.41693509   0.45189378
3634.00   2.25569844   0.48432720
3636.00   1.39666450   0.50694525
3638.00   0.76188391   0.53300202
3640.00   0.19163238   0.54479015
3642.00   0.67947704   0.53519982
3644.00   1.00124276   0.51482338
3646.00   1.46553123   0.50515896
3648.00   1.37860525   0.52524531
3650.00   2.23953223   0.55665326
3652.00   0.57251692   0.55895966
3654.00   1.09678149   0.55580938
3656.00   2.00445724   0.54907608
3658.00   0.11198723   0.53896272
3660.00   0.32221416   0.54031062
3662.00   0.49093467   0.52948964
3664.00   0.43713358   0.51939815
3666.00   1.00156748   0.50607067
3668.00   0.39562625   0.48932523
3670.00   1.83525527   0.49546570
3672.00   1.67675424   0.50221455
3674.00   1.06536281   0.49303743
3676.00   0.51124954   0.47365025
3678.00   1.29812562   0.45490161
3680.00   1.19553304   0.45242101
3682.00   1.11334419   0.46255070
3684.00   0.84161663   0.45781010
3686.00   1.11638296   0.43904957
3688.00   1.54470968   0.44681439
3690.00   1.88312817   0.47526795
3692.00   1.12882721   0.47379881
3694.00   2.53704071   0.46389496
3696.00   1.53715754   0.46513328
3698.00   2.25546145   0.47911316
3700.00   1.78092921   0.47877148
3702.00   1.18977714   0.45488748
3704.00   0.65755153   0.42263561
3706.00   1.73037982   0.40865877
3708.00   1.29739201   0.41431710
3710.00   0.89303631   0.43461698
3712.00   1.63893604   0.45936218
3714.00   2.43080926   0.46536314
3716.00   1.84229279   0.44634748
3718.00   1.43002045   0.40624335
3720.00   1.58680403   0.36946794
3722.00   1.07157910   0.38350615
3724.00   1.65126348   0.41695270
3726.00   1.28347492   0.41673744
3728.00   1.56105685   0.41223046
3730.00   1.33654237   0.40537542
3732.00   1.47816908   0.36978027
3734.00   1.58316040   0.33756807
3736.00   2.07312250   0.34775981
3738.00   1.26699662   0.38403469
3740.00   1.24847031   0.40734413
3742.00   1.57888675   0.39355239
3744.00   1.77837968   0.36169165
3746.00   1.07946432   0.33979899
3748.00   0.50025970   0.33542082
3750.00   1.96977866   0.36244351
3752.00   1.54904485   0.40150973
3754.00   1.06194162   0.41463402
3756.00   1.34623921   0.39305064
3758.00   1.32687497   0.36890268
3760.00   1.60548306   0.37670809
3762.00   1.79234457   0.38263175
3764.00   1.35530627   0.37624529
3766.00   2.03681803   0.38100991
3768.00   1.79900932   0.38141590
3770.00   2.41521978   0.39614713
3772.00   1.98317289   0.40696040
3774.00   1.32144892   0.41225407
3776.00   1.15433109   0.41243973
3778.00   0.62721568   0.41505170
3780.00   2.31603122   0.42457631
3782.00   0.42073771   0.42293718
3784.00   0.93340260   0.41143051
3786.00   1.28252184   0.38788447
3788.00   1.07999170   0.37104470
3790.00   0.57570672   0.37370250
3792.00   2.27200294   0.37289101
3794.00   0.93360263   0.35611558
3796.00   1.27861488   0.34054592
3798.00   0.38015354   0.33691943
3800.00   0.83654094   0.35883290
3802.00   1.02214921   0.37833169
3804.00   1.32717621   0.37824225
3806.00   2.20773172   0.36991283
3808.00   1.54102242   0.37275407
3810.00   0.59654135   0.37252465
3812.00   1.10647404   0.35444999
3814.00   1.24176240   0.32933426
3816.00   0.70585835   0.32617080
3818.00   0.85366738   0.31917408
3820.00   1.22927809   0.31038085
3822.00   1.22592330   0.30943140
3824.00   0.79595280   0.28994834
3826.00   0.70099765   0.27748710
3828.00   0.56968343   0.28264073
3830.00   0.73572940   0.28427601
3832.00   0.50039220   0.27144459
3834.00   0.18494569   0.27077889
3836.00   0.92791045   0.27353913
3838.00   1.25971067   0.26665783
3840.00   0.89478207   0.28026754
3842.00   0.91222095   0.30242878
3844.00   0.42381600   0.31228602
3846.00   0.46352240   0.31370708
3848.00   1.44925678   0.30803245
3850.00   0.96367419   0.30381444
3852.00   1.00458944   0.30309391
3854.00   1.09880495   0.29453316
3856.00   1.51750541   0.28142002
3858.00   1.48194492   0.26811740
3860.00   0.74282992   0.27524909
3862.00   0.92233175   0.29774004
3864.00   1.11469793   0.30084714
3866.00   1.48910165   0.29342508
3868.00   0.29420000   0.27834195
3870.00   1.80396557   0.26606828
3872.00   1.69665122   0.27206820
3874.00   1.11125791   0.28651202
3876.00   1.32468593   0.28111020
3878.00   1.37344587   0.26979893
3880.00   1.16657925   0.26519492
3882.00   1.70347273   0.26948291
3884.00   1.18876922   0.26646039
3886.00   1.26718760   0.25804892
3888.00   2.15734744   0.26339707
3890.00   1.58437169   0.27656958
3892.00   1.30750847   0.28379819
3894.00   1.50615072   0.28642133
3896.00   1.27831113   0.28696775
3898.00   1.60022235   0.28791505
3900.00   1.63598335   0.28583401
3902.00   1.50228345   0.28079259
3904.00   1.63952506   0.27628443
3906.00   1.52226818   0.28497028
3908.00   1.84627855   0.29652372
3910.00   2.60141230   0.30602774
3912.00   1.47089911   0.30741936
3914.00   1.65422475   0.29857823
3916.00   1.29611182   0.28266892
3918.00   1.87863588   0.27137178
3920.00   2.24282146   0.26114511
3922.00   1.92863774   0.26026005
3924.00   2.21060228   0.25678611
3926.00   1.79998934   0.23776992
3928.00   1.77488565   0.21444620
3930.00   1.81032896   0.19479798
3932.00   1.63677990   0.18304625
3934.00   1.59139955   0.18397753
3936.00   2.08594680   0.20221555
3938.00   2.21244121   0.22564322
3940.00   2.10156918   0.23712289
3942.00   2.64989996   0.24375962
3944.00   2.12704706   0.24971114
3946.00   2.09979033   0.25874409
3948.00   2.32421732   0.26529503
3950.00   2.50125790   0.26582557
3952.00   2.40306449   0.26570478
3954.00   2.44665861   0.26351905
3956.00   2.20685601   0.25973880
3958.00   2.35469055   0.25777155
3960.00   2.39571452   0.24343814
3962.00   2.49373078   0.22595489
3964.00   2.35380268   0.21003059
3966.00   2.69147849   0.18979400
3968.00   2.46071482   0.18117836
3970.00   2.32659125   0.19377266
3972.00   2.79918385   0.21690397
3974.00   2.64627051   0.23531024
3976.00   2.71597528   0.25112781
3978.00   2.96529889   0.26172262
3980.00   2.57305598   0.26493725
3982.00   2.48763752   0.26295349
3984.00   2.60573220   0.26237372
3986.00   3.11270475   0.26754832
3988.00   3.07269478   0.27435356
3990.00   2.84526086   0.27589139
3992.00   2.62593079   0.27433506
3994.00   1.85577571   0.26936951
3996.00   2.13687706   0.26684231
3998.00   2.84798241   0.26970795
4000.00   2.71369982   0.27357477
4002.00   2.82307720   0.27023792
4004.00   2.65367532   0.26122150
4006.00   2.62600589   0.26053303
4008.00   2.74569345   0.26745263
4010.00   2.61526275   0.27067050
4012.00   2.57880163   0.27087390
4014.00   2.13564897   0.26827839
4016.00   2.42464328   0.26749942
4018.00   2.77287245   0.27142596
4020.00   2.68418527   0.27497467
4022.00   2.29350758   0.27287695
4024.00   2.46327972   0.27074534
4026.00   2.06796980   0.26935247
4028.00   2.26875734   0.26396129
4030.00   2.62163520   0.25276995
4032.00   2.24566746   0.24779724
4034.00   2.37881517   0.25276843
4036.00   1.72069633   0.25917697
4038.00   2.23371792   0.26074800
4040.00   2.09177017   0.25734633
4042.00   2.15321565   0.25440836
4044.00   1.85989547   0.26465005
4046.00   1.70748639   0.27391621
4048.00   2.82938051   0.26982263
4050.00   1.90338874   0.25501582
4052.00   1.60845101   0.24549313
4054.00   1.87684155   0.24246825
4056.00   1.67011714   0.23751824
4058.00   1.78134835   0.23976058
4060.00   1.55606520   0.23614588
4062.00   1.72397423   0.22948287
4064.00   2.02729559   0.22988692
4066.00   1.57688391   0.23680520
4068.00   1.78116965   0.23876719
4070.00   1.61248720   0.23393321
4072.00   1.86358202   0.23473221
4074.00   2.06200027   0.23526859
4076.00   1.79738295   0.23226698
4078.00   1.48444271   0.23458764
4080.00   2.06921983   0.23795825
4082.00   1.30604422   0.23370942
4084.00   1.51516747   0.23241168
4086.00   1.59254277   0.23662098
4088.00   1.22675550   0.23807354
4090.00   1.05140078   0.23410556
4092.00   1.63206029   0.23231387
4094.00   1.78509843   0.22820638
4096.00   1.72003186   0.22285883
4098.00   1.73410773   0.21524195
4100.00   1.72396374   0.20610832
4102.00   1.38886011   0.20617120
4104.00   1.62453973   0.21608037
4106.00   1.41068423   0.22221965
4108.00   1.90113807   0.22474311
4110.00   1.11969244   0.22351152
4112.00   1.38685107   0.22796258
4114.00   1.72488928   0.23213667
4116.00   1.74199474   0.23133175
4118.00   1.26820624   0.22618501
4120.00   1.57958293   0.22603166
4122.00   1.40185606   0.22672382
4124.00   1.37034166   0.22537225
4126.00   1.29421055   0.22192377
4128.00   1.70332754   0.22022900
4130.00   1.25150990   0.21483500
4132.00   1.79345262   0.21195978
4134.00   1.65220809   0.21519217
4136.00   1.58926702   0.22157937
4138.00   1.68295753   0.22523685
4140.00   1.30530953   0.22002362
4142.00   1.60440421   0.21391578
4144.00   1.12936509   0.21257189
4146.00   1.51895583   0.21640000
4148.00   1.68667006   0.21673499
4150.00   1.33243155   0.21607725
4152.00   1.66112328   0.21517418
4154.00   1.62195027   0.21224034
4156.00   1.51248848   0.21256433
4158.00   1.43276584   0.21575883
4160.00   0.92700833   0.21758987
4162.00   1.91489935   0.22223495
4164.00   1.51513028   0.21995783
4166.00   1.74308956   0.21651067
4168.00   1.83120000   0.21335468
4170.00   1.96922302   0.20843014
4172.00   1.56954253   0.20326169
4174.00   1.28718531   0.20127033
4176.00   1.95029283   0.20495483
4178.00   1.38957858   0.20426062
4180.00   1.45663249   0.20334575
4182.00   1.47736502   0.20271039
4184.00   1.88752282   0.20163801
4186.00   1.62251461   0.19996749
4188.00   1.34704161   0.20016243
4190.00   1.63313782   0.20442969
4192.00   1.42681336   0.20456225
4194.00   1.74096859   0.20127641
4196.00   1.94235361   0.19535452
4198.00   1.77653563   0.19245061
4200.00   1.34585214   0.19173969
4202.00   1.10227859   0.19397086
4204.00   1.65586221   0.19940266
4206.00   1.36928535   0.20179571
4208.00   1.94689035   0.20336607
4210.00   2.17330956   0.20395616
4212.00   1.18530321   0.20156778
4214.00   1.32352293   0.19792320
4216.00   2.03515649   0.19737516
4218.00   1.85761094   0.19917633
4220.00   1.73524010   0.19834982
4222.00   1.57663310   0.19194344
4224.00   1.86241019   0.18187740
4226.00   1.56416881   0.17833184
4228.00   1.86396265   0.18903972
4230.00   2.03059530   0.19515127
4232.00   1.46794093   0.19263090
4234.00   1.45757246   0.18855268
4236.00   1.76627278   0.18602198
4238.00   1.63737023   0.18742362
4240.00   1.60925901   0.18820193
4242.00   1.78299236   0.19056387
4244.00   1.83421242   0.19212347
4246.00   1.55603755   0.18896344
4248.00   1.81312442   0.18491440
4250.00   1.56454396   0.18473482
4252.00   1.62664258   0.18466556
4254.00   1.61103201   0.18612401
4256.00   1.87549520   0.18671554
4258.00   1.77750146   0.18178555
4260.00   1.65963662   0.18109556
4262.00   1.54309964   0.18513800
4264.00   1.73956943   0.18845218
4266.00   1.93869102   0.18760733
4268.00   2.34364963   0.18012732
4270.00   1.50026512   0.17056364
4272.00   1.75324130   0.16871773
4274.00   2.03496146   0.17403315
4276.00   1.53323317   0.17836519
4278.00   2.02362609   0.17886908
4280.00   1.99077928   0.17754351
4282.00   1.96377480   0.17615558
4284.00   1.65797853   0.17377712
4286.00   1.74208617   0.17134993
4288.00   1.97551560   0.16944841
4290.00   1.37501419   0.16956770
4292.00   1.46191466   0.17238367
4294.00   1.62788582   0.17083868
4296.00   1.82161224   0.16519402
4298.00   1.75604141   0.15679333
4300.00   1.91598523   0.15337305
4302.00   1.85998607   0.15320565
4304.00   1.58604920   0.15142111
4306.00   1.54865837   0.14871481
4308.00   1.85355330   0.14732993
4310.00   2.05493712   0.15415861
4312.00   1.81404853   0.16354550
4314.00   1.92187154   0.17422999
4316.00   1.85655999   0.18156478
4318.00   1.76191390   0.18359756
4320.00   1.42574394   0.17872164
4322.00   1.59856081   0.16957825
4324.00   1.95130455   0.16533594
4326.00   1.81372380   0.16918679
4328.00   1.92598498   0.17542881
4330.00   1.81803393   0.17689930
4332.00   2.20846081   0.17795022
4334.00   1.99436367   0.17411287
4336.00   1.96756268   0.16660529
4338.00   1.71338856   0.15828927
4340.00   1.64310551   0.15746666
4342.00   1.91522169   0.16402379
4344.00   2.10149574   0.17024554
4346.00   1.90032685   0.17395350
4348.00   2.02481890   0.17190999
4350.00   2.28875113   0.16802222
4352.00   2.17814231   0.16764399
4354.00   2.06377864   0.18582252
4356.00   2.01513338   0.21155313
4358.00   1.76604903   0.21748912
4360.00   1.77207088   0.20019110
4362.00   1.28645372   0.18531345
4364.00   1.20213628   0.17696339
4366.00   1.41533375   0.17443660
4368.00   1.71292245   0.17339072
4370.00   1.62021208   0.17248388
4372.00   1.87370014   0.17093930
4374.00   1.38799453   0.16934286
4376.00   1.51248562   0.17059694
4378.00   1.42193902   0.17009892
4380.00   1.53145587   0.16401282
4382.00   1.37047505   0.15618242
4384.00   1.64571416   0.15551418
4386.00   1.58144414   0.15803079
4388.00   1.53349102   0.15894559
4390.00   1.27821577   0.15953061
4392.00   1.19617009   0.15929845
4394.00   1.05625319   0.16070391
4396.00   0.98639035   0.16264226
4398.00   1.47431564   0.16325809
4400.00   1.38260138   0.16225153
4402.00   1.00813806   0.15918793
4404.00   1.24720669   0.15845399
4406.00   1.49271882   0.16063674
4408.00   1.23233235   0.16396521
4410.00   1.29646361   0.16723894
4412.00   1.41571105   0.16647963
4414.00   1.15065598   0.16445968
4416.00   1.42417610   0.16600327
4418.00   1.05738795   0.16701373
4420.00   1.31544662   0.16733871
4422.00   1.13549125   0.16557296
4424.00   1.26278734   0.16506740
4426.00   0.97236890   0.16430931
4428.00   0.96558750   0.16387661
4430.00   1.16075861   0.16310109
4432.00   1.11340702   0.16063662
4434.00   0.91658354   0.15964717
4436.00   0.79588103   0.16134711
4438.00   1.08100486   0.16272856
4440.00   1.37424386   0.16100697
4442.00   1.29401827   0.15920995
4444.00   1.04090309   0.15929520
4446.00   0.99153799   0.15900499
4448.00   0.73972929   0.15855286
4450.00   1.17635953   0.15847407
4452.00   0.89959574   0.15563644
4454.00   1.02005982   0.15357840
4456.00   0.73475438   0.15234941
4458.00   0.79978937   0.15260266
4460.00   1.14513600   0.15458287
4462.00   0.81560153   0.15605125
4464.00   0.91382617   0.15766212
4466.00   0.80929881   0.15756305
4468.00   1.16047883   0.15746623
4470.00   0.87835819   0.15772967
4472.00   1.11654770   0.15906730
4474.00   1.13111818   0.15872139
4476.00   1.29774022   0.15735984
4478.00   1.43158615   0.15409178
4480.00   1.00110614   0.15023544
4482.00   1.39990175   0.15285465
4484.00   1.25300395   0.15500003
4486.00   1.17577660   0.15555914
4488.00   1.38273704   0.15500884
4490.00   1.13673925   0.15424138
4492.00   0.99262822   0.15438536
4494.00   1.14432812   0.15463395
4496.00   1.38436508   0.15621848
4498.00   1.59867084   0.15646148
4500.00   1.05685437   0.15577930
4502.00   1.23560429   0.15665509
4504.00   1.21855140   0.15680227
4506.00   1.27050376   0.15674464
4508.00   1.26705527   0.15579626
4510.00   1.42039084   0.15499237
4512.00   1.54791963   0.15388042
4514.00   1.51051807   0.15236349
4516.00   1.39595509   0.15140328
4518.00   1.62431824   0.15180111
4520.00   1.81491876   0.15135735
4522.00   1.47490811   0.14894532
4524.00   1.39663434   0.14637327
4526.00   1.98573196   0.14529538
4528.00   1.73167872   0.14371249
4530.00   1.60496020   0.14333531
4532.00   1.44214988   0.14270054
4534.00   1.60297942   0.14470868
4536.00   1.93893969   0.14752607
4538.00   2.15503311   0.14876753
4540.00   1.57606030   0.14784324
4542.00   1.79623401   0.14761066
4544.00   1.47750866   0.14586122
4546.00   2.01424193   0.14415662
4548.00   1.75872743   0.14246321
4550.00   2.01882982   0.14293905
4552.00   2.03384614   0.14322770
4554.00   1.75031769   0.14298351
4556.00   2.07638717   0.14434266
4558.00   2.25423622   0.14592129
4560.00   1.90256476   0.14526547
4562.00   1.93186665   0.14412871
4564.00   2.05828357   0.14329685
4566.00   2.10234165   0.14393076
4568.00   2.52715111   0.14447224
4570.00   2.38902521   0.14332519
4572.00   2.47242355   0.14295696
4574.00   2.44045424   0.14288519
4576.00   2.72242212   0.14163110
4578.00   2.76204300   0.13976304
4580.00   2.67776108   0.13786268
4582.00   2.35092211   0.13676393
4584.00   2.59837985   0.13696705
4586.00   3.02508712   0.13932332
4588.00   2.66873550   0.13936840
4590.00   3.01454210   0.13964312
4592.00   2.83117795   0.13807938
4594.00   2.90283990   0.13743225
4596.00   3.05035090   0.13703303
4598.00   3.02666903   0.13667277
4600.00   3.12980366   0.13620684
4602.00   2.96596265   0.13543458
4604.00   2.65146804   0.13526142
4606.00   3.17805099   0.13699484
4608.00   3.29641104   0.13767697
4610.00   3.12099528   0.13753571
4612.00   3.35825229   0.13728946
4614.00   3.07511067   0.13652714
4616.00   3.19273829   0.13709702
4618.00   3.24147916   0.13680686
4620.00   3.42051268   0.13780375
4622.00   3.32643533   0.13713123
4624.00   3.39658475   0.13671786
4626.00   3.41483712   0.13593590
4628.00   3.24143887   0.13473161
4630.00   3.28491664   0.13418408
4632.00   3.59733057   0.13424337
4634.00   3.37779117   0.13354848
4636.00   3.39327168   0.13289759
4638.00   3.64920735   0.13391697
4640.00   3.35736132   0.13394895
4642.00   3.38590121   0.13365394
4644.00   3.53528619   0.13275020
4646.00   3.57110167   0.13231166
4648.00   3.30882144   0.13235621
4650.00   3.56126857   0.13419612
4652.00   3.49513197   0.13444032
4654.00   3.33173347   0.13462262
4656.00   3.23120403   0.13488646
4658.00   3.16881418   0.13537644
4660.00   3.27636719   0.13550496
4662.00   3.43679309   0.13421355
4664.00   3.23377371   0.13086750
4666.00   3.09328985   0.12883714
4668.00   3.12137270   0.12946677
4670.00   3.33845520   0.13041903
4672.00   3.23859382   0.13129325
4674.00   3.04488897   0.13150315
4676.00   3.22287750   0.13080873
4678.00   2.91367984   0.12886883
4680.00   2.89783549   0.12841357
4682.00   2.82197356   0.12842895
4684.00   2.85657573   0.12907073
4686.00   2.79131198   0.12860556
4688.00   2.68306208   0.12792368
4690.00   2.67722178   0.12792058
4692.00   2.84651685   0.12826851
4694.00   2.45424676   0.12769656
4696.00   2.55865216   0.12653837
4698.00   2.51419449   0.12520225
4700.00   2.53093100   0.12373176
4702.00   2.37677383   0.12259111
4704.00   2.08771753   0.12259115
4706.00   2.05922508   0.12261379
4708.00   2.00593114   0.12334373
4710.00   2.05750275   0.12381028
4712.00   2.32135296   0.12386487
4714.00   2.38560963   0.12440752
4716.00   2.11526823   0.12472042
4718.00   2.07945895   0.12485376
4720.00   2.05685925   0.12554094
4722.00   2.03205204   0.12516513
4724.00   2.12562943   0.12490408
4726.00   1.72097814   0.12303942
4728.00   1.83103561   0.12293911
4730.00   1.89461112   0.12274949
4732.00   1.87361562   0.12295051
4734.00   1.89604890   0.12286066
4736.00   1.42661929   0.12157596
4738.00   1.73865879   0.12272968
4740.00   1.67643273   0.12381469
4742.00   1.60000336   0.12376149
4744.00   1.82752287   0.12322325
4746.00   1.82420015   0.12240945
4748.00   1.76217723   0.12123030
4750.00   1.53741336   0.12021579
4752.00   1.24871981   0.11914822
4754.00   1.51649225   0.11888465
4756.00   1.65550280   0.11895279
4758.00   1.56686378   0.11839485
4760.00   1.21142280   0.11708136
4762.00   1.34597135   0.11568018
4764.00   1.17103696   0.11491114
4766.00   1.39155340   0.11529537
4768.00   1.58823121   0.11620770
4770.00   1.29804611   0.11652490
4772.00   1.18873978   0.11608627
4774.00   1.44306934   0.11739246
4776.00   1.65972936   0.11831831
4778.00   1.53490543   0.11939017
4780.00   1.38646734   0.11672317
4782.00   1.45752931   0.11560819
4784.00   1.25368536   0.11409382
4786.00   1.08628547   0.11267707
4788.00   1.25525856   0.11252202
4790.00   1.37593496   0.11282489
4792.00   1.62054932   0.11407452
4794.00   1.42139626   0.11358867
4796.00   1.66066968   0.11285908
4798.00   1.23762631   0.11146139
4800.00   1.39794028   0.11156131
4802.00   1.68863523   0.11197882
4804.00   1.72296882   0.11157428
4806.00   1.82494771   0.11157055
4808.00   1.77029467   0.11084228
4810.00   1.65771151   0.11071570
4812.00   1.66129649   0.11096089
4814.00   1.46922505   0.11078285
4816.00   1.79393339   0.11201976
4818.00   1.83911109   0.11204401
4820.00   1.67739475   0.11096060
4822.00   1.94215333   0.11134474
4824.00   1.96343696   0.11134972
4826.00   1.94963610   0.11101638
4828.00   1.76600671   0.11055999
4830.00   1.85104668   0.11055265
4832.00   1.79038870   0.11046270
4834.00   1.88890362   0.11050787
4836.00   1.93890643   0.11026772
4838.00   1.77883422   0.10951997
4840.00   1.84961188   0.10892365
4842.00   1.84337199   0.10874136
4844.00   1.75199318   0.10869031
4846.00   1.90796816   0.10874588
4848.00   1.82793593   0.10845186
4850.00   1.66524875   0.10748607
4852.00   1.61411619   0.10608764
4854.00   1.71551585   0.10440680
4856.00   1.62741828   0.10184668
4858.00   1.78131390   0.09866945
4860.00   1.68492270   0.09701987
4862.00   1.57955837   0.09822512
4864.00   1.63596857   0.10088638
4866.00   1.51793253   0.10204054
4868.00   1.84773719   0.10277159
4870.00   1.41212916   0.10200889
4872.00   1.59709525   0.10306742
4874.00   1.44003677   0.10311484
4876.00   1.64566910   0.10428932
4878.00   1.77552938   0.10491402
4880.00   1.74032581   0.10477650
4882.00   1.58944535   0.10356481
4884.00   1.67494524   0.10215452
4886.00   1.68431783   0.10092363
4888.00   1.66072941   0.09954351
4890.00   1.77304649   0.10059119
4892.00   1.63441384   0.10202409
4894.00   1.66746652   0.10355067
4896.00   1.84215212   0.10474585
4898.00   1.46872830   0.10409301
4900.00   1.86919343   0.10421585
4902.00   2.00408173   0.10468700
4904.00   1.89852750   0.10468377
4906.00   1.92970252   0.10412020
4908.00   2.04366970   0.10410330
4910.00   2.10263610   0.10411289
4912.00   1.84773123   0.10421295
4914.00   1.98151469   0.10377410
4916.00   2.20483685   0.10250297
4918.00   2.15721416   0.10067358
4920.00   2.30654883   0.10068184
4922.00   2.03268123   0.10106251
4924.00   2.18819523   0.10252491
4926.00   2.42745662   0.10422418
4928.00   2.35185480   0.10422809
4930.00   2.55720472   0.10391045
4932.00   2.50425816   0.10301335
4934.00   2.41590285   0.10224269
4936.00   2.38958502   0.10170329
4938.00   2.64552975   0.10224416
4940.00   2.77950096   0.10320850
4942.00   2.66700339   0.10325332
4944.00   2.74063563   0.10396847
4946.00   2.73436332   0.10410866
4948.00   2.80087256   0.10439593
4950.00   2.81431007   0.10465901
4952.00   2.98041320   0.10440740
4954.00   2.99252105   0.10275137
4956.00   2.96919441   0.10203184
4958.00   2.83410788   0.10222315
4960.00   3.07160711   0.10331097
4962.00   3.09939218   0.10392124
4964.00   3.04895782   0.10361293
4966.00   2.72843623   0.10297794
4968.00   2.95597410   0.10345964
4970.00   2.90744352   0.10392610
4972.00   2.85412025   0.10456967
4974.00   2.95544291   0.10523857
4976.00   2.86698198   0.10520905
4978.00   2.82773685   0.10478803
4980.00   2.90081096   0.10397081
4982.00   2.68301678   0.10296889
4984.00   2.74965119   0.10328406
4986.00   2.41548228   0.10238886
4988.00   2.47122002   0.10203333
4990.00   2.64860773   0.10199819
4992.00   2.35827422   0.10113662
4994.00   2.34178495   0.10047249
4996.00   2.49015617   0.09961639
4998.00   2.33959746   0.09807783
5000.00   2.39354444   0.09710777
5002.00   2.17667198   0.09530093
5004.00   2.24058485   0.09510992
5006.00   2.29168057   0.09521605
5008.00   2.13106918   0.09466921
5010.00   2.01112890   0.09366626
5012.00   2.05597138   0.09287917
5014.00   2.01602530   0.09253003
5016.00   2.02228808   0.09250143
5018.00   1.92563355   0.09195261
5020.00   1.98063576   0.09266065
5022.00   1.72912371   0.09134421
5024.00   1.89504969   0.09123784
5026.00   1.85539198   0.09121986
5028.00   1.79694593   0.09125239
5030.00   1.68049943   0.09149753
5032.00   1.62797105   0.09097696
5034.00   1.65799713   0.09000473
5036.00   1.67964530   0.08874206
5038.00   1.66236877   0.08753388
5040.00   1.66322291   0.08766488
5042.00   1.59663069   0.08841181
5044.00   1.65502250   0.08867966
5046.00   1.44359517   0.08835868
5048.00   1.57626128   0.08830754
5050.00   1.65342379   0.08873168
5052.00   1.72934508   0.08886111
5054.00   1.59592545   0.08907137
5056.00   1.60886884   0.08951674
5058.00   1.67325938   0.09016472
5060.00   1.63848913   0.09029055
5062.00   1.59706509   0.09010560
5064.00   1.55544376   0.08960263
5066.00   1.39360273   0.08966708
5068.00   1.72267497   0.09051121
5070.00   1.58989573   0.09010130
5072.00   1.70356798   0.08964952
5074.00   1.50137031   0.08900534
5076.00   1.56716883   0.08868483
5078.00   1.56894445   0.08940925
5080.00   1.32374024   0.09055109
5082.00   1.43748283   0.09236284
5084.00   1.41837144   0.09294669
5086.00   1.54929376   0.09306987
5088.00   1.52780306   0.09194620
5090.00   1.62029004   0.09099132
5092.00   1.38974869   0.08966051
5094.00   1.36870110   0.08906666
5096.00   1.34734321   0.08863186
5098.00   1.52733290   0.08879388
5100.00   1.56651568   0.08891098
5102.00   1.43926740   0.08814102
5104.00   1.43252778   0.08764686
5106.00   1.30186856   0.08698993
5108.00   1.52402472   0.08761151
5110.00   1.55710983   0.08782963
5112.00   1.44520307   0.08813860
5114.00   1.47373915   0.08862015
5116.00   1.63677371   0.08888849
5118.00   1.39711559   0.08761180
5120.00   1.50003791   0.08737539
5122.00   1.53095937   0.08638131
5124.00   1.41585898   0.08573355
5126.00   1.54831886   0.08594895
5128.00   1.41319489   0.08555900
5130.00   1.53818345   0.08628270
5132.00   1.33491099   0.08569413
5134.00   1.49424291   0.08608942
5136.00   1.47566354   0.08549500
5138.00   1.51938701   0.08501274
5140.00   1.55265248   0.08493365
5142.00   1.38893747   0.08450242
5144.00   1.54838717   0.08528155
5146.00   1.56029367   0.08593897
5148.00   1.44879651   0.08586947
5150.00   1.51677775   0.08642264
5152.00   1.37743342   0.08610743
5154.00   1.45420587   0.08649056
5156.00   1.43700039   0.08621968
5158.00   1.39152706   0.08562070
5160.00   1.45361745   0.08466476
5162.00   1.43064213   0.08274765
5164.00   1.50858474   0.08084176
5166.00   1.52982640   0.07953054
5168.00   1.33698082   0.07811059
5170.00   1.27027607   0.07720693
5172.00   1.40530241   0.07876129
5174.00   1.47412527   0.08074846
5176.00   1.54514718   0.08229490
5178.00   1.34864450   0.08078223
5180.00   1.51162338   0.07911425
5182.00   1.64528024   0.07893870
5184.00   1.36585629   0.07875672
5186.00   1.44506192   0.07944429
5188.00   1.45443058   0.08002808
5190.00   1.38901746   0.08023421
5192.00   1.50143242   0.08109736
5194.00   1.56206512   0.08228766
5196.00   1.65585089   0.08354122
5198.00   1.65277040   0.08387888
5200.00   1.57031107   0.08551291
5202.00   1.73395169   0.08784261
5204.00   1.72230721   0.08121347
5206.00   1.71792972   0.08097111
5208.00   1.66872799   0.08097370
5210.00   1.65859461   0.08138416
5212.00   1.69226182   0.08129697
5214.00   1.57874727   0.08069719
5216.00   1.77695215   0.08150470
5218.00   1.78400505   0.08181710
5220.00   1.88488638   0.08155032
5222.00   1.83593559   0.08076076
5224.00   1.70298862   0.07936779
5226.00   1.74731541   0.07933168
5228.00   1.79055333   0.07938579
5230.00   1.86254168   0.07926512
5232.00   1.72848868   0.07874312
5234.00   2.06188822   0.08033065
5236.00   1.81293976   0.08034378
5238.00   1.90276444   0.08063737
5240.00   1.98833239   0.08065669
5242.00   2.08072090   0.08061945
5244.00   1.85381758   0.07967965
5246.00   1.91256666   0.07919753
5248.00   1.90013266   0.07890312
5250.00   2.12093472   0.07910265
5252.00   2.07717347   0.07921118
5254.00   2.24366307   0.07976287
5256.00   2.19049454   0.07979652
5258.00   2.10225129   0.07897513
5260.00   2.25216913   0.07817552
5262.00   2.28377581   0.07669400
5264.00   2.21478128   0.07593957
5266.00   2.30445123   0.07544181
5268.00   2.16991472   0.07488726
5270.00   2.13938737   0.07499993
5272.00   2.13636184   0.07542547
5274.00   2.38428211   0.07680021
5276.00   2.33565044   0.07728848
5278.00   2.31529784   0.07709644
5280.00   2.33312774   0.07682435
5282.00   2.30045772   0.07713819
5284.00   2.40420699   0.07751084
5286.00   2.40257525   0.07773940
5288.00   2.33118534   0.07772547
5290.00   2.31285048   0.07774217
5292.00   2.36075306   0.07754386
5294.00   2.48728132   0.07716987
5296.00   2.54740334   0.07682543
5298.00   2.38370204   0.07644372
5300.00   2.43439531   0.07679425
5302.00   2.58713150   0.07735603
5304.00   2.59386969   0.07726681
5306.00   2.48237228   0.07741679
5308.00   2.53190160   0.07751322
5310.00   2.81800056   0.07832871
5312.00   2.71008301   0.07765941
5314.00   2.76822209   0.07756931
5316.00   2.68135071   0.07703929
5318.00   2.66352582   0.07690034
5320.00   2.80970025   0.07662828
5322.00   2.65646863   0.07628294
5324.00   2.77916980   0.07576695
5326.00   2.78462815   0.07574449
5328.00   2.63753247   0.07571820
5330.00   2.66433764   0.07616793
5332.00   2.76597643   0.07667917
5334.00   2.84035420   0.07708441
5336.00   2.78405809   0.07696732
5338.00   2.71522856   0.07697838
5340.00   2.74032283   0.07723634
5342.00   2.66270137   0.07690027
5344.00   2.70889950   0.07736535
5346.00   2.73567104   0.07807682
5348.00   2.78342795   0.07820591
5350.00   2.88764906   0.07876021
5352.00   2.83314610   0.07921807
5354.00   2.72100043   0.07894637
5356.00   2.72549057   0.07877047
5358.00   2.73754549   0.07868411
5360.00   2.71591306   0.07787552
5362.00   2.60235596   0.07714843
5364.00   2.59264255   0.07630406
5366.00   2.68981361   0.07609025
5368.00   2.70154500   0.07575111
5370.00   2.68702674   0.07627580
5372.00   2.71389103   0.07719585
5374.00   2.60541487   0.07733341
5376.00   2.59192872   0.07719479
5378.00   2.59340811   0.07712516
5380.00   2.49961042   0.07681625
5382.00   2.58189034   0.07696850
5384.00   2.47134542   0.07682892
5386.00   2.42893720   0.07698228
5388.00   2.55989122   0.07748058
5390.00   2.52607989   0.07747576
5392.00   2.62365365   0.07771736
5394.00   2.75610304   0.07779919
5396.00   2.81679630   0.07820914
5398.00   2.76500177   0.07802673
5400.00   2.76784921   0.07808325
5402.00   2.70820284   0.07787199
5404.00   2.73770118   0.07819212
5406.00   2.83305502   0.07889659
5408.00   2.66062260   0.07902656
5410.00   2.73812866   0.07965425
5412.00   2.88444591   0.08124294
5414.00   2.81483579   0.08181770
5416.00   3.02116489   0.08313698
5418.00   2.85082316   0.08275239
5420.00   2.75929403   0.08294454
5422.00   3.00349212   0.08394428
5424.00   2.89317203   0.08384189
5426.00   2.98743057   0.08380476
5428.00   2.88076353   0.08399780
5430.00   2.98704147   0.08435003
5432.00   2.92893577   0.08426392
5434.00   2.89373827   0.08494404
5436.00   2.94070864   0.08613864
5438.00   3.28831291   0.08763277
5440.00   3.19170809   0.08789943
5442.00   3.01993299   0.08795609
5444.00   3.29518056   0.08919390
5446.00   3.05148292   0.08934052
5448.00   3.15810585   0.09004636
5450.00   2.96697259   0.09031865
5452.00   3.04030609   0.09101900
5454.00   3.06880212   0.09522828
5456.00   3.17264557   0.10773195
5458.00   3.24378490   0.11648516
5460.00   3.45261478   0.11622070
5462.00   3.55034280   0.11228617
5464.00   3.57218885   0.10834659
5466.00   3.58448863   0.10381312
5468.00   3.48944426   0.09990004
5470.00   3.64637232   0.09783148
5472.00   3.57287931   0.09572380
5474.00   3.62109137   0.09450191
5476.00   3.54496431   0.09420071
5478.00   3.72844052   0.09578604
5480.00   3.76636839   0.09670363
5482.00   3.69099379   0.09682784
5484.00   3.72632122   0.09661486
5486.00   3.64444637   0.09578411
5488.00   3.76953173   0.09527176
5490.00   3.63608599   0.09498063
5492.00   3.59122753   0.09427541
5494.00   3.60252380   0.09424909
5496.00   3.84224224   0.09487434
5498.00   3.85710859   0.09484406
5500.00   3.94314885   0.09522744
5502.00   3.90614915   0.09513465
5504.00   3.97338200   0.09505814
5506.00   4.17598867   0.09531312
5508.00   4.11645699   0.09566190
5510.00   4.14787340   0.09611842
5512.00   4.09803247   0.09659620
5514.00   4.05328655   0.09624518
5516.00   4.00930405   0.09652802
5518.00   4.11436844   0.09702332
5520.00   3.90293193   0.09594008
5522.00   4.13686037   0.09632552
5524.00   4.02324533   0.09564121
5526.00   4.19191313   0.09523106
5528.00   4.11308956   0.09474468
5530.00   4.17787313   0.09444617
5532.00   4.09820175   0.09424323
5534.00   4.12662363   0.09444354
5536.00   4.26815701   0.09501595
5538.00   4.19704676   0.09556592
5540.00   4.23039341   0.09546251
5542.00   4.06960917   0.09549465
5544.00   4.33787870   0.09667891
5546.00   4.23613691   0.09647994
5548.00   4.28216791   0.09694910
5550.00   4.41867590   0.09697293
5552.00   4.20985937   0.09616062
5554.00   3.82625055   0.09536405
5556.00   4.17219687   0.09632982
5558.00   4.17717123   0.09670620
5560.00   4.20652723   0.09660767
5562.00   4.10843563   0.09675685
5564.00   4.14264154   0.09626393
5566.00   4.09558392   0.09596042
5568.00   4.17443609   0.09662521
5570.00   4.30357027   0.10133472
5572.00   3.84780073   0.12724562
5574.00   4.15314627   0.18464412
5576.00   4.21227884   0.19006605
5578.00   4.19671679   0.18935776
5580.00   4.27080393   0.18486591
5582.00   4.14953327   0.17324960
5584.00   3.95461106   0.15700398
5586.00   3.80541539   0.14186795
5588.00   3.89488697   0.13399088
5590.00   3.86537862   0.13195617
5592.00   3.77244163   0.13087757
5594.00   3.73358035   0.12965588
5596.00   3.72696686   0.12837356
5598.00   3.78316116   0.12778896
5600.00   3.81542301   0.12700669
5602.00   3.84703517   0.12622772
5604.00   3.80222106   0.12543382
5606.00   3.68823123   0.12476065
5608.00   3.68080354   0.12535624
5610.00   3.69285774   0.12345478
5612.00   3.66120052   0.12137753
5614.00   3.63313222   0.12044767
5616.00   3.61249423   0.11998892
5618.00   3.61423683   0.11879748
5620.00   3.56553769   0.11836717
5622.00   3.54123378   0.11875276
5624.00   3.57939649   0.11911372
5626.00   3.31821084   0.11719417
5628.00   3.31244755   0.11552676
5630.00   3.45442033   0.11651241
5632.00   3.44277954   0.11626873
5634.00   3.26273751   0.11437596
5636.00   3.13744998   0.11351184
5638.00   3.10676765   0.11330254
5640.00   3.11780262   0.11282078
5642.00   3.15980053   0.11246884
5644.00   3.19929695   0.11272300
5646.00   3.08511925   0.11296818
5648.00   2.98718953   0.11303589
5650.00   3.01578712   0.11302961
5652.00   2.92250800   0.11196252
5654.00   2.75217605   0.11100093
5656.00   2.81138349   0.11215880
5658.00   2.74723434   0.11090643
5660.00   2.67349315   0.10945801
5662.00   2.72828555   0.10966724
5664.00   2.85178208   0.11124543
5666.00   2.76371956   0.11209597
5668.00   2.62407470   0.11155031
5670.00   2.59139085   0.11146128
5672.00   2.60172367   0.11192409
5674.00   2.50771976   0.11147484
5676.00   2.51478219   0.11072292
5678.00   2.48362803   0.11009220
5680.00   2.40927196   0.11011460
5682.00   2.39762855   0.11121102
5684.00   2.48503923   0.11325869
5686.00   2.43272829   0.11225513
5688.00   2.34066176   0.11068978
5690.00   2.30150080   0.10944965
5692.00   2.41255116   0.10742074
5694.00   2.38827825   0.10281578
5696.00   2.29412508   0.09977185
5698.00   2.27957678   0.09742943
5700.00   2.34189868   0.09543443
5702.00   2.32581973   0.09392572
5704.00   2.24463773   0.09240436
5706.00   2.24317741   0.09110543
5708.00   2.26496291   0.08978005
5710.00   2.25427914   0.08904821
5712.00   2.26292920   0.08973888
5714.00   2.19243407   0.08892342
5716.00   2.19943452   0.08811065
5718.00   2.21062636   0.08764421
5720.00   2.14638114   0.08695137
5722.00   2.07324791   0.08592113
5724.00   2.06518316   0.08573049
5726.00   2.06987715   0.08520996
5728.00   2.07279921   0.08430991
5730.00   2.05448461   0.08347630
5732.00   1.99829674   0.08369223
5734.00   2.04610682   0.08348794
5736.00   2.03224516   0.08304442
5738.00   1.99195611   0.08230992
5740.00   2.06333756   0.08199956
5742.00   2.08496070   0.08278932
5744.00   2.16401696   0.08313081
5746.00   2.18213868   0.08282480
5748.00   2.19053364   0.08246781
5750.00   2.24022102   0.08242231
5752.00   2.28063846   0.08317189
5754.00   2.30351472   0.08350163
5756.00   2.32142973   0.08404923
5758.00   2.27897930   0.08449197
5760.00   2.31431127   0.08495256
5762.00   2.31667686   0.08642223
5764.00   2.38218904   0.08846698
5766.00   2.40083861   0.08976597
5768.00   2.35938120   0.09018015
5770.00   2.36913085   0.09049377
5772.00   2.48606443   0.09029486
5774.00   2.51424599   0.08924541
5776.00   2.50476074   0.08759079
5778.00   2.48023796   0.08574522
5780.00   2.56358051   0.08544394
5782.00   2.65797710   0.08610629
5784.00   2.66563821   0.08730196
5786.00   2.65643024   0.08881927
5788.00   2.69213080   0.09027859
5790.00   2.65563798   0.09068030
5792.00   2.79132271   0.09154934
5794.00   2.86484718   0.09117030
5796.00   2.88145518   0.08945362
5798.00   2.85921311   0.08737721
5800.00   2.94488311   0.08634862
5802.00   3.02143645   0.08592107
5804.00   3.00000787   0.08539713
5806.00   2.94777036   0.08496263
5808.00   2.96037030   0.08500987
5810.00   3.05269051   0.08536765
5812.00   3.08139873   0.08583457
5814.00   3.13306904   0.08626910
5816.00   3.21595311   0.08670958
5818.00   3.24928284   0.08709896
5820.00   3.24486256   0.08692547
5822.00   3.20175242   0.08659881
5824.00   3.19062924   0.08674926
5826.00   3.25066113   0.08710349
5828.00   3.23151946   0.08695623
5830.00   3.26144052   0.08715045
5832.00   3.28203464   0.08715136
5834.00   3.25415921   0.08687449
5836.00   3.23444247   0.08697906
5838.00   3.26022220   0.08750746
5840.00   3.27499366   0.08806199
5842.00   3.32966971   0.08820999
5844.00   3.39352989   0.08805542
5846.00   3.42953491   0.08804309
5848.00   3.45630145   0.08840874
5850.00   3.47291064   0.08876088
5852.00   3.43756747   0.08871917
5854.00   3.42475891   0.08860872
5856.00   3.38316917   0.08855724
5858.00   3.34272313   0.08874188
5860.00   3.39186287   0.08939835
5862.00   3.44938350   0.09021860
5864.00   3.44314265   0.09069557
5866.00   3.39472270   0.09034449
5868.00   3.34202266   0.09097868
5870.00   3.35793877   0.09097123
5872.00   3.33981061   0.09022332
5874.00   3.31951547   0.08979952
5876.00   3.34296036   0.08941916
5878.00   3.32356644   0.08936238
5880.00   3.30167031   0.09098864
5882.00   3.25552273   0.09428988
5884.00   3.18463492   0.09900597
5886.00   3.17445254   0.10634109
5888.00   3.17546272   0.11343455
5890.00   3.15485382   0.11873633
5892.00   3.16260076   0.12184962
5894.00   3.16744542   0.12201416
5896.00   3.06583571   0.11662993
5898.00   3.09870148   0.10985053
5900.00   3.17836308   0.10287774
5902.00   3.21783733   0.09611788
5904.00   3.20491028   0.09063207
5906.00   3.14122653   0.08771937
5908.00   3.06245208   0.08698476
5910.00   3.06696439   0.08718466
5912.00   3.10468841   0.08729849
5914.00   3.04121661   0.08669130
5916.00   2.94823647   0.08638012
5918.00   2.99995804   0.08675942
5920.00   2.98682594   0.08681681
5922.00   2.93766975   0.08661208
5924.00   2.97133541   0.08719647
5926.00   2.98034692   0.08724064
5928.00   2.95167089   0.08715009
5930.00   2.91594720   0.08725820
5932.00   2.91339397   0.08720533
5934.00   2.91691327   0.08682436
5936.00   2.86277747   0.08618500
5938.00   2.80652332   0.08549716
5940.00   2.77670002   0.08490077
5942.00   2.77689433   0.08457597
5944.00   2.77263570   0.08421090
5946.00   2.80722046   0.08434816
5948.00   2.78049397   0.08424932
5950.00   2.73850799   0.08376233
5952.00   2.73745346   0.08323770
5954.00   2.65361238   0.08272399
5956.00   2.66859341   0.08252539
5958.00   2.67919612   0.08224090
5960.00   2.66536617   0.08184413
5962.00   2.56823063   0.08127788
5964.00   2.55954432   0.08119599
5966.00   2.56836224   0.08114561
5968.00   2.57667351   0.08092598
5970.00   2.52989459   0.08045455
5972.00   2.50403523   0.08030767
5974.00   2.44219804   0.08005339
5976.00   2.37177920   0.07929306
5978.00   2.30409026   0.07838061
5980.00   2.27517676   0.07788102
5982.00   2.28498173   0.07793358
5984.00   2.28066325   0.07723489
5986.00   2.23576164   0.07673336
5988.00   2.18758106   0.07651579
5990.00   2.15431404   0.07597499
5992.00   2.15334153   0.07601657
5994.00   2.09005666   0.07606935
5996.00   2.06194949   0.07597113
5998.00   2.10123634   0.07565102
6000.00   2.07198548   0.07520122
6002.00   2.05237389   0.07505710
6004.00   2.05477881   0.07501492
6006.00   2.03413868   0.07455429
6008.00   1.98727071   0.07356701
6010.00   1.99883521   0.07263564
6012.00   1.95969379   0.07267037
6014.00   1.93176687   0.07245998
6016.00   1.95024359   0.07213924
6018.00   1.93109667   0.07186804
6020.00   1.91355908   0.07182805
6022.00   1.92417777   0.07201333
6024.00   1.95045602   0.07164190
6026.00   1.94935191   0.07128218
6028.00   1.90807664   0.07168898
6030.00   1.87753594   0.07130564
6032.00   1.82254469   0.07117949
6034.00   1.82636774   0.07148007
6036.00   1.86416876   0.07155424
6038.00   1.83582270   0.07103942
6040.00   1.86337566   0.07095249
6042.00   1.88959539   0.07060944
6044.00   1.86223590   0.07030699
6046.00   1.82749522   0.07032438
6048.00   1.83815157   0.07021335
6050.00   1.86580276   0.06971662
6052.00   1.82237720   0.06910381
6054.00   1.79876554   0.06892037
6056.00   1.84974945   0.06918570
6058.00   1.88427067   0.06931588
6060.00   1.79755247   0.06869617
6062.00   1.81163502   0.06859766
6064.00   1.87520885   0.06882842
6066.00   1.87954080   0.06885544
6068.00   1.82039416   0.06854622
6070.00   1.73523486   0.06814693
6072.00   1.71736753   0.06795484
6074.00   1.76110613   0.06805236
6076.00   1.75917757   0.06797170
6078.00   1.70709479   0.06768965
6080.00   1.71577847   0.06752551
6082.00   1.72306311   0.06750306
6084.00   1.72745168   0.06754638
6086.00   1.74156380   0.06750026
6088.00   1.78147984   0.06763930
6090.00   1.74701929   0.06752369
6092.00   1.69864464   0.06732649
6094.00   1.70920980   0.06741718
6096.00   1.75498855   0.06782132
6098.00   1.73968852   0.06804067
6100.00   1.77269876   0.06852859
6102.00   1.76860809   0.06896058
6104.00   1.72518969   0.06946196
6106.00   1.70051384   0.07030103
6108.00   1.72127950   0.07167975
6110.00   1.74975538   0.07294907
6112.00   1.73827314   0.07356914
6114.00   1.70786345   0.07341750
6116.00   1.75291860   0.07298487
6118.00   1.79634106   0.07220888
6120.00   1.76623404   0.07082837
6122.00   1.71380377   0.06934202
6124.00   1.67007625   0.06832159
6126.00   1.72856903   0.06796432
6128.00   1.73963690   0.06751651
6130.00   1.72249925   0.06715792
6132.00   1.74944532   0.06716421
6134.00   1.81483030   0.06732993
6136.00   1.80089569   0.06728636
6138.00   1.75216949   0.06716766
6140.00   1.71986115   0.06716443
6142.00   1.72801960   0.06727984
6144.00   1.66803694   0.06696334
6146.00   1.68463099   0.06688008
6148.00   1.70020187   0.06696556
6150.00   1.69950867   0.06715555
6152.00   1.68816507   0.06745169
6154.00   1.70308685   0.06765512
6156.00   1.71215069   0.06794288
6158.00   1.65041888   0.06790099
6160.00   1.62373590   0.06765505
6162.00   1.67752457   0.06735560
6164.00   1.63902283   0.06646008
6166.00   1.57985449   0.06547284
6168.00   1.55383193   0.06462133
6170.00   1.57534504   0.06409467
6172.00   1.57102966   0.06371162
6174.00   1.57047498   0.06351760
6176.00   1.54185784   0.06313727
6178.00   1.51891601   0.06274866
6180.00   1.51497519   0.06252179
6182.00   1.52306688   0.06249021
6184.00   1.46666014   0.06222329
6186.00   1.46393442   0.06209449
6188.00   1.52372456   0.06224985
6190.00   1.51699173   0.06232086
6192.00   1.50981247   0.06224253
6194.00   1.50233781   0.06231745
6196.00   1.46587622   0.06224612
6198.00   1.45908153   0.06226650
6200.00   1.47831213   0.06240422
6202.00   1.54742098   0.06276212
6204.00   1.60288143   0.06315157
6206.00   1.61341667   0.06331905
6208.00   1.59565020   0.06317673
6210.00   1.63356102   0.06325801
6212.00   1.67612422   0.06337526
6214.00   1.76114094   0.06354865
6216.00   1.79478204   0.06348134
6218.00   1.78411293   0.06328697
6220.00   1.82589877   0.06338152
6222.00   1.86205685   0.06353384
6224.00   1.85019219   0.06341370
6226.00   1.82649267   0.06312623
6228.00   1.84830475   0.06315050
6230.00   1.86376095   0.06380332
6232.00   1.94212306   0.06521207
6234.00   1.95294034   0.06629635
6236.00   1.95321083   0.06698851
6238.00   1.99563694   0.06735123
6240.00   1.99459708   0.06710150
6242.00   1.95016718   0.06577560
6244.00   1.92671144   0.06435926
6246.00   1.96473563   0.06353046
6248.00   2.03202295   0.06331113
6250.00   1.94760144   0.06296844
6252.00   1.87664509   0.06322268
6254.00   1.93871880   0.06451222
6256.00   2.03567338   0.06572390
6258.00   2.02079439   0.06584368
6260.00   1.97390258   0.06582246
6262.00   2.00058818   0.06562494
6264.00   2.00799108   0.06464180
6266.00   1.93570292   0.06330772
6268.00   1.86339426   0.06310368
6270.00   1.92254794   0.06349587
6272.00   1.88322461   0.06279419
6274.00   1.80646360   0.06214525
6276.00   1.82495201   0.06244884
6278.00   1.82847166   0.06242814
6280.00   1.83277714   0.06321809
6282.00   1.80624235   0.06354881
6284.00   1.78046417   0.06337148
6286.00   1.79068482   0.06339701
6288.00   1.77448714   0.06373983
6290.00   1.71506917   0.06364997
6292.00   1.63871133   0.06640941
6294.00   1.61636937   0.07480299
6296.00   1.63670886   0.08733825
6298.00   1.70441532   0.09775040
6300.00   1.69402945   0.10095944
6302.00   1.65491545   0.10005791
6304.00   1.70571077   0.09524874
6306.00   1.72368896   0.08412585
6308.00   1.61334527   0.07102860
6310.00   1.65609741   0.06394033
6312.00   1.71577263   0.06140475
6314.00   1.69977534   0.05999690
6316.00   1.66423547   0.05897400
6318.00   1.73181629   0.05939588
6320.00   1.75958788   0.05949530
6322.00   1.72435534   0.05934273
6324.00   1.67799950   0.05952154
6326.00   1.70277870   0.06027508
6328.00   1.74318445   0.06055756
6330.00   1.76207483   0.06044121
6332.00   1.74257088   0.06020503
6334.00   1.73621237   0.06003569
6336.00   1.74137402   0.05933188
6338.00   1.73280203   0.05831493
6340.00   1.73072112   0.05782099
6342.00   1.75074577   0.05802928
6344.00   1.76575279   0.05838388
6346.00   1.75960028   0.05872606
6348.00   1.79317760   0.05897423
6350.00   1.84034693   0.05917494
6352.00   1.83803451   0.05940974
6354.00   1.80504930   0.05986781
6356.00   1.83525670   0.06132953
6358.00   1.85617387   0.06532922
6360.00   1.82141459   0.06938230
6362.00   1.83524096   0.07165613
6364.00   1.87997782   0.07201508
6366.00   1.89721775   0.07114902
6368.00   1.92939186   0.06846016
6370.00   1.94727373   0.06413824
6372.00   1.97093832   0.06003336
6374.00   2.01428437   0.05864990
6376.00   2.07731438   0.05896512
6378.00   2.06791425   0.05916859
6380.00   2.02348256   0.05913195
6382.00   2.04301333   0.05942331
6384.00   2.05670476   0.05948522
6386.00   2.08397865   0.05949428
6388.00   2.10818386   0.05933039
6390.00   2.12437320   0.05907491
6392.00   2.15648437   0.05896787
6394.00   2.18187165   0.05881017
6396.00   2.21637225   0.05884400
6398.00   2.21260309   0.05898315
6400.00   2.21580863   0.05912966
6402.00   2.23587632   0.05911937
6404.00   2.28214931   0.05920400
6406.00   2.31872821   0.05932977
6408.00   2.33969784   0.05942661
6410.00   2.33631778   0.05935870
6412.00   2.36985683   0.05950813
6414.00   2.41943479   0.05983913
6416.00   2.44739699   0.05998789
6418.00   2.44294477   0.05992780
6420.00   2.45304585   0.05979846
6422.00   2.43635774   0.05958072
6424.00   2.48445225   0.05977931
6426.00   2.52881241   0.05997466
6428.00   2.54437327   0.05993588
6430.00   2.60687089   0.06007328
6432.00   2.61301446   0.06004251
6434.00   2.60408807   0.06008850
6436.00   2.66000271   0.06032771
6438.00   2.75227618   0.06068737
6440.00   2.74268985   0.06055839
6442.00   2.70752239   0.06040897
6444.00   2.69404221   0.06050880
6446.00   2.68062115   0.06056494
6448.00   2.71044159   0.06076847
6450.00   2.84455228   0.06164782
6452.00   2.90162683   0.06162770
6454.00   2.85634303   0.06125879
6456.00   2.83832574   0.06127368
6458.00   2.85811901   0.06170623
6460.00   2.87268829   0.06245400
6462.00   2.92725682   0.06333848
6464.00   2.98997092   0.06403486
6466.00   3.01111341   0.06426705
6468.00   3.02362347   0.06429773
6470.00   3.02516818   0.06404138
6472.00   3.00977802   0.06418516
6474.00   3.01845098   0.06418461
6476.00   3.01092887   0.06362084
6478.00   3.04771304   0.06292520
6480.00   3.09457183   0.06241984
6482.00   3.13120770   0.06248710
6484.00   3.13641763   0.06241421
6486.00   3.15007663   0.06221588
6488.00   3.16162372   0.06223788
6490.00   3.14792848   0.06206537
6492.00   3.16253877   0.06237154
6494.00   3.20084882   0.06325930
6496.00   3.23213696   0.06429419
6498.00   3.25966072   0.06500313
6500.00   3.26643825   0.06543923
6502.00   3.25974178   0.06544980
6504.00   3.28757453   0.06503888
6506.00   3.30083537   0.06430905
6508.00   3.30426025   0.06405997
6510.00   3.30411983   0.06357734
6512.00   3.27682996   0.06303280
6514.00   3.26076889   0.06270266
6516.00   3.25163770   0.06255931
6518.00   3.26911092   0.06284568
6520.00   3.24081826   0.06270684
6522.00   3.28015828   0.06285312
6524.00   3.32982063   0.06319802
6526.00   3.33198047   0.06334829
6528.00   3.33359456   0.06418971
6530.00   3.35387516   0.06448307
6532.00   3.30906415   0.06425726
6534.00   3.30505443   0.06429783
6536.00   3.35939670   0.06427184
6538.00   3.31548500   0.06363430
6540.00   3.28546047   0.06282562
6542.00   3.26319218   0.06228109
6544.00   3.23714757   0.06206974
6546.00   3.20920563   0.06200905
6548.00   3.26563478   0.06250254
6550.00   3.27747989   0.06295507
6552.00   3.22523046   0.06297872
6554.00   3.17682648   0.06266545
6556.00   3.18416286   0.06250814
6558.00   3.25197244   0.06206344
6560.00   3.26433444   0.06137712
6562.00   3.20062184   0.06102777
6564.00   3.17108798   0.06135027
6566.00   3.18076324   0.06082971
6568.00   3.15169883   0.06132856
6570.00   3.11065221   0.06180776
6572.00   3.07690978   0.06237621
6574.00   3.11137295   0.06379682
6576.00   3.12439036   0.06389990
6578.00   3.09951186   0.06353847
6580.00   3.10027814   0.06285229
6582.00   3.12034440   0.06189160
6584.00   3.06481552   0.06088544
6586.00   3.08475661   0.06032057
6588.00   3.09160066   0.06005849
6590.00   3.08312225   0.05997266
6592.00   3.05323863   0.05991289
6594.00   2.98540425   0.05964601
6596.00   2.91891742   0.05926410
6598.00   2.90020061   0.05919892
6600.00   2.88263059   0.05931078
6602.00   2.85412526   0.05938103
6604.00   2.86036110   0.05915469
6606.00   2.83071899   0.05888064
6608.00   2.77810693   0.05846983
6610.00   2.75397778   0.05805279
6612.00   2.79768181   0.05789879
6614.00   2.80346966   0.05775777
6616.00   2.76471829   0.05744718
6618.00   2.72232628   0.05721872
6620.00   2.70828247   0.05718909
6622.00   2.70273089   0.05723045
6624.00   2.66347289   0.05715955
6626.00   2.59730983   0.05688583
6628.00   2.56509519   0.05665492
6630.00   2.56541610   0.05659284
6632.00   2.58433557   0.05662749
6634.00   2.55329609   0.05638871
6636.00   2.50526261   0.05609061
6638.00   2.46711564   0.05578933
6640.00   2.48840594   0.05569942
6642.00   2.47693896   0.05554573
6644.00   2.46059680   0.05532996
6646.00   2.42270350   0.05509120
6648.00   2.37614512   0.05498416
6650.00   2.31570458   0.05487499
6652.00   2.30579209   0.05469380
6654.00   2.29722667   0.05461177
6656.00   2.25741220   0.05442785
6658.00   2.23213577   0.05424580
6660.00   2.18918228   0.05408357
6662.00   2.12158751   0.05386041
6664.00   2.06116271   0.05349201
6666.00   2.08506107   0.05370538
6668.00   2.11729693   0.05407710
6670.00   2.07204986   0.05359049
6672.00   2.06430316   0.05328323
6674.00   2.06954169   0.05312769
6676.00   2.03906465   0.05288766
6678.00   1.96795845   0.05256578
6680.00   1.95302618   0.05252462
6682.00   1.98472536   0.05258666
6684.00   1.95012915   0.05242839
6686.00   1.87970412   0.05215249
6688.00   1.83532488   0.05193648
6690.00   1.80911314   0.05170375
6692.00   1.76262748   0.05149666
6694.00   1.76492608   0.05150409
6696.00   1.77738667   0.05152366
6698.00   1.73267651   0.05137688
6700.00   1.70899832   0.05129327
6702.00   1.74352300   0.05165685
6704.00   1.75152493   0.05188113
6706.00   1.70804441   0.05179027
6708.00   1.64922714   0.05148652
6710.00   1.64150369   0.05135599
6712.00   1.63650668   0.05123681
6714.00   1.60200787   0.05081695
6716.00   1.57034445   0.05034298
6718.00   1.54020107   0.05006866
6720.00   1.52510297   0.04986398
6722.00   1.53456354   0.04982142
6724.00   1.54385650   0.04981143
6726.00   1.53387010   0.04969648
6728.00   1.52224052   0.04964402
6730.00   1.49756289   0.04955860
6732.00   1.44112873   0.04925424
6734.00   1.43034303   0.04916054
6736.00   1.44170725   0.04935166
6738.00   1.45243168   0.04945701
6740.00   1.40880489   0.04922710
6742.00   1.38105047   0.04909845
6744.00   1.37160778   0.04895372
6746.00   1.33314562   0.04888543
6748.00   1.33861125   0.04915854
6750.00   1.33522129   0.04906969
6752.00   1.30976450   0.04864620
6754.00   1.28915572   0.04815197
6756.00   1.28186762   0.04803164
6758.00   1.27780366   0.04804319
6760.00   1.22274220   0.04775439
6762.00   1.20431852   0.04757658
6764.00   1.22272205   0.04761611
6766.00   1.20146382   0.04738848
6768.00   1.19410551   0.04734787
6770.00   1.19263268   0.04733747
6772.00   1.19536769   0.04738450
6774.00   1.19540536   0.04728701
6776.00   1.19115448   0.04722220
6778.00   1.15267372   0.04712008
6780.00   1.16027677   0.04718088
6782.00   1.15661848   0.04710884
6784.00   1.12012231   0.04693492
6786.00   1.14220369   0.04702077
6788.00   1.16118801   0.04697140
6790.00   1.16776013   0.04699351
6792.00   1.14368308   0.04689056
6794.00   1.09948361   0.04655209
6796.00   1.06893194   0.04631936
6798.00   1.06573391   0.04629783
6800.00   1.10366976   0.04648859
6802.00   1.12976599   0.04656739
6804.00   1.09502733   0.04631007
6806.00   1.08135474   0.04621278
6808.00   1.07282722   0.04622227
6810.00   1.05988324   0.04618257
6812.00   1.05229902   0.04609933
6814.00   1.06729877   0.04621425
6816.00   1.04813993   0.04614954
6818.00   1.05462313   0.04614532
6820.00   1.08491743   0.04643485
6822.00   1.08392870   0.04709481
6824.00   1.03836906   0.04828073
6826.00   1.04153991   0.04997266
6828.00   1.05574644   0.05162914
6830.00   1.04136503   0.05288690
6832.00   1.03702009   0.05351796
6834.00   1.05190873   0.05268411
6836.00   1.04559290   0.05116798
6838.00   1.06658602   0.05024061
6840.00   1.06919205   0.04931946
6842.00   1.06498992   0.04753635
6844.00   1.05300176   0.04671216
6846.00   1.09844744   0.04677333
6848.00   1.10926116   0.04664309
6850.00   1.07010424   0.04612918
6852.00   1.03990316   0.04579268
6854.00   1.04120731   0.04591812
6856.00   1.03137493   0.04651241
6858.00   1.03372645   0.04829804
6860.00   1.08602321   0.05120651
6862.00   1.09383655   0.05400625
6864.00   1.03269875   0.05597493
6866.00   0.99852818   0.05897423
6868.00   1.04358232   0.06161192
6870.00   1.10559654   0.06179725
6872.00   1.07808411   0.05864458
6874.00   1.10168970   0.05560130
6876.00   1.14013362   0.05287699
6878.00   1.14956939   0.05088447
6880.00   1.10366023   0.05021780
6882.00   1.05758476   0.04979282
6884.00   1.05499363   0.04980090
6886.00   1.09345496   0.05092959
6888.00   1.11390138   0.05226426
6890.00   1.11351597   0.05228566
6892.00   1.09223294   0.05096862
6894.00   1.08595216   0.04999165
6896.00   1.09463942   0.04935231
6898.00   1.11905491   0.04904858
6900.00   1.12672973   0.04893610
6902.00   1.11312985   0.04858139
6904.00   1.10130513   0.04811494
6906.00   1.08674753   0.04806070
6908.00   1.07672727   0.04854712
6910.00   1.08119166   0.04894604
6912.00   1.12407386   0.04883523
6914.00   1.14281368   0.04957239
6916.00   1.14660037   0.04987761
6918.00   1.15310657   0.04961279
6920.00   1.21722138   0.05414985
6922.00   1.21934080   0.05395389
6924.00   1.19646323   0.05153537
6926.00   1.14106071   0.04899319
6928.00   1.12447953   0.04836231
6930.00   1.15407622   0.04695399
6932.00   1.12510121   0.04625503
6934.00   1.09530687   0.04641786
6936.00   1.11846650   0.04709938
6938.00   1.13824117   0.04773916
6940.00   1.12849617   0.04832221
6942.00   1.15045202   0.04924579
6944.00   1.15517759   0.05018444
6946.00   1.13934195   0.05057994
6948.00   1.15614021   0.05043532
6950.00   1.18212509   0.05046295
6952.00   1.19740820   0.05005900
6954.00   1.18724430   0.04890988
6956.00   1.21240413   0.04766856
6958.00   1.22404206   0.04719281
6960.00   1.23206294   0.04696068
6962.00   1.22268677   0.04678068
6964.00   1.21143091   0.04685839
6966.00   1.18773758   0.04709895
6968.00   1.20941699   0.04733977
6970.00   1.17867434   0.04743850
6972.00   1.17621136   0.04791591
6974.00   1.18294859   0.04834570
6976.00   1.19659472   0.04839645
6978.00   1.19913280   0.04867822
6980.00   1.20480895   0.04883274
6982.00   1.19959056   0.04826441
6984.00   1.17496753   0.04706513
6986.00   1.17626894   0.04618226
6988.00   1.14741147   0.04615190
6990.00   1.17421901   0.04650883
6992.00   1.16317248   0.04627154
6994.00   1.14304483   0.04570442
6996.00   1.14754164   0.04570068
6998.00   1.13462794   0.04585467
7000.00   1.14567554   0.04591290
7002.00   1.16663468   0.04597163
7004.00   1.14806426   0.04607354
7006.00   1.15155423   0.04625399
7008.00   1.14069021   0.04632923
7010.00   1.14558363   0.04613080
7012.00   1.11920726   0.04571581
7014.00   1.08464062   0.04549490
7016.00   1.09686124   0.04530585
7018.00   1.12178314   0.04500190
7020.00   1.13602746   0.04482128
7022.00   1.13356864   0.04484808
7024.00   1.10630357   0.04487151
7026.00   1.08335066   0.04487115
7028.00   1.05480540   0.04473772
7030.00   1.05787337   0.04482389
7032.00   1.09798992   0.04508875
7034.00   1.11788940   0.04500821
7036.00   1.10487759   0.04492285
7038.00   1.10146761   0.04500445
7040.00   1.10878515   0.04525654
7042.00   1.09958518   0.04557137
7044.00   1.12782919   0.04604924
7046.00   1.10839570   0.04585127
7048.00   1.11093271   0.04573838
7050.00   1.13705814   0.04588442
7052.00   1.13350642   0.04588110
7054.00   1.16490519   0.04558037
7056.00   1.13763833   0.04494642
7058.00   1.12333095   0.04482931
7060.00   1.13015378   0.04499652
7062.00   1.15556133   0.04507015
7064.00   1.14702404   0.04508501
7066.00   1.16876090   0.04566026
7068.00   1.16009998   0.04563557
7070.00   1.12851989   0.04517179
7072.00   1.11203003   0.04507189
7074.00   1.14199150   0.04503088
7076.00   1.16651869   0.04528395
7078.00   1.15248382   0.04514085
7080.00   1.10335636   0.04450516
7082.00   1.12300909   0.04459579
7084.00   1.12023723   0.04478826
7086.00   1.12364459   0.04526585
7088.00   1.15755570   0.04551516
7090.00   1.17742836   0.04524936
7092.00   1.12808406   0.04509854
7094.00   1.12095726   0.04455708
7096.00   1.14806128   0.04441880
7098.00   1.15435696   0.04449058
7100.00   1.17811286   0.04456685
7102.00   1.19650650   0.04472402
7104.00   1.16687477   0.04453826
7106.00   1.16817510   0.04425132
7108.00   1.18999088   0.04421591
7110.00   1.22936213   0.04474871
7112.00   1.23762405   0.04469039
7114.00   1.17303348   0.04413893
7116.00   1.14694345   0.04402144
7118.00   1.18141556   0.04443317
7120.00   1.16467762   0.04464713
7122.00   1.15292799   0.04407248
7124.00   1.18204892   0.04419706
7126.00   1.21353495   0.04460632
7128.00   1.19728386   0.04459679
7130.00   1.14972842   0.04418329
7132.00   1.19927847   0.04411462
7134.00   1.22879279   0.04416706
7136.00   1.23019850   0.04417823
7138.00   1.23000777   0.04424673
7140.00   1.25363612   0.04473979
7142.00   1.23596132   0.04480109
7144.00   1.23347437   0.04495477
7146.00   1.25251067   0.04514470
7148.00   1.28311074   0.04521267
7150.00   1.29624379   0.04497135
7152.00   1.26526046   0.04451846
7154.00   1.26360667   0.04443438
7156.00   1.29686320   0.04458956
7158.00   1.31062388   0.04441273
7160.00   1.27776349   0.04453031
7162.00   1.28663635   0.04471134
7164.00   1.29083204   0.04496352
7166.00   1.26563847   0.04542230
7168.00   1.30295599   0.04628387
7170.00   1.37552452   0.04709408
7172.00   1.31432867   0.04716014
7174.00   1.27640545   0.04732643
7176.00   1.31480026   0.04778931
7178.00   1.36003387   0.04789845
7180.00   1.35930538   0.04773381
7182.00   1.33018434   0.04749624
7184.00   1.33718503   0.04785819
7186.00   1.41387987   0.04892689
7188.00   1.39675629   0.04900866
7190.00   1.38727951   0.04843426
7192.00   1.39495516   0.04787787
7194.00   1.43908012   0.04791321
7196.00   1.44857156   0.04823153
7198.00   1.41381168   0.04772608
7200.00   1.41547537   0.04783672
7202.00   1.46890104   0.04801840
7204.00   1.50743997   0.04787917
7206.00   1.48735809   0.04733792
7208.00   1.51857316   0.04692756
7210.00   1.51082706   0.04615829
7212.00   1.48660409   0.04540093
7214.00   1.48854256   0.04514904
7216.00   1.53130865   0.04543669
7218.00   1.56390965   0.04574290
7220.00   1.56097984   0.04579277
7222.00   1.54906809   0.04585510
7224.00   1.52409804   0.04594722
7226.00   1.48909724   0.04592199
7228.00   1.50586689   0.04622601
7230.00   1.49045527   0.04666820
7232.00   1.49146938   0.04826325
7234.00   1.51362598   0.05178759
7236.00   1.52853143   0.05715510
7238.00   1.56399572   0.06096806
7240.00   1.56298733   0.06411003
7242.00   1.51375473   0.06620956
7244.00   1.45886660   0.06596884
7246.00   1.54495013   0.06307942
7248.00   1.57084656   0.05960772
7250.00   1.56239986   0.05597033
7252.00   1.57713115   0.05281674
7254.00   1.58181655   0.05106815
7256.00   1.59318411   0.05014613
7258.00   1.56160986   0.04884964
7260.00   1.52986860   0.04789525
7262.00   1.51315367   0.04750477
7264.00   1.54113102   0.04760658
7266.00   1.59927642   0.04825264
7268.00   1.59592521   0.04881625
7270.00   1.56716502   0.05146733
7272.00   1.57766151   0.05667368
7274.00   1.56511402   0.06108888
7276.00   1.54753888   0.06307653
7278.00   1.57972336   0.06386665
7280.00   1.62739944   0.06267313
7282.00   1.57986879   0.05841942
7284.00   1.51101112   0.05382855
7286.00   1.54212797   0.05273114
7288.00   1.57030928   0.05251893
7290.00   1.57950306   0.05168131
7292.00   1.62641859   0.05057268
7294.00   1.67732668   0.05001318
7296.00   1.64664853   0.04927640
7298.00   1.59066594   0.04947725
7300.00   1.55997181   0.05036004
7302.00   1.52899635   0.05039936
7304.00   1.56427622   0.05052362
7306.00   1.57074881   0.05035171
7308.00   1.55436099   0.04985371
7310.00   1.54436052   0.05091952
7312.00   1.52448654   0.05542273
7314.00   1.48409736   0.05786565
7316.00   1.54519475   0.05848697
7318.00   1.58023834   0.05848669
7320.00   1.53651941   0.05864389
7322.00   1.58743525   0.06105793
7324.00   1.63478053   0.05708840
7326.00   1.66052377   0.05241068
7328.00   1.65365887   0.05182132
7330.00   1.58451116   0.05165644
7332.00   1.53900385   0.05186555
7334.00   1.56608665   0.05251141
7336.00   1.59455264   0.05501288
7338.00   1.60368621   0.05815228
7340.00   1.57388496   0.05975283
7342.00   1.57811451   0.05964753
7344.00   1.58264840   0.05908202
7346.00   1.61761189   0.05673603
7348.00   1.62151194   0.05271718
7350.00   1.64659595   0.05005211
7352.00   1.61571252   0.04968145
7354.00   1.60297883   0.05005129
7356.00   1.61709702   0.05042882
7358.00   1.61450160   0.05086380
7360.00   1.57399786   0.05038245
7362.00   1.60013616   0.05027076
7364.00   1.58941746   0.05110781
7366.00   1.56343591   0.05221717
7368.00   1.57253206   0.05289770
7370.00   1.59693050   0.05329226
7372.00   1.61878550   0.05295810
7374.00   1.63725889   0.05093193
7376.00   1.65441525   0.04804252
7378.00   1.65928113   0.04612455
7380.00   1.66741908   0.04579968
7382.00   1.68058777   0.04558021
7384.00   1.68878555   0.04555481
7386.00   1.69293272   0.04615299
7388.00   1.73850822   0.04755636
7390.00   1.72826803   0.04804140
7392.00   1.72326374   0.04790222
7394.00   1.72673357   0.04829547
7396.00   1.71162713   0.04948069
7398.00   1.70606482   0.05050933
7400.00   1.70881307   0.05066383
7402.00   1.70846117   0.05041772
7404.00   1.73913860   0.05031066
7406.00   1.77206433   0.04983056
#7408.00   1.62719727   0.04735343
#7410.00   1.35198247   0.04642330
#7412.00   1.45103168   0.04570768
7414.00   1.71688330   0.04509679
7416.00   1.77640402   0.04499738
7418.00   1.73792708   0.04494844
7420.00   1.75585938   0.04503355
7422.00   1.77947235   0.04521881
7424.00   1.80016959   0.04562818
7426.00   1.81434786   0.04623533
7428.00   1.79300416   0.04650534
7430.00   1.79819441   0.04679405
7432.00   1.82950866   0.04755905
7434.00   1.83769715   0.04834738
7436.00   1.83659422   0.04861291
7438.00   1.86888087   0.04843850
7440.00   1.89633274   0.04835984
7442.00   1.91886997   0.04799287
7444.00   1.92370880   0.04706999
7446.00   1.91093099   0.04592871
7448.00   1.89172375   0.04550378
7450.00   1.89177072   0.04554201
7452.00   1.89386952   0.04567907
7454.00   1.88304329   0.04567851
7456.00   1.88477981   0.04580282
7458.00   1.87584972   0.04594449
7460.00   1.87574446   0.04630088
7462.00   1.87344074   0.04671375
7464.00   1.87229955   0.04710031
7466.00   1.88851511   0.04770144
7468.00   1.90175724   0.04862629
7470.00   1.89135253   0.04914463
7472.00   1.87803996   0.04925196
7474.00   1.85960484   0.04933304
7476.00   1.83002281   0.04965684
7478.00   1.84253943   0.05002457
7480.00   1.85456359   0.05010559
7482.00   1.84369123   0.04981124
7484.00   1.82659638   0.04923816
7486.00   1.78708112   0.04823342
7488.00   1.77045155   0.04717867
7490.00   1.78593922   0.04633914
7492.00   1.82232666   0.04587090
7494.00   1.79885006   0.04554538
7496.00   1.75526178   0.04534858
7498.00   1.73796427   0.04507009
7500.00   1.73319292   0.04468051
7502.00   1.73246098   0.04438385
7504.00   1.65681267   0.04398827
7506.00   1.67083156   0.04392977
7508.00   1.67777503   0.04378711
7510.00   1.66793120   0.04375362
7512.00   1.62899017   0.04393697
7514.00   1.60200024   0.04404320
7516.00   1.56344032   0.04447972
7518.00   1.56619585   0.04686980
7520.00   1.58720148   0.05003267
7522.00   1.56777918   0.05179998
7524.00   1.54721642   0.05225448
7526.00   1.55045116   0.05269845
7528.00   1.56269789   0.05165155
7530.00   1.54518795   0.04883358
7532.00   1.54116166   0.04628461
7534.00   1.53271353   0.04543112
7536.00   1.51890218   0.04475430
7538.00   1.51284301   0.04408394
7540.00   1.51812565   0.04367062
7542.00   1.50912416   0.04356671
7544.00   1.52126634   0.04349329
7546.00   1.49376166   0.04313188
7548.00   1.47264230   0.04284083
7550.00   1.49779403   0.04298862
7552.00   1.48476493   0.04341682
7554.00   1.42018366   0.04372389
7556.00   1.40738070   0.04390342
7558.00   1.42877471   0.04397323
7560.00   1.42625141   0.04386629
7562.00   1.40962029   0.04359252
7564.00   1.39197791   0.04349354
7566.00   1.37107790   0.04479596
7568.00   1.35487032   0.04690282
7570.00   1.38035095   0.04840189
7572.00   1.38970292   0.04886387
7574.00   1.40521204   0.04867782
7576.00   1.41188860   0.04708767
7578.00   1.40978801   0.04452861
7580.00   1.39031780   0.04292193
7582.00   1.42568195   0.04338121
7584.00   1.45337868   0.04411799
7586.00   1.47264016   0.04462025
7588.00   1.47274113   0.04506953
7590.00   1.43423617   0.04598116
7592.00   1.36361539   0.04773002
7594.00   1.37493992   0.05338313
7596.00   1.44828987   0.06687748
7598.00   1.51455486   0.08891163
7600.00   1.43158281   0.11545831
7602.00   1.37915385   0.13760491
7604.00   1.33351040   0.14910728
7606.00   1.36887276   0.14727128
7608.00   1.42933846   0.12804149
7610.00   1.48914862   0.10465059
7612.00   1.53127635   0.08469351
7614.00   1.53520203   0.07053525
7616.00   1.53415263   0.06133021
7618.00   1.50364339   0.05580056
7620.00   1.46171939   0.05435662
7622.00   1.44531155   0.05724892
7624.00   1.49442768   0.06387388
7626.00   1.54074764   0.07047310
7628.00   1.52355587   0.07231026
7630.00   1.51836872   0.07156629
7632.00   1.56358659   0.07028890
7634.00   1.58727849   0.06760753
7636.00   1.53018761   0.06331256
7638.00   1.51502037   0.06000723
7640.00   1.57926404   0.05872003
7642.00   1.58072531   0.05695836
7644.00   1.58108997   0.05521219
7646.00   1.63435805   0.05423577
7648.00   1.66754973   0.05345576
7650.00   1.63237429   0.05219670
7652.00   1.64646780   0.05122006
7654.00   1.68135023   0.05060718
7656.00   1.64964688   0.04986519
7658.00   1.63154125   0.04965639
7660.00   1.67855656   0.04962632
7662.00   1.71426213   0.04943477
7664.00   1.71818674   0.04886090
7666.00   1.72059500   0.04775299
7668.00   1.74459732   0.04652311
7670.00   1.76137102   0.04547270
7672.00   1.74225318   0.04478073
7674.00   1.72731149   0.04454915
7676.00   1.79926002   0.04496993
7678.00   1.83162844   0.04531778
7680.00   1.80842972   0.04532025
7682.00   1.78796923   0.04539577
7684.00   1.78904533   0.04561437
7686.00   1.78624189   0.04569232
7688.00   1.80274642   0.04569355
7690.00   1.82675064   0.04553993
7692.00   1.84251976   0.04560436
7694.00   1.86987162   0.04626473
7696.00   1.89602089   0.04678337
7698.00   1.89999962   0.04704128
7700.00   1.88810527   0.04682580
7702.00   1.87444592   0.04622655
7704.00   1.87183917   0.04610215
7706.00   1.89242685   0.04809872
7708.00   1.92017448   0.05228876
7710.00   1.94530010   0.05676613
7712.00   1.96271265   0.06098456
7714.00   1.97822249   0.06442746
7716.00   1.94093096   0.06408893
7718.00   1.93996239   0.06118893
7720.00   1.94402933   0.05769739
7722.00   1.91087949   0.05443611
7724.00   1.93489993   0.05081497
7726.00   1.91950428   0.04928416
7728.00   1.94002211   0.04883157
7730.00   1.96914208   0.04821307
7732.00   1.99853325   0.04714867
7734.00   1.97161472   0.04599265
7736.00   1.96677446   0.04594895
7738.00   1.95287466   0.04585028
7740.00   1.93199539   0.04556518
7742.00   1.97154999   0.04636407
7744.00   1.96721327   0.04957722
7746.00   1.92004621   0.05596681
7748.00   1.95289576   0.06024636
7750.00   1.99571514   0.06139082
7752.00   1.97709596   0.06150728
7754.00   1.99850273   0.06093831
7756.00   1.97784841   0.05764905
7758.00   1.93329751   0.05351521
7760.00   1.92565954   0.05106631
7762.00   1.94120204   0.05073160
7764.00   1.95006025   0.04963731
7766.00   1.90158165   0.04742534
7768.00   1.89163589   0.04667900
7770.00   1.95092142   0.04809273
7772.00   1.99459112   0.04888610
7774.00   2.01978230   0.04945494
7776.00   1.98384750   0.05036539
7778.00   1.91943979   0.05029783
7780.00   1.92276192   0.04892170
7782.00   1.93094075   0.04866290
7784.00   1.91645586   0.04825761
7786.00   1.88099289   0.04804751
7788.00   1.87876511   0.05026171
7790.00   1.90433645   0.05511602
7792.00   1.92290270   0.05778992
7794.00   1.89466333   0.05776340
7796.00   1.86992013   0.05685619
7798.00   1.88680649   0.05470432
7800.00   1.95278251   0.05013683
7802.00   1.93695402   0.04757965
7804.00   1.92277467   0.04847637
7806.00   1.87931979   0.04969618
7808.00   1.84539604   0.04985243
7810.00   1.85185277   0.04990174
7812.00   1.82210481   0.04912695
7814.00   1.82408702   0.04918577
7816.00   1.85665512   0.05212582
7818.00   1.85005665   0.05668578
7820.00   1.87049997   0.05937016
7822.00   1.86029208   0.05918591
7824.00   1.85271561   0.05783900
7826.00   1.82048786   0.05445017
7828.00   1.77231979   0.04860538
7830.00   1.80305767   0.04495712
7832.00   1.80254161   0.04390199
7834.00   1.78527606   0.04452162
7836.00   1.76150382   0.04591358
7838.00   1.76684618   0.04739208
7840.00   1.80129147   0.04849986
7842.00   1.81242847   0.04890198
7844.00   1.77745724   0.04869016
7846.00   1.74394906   0.04955378
7848.00   1.76522863   0.05362098
7850.00   1.76989174   0.05803314
7852.00   1.75652730   0.06005843
7854.00   1.74288881   0.06082772
7856.00   1.74023569   0.06090355
7858.00   1.71320951   0.05866757
7860.00   1.69273126   0.05441105
7862.00   1.68531513   0.05195847
7864.00   1.70717430   0.05204692
7866.00   1.73776519   0.05319459
7868.00   1.74235165   0.05337750
7870.00   1.72875655   0.05304888
7872.00   1.69442594   0.05283831
7874.00   1.65726173   0.05232449
7876.00   1.62115860   0.05093946
7878.00   1.63409579   0.04962945
7880.00   1.63652456   0.04939866
7882.00   1.63672435   0.04993291
7884.00   1.62272465   0.05092443
7886.00   1.61485207   0.05202193
7888.00   1.58370447   0.05201781
7890.00   1.57458782   0.05140288
7892.00   1.54546690   0.05059297
7894.00   1.50800073   0.04901827
7896.00   1.49406052   0.04580487
7898.00   1.51036417   0.04309740
7900.00   1.50874150   0.04225482
7902.00   1.50286281   0.04225548
7904.00   1.47459543   0.04257241
7906.00   1.43362415   0.04494241
7908.00   1.44762743   0.05195566
7910.00   1.49169004   0.05902213
7912.00   1.49877453   0.06289514
7914.00   1.44127858   0.06391051
7916.00   1.41037953   0.06553178
7918.00   1.39213419   0.06309773
7920.00   1.36801302   0.05725434
7922.00   1.38127315   0.05212146
7924.00   1.42205489   0.05110948
7926.00   1.37848151   0.04948102
7928.00   1.36889088   0.04816083
7930.00   1.35860920   0.04732731
7932.00   1.36481094   0.04673515
7934.00   1.34588182   0.04588873
7936.00   1.30408537   0.04410264
7938.00   1.27444696   0.04175892
7940.00   1.26706171   0.04059730
7942.00   1.26270247   0.04135113
7944.00   1.28088939   0.04321207
7946.00   1.28404224   0.04484214
7948.00   1.26408947   0.04548155
7950.00   1.24175346   0.04541970
7952.00   1.22312999   0.04472712
7954.00   1.20260656   0.04311213
7956.00   1.21630752   0.04154739
7958.00   1.20281899   0.04419726
7960.00   1.19153345   0.05046672
7962.00   1.18834436   0.05610434
7964.00   1.13445139   0.05664520
7966.00   1.13303518   0.05605346
7968.00   1.14548552   0.05361732
7970.00   1.11642122   0.04874784
7972.00   1.12391055   0.04340029
7974.00   1.16893935   0.04388541
7976.00   1.15610683   0.04578465
7978.00   1.11704004   0.04682759
7980.00   1.11111808   0.04685992
7982.00   1.09963322   0.04591740
7984.00   1.09553945   0.04418433
7986.00   1.06464481   0.04393819
7988.00   1.07235086   0.04816915
7990.00   1.11247253   0.05401285
7992.00   1.08463907   0.05603214
7994.00   1.02365577   0.05619930
7996.00   1.00767577   0.05490292
7998.00   1.02381718   0.05078910
8000.00   1.03481138   0.04401316
8002.00   1.07084620   0.03992707
8004.00   1.06940162   0.03881592
8006.00   1.04492140   0.03892630
8008.00   1.05747414   0.04016193
8010.00   1.04667103   0.04195659
8012.00   1.05063355   0.04278961
8014.00   1.05541193   0.04312219
8016.00   1.06068885   0.04308972
8018.00   1.02086079   0.04321355
8020.00   0.97656679   0.04516000
8022.00   1.01427960   0.04916107
8024.00   1.02881396   0.05166144
8026.00   1.02057803   0.05230173
8028.00   1.01439738   0.05127917
8030.00   0.98189992   0.04848432
8032.00   0.96768695   0.04290454
8034.00   0.96676606   0.03917757
8036.00   0.97273892   0.03769923
8038.00   0.99034208   0.03741304
8040.00   0.98769647   0.03731011
8042.00   0.99861842   0.03775062
8044.00   0.98607272   0.03800075
8046.00   0.96576232   0.03866258
8048.00   0.96925336   0.03991142
8050.00   0.98109245   0.04055409
8052.00   0.98361212   0.04085512
8054.00   0.98493671   0.04133104
8056.00   0.99510527   0.04231532
8058.00   1.01996696   0.04353635
8060.00   0.99883920   0.04401669
8062.00   0.97552210   0.04402896
8064.00   0.96726871   0.04383944
8066.00   0.97135085   0.04266090
8068.00   0.96660775   0.03990081
8070.00   0.95947105   0.03782746
8072.00   0.97187918   0.03737360
8074.00   0.98223954   0.03753216
8076.00   0.98274010   0.03757486
8078.00   0.97883242   0.03749536
8080.00   0.96038413   0.03732835
8082.00   0.95759088   0.03743825
8084.00   0.97221059   0.03759864
8086.00   0.97182590   0.03758645
8088.00   0.95875198   0.03784485
8090.00   0.95744199   0.03825114
8092.00   0.95532686   0.03826138
8094.00   0.93566066   0.03817686
8096.00   0.92845374   0.03868640
8098.00   0.94649953   0.03961552
8100.00   0.93693620   0.03979511
8102.00   0.91899031   0.03967627
8104.00   0.92565614   0.03974587
8106.00   0.94309521   0.03966546
8108.00   0.90899372   0.03843370
8110.00   0.90195560   0.03744708
8112.00   0.91185349   0.03724039
8114.00   0.92309141   0.03732667
8116.00   0.89745432   0.03698555
8118.00   0.90318292   0.03677297
8120.00   0.91430932   0.03672272
8122.00   0.91549510   0.03678554
8124.00   0.89512086   0.03684351
8126.00   0.89628047   0.03700999
8128.00   0.88539106   0.03720051
8130.00   0.87947661   0.03774869
8132.00   0.89818555   0.03841778
8134.00   0.90659475   0.03880758
8136.00   0.92069340   0.03913851
8138.00   0.90968555   0.03885781
8140.00   0.92829984   0.03906299
8142.00   0.94123763   0.03953160
8144.00   0.92085618   0.03963932
8146.00   0.87901908   0.03910003
8148.00   0.88523322   0.03915331
8150.00   0.87207490   0.03895088
8152.00   0.86702281   0.03848911
8154.00   0.88782454   0.03825247
8156.00   0.91095096   0.03850086
8158.00   0.87033510   0.03854620
8160.00   0.83504969   0.03872501
8162.00   0.83032775   0.03923906
8164.00   0.81627727   0.03946218
8166.00   0.79978132   0.03889085
8168.00   0.80522901   0.03820406
8170.00   0.82031173   0.03839668
8172.00   0.78707725   0.03889075
8174.00   0.75461811   0.03901440
8176.00   0.73050672   0.04054098
8178.00   0.73241585   0.04372250
8180.00   0.72438765   0.04630498
8182.00   0.68646210   0.04671057
8184.00   0.67223173   0.04654209
8186.00   0.65441340   0.04680347
8188.00   0.63931215   0.04732035
8190.00   0.61344576   0.04803993
8192.00   0.57996315   0.04865430
8194.00   0.53218502   0.04788457
8196.00   0.51504117   0.04743651
8198.00   0.52611190   0.04678613
8200.00   0.53698611   0.04502911
8202.00   0.47189116   0.04173676
8204.00   0.45969331   0.03924388
8206.00   0.45757166   0.03783293
8208.00   0.46171179   0.03689951
8210.00   0.44964758   0.03600250
8212.00   0.41961753   0.03515584
8214.00   0.40885124   0.03445425
8216.00   0.38852143   0.03392565
8218.00   0.38390160   0.03381123
8220.00   0.38513431   0.03407790
8222.00   0.35270414   0.03424641
8224.00   0.36808479   0.03501014
8226.00   0.38674879   0.03616998
8228.00   0.39395213   0.03726293
8230.00   0.34146479   0.03703034
8232.00   0.29239145   0.03506171
8234.00   0.30561742   0.03332578
8236.00   0.31583348   0.03229522
8238.00   0.29969794   0.03177790
8240.00   0.26593673   0.03159761
8242.00   0.26499099   0.03209288
8244.00   0.28245258   0.03242571
8246.00   0.29138753   0.03212506
8248.00   0.29788035   0.03161974
8250.00   0.27771235   0.03153591
8252.00   0.26410329   0.03164564
8254.00   0.27159107   0.03161805
8256.00   0.29243875   0.03161432
8258.00   0.30551770   0.03160546
8260.00   0.26801217   0.03118304
8262.00   0.23334448   0.03062994
8264.00   0.24940808   0.03035638
8266.00   0.28422558   0.03044526
8268.00   0.28361967   0.03083847
8270.00   0.24469943   0.03130152
8272.00   0.25062743   0.03302423
8274.00   0.26419094   0.03690853
8276.00   0.26979005   0.04184766
8278.00   0.25397584   0.04595950
8280.00   0.26499292   0.04842508
8282.00   0.28237218   0.05148797
8284.00   0.28129005   0.05425729
8286.00   0.27043951   0.05496738
8288.00   0.28013754   0.05328997
8290.00   0.27831778   0.05270765
8292.00   0.27615318   0.05383826
8294.00   0.31131446   0.05529643
8296.00   0.34394550   0.05593454
8298.00   0.31584331   0.05526628
8300.00   0.26725689   0.05401222
8302.00   0.24432814   0.05034472
8304.00   0.26604199   0.04493965
8306.00   0.29474840   0.04003557
8308.00   0.35078466   0.03867532
8310.00   0.32677010   0.03809499
8312.00   0.30937144   0.03819794
8314.00   0.31005716   0.03789485
8316.00   0.28597483   0.03583838
8318.00   0.28641394   0.03300970
8320.00   0.35382375   0.03270551
8322.00   0.37656403   0.03255514
8324.00   0.35136017   0.03180307
8326.00   0.33314708   0.03106547
8328.00   0.35339770   0.03066564
8330.00   0.36265168   0.03065375
8332.00   0.34279004   0.03070965
8334.00   0.33397686   0.03158040
8336.00   0.33694839   0.03514742
8338.00   0.34950134   0.04599981
8340.00   0.34638181   0.06056196
8342.00   0.31715593   0.06832158
8344.00   0.33669272   0.06966398
8346.00   0.29225716   0.06984778
8348.00   0.30764613   0.06869588
8350.00   0.28908816   0.06066947
8352.00   0.27246642   0.05099415
8354.00   0.29647014   0.04646475
8356.00   0.30539885   0.04463286
8358.00   0.30819201   0.04099095
8360.00   0.32941654   0.03827645
8362.00   0.33502892   0.03742695
8364.00   0.32694098   0.03761338
8366.00   0.31879279   0.03719274
8368.00   0.33700874   0.03642414
8370.00   0.34051129   0.03401470
8372.00   0.34069273   0.03190185
8374.00   0.34793559   0.03216507
8376.00   0.34152758   0.03526980
8378.00   0.33882734   0.03925455
8380.00   0.34942833   0.04153761
8382.00   0.35641232   0.04196991
8384.00   0.38984481   0.04171186
8386.00   0.39937064   0.03994735
8388.00   0.35002637   0.03547552
8390.00   0.34746799   0.03271690
8392.00   0.40503761   0.03739958
8394.00   0.43138590   0.04878024
8396.00   0.39295301   0.05680038
8398.00   0.38964900   0.05938859
8400.00   0.36674154   0.05940580
8402.00   0.35646605   0.05757324
8404.00   0.38170978   0.04938151
8406.00   0.41064879   0.03857734
8408.00   0.39025939   0.03375572
8410.00   0.36738348   0.03646156
8412.00   0.39972499   0.04102486
8414.00   0.42824784   0.04248364
8416.00   0.42881772   0.04256451
8418.00   0.45949396   0.04168950
8420.00   0.46823719   0.03925329
8422.00   0.42053005   0.03732616
8424.00   0.44828859   0.04445393
8426.00   0.51198238   0.05527233
8428.00   0.53360540   0.06126214
8430.00   0.52012187   0.06216172
8432.00   0.55885047   0.06072562
8434.00   0.55454212   0.05865236
8436.00   0.52290910   0.05172921
8438.00   0.50345021   0.04234053
8440.00   0.53730893   0.03382188
8442.00   0.55956507   0.03327708
8444.00   0.56639975   0.03400569
8446.00   0.56617171   0.03639408
8448.00   0.55918080   0.03931240
8450.00   0.55912596   0.04214068
8452.00   0.57811552   0.04245666
8454.00   0.61521453   0.04226469
8456.00   0.59639746   0.04082681
8458.00   0.56546384   0.04061686
8460.00   0.61290753   0.04492788
8462.00   0.70365280   0.05233905
8464.00   0.67473823   0.05443731
8466.00   0.62598807   0.05438606
8468.00   0.62351328   0.05279093
8470.00   0.68179744   0.04780089
8472.00   0.68291926   0.03931833
8474.00   0.70514560   0.03449849
8476.00   0.72717470   0.03353640
8478.00   0.76093537   0.03392958
8480.00   0.80304718   0.03405793
8482.00   0.85368729   0.03400903
8484.00   0.90768003   0.03430811
8486.00   0.93406206   0.03543704
8488.00   0.97855330   0.03775029
8490.00   1.01545286   0.04030247
8492.00   1.03364217   0.04107568
8494.00   1.06363356   0.04116688
8496.00   1.08277404   0.04116252
8498.00   1.07817161   0.04181701
8500.00   1.11413145   0.04441001
8502.00   1.15631258   0.04680179
8504.00   1.15690148   0.04766485
8506.00   1.13588035   0.04733177
8508.00   1.14580476   0.04584587
8510.00   1.18519747   0.04194846
8512.00   1.24058950   0.03786550
8514.00   1.24475944   0.03587613
8516.00   1.24282360   0.03590210
8518.00   1.23127234   0.03613725
8520.00   1.27361333   0.03653128
8522.00   1.31174147   0.03676291
8524.00   1.33884633   0.03683927
8526.00   1.32972753   0.03666214
8528.00   1.35510480   0.03665258
8530.00   1.35122144   0.03659490
8532.00   1.35527575   0.03718825
8534.00   1.35588920   0.03799871
8536.00   1.35747874   0.03842380
8538.00   1.36619294   0.03836153
8540.00   1.39503896   0.03846500
8542.00   1.42381799   0.03932795
8544.00   1.42867982   0.04050271
8546.00   1.42108965   0.04144465
8548.00   1.40823936   0.04174663
8550.00   1.40571654   0.04188843
8552.00   1.40597951   0.04116996
8554.00   1.42715847   0.03959381
8556.00   1.44132471   0.03778172
8558.00   1.44011462   0.03704779
8560.00   1.45287168   0.03709362
8562.00   1.45988655   0.03722482
8564.00   1.46582806   0.03724964
8566.00   1.46263802   0.03721755
8568.00   1.50410974   0.03751475
8570.00   1.50325441   0.03759358
8572.00   1.47768176   0.03758299
8574.00   1.44494021   0.03751459
8576.00   1.46358776   0.03759623
8578.00   1.48913968   0.03763876
8580.00   1.49552381   0.03768019
8582.00   1.47928333   0.03783512
8584.00   1.44636869   0.03807672
8586.00   1.45462096   0.03840455
8588.00   1.47117901   0.03858319
8590.00   1.47439480   0.03893179
8592.00   1.46944463   0.03930618
8594.00   1.49344397   0.03948891
8596.00   1.50757635   0.03929947
8598.00   1.51400232   0.03928528
8600.00   1.49527502   0.03902211
8602.00   1.46172011   0.03829207
8604.00   1.44999421   0.03750473
8606.00   1.45295668   0.03737228
8608.00   1.44527340   0.03763578
8610.00   1.45031023   0.03817399
8612.00   1.46186876   0.03899932
8614.00   1.46679163   0.04008175
8616.00   1.45464742   0.04146644
8618.00   1.42970908   0.04303794
8620.00   1.42719400   0.04474682
8622.00   1.44286597   0.04646441
8624.00   1.43377507   0.04799036
8626.00   1.44727361   0.04930095
8628.00   1.47098553   0.05023515
8630.00   1.46757114   0.05047823
8632.00   1.44611633   0.04998444
8634.00   1.44502199   0.04895665
8636.00   1.45168388   0.04758433
8638.00   1.44268191   0.04577560
8640.00   1.43986571   0.04394098
8642.00   1.44722652   0.04274448
8644.00   1.48979759   0.04286277
8646.00   1.46575201   0.04372971
8648.00   1.45820391   0.04519507
8650.00   1.48008192   0.04706781
8652.00   1.48767793   0.04886389
8654.00   1.45125580   0.04956764
8656.00   1.46134865   0.04975872
8658.00   1.49192238   0.04959434
8660.00   1.51968586   0.04929142
8662.00   1.52739429   0.04857804
8664.00   1.48734951   0.04768975
8666.00   1.47014272   0.04686163
8668.00   1.48192060   0.04615957
8670.00   1.49349177   0.04536651
8672.00   1.49155700   0.04445829
8674.00   1.50170338   0.04345088
8676.00   1.51267195   0.04250140
8678.00   1.49389696   0.04155211
8680.00   1.47873271   0.04066377
8682.00   1.49946964   0.03990785
8684.00   1.51203632   0.03931028
8686.00   1.50822067   0.03860913
8688.00   1.50752699   0.03802638
8690.00   1.52458942   0.03778336
8692.00   1.53172910   0.03765078
8694.00   1.52445352   0.03757259
8696.00   1.52326000   0.03758915
8698.00   1.51788855   0.03757190
8700.00   1.52667522   0.03764574
8702.00   1.53552628   0.03782248
8704.00   1.54980123   0.03791074
8706.00   1.56828725   0.03779657
8708.00   1.57796705   0.03752993
8710.00   1.57086170   0.03726742
8712.00   1.55353880   0.03688664
8714.00   1.54650033   0.03653065
8716.00   1.55133688   0.03633074
8718.00   1.57690942   0.03642016
8720.00   1.58357465   0.03654232
8722.00   1.58643246   0.03665301
8724.00   1.59390318   0.03669570
8726.00   1.61150694   0.03672659
8728.00   1.59572506   0.03658906
8730.00   1.56781423   0.03639981
8732.00   1.55762708   0.03631896
8734.00   1.57014048   0.03642762
8736.00   1.58062041   0.03657766
8738.00   1.59737074   0.03669642
8740.00   1.61171341   0.03672858
8742.00   1.62547410   0.03679061
8744.00   1.63596833   0.03684643
8746.00   1.64253843   0.03685002
8748.00   1.60155046   0.03666876
8750.00   1.59040308   0.03672021
8752.00   1.61667526   0.03820021
8754.00   1.64736176   0.04220430
8756.00   1.64073658   0.04776899
8758.00   1.63693714   0.05274532
8760.00   1.59686852   0.05621201
8762.00   1.63170040   0.06108348
8764.00   1.64894950   0.06430129
8766.00   1.63665867   0.06335638
8768.00   1.60753441   0.05959365
8770.00   1.64976823   0.05882478
8772.00   1.64896858   0.05973722
8774.00   1.61675584   0.06054734
8776.00   1.58636749   0.06058206
8778.00   1.62774467   0.06036012
8780.00   1.63529396   0.05848110
8782.00   1.61775160   0.05344043
8784.00   1.61199045   0.04679216
8786.00   1.64823377   0.04281867
8788.00   1.62516439   0.04374981
8790.00   1.61267579   0.04440530
8792.00   1.62794399   0.04441720
8794.00   1.66636813   0.04349098
8796.00   1.65965998   0.04091629
8798.00   1.61713755   0.03748233
8800.00   1.63425672   0.03625683
8802.00   1.66811430   0.03647971
8804.00   1.68037570   0.03696211
8806.00   1.67237616   0.03716387
8808.00   1.67738879   0.03750624
8810.00   1.68019235   0.03768527
8812.00   1.68825400   0.03757111
8814.00   1.69112778   0.03721545
8816.00   1.67650735   0.03695247
8818.00   1.64843607   0.03869505
8820.00   1.65197504   0.04869834
8822.00   1.66796601   0.06274842
8824.00   1.65648544   0.07393452
8826.00   1.70278549   0.07739481
8828.00   1.68928850   0.07779089
8830.00   1.65501153   0.07652957
8832.00   1.61781824   0.07149801
8834.00   1.61199248   0.06146527
8836.00   1.62194920   0.05579547
8838.00   1.62565422   0.05380526
8840.00   1.64409113   0.05082154
8842.00   1.66936493   0.04547006
8844.00   1.67041266   0.04188654
8846.00   1.65849268   0.04218753
8848.00   1.65377128   0.04309250
8850.00   1.66367531   0.04333609
8852.00   1.68243921   0.04286227
8854.00   1.65023565   0.04155510
8856.00   1.64044285   0.03969832
8858.00   1.68356788   0.03898262
8860.00   1.72823632   0.04106407
8862.00   1.70824373   0.04569170
8864.00   1.68197691   0.05005572
8866.00   1.64692688   0.05112483
8868.00   1.60972452   0.05030572
8870.00   1.60094118   0.04825207
8872.00   1.62756252   0.04463983
8874.00   1.61864316   0.03963563
8876.00   1.59282053   0.03674588
8878.00   1.53634977   0.04087808
8880.00   1.46644592   0.05138871
8882.00   1.45574987   0.06298313
8884.00   1.53284550   0.06730429
8886.00   1.56017780   0.06770054
8888.00   1.55154419   0.06534169
8890.00   1.51692712   0.05899582
8892.00   1.48953831   0.04747798
8894.00   1.50611687   0.03881232
8896.00   1.51876879   0.03882952
8898.00   1.53413832   0.04423172
8900.00   1.56397069   0.04929230
8902.00   1.53484309   0.05031182
8904.00   1.52915156   0.05018093
8906.00   1.53918350   0.04862892
8908.00   1.51639116   0.04461692
8910.00   1.49464703   0.03965592
8912.00   1.47269452   0.04196321
8914.00   1.46059895   0.05371839
8916.00   1.45474195   0.06401794
8918.00   1.50363052   0.06894197
8920.00   1.54753113   0.06923242
8922.00   1.59802866   0.06786754
8924.00   1.55852985   0.06042749
8926.00   1.51301181   0.04880739
8928.00   1.53236401   0.03917395
8930.00   1.56501532   0.03777398
8932.00   1.53735363   0.03710073
8934.00   1.49441051   0.03677699
8936.00   1.46649075   0.03847350
8938.00   1.44930363   0.04269547
8940.00   1.43253791   0.04736899
8942.00   1.46214664   0.04955756
8944.00   1.49298847   0.05019193
8946.00   1.50074542   0.04905397
8948.00   1.48998868   0.04600359
8950.00   1.47786558   0.04336226
8952.00   1.47681916   0.05098971
8954.00   1.43933785   0.06070016
8956.00   1.43622291   0.06670137
8958.00   1.38527596   0.06767779
8960.00   1.36684322   0.06702139
8962.00   1.39948022   0.06204699
8964.00   1.43705547   0.05230716
8966.00   1.44274485   0.04204372
8968.00   1.40061152   0.03795262
8970.00   1.39686191   0.03766992
8972.00   1.40963614   0.03794087
8974.00   1.42763853   0.03812159
8976.00   1.41907978   0.03795171
8978.00   1.39493787   0.03762488
8980.00   1.40730751   0.03838496
8982.00   1.37459564   0.04146339
8984.00   1.32486427   0.04641126
8986.00   1.34083045   0.05184607
8988.00   1.39986575   0.05572695
8990.00   1.42329371   0.05501451
8992.00   1.40290010   0.05016521
8994.00   1.34256756   0.04613479
8996.00   1.26870346   0.04803551
8998.00   1.30289412   0.05392198
9000.00   1.35660183   0.05897323
9002.00   1.34597397   0.06161950
9004.00   1.29536462   0.06000995
9006.00   1.28593349   0.05264079
9008.00   1.32031083   0.04371596
9010.00   1.36510503   0.03903237
9012.00   1.38283920   0.03823976
9014.00   1.37330210   0.03871496
9016.00   1.37525880   0.03905747
9018.00   1.36460340   0.03903890
9020.00   1.32464004   0.03823639
9022.00   1.30223703   0.03751227
9024.00   1.31199145   0.03744072
9026.00   1.31085980   0.03724606
9028.00   1.25426269   0.03593343
9030.00   1.24670446   0.03554085
9032.00   1.27168548   0.03674070
9034.00   1.27500725   0.03855288
9036.00   1.24473298   0.03919258
9038.00   1.26076245   0.03946370
9040.00   1.23780286   0.03965264
9042.00   1.21798003   0.04010331
9044.00   1.21589625   0.04110807
9046.00   1.21888506   0.04301454
9048.00   1.22569466   0.04411382
9050.00   1.19368958   0.04413162
9052.00   1.17880285   0.04317217
9054.00   1.19088161   0.04081120
9056.00   1.18941987   0.03683519
9058.00   1.17530072   0.03480291
9060.00   1.20024312   0.03509600
9062.00   1.22974288   0.03599429
9064.00   1.18650544   0.03600596
9066.00   1.17609346   0.03625536
9068.00   1.14264703   0.03618130
9070.00   1.13618433   0.03644213
9072.00   1.18823576   0.03706467
9074.00   1.17217577   0.03634922
9076.00   1.11852038   0.03486818
9078.00   1.11720181   0.03487065
9080.00   1.14496553   0.03567566
9082.00   1.13614857   0.03581069
9084.00   1.12128711   0.03496934
9086.00   1.11756492   0.03524433
9088.00   1.12893403   0.03630989
9090.00   1.13770950   0.03703884
9092.00   1.12324035   0.03696993
9094.00   1.12156212   0.03719842
9096.00   1.11123276   0.03829817
9098.00   1.09852779   0.04013218
9100.00   1.09905660   0.04180632
9102.00   1.08539152   0.04212338
9104.00   1.07941663   0.04138083
9106.00   1.12130582   0.04012713
9108.00   1.15151429   0.03768728
9110.00   1.11977243   0.03449874
9112.00   1.09172952   0.03291323
9114.00   1.08231151   0.03295581
9116.00   1.10372698   0.03364397
9118.00   1.11823618   0.03428191
9120.00   1.11284411   0.03427367
9122.00   1.08081663   0.03321796
9124.00   1.06129968   0.03291613
9126.00   1.07626784   0.03390040
9128.00   1.11007059   0.03563958
9130.00   1.10543096   0.03704658
9132.00   1.06171274   0.03724433
9134.00   1.04708707   0.03664041
9136.00   1.06279933   0.03588766
9138.00   1.07460487   0.03477067
9140.00   1.04349601   0.03295148
9142.00   1.03103316   0.03199196
9144.00   1.05601597   0.03249952
9146.00   1.06928861   0.03371924
9148.00   1.05064833   0.03526694
9150.00   1.04844761   0.03748117
9152.00   1.09387267   0.04017010
9154.00   1.10427845   0.04129861
9156.00   1.07579184   0.04040979
9158.00   1.01977658   0.03814195
9160.00   1.03107917   0.03654364
9162.00   1.05631673   0.03570859
9164.00   1.07086241   0.03526773
9166.00   1.07842386   0.03477149
9168.00   1.07792222   0.03428426
9170.00   1.06213486   0.03449827
9172.00   1.06183434   0.03527778
9174.00   1.09723425   0.03608085
9176.00   1.11774707   0.03610022
9178.00   1.07386029   0.03483142
9180.00   1.03656518   0.03324509
9182.00   1.05526221   0.03274684
9184.00   1.08171344   0.03287509
9186.00   1.09686840   0.03292828
9188.00   1.09322071   0.03236196
9190.00   1.06807816   0.03226802
9192.00   1.07136953   0.03268324
9194.00   1.08890665   0.03284317
9196.00   1.09133375   0.03245191
9198.00   1.07342434   0.03196322
9200.00   1.07820094   0.03161391
9202.00   1.08326209   0.03143641
9204.00   1.09717214   0.03168759
9206.00   1.09368432   0.03224100
9208.00   1.08979499   0.03286402
9210.00   1.09435928   0.03350193
9212.00   1.09538758   0.03440173
9214.00   1.10000193   0.03513883
9216.00   1.12857723   0.03566792
9218.00   1.12945461   0.03631794
9220.00   1.14619029   0.03688225
9222.00   1.16059804   0.03697749
9224.00   1.18603241   0.03721231
9226.00   1.23381460   0.03799726
9228.00   1.24539006   0.03794139
9230.00   1.24073946   0.03697264
9232.00   1.21792936   0.03573969
9234.00   1.17194176   0.03472193
9236.00   1.18772900   0.03445294
9238.00   1.17632639   0.03420367
9240.00   1.12945974   0.03367170
9242.00   1.11661875   0.03350183
9244.00   1.15850103   0.03388860
9246.00   1.16300642   0.03407569
9248.00   1.12119436   0.03383853
9250.00   1.12149692   0.03364303
9252.00   1.15558231   0.03351556
9254.00   1.18644869   0.03339766
9256.00   1.14046872   0.03288045
9258.00   1.13754952   0.03291214
9260.00   1.14777708   0.03310945
9262.00   1.14826906   0.03316837
9264.00   1.13962269   0.03287868
9266.00   1.17687738   0.03272307
9268.00   1.18001032   0.03250572
9270.00   1.16814744   0.03267831
9272.00   1.17230654   0.03339626
9274.00   1.18039227   0.03438778
9276.00   1.17112136   0.03516295
9278.00   1.18250751   0.03594645
9280.00   1.17072833   0.03647204
9282.00   1.12657750   0.03668637
9284.00   1.10826743   0.03690943
9286.00   1.13234293   0.03756029
9288.00   1.14996064   0.03825796
9290.00   1.16221237   0.03892123
9292.00   1.15929139   0.03957422
9294.00   1.14382160   0.04059879
9296.00   1.15769160   0.04217402
9298.00   1.18132365   0.04620995
9300.00   1.17733204   0.05455187
9302.00   1.15295184   0.06642515
9304.00   1.11319709   0.07843166
9306.00   1.12936819   0.09229037
9308.00   1.19258189   0.11141222
9310.00   1.14310682   0.12801185
9312.00   1.03709543   0.13592570
9314.00   1.12234521   0.13626455
9316.00   1.11504900   0.14026868
9318.00   1.09278882   0.13955261
9320.00   1.02998745   0.12997019
9322.00   0.93224651   0.11633328
9324.00   1.07389939   0.11293522
9326.00   1.11049998   0.10825656
9328.00   1.02701414   0.09551808
9330.00   0.99061102   0.07748094
9332.00   1.01886356   0.06891066
9334.00   1.03523207   0.07608923
9336.00   1.01244617   0.08537742
9338.00   1.01174867   0.09039983
9340.00   1.01125824   0.08910046
9342.00   1.03744566   0.08279323
9344.00   1.08630407   0.07372255
9346.00   1.03362322   0.06425646
9348.00   0.99680489   0.05702783
9350.00   0.95811063   0.05384781
9352.00   0.99751729   0.05757637
9354.00   1.02382076   0.06343571
9356.00   0.99924499   0.06348786
9358.00   1.00050771   0.05906785
9360.00   0.99289960   0.05456745
9362.00   0.95169395   0.05268444
9364.00   0.95964557   0.05549273
9366.00   0.99074107   0.07389466
9368.00   1.00418437   0.11959734
9370.00   1.20024621   0.18151695
9372.00   1.17496598   0.22617741
9374.00   1.08158863   0.23632771
9376.00   0.96778411   0.23521312
9378.00   0.97057217   0.22772722
9380.00   0.93971747   0.19304012
9382.00   0.84475327   0.12249883
9384.00   0.85818142   0.06688423
9386.00   0.93390399   0.04585713
9388.00   0.95887059   0.04331032
9390.00   0.96669561   0.03990967
9392.00   0.98145628   0.03880658
9394.00   1.01018870   0.04129285
9396.00   1.03496361   0.04674927
9398.00   1.05738604   0.05319757
9400.00   1.03791559   0.05759599
9402.00   1.05278194   0.05932279
9404.00   1.04708517   0.05811865
9406.00   1.02804708   0.05420727
9408.00   0.99890709   0.04872907
9410.00   1.01198304   0.04602677
9412.00   1.05345058   0.05170549
9414.00   1.10173357   0.06254777
9416.00   1.09711945   0.07214802
9418.00   1.03571761   0.07719541
9420.00   0.99834174   0.08083738
9422.00   1.00528300   0.08345395
9424.00   1.02521932   0.08111188
9426.00   1.09081793   0.07223795
9428.00   1.14011180   0.05965339
9430.00   1.13295460   0.05440046
9432.00   1.04328930   0.05669038
9434.00   0.94547540   0.06867864
9436.00   0.96229237   0.09036675
9438.00   1.10574687   0.11956519
9440.00   1.09351408   0.14211486
9442.00   1.02117968   0.13394350
9444.00   0.98020369   0.10237355
9446.00   0.98155445   0.06726681
9448.00   1.00794578   0.05198828
9450.00   1.04776239   0.05241629
9452.00   1.12186491   0.06765927
9454.00   1.15695322   0.09076133
9456.00   1.11652696   0.11178807
9458.00   1.04130733   0.11598504
9460.00   0.97582936   0.10881165
9462.00   1.00280583   0.09358153
9464.00   1.00663090   0.07258085
9466.00   1.03318536   0.05402406
9468.00   1.07634640   0.05437688
9470.00   1.13297606   0.06846387
9472.00   1.08517122   0.08506408
9474.00   1.02591217   0.09947347
9476.00   1.03394210   0.11071297
9478.00   0.96723747   0.11433256
9480.00   1.05539465   0.10701703
9482.00   1.09620047   0.08726057
9484.00   1.04523289   0.05978118
9486.00   1.06388652   0.04650818
9488.00   1.08864605   0.04421454
9490.00   1.09648561   0.04595359
9492.00   1.13134408   0.05094172
9494.00   1.16185498   0.06186721
9496.00   1.18645561   0.08311271
9498.00   1.18662250   0.09983072
9500.00   1.11255586   0.09869928
9502.00   1.07087219   0.08473474
9504.00   1.08495820   0.07007032
9506.00   1.11524713   0.05958043
9508.00   1.11297691   0.04990090
9510.00   1.13996685   0.04395370
9512.00   1.21073067   0.04409449
9514.00   1.24886501   0.04822803
9516.00   1.18148673   0.05250686
9518.00   1.10397351   0.05623539
9520.00   1.11443949   0.05826589
9522.00   1.17103541   0.05769193
9524.00   1.11347020   0.05407028
9526.00   1.10323846   0.05074622
9528.00   1.12212718   0.04856852
9530.00   1.13855255   0.04785249
9532.00   1.14502323   0.04805866
9534.00   1.18063295   0.04839097
9536.00   1.19911587   0.04908850
9538.00   1.15763056   0.05034960
9540.00   1.13982940   0.05166912
9542.00   1.19107521   0.05266797
9544.00   1.28739440   0.05536126
9546.00   1.29660118   0.06247333
9548.00   1.26198637   0.06975258
9550.00   1.18246710   0.07428702
9552.00   1.13397157   0.07615823
9554.00   1.14546740   0.07710583
9556.00   1.14874792   0.07260874
9558.00   1.11890602   0.06581988
9560.00   1.10437775   0.06447829
9562.00   1.11376953   0.07479758
9564.00   1.11212075   0.08926433
9566.00   1.10278809   0.09336864
9568.00   1.08703399   0.08700673
9570.00   1.07627881   0.07430904
9572.00   1.11053789   0.06131281
9574.00   1.10700977   0.04917802
9576.00   1.08884728   0.04297250
9578.00   1.13942015   0.04304216
9580.00   1.19241965   0.04475204
9582.00   1.20370996   0.04503162
9584.00   1.09016216   0.04442636
9586.00   1.05441487   0.04555086
9588.00   1.10683155   0.04861264
9590.00   1.12362373   0.05116716
9592.00   1.11584866   0.05060575
9594.00   1.07241547   0.04693298
9596.00   1.06237328   0.04344947
9598.00   1.08816171   0.04228351
9600.00   1.08047831   0.04346849
9602.00   1.04317045   0.04686918
9604.00   1.09239972   0.05066791
9606.00   1.13048649   0.05220814
9608.00   1.11838460   0.05108150
9610.00   1.04744756   0.04842305
9612.00   1.02483225   0.04583112
9614.00   1.03157151   0.04603603
9616.00   1.07549238   0.05061529
9618.00   1.08142948   0.05647366
9620.00   1.03550255   0.05907963
9622.00   1.03080809   0.05982815
9624.00   1.01340103   0.05613511
9626.00   1.02832687   0.04962087
9628.00   1.02138674   0.04352123
9630.00   0.99556226   0.04079584
9632.00   0.97929543   0.04032612
9634.00   1.01459682   0.04132341
9636.00   1.10062754   0.04288280
9638.00   1.10038126   0.04318281
9640.00   0.98780185   0.04146982
9642.00   0.94106793   0.04004687
9644.00   0.98191357   0.04008076
9646.00   1.01067555   0.04070803
9648.00   0.99238062   0.04090479
9650.00   0.97339797   0.04051703
9652.00   0.97513896   0.04097516
9654.00   0.98440075   0.04214935
9656.00   0.98112041   0.04430708
9658.00   0.93345791   0.04625789
9660.00   0.94566494   0.04883240
9662.00   0.93841964   0.05150641
9664.00   0.92517138   0.05378205
9666.00   0.92754918   0.05433647
9668.00   0.93369865   0.05348137
9670.00   0.87924457   0.05118774
9672.00   0.84663707   0.04841625
9674.00   0.86677140   0.04726355
9676.00   0.90970534   0.04955448
9678.00   0.96883792   0.05400692
9680.00   0.98358721   0.05708045
9682.00   0.94690531   0.05718654
9684.00   0.90099305   0.05476520
9686.00   0.91745073   0.05118129
9688.00   0.94975775   0.04769352
9690.00   0.93461436   0.04618627
9692.00   0.90409493   0.04923016
9694.00   0.88169664   0.05558057
9696.00   0.89760154   0.06156325
9698.00   0.89392012   0.06353927
9700.00   0.87933081   0.06282748
9702.00   0.87351710   0.05955097
9704.00   0.88845581   0.05411766
9706.00   0.86043245   0.04843213
9708.00   0.84937787   0.04704508
9710.00   0.88260365   0.04959471
9712.00   0.90296263   0.05483344
9714.00   0.89371270   0.06177515
9716.00   0.90582299   0.06846566
9718.00   0.85593706   0.07012871
9720.00   0.80814677   0.06961953
9722.00   0.81926638   0.06740009
9724.00   0.84108788   0.06163226
9726.00   0.89428073   0.05157687
9728.00   0.90823084   0.04484078
9730.00   0.86717302   0.04459423
9732.00   0.82001406   0.04880778
9734.00   0.82505012   0.05391823
9736.00   0.89442879   0.05708842
9738.00   0.85009336   0.05670482
9740.00   0.78106838   0.05455557
9742.00   0.78489774   0.05203260
9744.00   0.87459308   0.04931880
9746.00   0.91594696   0.04574702
9748.00   0.93797749   0.04398986
9750.00   0.91466123   0.04244358
9752.00   0.86623019   0.04023453
9754.00   0.90365076   0.03964832
9756.00   0.92739964   0.03933283
9758.00   0.89866370   0.03880077
9760.00   0.89143229   0.03844154
9762.00   0.91193110   0.03831078
9764.00   0.89369160   0.03756343
9766.00   0.90659744   0.03691246
9768.00   0.94115853   0.03692828
9770.00   0.94809240   0.03691344
9772.00   0.93843031   0.03658031
9774.00   0.95941275   0.03671504
9776.00   1.04475653   0.03923184
9778.00   1.04265583   0.04118297
9780.00   0.96125841   0.04220105
9782.00   0.97778672   0.04474608
9784.00   0.96127766   0.05193695
9786.00   0.99743795   0.06118855
9788.00   1.01851356   0.06826353
9790.00   0.96283942   0.07182168
9792.00   0.89947015   0.07281117
9794.00   0.96907949   0.07235881
9796.00   0.97425276   0.06842508
9798.00   0.94883031   0.06360328
9800.00   0.95645744   0.06070891
9802.00   0.99241704   0.05925332
9804.00   1.02181089   0.05568819
9806.00   1.02337945   0.05267872
9808.00   1.03704417   0.05173968
9810.00   1.05502117   0.05248490
9812.00   1.05399120   0.05305715
9814.00   1.00076747   0.05229343
9816.00   1.01617610   0.05021319
9818.00   1.07593203   0.04802520
9820.00   1.10213101   0.04653830
9822.00   1.11655843   0.04617183
9824.00   1.14464581   0.04612753
9826.00   1.13724792   0.04640225
9828.00   1.10254109   0.04638545
9830.00   1.12065923   0.04614874
9832.00   1.13405323   0.04458812
9834.00   1.13842976   0.04292607
9836.00   1.12889993   0.04184698
9838.00   1.12795579   0.04198119
9840.00   1.14111054   0.04438744
9842.00   1.20925236   0.05100184
9844.00   1.21269095   0.05788768
9846.00   1.15992844   0.06216186
9848.00   1.14296758   0.06322410
9850.00   1.13246858   0.06182768
9852.00   1.14075983   0.05802835
9854.00   1.17439055   0.05208470
9856.00   1.21085072   0.04621540
9858.00   1.20225537   0.04329625
9860.00   1.22189164   0.04372878
9862.00   1.21639228   0.04644562
9864.00   1.23581553   0.05633387
9866.00   1.24395335   0.07245434
9868.00   1.19191289   0.08922382
9870.00   1.14690375   0.09759697
9872.00   1.12423575   0.09965599
9874.00   1.18445933   0.09682516
9876.00   1.25411332   0.08758049
9878.00   1.23156130   0.07050445
9880.00   1.25078261   0.05684550
9882.00   1.27959216   0.05066575
9884.00   1.29258072   0.05009468
9886.00   1.30450368   0.05241437
9888.00   1.31940317   0.05743084
9890.00   1.38017893   0.06484965
9892.00   1.33010495   0.06953322
9894.00   1.23874199   0.07152188
9896.00   1.25469851   0.07170341
9898.00   1.29119468   0.06874017
9900.00   1.30433774   0.06068112
9902.00   1.32090318   0.05352097
9904.00   1.32723367   0.05192174
9906.00   1.35091245   0.05783557
9908.00   1.45686328   0.07254326
9910.00   1.33000982   0.08851697
9912.00   1.30693185   0.09930048
9914.00   1.32195246   0.10325583
9916.00   1.24015236   0.10142142
9918.00   1.24441326   0.09400400
9920.00   1.30268919   0.07878951
9922.00   1.34504461   0.06260676
9924.00   1.34672487   0.05332351
9926.00   1.36769354   0.05111058
9928.00   1.38837957   0.05069056
9930.00   1.40580714   0.05116294
9932.00   1.35018957   0.05325896
9934.00   1.30348957   0.05916857
9936.00   1.37139702   0.07073283
9938.00   1.48575354   0.08574677
9940.00   1.50747728   0.10166755
9942.00   1.50989485   0.11510729
9944.00   1.47853279   0.12290257
9946.00   1.40937388   0.12250736
9948.00   1.33464587   0.11788311
9950.00   1.27373350   0.11341512
9952.00   1.24095356   0.11053646
9954.00   1.16567898   0.11019254
9956.00   1.25704896   0.11456854
9958.00   1.33924043   0.11912408
9960.00   1.35958672   0.11773727
9962.00   1.38549423   0.10982468
9964.00   1.41598213   0.09946092
9966.00   1.43745959   0.09011976
9968.00   1.51686299   0.08225613
9970.00   1.55795276   0.07711858
9972.00   1.53642797   0.07526901
9974.00   1.55627000   0.07501141
9976.00   1.57801688   0.07245211
9978.00   1.57382977   0.06790625
9980.00   1.57801473   0.06352004
9982.00   1.58098125   0.06066275
9984.00   1.59014285   0.05883421
9986.00   1.60210705   0.05735615
9988.00   1.55701792   0.05661121
9990.00   1.53190899   0.05711584
9992.00   1.57988834   0.05911853
9994.00   1.59423864   0.06233187
9996.00   1.57891512   0.06615484
9998.00   1.59344816   0.06917441
10000.00   1.60922015   0.07108318
10002.00   1.59986842   0.07332486
10004.00   1.60210860   0.08090437
10006.00   1.58161986   0.09883579
10008.00   1.51385319   0.12046767
10010.00   1.45540679   0.13749550
10012.00   1.47966194   0.14453025
10014.00   1.45201349   0.14380711
10016.00   1.50074542   0.13507934
10018.00   1.50988376   0.11983225
10020.00   1.53783131   0.10438900
10022.00   1.59978426   0.09922003
10024.00   1.60600960   0.09926850
10026.00   1.68215656   0.09843645
10028.00   1.68502378   0.09412762
10030.00   1.63042450   0.08574742
10032.00   1.61252463   0.07504012
10034.00   1.61410773   0.06889572
10036.00   1.60883725   0.06884599
10038.00   1.57833350   0.07199051
10040.00   1.57156372   0.07529501
10042.00   1.61275196   0.07690301
10044.00   1.64499426   0.07716032
10046.00   1.65691745   0.07559694
10048.00   1.64869845   0.07213348
10050.00   1.64395857   0.06838533
10052.00   1.68974340   0.06889737
10054.00   1.69319093   0.07496461
10056.00   1.69694197   0.08313365
10058.00   1.69006729   0.08978745
10060.00   1.63081634   0.09310109
10062.00   1.66745627   0.09473737
10064.00   1.68022060   0.09370945
10066.00   1.65867281   0.09022399
10068.00   1.65557766   0.08608198
10070.00   1.59328926   0.08360895
10072.00   1.51853812   0.08303154
10074.00   1.52478182   0.08833748
10076.00   1.49358416   0.10105300
10078.00   1.42399967   0.11723354
10080.00   1.49347794   0.12868096
10082.00   1.43795073   0.13295464
10084.00   1.39685094   0.13078372
10086.00   1.53038895   0.12161686
10088.00   1.50253427   0.10328595
10090.00   1.51313555   0.08560369
10092.00   1.53650725   0.07728685
10094.00   1.55727148   0.07680640
10096.00   1.53055716   0.08138635
10098.00   1.53250682   0.09039346
10100.00   1.57855177   0.09940640
10102.00   1.60074413   0.10408640
10104.00   1.58407748   0.10495623
10106.00   1.52572048   0.10220208
10108.00   1.52930880   0.09520012
10110.00   1.51402295   0.08559936
10112.00   1.44872177   0.07933540
10114.00   1.38225842   0.08093128
10116.00   1.39335299   0.09393319
10118.00   1.47316587   0.11780313
10120.00   1.49257040   0.14025623
10122.00   1.41301215   0.15279774
10124.00   1.33996248   0.15665673
10126.00   1.43677330   0.15388121
10128.00   1.49723291   0.14074092
10130.00   1.46093655   0.11894860
10132.00   1.43244457   0.10011335
10134.00   1.44937217   0.09092709
10136.00   1.48258483   0.08974713
10138.00   1.46819413   0.09033357
10140.00   1.38269889   0.09178225
10142.00   1.35841238   0.09442050
10144.00   1.42251408   0.09890392
10146.00   1.49940825   0.10605868
10148.00   1.48465168   0.11486322
10150.00   1.48336375   0.12234899
10152.00   1.43511045   0.12670557
10154.00   1.36001384   0.12801667
10156.00   1.36761725   0.12675853
10158.00   1.41559565   0.12209719
10160.00   1.40652597   0.11701036
10162.00   1.36893713   0.11721134
10164.00   1.39375556   0.12810503
10166.00   1.42590702   0.14963557
10168.00   1.40067637   0.17143108
10170.00   1.31077278   0.18320791
10172.00   1.30721056   0.18616290
10174.00   1.34915733   0.18217838
10176.00   1.45330465   0.16941713
10178.00   1.41979265   0.14876498
10180.00   1.41721487   0.13461240
10182.00   1.38267720   0.13588938
10184.00   1.33032668   0.14896306
10186.00   1.03164053   0.16072123
10188.00   1.14709485   0.16747065
10190.00   1.23467207   0.16874437
10192.00   1.22084510   0.16449521
10194.00   1.20764482   0.15372610
10196.00   1.34476817   0.14066076
10198.00   1.33969879   0.13581872
10200.00   1.32964051   0.14083003
10202.00   1.28309715   0.15272236
10204.00   1.24105215   0.17215215
10206.00   1.17187929   0.19426836
10208.00   1.30957735   0.20856398
10210.00   1.39654827   0.21278606
10212.00   1.31859839   0.20834912
10214.00   1.25844657   0.19482021
10216.00   1.25148046   0.17155577
10218.00   1.31474972   0.15255158
10220.00   1.24188590   0.14901713
10222.00   1.18227017   0.16072525
10224.00   1.24440467   0.17388618
10226.00   1.33704937   0.18402432
10228.00   1.32556713   0.18682611
10230.00   1.19791496   0.18029286
10232.00   1.13398182   0.16590321
10234.00   1.13952911   0.15131618
10236.00   1.15050042   0.13675344
10238.00   1.18240488   0.12412423
10240.00   1.19368517   0.11630791
10242.00   1.26336086   0.11469872
10244.00   1.31558418   0.11487940
10246.00   1.37246656   0.11521089
10248.00   1.33405781   0.11517829
10250.00   1.28118384   0.11588818
10252.00   1.29821670   0.11677495
10254.00   1.30198383   0.11765343
10256.00   1.22479916   0.11888991
10258.00   1.16148424   0.12065386
10260.00   1.16867363   0.12409038
10262.00   1.17687166   0.12823839
10264.00   1.11814463   0.13323061
10266.00   1.17060375   0.14066796
10268.00   1.24220407   0.14828122
10270.00   1.15880966   0.15265377
10272.00   1.05278969   0.15551884
10274.00   1.10288751   0.15843885
10276.00   1.17859185   0.16791137
10278.00   1.25029910   0.19923908
10280.00   1.29138958   0.25900617
10282.00   0.97299808   0.32639983
10284.00   0.97576827   0.37147069
10286.00   0.89535737   0.39400300
10288.00   0.64750415   0.39796567
10290.00   0.59352398   0.38541341
10292.00   0.84269696   0.34648731
10294.00   1.09731734   0.30660167
10296.00   1.32260227   0.28063217
10298.00   1.47180426   0.26641676
10300.00   1.35264432   0.24550556
10302.00   1.22918928   0.21947522
10304.00   1.10223329   0.20294447
10306.00   1.04609787   0.19865187
10308.00   1.08797002   0.19999714
10310.00   1.11531270   0.19819641
10312.00   1.10803902   0.19350916
10314.00   1.05700898   0.18427658
10316.00   0.97213936   0.17302686
10318.00   1.05667555   0.16639577
10320.00   1.12958181   0.16492002
10322.00   1.22318804   0.16767877
10324.00   1.28707778   0.17135511
10326.00   1.26627886   0.17291196
10328.00   1.15864503   0.17230465
10330.00   1.03867817   0.17283686
10332.00   0.93695337   0.17268574
10334.00   0.91532403   0.17451881
10336.00   0.97166538   0.18120901
10338.00   1.31187570   0.18990324
10340.00   0.71427244   0.20414698
10342.00   0.77198410   0.22648801
10344.00   0.98848563   0.24828947
10346.00   1.09392035   0.26067337
10348.00   1.02226293   0.26505041
10350.00   1.13772547   0.26288080
10352.00   1.24844027   0.25052986
10354.00   1.19610500   0.23210512
10356.00   1.00231075   0.21777327
10358.00   1.17687058   0.21218371
10360.00   1.28493822   0.20815760
10362.00   1.24721146   0.21138436
10364.00   1.09651291   0.23301719
10366.00   0.98580217   0.28165057
10368.00   0.79674029   0.35051373
10370.00   0.67356855   0.40110287
10372.00   0.95558268   0.42770299
10374.00   1.53940964   0.43149552
10376.00   1.65418339   0.41118380
10378.00   1.15106297   0.35580084
10380.00   1.04346097   0.29461500
10382.00   1.11595309   0.25097725
10384.00   1.03723860   0.23398681
10386.00   0.94212669   0.22986048
10388.00   1.08422136   0.24118738
10390.00   1.13539898   0.26616821
10392.00   1.22729039   0.29745057
10394.00   1.04199660   0.32065937
10396.00   0.93860275   0.33052251
10398.00   1.09732378   0.33259937
10400.00   1.24624360   0.32308206
10402.00   1.13208830   0.29959819
10404.00   0.86516064   0.27002347
10406.00   0.92200118   0.25923207
10408.00   0.84679049   0.26527682
10410.00   0.84083462   0.30050132
10412.00   1.02616155   0.36648893
10414.00   1.05985725   0.44508752
10416.00   1.22591078   0.49683967
10418.00   1.05115759   0.51877952
10420.00   0.83531600   0.51522279
10422.00   0.35849714   0.48386016
10424.00   0.42179003   0.41621366
10426.00   1.01363170   0.34714007
10428.00   0.97112107   0.30440250
10430.00   1.29124582   0.29132950
10432.00   1.61508238   0.28665191
10434.00   1.40311658   0.27650246
10436.00   1.15039062   0.27003378
10438.00   1.02311039   0.26574838
10440.00   1.02087259   0.26703164
10442.00   0.99584675   0.27969846
10444.00   1.26785648   0.30741894
10446.00   0.89445752   0.33369851
10448.00   0.60926026   0.35571387
10450.00   0.69007581   0.36789694
10452.00   0.96366996   0.36827973
10454.00   1.23036075   0.36091039
10456.00   1.18526757   0.33550489
10458.00   1.23865366   0.31276301
10460.00   1.29542124   0.31629834
10462.00   1.49410379   0.36076245
10464.00   0.69062531   0.42562178
10466.00   1.43904650   0.48020768
10468.00   1.33847439   0.50735939
10470.00   0.97659940   0.50822943
10472.00   0.54258049   0.49151364
10474.00   1.16257012   0.43968043
10476.00   1.25901020   0.37673509
10478.00   1.37183380   0.33391893
10480.00   1.02767169   0.31524026
10482.00   1.03262722   0.31510949
10484.00   0.85396522   0.31272587
10486.00   1.08539522   0.31397733
10488.00   1.42523229   0.31964302
10490.00   1.24462736   0.32012069
10492.00   0.96578282   0.31427112
10494.00   1.10260010   0.31730723
10496.00   1.37615597   0.32525799
10498.00   1.49216938   0.33098474
10500.00   1.54038465   0.33444783
10502.00   1.20767319   0.34574249
10504.00   1.03613317   0.36943236
10506.00   1.26194465   0.39561462
10508.00   1.55878830   0.41350114
10510.00   1.40697277   0.42083168
10512.00   1.30045199   0.41987696
10514.00   1.20079958   0.40803111
10516.00   1.23973048   0.39858916
10518.00   1.41677654   0.41394868
10520.00   1.42855871   0.45322847
10522.00   0.88785416   0.48770234
10524.00   1.25811040   0.50489515
10526.00   1.39340878   0.51206535
10528.00   1.53761590   0.50309199
10530.00   1.47145236   0.46306029
10532.00   1.47853804   0.42180753
10534.00   1.21798182   0.39817616
10536.00   1.09481049   0.39271882
10538.00   1.29681325   0.39370012
10540.00   1.59472024   0.39970866
10542.00   1.72398937   0.40798506
10544.00   1.59460199   0.41059360
10546.00   1.42988074   0.41334748
10548.00   1.43483245   0.42008057
10550.00   1.51239479   0.35702649
10552.00   1.45471442   0.35074914
10554.00   1.38780415   0.34720516
10556.00   1.48440933   0.35186344
10558.00   1.48419046   0.35494894
10560.00   1.44245398   0.35258257
10562.00   1.58441436   0.35380608
10564.00   1.89442980   0.36302292
10566.00   1.84888422   0.37426534
10568.00   1.21564054   0.38566637
10570.00   1.30452442   0.39373448
10572.00   1.46990347   0.39897233
10574.00   1.68937194   0.40093723
10576.00   1.50129187   0.40237606
10578.00   1.82185519   0.39931563
10580.00   1.86210537   0.40634143
10582.00   1.73136103   0.42390698
10584.00   1.75834239   0.44039595
10586.00   1.80164003   0.43980956
10588.00   0.92422312   0.43093142
10590.00   1.49724901   0.42649141
10592.00   1.67445564   0.42349213
10594.00   1.54368651   0.41335273
10596.00   0.98503274   0.39839265
10598.00   1.26315379   0.39468062
10600.00   1.00658977   0.40007323
10602.00   1.31548643   0.40280634
10604.00   1.65032637   0.39564669
10606.00   1.66700149   0.40535653
10608.00   2.03226447   0.40778756
10610.00   0.99507451   0.39834300
10612.00   1.20495045   0.39340559
10614.00   1.52260888   0.40887594
10616.00   1.89121687   0.41360092
10618.00   1.62491047   0.40635020
10620.00   1.08500636   0.40313965
10622.00   0.90632701   0.41155779
10624.00   1.07407653   0.41633451
10626.00   1.10032535   0.41557509
10628.00   1.26439726   0.40996748
10630.00   0.81465054   0.41173071
10632.00   1.56324613   0.42077222
10634.00   0.94717836   0.42283022
10636.00   0.77324110   0.42515054
10638.00   1.16523528   0.43981403
10640.00   1.44761980   0.45590425
10642.00   1.58573532   0.46074092
10644.00   2.42762113   0.44687361
10646.00   1.39015138   0.44222856
10648.00   0.97340411   0.44056788
10650.00   1.88796508   0.44135514
10652.00   0.91022795   0.44753128
10654.00   0.70341307   0.44454104
10656.00   1.07712770   0.45005476
10658.00   0.86050910   0.44148529
10660.00   1.02264965   0.42789298
10662.00   0.66424477   0.42766923
10664.00   1.04262590   0.43937618
10666.00   0.60822648   0.44154215
10668.00   0.91857570   0.43084931
10670.00   0.70054561   0.42408326
10672.00   0.81923288   0.49334624
10674.00   0.19366772   0.47067440
10676.00   0.65413231   0.47326788
10678.00   1.15725434   0.48378351
10680.00   1.26237869   0.48752651
10682.00   0.87406111   0.48577979
10684.00   0.51933813   0.49359885
10686.00   0.48220590   0.50505513
10688.00   0.44428661   0.49540567
10690.00   0.66226244   0.48315644
10692.00   1.11693013   0.48427889
10694.00   1.09007776   0.48393020
10696.00   0.44295087   0.47031096
10698.00   -0.08610541   0.46236730
10700.00   1.08923554   0.46488962
10702.00   0.73133552   0.45093563
