# File created by shivutils (I.Shivvers)
# wl(A)   flm    er(optional)
3638.00   8.47921944   0.16161537
3640.00   8.29749584   0.16055968
3642.00   8.31087780   0.16065557
3644.00   8.31298351   0.15996508
3646.00   7.52985525   0.15516292
3648.00   7.37914085   0.16863589
3650.00   7.14039898   0.17835338
3652.00   6.96251965   0.17120895
3654.00   6.72932720   0.16107745
3656.00   6.55826092   0.15530895
3658.00   6.43740463   0.14442928
3660.00   6.08208656   0.14243707
3662.00   5.64522886   0.14535801
3664.00   5.26015139   0.13984108
3666.00   5.32677221   0.13102362
3668.00   5.21009970   0.12595026
3670.00   4.89828396   0.12228732
3672.00   4.76657820   0.12184352
3674.00   4.78060055   0.12074844
3676.00   4.42781305   0.11670180
3678.00   4.23173475   0.11342344
3680.00   4.26993227   0.11318326
3682.00   3.87715912   0.10959511
3684.00   3.77313232   0.10820977
3686.00   3.79270864   0.10662341
3688.00   3.71694899   0.10678614
3690.00   3.54910445   0.10593020
3692.00   3.34608579   0.10573334
3694.00   3.29542232   0.10355835
3696.00   3.28651476   0.10292677
3698.00   3.05423522   0.10256443
3700.00   3.12027073   0.10379255
3702.00   2.90600419   0.10022923
3704.00   3.02487540   0.09825156
3706.00   2.95075989   0.09622337
3708.00   2.96591997   0.09579068
3710.00   2.78251100   0.09527980
3712.00   2.88406324   0.09776830
3714.00   2.93570852   0.09838969
3716.00   2.71196651   0.09553078
3718.00   2.78719735   0.09351086
3720.00   2.81929731   0.09080464
3722.00   2.67712283   0.08939208
3724.00   2.81043625   0.09210899
3726.00   2.65532637   0.09123123
3728.00   2.88503718   0.09209477
3730.00   2.79261088   0.09070664
3732.00   2.80306673   0.08909885
3734.00   2.73442984   0.08621127
3736.00   2.70884037   0.08502791
3738.00   2.77972984   0.08814917
3740.00   2.64262247   0.08909230
3742.00   2.79258823   0.08884730
3744.00   2.96247625   0.08760596
3746.00   3.00037718   0.08637898
3748.00   2.92277765   0.08490255
3750.00   3.19367647   0.08828644
3752.00   3.16011024   0.09028535
3754.00   3.12148142   0.09160427
3756.00   3.34589386   0.09067634
3758.00   3.28002334   0.08854617
3760.00   3.43215489   0.08971131
3762.00   3.43588328   0.09007298
3764.00   3.56232381   0.09070443
3766.00   3.55352187   0.09054249
3768.00   3.73047757   0.09141382
3770.00   3.62685442   0.09155055
3772.00   3.98759913   0.09509471
3774.00   4.21814013   0.09595947
3776.00   4.43366957   0.09757352
3778.00   4.29019642   0.09636901
3780.00   4.32401180   0.09724551
3782.00   4.41617632   0.09783845
3784.00   4.50510454   0.09729701
3786.00   4.59122992   0.09671845
3788.00   4.72590590   0.09692874
3790.00   4.80518341   0.09805524
3792.00   5.00371170   0.09899360
3794.00   5.05551481   0.09785344
3796.00   5.27758694   0.09823233
3798.00   5.18659163   0.09682889
3800.00   5.17460251   0.09759374
3802.00   5.21148539   0.09970736
3804.00   5.54726839   0.10155389
3806.00   5.59933901   0.10074598
3808.00   5.37486076   0.09911626
3810.00   5.49024916   0.09997416
3812.00   5.76867723   0.10102107
3814.00   5.80612135   0.10279953
3816.00   5.85894299   0.09870760
3818.00   5.78299522   0.09800407
3820.00   5.94607830   0.09818918
3822.00   6.00553513   0.09828837
3824.00   6.32529831   0.09896248
3826.00   6.26213360   0.09823785
3828.00   6.15086794   0.09772857
3830.00   6.34097338   0.09891881
3832.00   6.42559099   0.09883083
3834.00   6.27965927   0.09699673
3836.00   6.68385983   0.09910839
3838.00   6.87865400   0.09936355
3840.00   6.99541092   0.10014394
3842.00   6.99359798   0.10051782
3844.00   6.95942068   0.10083368
3846.00   7.19071007   0.10129175
3848.00   7.39679718   0.10163959
3850.00   7.38259745   0.10083746
3852.00   7.55228901   0.10161910
3854.00   7.77136469   0.10220987
3856.00   8.04550266   0.10252403
3858.00   8.18487835   0.10228661
3860.00   8.20532799   0.10224814
3862.00   8.25292587   0.10355218
3864.00   8.54644299   0.10534205
3866.00   8.65568447   0.10472170
3868.00   9.08209896   0.10617072
3870.00   9.36644554   0.10642953
3872.00   9.42747879   0.10702050
3874.00   9.73487377   0.10969512
3876.00   9.91660690   0.10982399
3878.00   10.55740929   0.11110389
3880.00   10.68402386   0.11147146
3882.00   10.97147846   0.11238594
3884.00   11.27748680   0.11345067
3886.00   11.54785347   0.11405497
3888.00   11.93701744   0.11493666
3890.00   12.11539555   0.11631684
3892.00   12.37022114   0.11774083
3894.00   12.43593121   0.11784869
3896.00   12.68066120   0.11855198
3898.00   12.86334133   0.11904380
3900.00   13.18362236   0.11994897
3902.00   13.29771042   0.12013969
3904.00   13.44462299   0.12109654
3906.00   13.43580341   0.12243133
3908.00   13.41325569   0.12356479
3910.00   13.69917679   0.12476163
3912.00   13.80864811   0.12454311
3914.00   13.76058388   0.12301359
3916.00   13.69004917   0.12108855
3918.00   13.71414089   0.11975597
3920.00   13.83434391   0.11910236
3922.00   13.97224140   0.11900242
3924.00   13.98239517   0.11870517
3926.00   13.88747215   0.11744013
3928.00   14.16141796   0.11698952
3930.00   13.86307430   0.11493394
3932.00   13.39666748   0.11324812
3934.00   13.61689186   0.11363795
3936.00   14.04566860   0.11478199
3938.00   14.22424030   0.11574724
3940.00   14.43324661   0.11701156
3942.00   14.34133625   0.11711347
3944.00   14.26845264   0.11724871
3946.00   14.15677166   0.11648322
3948.00   14.42754555   0.11714292
3950.00   14.36193562   0.11680248
3952.00   14.43442249   0.11663145
3954.00   13.84691620   0.11427384
3956.00   13.70331955   0.11343455
3958.00   14.13956833   0.11477538
3960.00   14.76980591   0.11707535
3962.00   14.73540306   0.11618230
3964.00   14.63446426   0.11402431
3966.00   14.58092308   0.11259705
3968.00   14.66965961   0.11233749
3970.00   14.56995869   0.11225704
3972.00   14.81149292   0.11375621
3974.00   14.52821445   0.11339886
3976.00   14.31190300   0.11307729
3978.00   14.34919834   0.11435369
3980.00   14.14574432   0.11387867
3982.00   14.09772301   0.11340780
3984.00   13.64962101   0.11151679
3986.00   13.78561401   0.11188158
3988.00   13.69182491   0.11187242
3990.00   13.28096771   0.11021192
3992.00   13.08654213   0.10939573
3994.00   13.11443806   0.10975088
3996.00   13.13033390   0.10982917
3998.00   12.88364124   0.10865587
4000.00   12.59827232   0.10708725
4002.00   12.55747700   0.10647614
4004.00   12.33721828   0.10508450
4006.00   12.34817982   0.10495635
4008.00   12.10787296   0.10456207
4010.00   12.03350830   0.10439549
4012.00   11.74756908   0.10320368
4014.00   11.61371517   0.10236555
4016.00   11.77206421   0.10269098
4018.00   11.66983891   0.10365145
4020.00   11.61381531   0.10517239
4022.00   11.54205608   0.10495362
4024.00   11.58448124   0.10437512
4026.00   11.59337711   0.10280887
4028.00   11.79785347   0.10253250
4030.00   11.65529251   0.10129597
4032.00   11.79590225   0.10099732
4034.00   11.79311371   0.10061811
4036.00   11.88993549   0.10108203
4038.00   11.95351887   0.10132481
4040.00   12.17195320   0.10175864
4042.00   12.11089230   0.10275349
4044.00   12.12172699   0.11580197
4046.00   12.43234825   0.12641241
4048.00   12.44723225   0.11901699
4050.00   12.75012970   0.10612810
4052.00   12.66770363   0.10314453
4054.00   12.79518890   0.10291795
4056.00   13.08443642   0.10268833
4058.00   13.05387402   0.10176972
4060.00   13.42690468   0.10229149
4062.00   13.56970787   0.10234708
4064.00   13.56173897   0.10198367
4066.00   13.82285976   0.10296297
4068.00   13.64982796   0.10253057
4070.00   13.96903515   0.10286143
4072.00   14.07466888   0.10293292
4074.00   14.15651131   0.10389861
4076.00   14.33699226   0.10648736
4078.00   14.34440708   0.10701277
4080.00   14.30501556   0.10586660
4082.00   14.42689800   0.10530701
4084.00   14.39662266   0.10489415
4086.00   14.68873501   0.10544271
4088.00   14.62885094   0.10488895
4090.00   14.87955570   0.10450180
4092.00   15.08793545   0.10478178
4094.00   15.08391953   0.10456716
4096.00   15.04997444   0.10411591
4098.00   14.82202625   0.10315546
4100.00   15.15565491   0.10329932
4102.00   15.15570164   0.10290201
4104.00   15.22706413   0.10344058
4106.00   15.40786552   0.10450175
4108.00   15.35410309   0.10436463
4110.00   15.19919205   0.10386153
4112.00   15.09247494   0.10349687
4114.00   15.09963799   0.10369385
4116.00   15.11434078   0.10349570
4118.00   15.00822830   0.10252900
4120.00   15.16392040   0.10280065
4122.00   15.17066765   0.10284802
4124.00   14.90443134   0.10193434
4126.00   14.82517242   0.10160428
4128.00   15.00678349   0.10195420
4130.00   14.84806347   0.10126541
4132.00   14.87457943   0.10140801
4134.00   14.79307175   0.10119210
4136.00   14.62321568   0.10022152
4138.00   14.53909206   0.10040254
4140.00   14.63460827   0.10042609
4142.00   14.52868843   0.09930103
4144.00   14.29676437   0.09782653
4146.00   14.19836044   0.09774621
4148.00   14.04390335   0.09720206
4150.00   13.97582531   0.09726122
4152.00   13.92119503   0.09721501
4154.00   13.73793793   0.09600347
4156.00   13.75680065   0.09564057
4158.00   13.81611061   0.09549116
4160.00   13.58499813   0.09501901
4162.00   13.50452614   0.09535328
4164.00   13.45861435   0.09562288
4166.00   13.33598232   0.09489664
4168.00   13.26563740   0.09364813
4170.00   13.26584816   0.09314667
4172.00   13.30966473   0.09255638
4174.00   13.20604706   0.09209731
4176.00   13.27230453   0.09238471
4178.00   13.13061714   0.09207325
4180.00   13.34774399   0.09244919
4182.00   13.11815548   0.09131420
4184.00   13.25583744   0.09168641
4186.00   13.17803097   0.09135535
4188.00   13.31068325   0.09172148
4190.00   13.31241512   0.09161693
4192.00   13.20461464   0.09148468
4194.00   13.29847908   0.09143711
4196.00   13.19144917   0.09055045
4198.00   13.28650379   0.09035633
4200.00   13.07063198   0.08988201
4202.00   13.14269257   0.09025569
4204.00   13.15642548   0.09105451
4206.00   13.13230896   0.09117316
4208.00   13.08565903   0.09111820
4210.00   13.03658009   0.09094480
4212.00   12.79541111   0.09014557
4214.00   12.81535435   0.08969873
4216.00   12.67353439   0.08916962
4218.00   12.68210220   0.08911504
4220.00   12.45444393   0.08833476
4222.00   12.40659809   0.08782388
4224.00   12.14636898   0.08631592
4226.00   12.11792755   0.08592088
4228.00   11.95344353   0.08568312
4230.00   11.87970829   0.08599943
4232.00   11.80930233   0.08588434
4234.00   11.58914757   0.08480270
4236.00   11.37706852   0.08416432
4238.00   11.36787796   0.08408716
4240.00   11.19655704   0.08319291
4242.00   11.15385246   0.08269479
4244.00   11.00064564   0.08349789
4246.00   10.91526890   0.08404268
4248.00   10.75162506   0.08251451
4250.00   10.56562519   0.08050396
4252.00   10.63581657   0.08014248
4254.00   10.45086956   0.07955153
4256.00   10.32894135   0.07927881
4258.00   10.18589973   0.07848363
4260.00   10.20179558   0.07803178
4262.00   9.99019051   0.07744357
4264.00   10.08894730   0.07784924
4266.00   9.90942001   0.07714752
4268.00   9.83956623   0.07656988
4270.00   9.65881824   0.07552847
4272.00   9.50835037   0.07487772
4274.00   9.36245155   0.07455290
4276.00   9.34173775   0.07493750
4278.00   9.14843178   0.07449427
4280.00   9.11809349   0.07406551
4282.00   9.08695507   0.07401577
4284.00   9.01032734   0.07353289
4286.00   8.90392494   0.07289290
4288.00   8.77384377   0.07239115
4290.00   8.72661400   0.07219631
4292.00   8.71080017   0.07209845
4294.00   8.54716587   0.07154249
4296.00   8.59166241   0.07138497
4298.00   8.50903797   0.07047327
4300.00   8.32658100   0.06953768
4302.00   8.31367683   0.06957027
4304.00   8.12341976   0.06912611
4306.00   8.04384232   0.06894442
4308.00   7.82294750   0.06806771
4310.00   7.76819420   0.06832980
4312.00   7.68314266   0.06958730
4314.00   7.55556107   0.07025752
4316.00   7.42922306   0.06957562
4318.00   7.44408321   0.06985188
4320.00   7.53592062   0.07015631
4322.00   7.40469360   0.06928268
4324.00   7.40120649   0.06860764
4326.00   7.50735331   0.06875661
4328.00   7.55059290   0.06870358
4330.00   7.65247059   0.06922051
4332.00   7.48821831   0.06869830
4334.00   7.70832586   0.06929797
4336.00   7.55014944   0.06880521
4338.00   7.80039072   0.06924576
4340.00   7.82198238   0.06909173
4342.00   7.80364466   0.06943326
4344.00   7.96497345   0.07068631
4346.00   8.07405376   0.07217122
4348.00   8.03692532   0.07206562
4350.00   8.18251038   0.07148434
4352.00   8.28964233   0.07163358
4354.00   8.12613583   0.07739846
4356.00   8.35599041   0.09890753
4358.00   8.32080650   0.10733158
4360.00   8.76030445   0.09502155
4362.00   8.66310406   0.07987469
4364.00   8.76855946   0.07463872
4366.00   8.73826694   0.07366119
4368.00   8.83154392   0.07324892
4370.00   8.95379257   0.07317096
4372.00   8.86332607   0.07330336
4374.00   8.87496948   0.07339419
4376.00   8.82118320   0.07268342
4378.00   8.87051010   0.07235611
4380.00   8.91075897   0.07186793
4382.00   8.95345879   0.07122353
4384.00   8.90346241   0.07074839
4386.00   9.04696751   0.07119597
4388.00   9.04175472   0.07133069
4390.00   8.88183212   0.07096759
4392.00   9.11088085   0.07136077
4394.00   9.11009598   0.07123248
4396.00   9.09245396   0.07128655
4398.00   9.15638351   0.07175799
4400.00   9.19081402   0.07182380
4402.00   9.36991501   0.07167792
4404.00   9.39681625   0.07123642
4406.00   9.46405792   0.07146052
4408.00   9.53871155   0.07169084
4410.00   9.54760838   0.07204181
4412.00   9.54325867   0.07205154
4414.00   9.61402893   0.07228221
4416.00   9.56528950   0.07215002
4418.00   9.69419003   0.07220844
4420.00   9.68557453   0.07202265
4422.00   9.70431328   0.07192749
4424.00   9.57566738   0.07145636
4426.00   9.57824230   0.07143871
4428.00   9.54544163   0.07124127
4430.00   9.59572983   0.07115544
4432.00   9.56179714   0.07082510
4434.00   9.60415840   0.07068349
4436.00   9.49901104   0.07053924
4438.00   9.49627781   0.07036694
4440.00   9.39888859   0.07003473
4442.00   9.26091099   0.06948810
4444.00   9.23188782   0.06946609
4446.00   9.31561565   0.06964812
4448.00   9.37318134   0.06957808
4450.00   9.19666576   0.06927048
4452.00   9.20399570   0.06886581
4454.00   9.09832764   0.06834596
4456.00   9.10228634   0.06824492
4458.00   9.13590717   0.06834776
4460.00   9.12867737   0.06828211
4462.00   9.16753292   0.06845027
4464.00   9.48349571   0.06931152
4466.00   9.50593090   0.06934941
4468.00   9.51012802   0.06945635
4470.00   9.50200653   0.06959844
4472.00   9.63740253   0.06994577
4474.00   9.62362766   0.07013075
4476.00   9.87126446   0.07063501
4478.00   10.00971222   0.07082482
4480.00   10.02108192   0.07074131
4482.00   10.10913658   0.07143094
4484.00   10.33500481   0.07370470
4486.00   10.48717022   0.07207710
4488.00   10.58437634   0.07223276
4490.00   10.77326107   0.07261270
4492.00   10.72574425   0.07258572
4494.00   10.96818542   0.07326724
4496.00   11.02658081   0.07330266
4498.00   11.06475544   0.07355904
4500.00   11.29704285   0.07397670
4502.00   11.46499920   0.07425021
4504.00   11.66127968   0.07474858
4506.00   11.69896889   0.07463238
4508.00   11.89434814   0.07491107
4510.00   12.02979565   0.07514229
4512.00   12.17086506   0.07536796
4514.00   12.08063889   0.07490815
4516.00   12.13418102   0.07502467
4518.00   12.23232174   0.07506092
4520.00   12.22371578   0.07486340
4522.00   12.31015015   0.07497095
4524.00   12.28649139   0.07468758
4526.00   12.25454617   0.07442579
4528.00   12.34363270   0.07448997
4530.00   12.33948994   0.07439701
4532.00   12.36300468   0.07447041
4534.00   12.35912132   0.07438196
4536.00   12.49042797   0.07469562
4538.00   12.48133087   0.07474288
4540.00   12.56739044   0.07491784
4542.00   12.54004669   0.07486038
4544.00   12.56330204   0.07483111
4546.00   12.69198608   0.07484887
4548.00   12.62242508   0.07443913
4550.00   12.53224659   0.07410338
4552.00   12.66562748   0.07428407
4554.00   12.69602489   0.07434390
4556.00   12.59403038   0.07417780
4558.00   12.46015453   0.07376249
4560.00   12.41072655   0.07337457
4562.00   12.26750183   0.07292301
4564.00   12.36210728   0.07279404
4566.00   12.14757729   0.07215820
4568.00   12.11743355   0.07200246
4570.00   11.99890137   0.07161926
4572.00   11.90235710   0.07118721
4574.00   11.77209473   0.07056405
4576.00   11.68765068   0.07012556
4578.00   11.71659470   0.06987636
4580.00   11.61395645   0.06932835
4582.00   11.62678242   0.06912603
4584.00   11.50331306   0.06890707
4586.00   11.47577095   0.06889091
4588.00   11.42535973   0.06885876
4590.00   11.39542103   0.06864326
4592.00   11.41185760   0.06870552
4594.00   11.47162914   0.06885216
4596.00   11.51885986   0.06889926
4598.00   11.52615833   0.06892864
4600.00   11.51165485   0.06884967
4602.00   11.57239628   0.06898209
4604.00   11.72111225   0.06926083
4606.00   11.66677570   0.06919654
4608.00   11.77189636   0.06967422
4610.00   11.78413296   0.06948724
4612.00   11.88761520   0.06962603
4614.00   11.80996895   0.06955912
4616.00   11.83936214   0.06947373
4618.00   11.84778023   0.06951653
4620.00   11.97354698   0.06971620
4622.00   12.00174522   0.06973228
4624.00   11.90442085   0.06948972
4626.00   11.93930340   0.06955945
4628.00   11.97824287   0.06964247
4630.00   11.97069740   0.06955298
4632.00   12.01222992   0.06952901
4634.00   11.93832207   0.06924488
4636.00   12.01924706   0.06943152
4638.00   11.86163235   0.06898197
4640.00   11.97596264   0.06919472
4642.00   11.76812458   0.06867609
4644.00   11.68085003   0.06829941
4646.00   11.63735104   0.06806571
4648.00   11.54236412   0.06781644
4650.00   11.48573399   0.06777267
4652.00   11.36738777   0.06739669
4654.00   11.34595680   0.06732488
4656.00   11.16578674   0.06698354
4658.00   10.94968700   0.06654970
4660.00   10.80563450   0.06635189
4662.00   10.80642605   0.06625964
4664.00   10.50935173   0.06557110
4666.00   10.35664463   0.06520606
4668.00   10.35354614   0.06528015
4670.00   10.15499210   0.06481142
4672.00   9.89872074   0.06404093
4674.00   9.78405666   0.06360465
4676.00   9.59395504   0.06287369
4678.00   9.48071003   0.06216310
4680.00   9.45369720   0.06191029
4682.00   9.33970165   0.06160212
4684.00   9.14843178   0.06098598
4686.00   9.05561256   0.06068072
4688.00   9.07666302   0.06056792
4690.00   8.96544647   0.06021765
4692.00   8.82292557   0.05981774
4694.00   8.84827232   0.05972169
4696.00   8.82509518   0.05960340
4698.00   8.82583046   0.05929496
4700.00   8.90354633   0.05951103
4702.00   8.89010143   0.05932591
4704.00   8.82427311   0.05916465
4706.00   8.86181736   0.05942225
4708.00   8.82407951   0.05936909
4710.00   8.76338482   0.05926751
4712.00   8.78557301   0.05925936
4714.00   8.83528042   0.05919551
4716.00   8.99834347   0.05956504
4718.00   8.88257122   0.05929503
4720.00   8.89182472   0.05933753
4722.00   8.77686596   0.05905317
4724.00   8.72905540   0.05886666
4726.00   8.70982265   0.05915357
4728.00   8.74585915   0.05936610
4730.00   8.54626083   0.05888445
4732.00   8.61250877   0.05914039
4734.00   8.61420059   0.05933772
4736.00   8.57167149   0.05927382
4738.00   8.53407860   0.05962634
4740.00   8.45022774   0.05970940
4742.00   8.22578812   0.05938571
4744.00   8.25203514   0.05883311
4746.00   8.19777203   0.05797383
4748.00   8.18513298   0.05743222
4750.00   8.19065189   0.05748501
4752.00   8.09964275   0.05725927
4754.00   8.04252815   0.05683728
4756.00   7.91183853   0.05620628
4758.00   7.80153275   0.05574554
4760.00   7.65683794   0.05530967
4762.00   7.65640068   0.05513909
4764.00   7.60160017   0.05486505
4766.00   7.64055490   0.05485025
4768.00   7.64227724   0.05483883
4770.00   7.49625731   0.05450953
4772.00   7.50958300   0.05451068
4774.00   7.30288553   0.05407405
4776.00   7.28706169   0.05426667
4778.00   7.34181547   0.05466206
4780.00   7.22146845   0.05410982
4782.00   7.28315735   0.05417566
4784.00   7.25912523   0.05394107
4786.00   7.17199564   0.05367442
4788.00   7.15311527   0.05356527
4790.00   7.18175173   0.05368272
4792.00   7.18493700   0.05373568
4794.00   7.22992945   0.05378830
4796.00   7.23386812   0.05370222
4798.00   7.36656427   0.05397452
4800.00   7.40643406   0.05408644
4802.00   7.41731405   0.05406776
4804.00   7.57050180   0.05441270
4806.00   7.62846470   0.05464943
4808.00   7.79798698   0.05513499
4810.00   7.83081770   0.05515300
4812.00   7.88550234   0.05541551
4814.00   8.03485870   0.05583433
4816.00   8.01431179   0.05577537
4818.00   8.04585361   0.05592018
4820.00   7.89570713   0.05554954
4822.00   8.02908611   0.05588059
4824.00   7.98787546   0.05580670
4826.00   8.05128002   0.05602073
4828.00   7.99931383   0.05580910
4830.00   7.87243128   0.05548676
4832.00   7.80217409   0.05537657
4834.00   7.85184526   0.05542627
4836.00   7.83208275   0.05554472
4838.00   7.76916933   0.05549394
4840.00   7.77600527   0.05546684
4842.00   7.68322992   0.05498109
4844.00   7.54269314   0.05464955
4846.00   7.47324133   0.05445691
4848.00   7.48409224   0.05444556
4850.00   7.35436440   0.05417613
4852.00   7.24659777   0.05367521
4854.00   7.14260674   0.05310059
4856.00   7.08314371   0.05277347
4858.00   6.95256805   0.05209956
4860.00   6.80419874   0.05146008
4862.00   6.84513235   0.05181022
4864.00   6.72332716   0.05178278
4866.00   6.62345362   0.05163039
4868.00   6.59550905   0.05149953
4870.00   6.44291496   0.05093646
4872.00   6.42230368   0.05095332
4874.00   6.40087652   0.05098148
4876.00   6.31931019   0.05091933
4878.00   6.12125158   0.05047591
4880.00   6.07145166   0.05022797
4882.00   6.01609278   0.04988823
4884.00   5.96702194   0.04961160
4886.00   6.06382370   0.04966576
4888.00   6.05744982   0.04960640
4890.00   6.04348135   0.04963365
4892.00   6.02259588   0.04965876
4894.00   5.93210363   0.04953701
4896.00   5.87599564   0.04932951
4898.00   5.79106474   0.04908457
4900.00   6.00337887   0.04959097
4902.00   5.90291262   0.04912188
4904.00   5.95699644   0.04939156
4906.00   5.99257231   0.04926218
4908.00   5.99142599   0.04910231
4910.00   6.02860975   0.04919856
4912.00   6.12949848   0.04952225
4914.00   6.14218426   0.04962445
4916.00   6.23606300   0.04974144
4918.00   6.28747177   0.04967377
4920.00   6.34729338   0.04969776
4922.00   6.40477133   0.04981158
4924.00   6.34653187   0.04968194
4926.00   6.39861441   0.04982694
4928.00   6.43404102   0.04988112
4930.00   6.56429529   0.05023138
4932.00   6.61767721   0.05035568
4934.00   6.61489487   0.05030904
4936.00   6.69548035   0.05039899
4938.00   6.66231489   0.05030206
4940.00   6.75262260   0.05071347
4942.00   6.63527203   0.05039404
4944.00   6.71529579   0.05044424
4946.00   6.72634935   0.05046850
4948.00   6.77188110   0.05057160
4950.00   6.70676613   0.05045955
4952.00   6.84600449   0.05087237
4954.00   6.74957991   0.05046013
4956.00   6.79020739   0.05034666
4958.00   6.73682356   0.05034937
4960.00   6.81600142   0.05066647
4962.00   6.77449465   0.05057875
4964.00   6.75520420   0.05065720
4966.00   6.74771643   0.05063488
4968.00   6.72191858   0.05069007
4970.00   6.69984007   0.05088590
4972.00   6.69623423   0.05133293
4974.00   6.76528978   0.05184535
4976.00   6.75624657   0.05235779
4978.00   6.73862934   0.05283445
4980.00   6.69133997   0.05325935
4982.00   6.68103552   0.05338808
4984.00   6.68271112   0.05320293
4986.00   6.69540548   0.05292548
4988.00   6.74298334   0.05249554
4990.00   6.68172979   0.05276985
4992.00   6.67688274   0.05156321
4994.00   6.66380882   0.05111840
4996.00   6.48530531   0.05027683
4998.00   6.69624424   0.05056478
5000.00   6.55923986   0.05000879
5002.00   6.54420853   0.04986620
5004.00   6.62140560   0.04982055
5006.00   6.50319958   0.04944189
5008.00   6.57198048   0.04972742
5010.00   6.56887674   0.04953330
5012.00   6.60650778   0.04961338
5014.00   6.67779827   0.04981062
5016.00   6.63213158   0.04973648
5018.00   6.59112310   0.04963352
5020.00   6.61362076   0.04982487
5022.00   6.64218378   0.04982565
5024.00   6.68311214   0.04973647
5026.00   6.58730984   0.04955453
5028.00   6.72507715   0.05005538
5030.00   6.62370157   0.04982372
5032.00   6.65946150   0.04990815
5034.00   6.86997080   0.05029513
5036.00   6.96184158   0.05049334
5038.00   6.88897181   0.05010570
5040.00   6.81859875   0.04985997
5042.00   6.91668892   0.05017256
5044.00   7.04266071   0.05070154
5046.00   6.99954367   0.05051558
5048.00   7.06742716   0.05064383
5050.00   7.13277197   0.05075286
5052.00   7.19066000   0.05102668
5054.00   7.13534975   0.05078414
5056.00   7.08857346   0.05077448
5058.00   7.25182819   0.05128687
5060.00   7.31363726   0.05149340
5062.00   7.25572920   0.05157530
5064.00   7.51950121   0.05225585
5066.00   7.36671305   0.05211294
5068.00   7.37318993   0.05233486
5070.00   7.41336107   0.05226157
5072.00   7.47859573   0.05219615
5074.00   7.49687767   0.05216310
5076.00   7.68668985   0.05262300
5078.00   7.76511288   0.05333830
5080.00   7.82102489   0.05440294
5082.00   7.87494183   0.05532095
5084.00   7.97310638   0.05595795
5086.00   7.94988585   0.05562070
5088.00   8.03212738   0.05503133
5090.00   8.31703186   0.05494763
5092.00   8.31878471   0.05438978
5094.00   8.36672783   0.05432858
5096.00   8.27993107   0.05446941
5098.00   8.52779961   0.05513619
5100.00   8.45081806   0.05477876
5102.00   8.55648899   0.05475512
5104.00   8.57710361   0.05446523
5106.00   8.72052002   0.05468142
5108.00   8.88513851   0.05508605
5110.00   8.92518139   0.05520111
5112.00   8.89755726   0.05523984
5114.00   8.92474842   0.05538237
5116.00   9.02208996   0.05558435
5118.00   9.17284966   0.05580460
5120.00   9.27132416   0.05585998
5122.00   9.30574512   0.05585556
5124.00   9.37505817   0.05598601
5126.00   9.41255665   0.05603822
5128.00   9.44648838   0.05615662
5130.00   9.53327942   0.05645084
5132.00   9.60079002   0.05660559
5134.00   9.68537045   0.05677929
5136.00   9.66376019   0.05672381
5138.00   9.75291061   0.05686240
5140.00   9.74443913   0.05685635
5142.00   9.73907471   0.05683463
5144.00   9.85195446   0.05726803
5146.00   9.77262974   0.05725523
5148.00   9.98434639   0.05792797
5150.00   9.84502220   0.05790944
5152.00   9.82092381   0.05796692
5154.00   9.80269337   0.05792345
5156.00   9.82279587   0.05764285
5158.00   9.74562359   0.05738674
5160.00   9.79233932   0.05738727
5162.00   9.79425049   0.05715368
5164.00   9.67874432   0.05663004
5166.00   9.67068291   0.05637763
5168.00   9.72401428   0.05640602
5170.00   9.63947868   0.05608978
5172.00   9.52233410   0.05586784
5174.00   9.49750614   0.05601405
5176.00   9.48008537   0.05603409
5178.00   9.46752834   0.05600448
5180.00   9.38553905   0.05557690
5182.00   9.30903435   0.05523291
5184.00   9.32575893   0.05537768
5186.00   9.33706188   0.05542473
5188.00   9.28013611   0.05537300
5190.00   9.23310757   0.05527090
5192.00   9.28642750   0.05537614
5194.00   9.17030144   0.05516164
5196.00   9.15021515   0.05519472
5198.00   9.28341198   0.05552249
5200.00   9.26591206   0.05538225
5202.00   9.19912910   0.05529855
5204.00   9.19528675   0.05517005
5206.00   9.15735149   0.05512929
5208.00   9.22005844   0.05536530
5210.00   9.27324200   0.05558185
5212.00   9.28705692   0.05553710
5214.00   9.26099110   0.05538510
5216.00   9.30474091   0.05556601
5218.00   9.35845470   0.05573985
5220.00   9.34961891   0.05570222
5222.00   9.43289089   0.05575613
5224.00   9.50816250   0.05585992
5226.00   9.47831535   0.05563585
5228.00   9.44840431   0.05564006
5230.00   9.44174480   0.05558905
5232.00   9.43444252   0.05558363
5234.00   9.53906631   0.05587508
5236.00   9.49559212   0.05585847
5238.00   9.57115078   0.05609366
5240.00   9.45534134   0.05578707
5242.00   9.47115612   0.05580658
5244.00   9.34034061   0.05545104
5246.00   9.28366375   0.05518364
5248.00   9.20038891   0.05495490
5250.00   9.03487206   0.05450971
5252.00   9.04849815   0.05461965
5254.00   8.89088917   0.05433981
5256.00   8.82877731   0.05434672
5258.00   8.72919941   0.05407115
5260.00   8.65399170   0.05373425
5262.00   8.52437973   0.05317620
5264.00   8.34762478   0.05259987
5266.00   8.20389938   0.05215296
5268.00   8.03597355   0.05173473
5270.00   7.92674637   0.05143767
5272.00   7.75211382   0.05107354
5274.00   7.67999458   0.05094640
5276.00   7.54800749   0.05070591
5278.00   7.35833073   0.05020177
5280.00   7.25346136   0.04981569
5282.00   7.21332312   0.04981793
5284.00   6.99847746   0.04937909
5286.00   6.94497299   0.04926622
5288.00   6.82337856   0.04893855
5290.00   6.83198023   0.04891773
5292.00   6.67489910   0.04850025
5294.00   6.52252722   0.04808863
5296.00   6.49453163   0.04791605
5298.00   6.44279003   0.04771074
5300.00   6.37731361   0.04763677
5302.00   6.44371223   0.04784888
5304.00   6.35642290   0.04762099
5306.00   6.28548241   0.04743674
5308.00   6.24577093   0.04729129
5310.00   6.31662703   0.04752902
5312.00   6.18366194   0.04707424
5314.00   6.20885372   0.04713520
5316.00   6.18726635   0.04704554
5318.00   6.19048357   0.04706814
5320.00   6.20680428   0.04706223
5322.00   6.21059179   0.04701067
5324.00   6.13001871   0.04671915
5326.00   6.21993542   0.04694579
5328.00   6.19129467   0.04692124
5330.00   6.15057755   0.04703473
5332.00   6.22688961   0.04730741
5334.00   6.15293980   0.04712741
5336.00   6.24782705   0.04732281
5338.00   6.24915361   0.04752872
5340.00   6.27092505   0.04766300
5342.00   6.19931746   0.04754565
5344.00   6.21036768   0.04751571
5346.00   6.23861980   0.04781848
5348.00   6.24279308   0.04804298
5350.00   6.19161844   0.04779164
5352.00   6.14107704   0.04798826
5354.00   6.25323629   0.04840451
5356.00   6.22007895   0.04818406
5358.00   6.16955185   0.04778007
5360.00   6.25488377   0.04783218
5362.00   6.17872334   0.04741736
5364.00   6.14611769   0.04720396
5366.00   6.21515560   0.04738534
5368.00   6.29024553   0.04757134
5370.00   6.33934927   0.04778596
5372.00   6.32125902   0.04810145
5374.00   6.40510941   0.04846226
5376.00   6.47905493   0.04868589
5378.00   6.56759501   0.04903857
5380.00   6.55261374   0.04893210
5382.00   6.64052916   0.04925741
5384.00   6.66247129   0.04941263
5386.00   6.77642870   0.04985216
5388.00   6.84712553   0.05034002
5390.00   6.86239004   0.05065526
5392.00   6.85103846   0.05068013
5394.00   6.90594053   0.05104148
5396.00   6.94115448   0.05126318
5398.00   6.90516806   0.05141384
5400.00   7.00053072   0.05186750
5402.00   7.01614904   0.05212366
5404.00   7.07969809   0.05255974
5406.00   6.99864101   0.05273820
5408.00   7.05557489   0.05324390
5410.00   6.98995495   0.05370051
5412.00   7.07785654   0.05459847
5414.00   7.12009192   0.05530827
5416.00   7.06330919   0.05557114
5418.00   7.08484602   0.05610169
5420.00   7.15600634   0.05646126
5422.00   6.99575186   0.05647907
5424.00   7.01172686   0.05644799
5426.00   6.99080420   0.05651081
5428.00   7.08993149   0.05682107
5430.00   6.93966246   0.05682501
5432.00   6.88387537   0.05673637
5434.00   6.92365599   0.05703447
5436.00   6.89501953   0.05726758
5438.00   6.83178091   0.05741861
5440.00   6.70277166   0.05733703
5442.00   6.75161600   0.05767611
5444.00   6.63560915   0.05768915
5446.00   6.61002445   0.05777323
5448.00   6.51894283   0.05768902
5450.00   6.35449409   0.05729067
5452.00   6.42024231   0.05774389
5454.00   6.35753107   0.05844967
5456.00   6.22285461   0.06405223
5458.00   6.15358734   0.07070633
5460.00   6.12137127   0.07205881
5462.00   6.02315617   0.06846089
5464.00   5.99711323   0.06531780
5466.00   5.71658325   0.06162551
5468.00   5.67897606   0.05946186
5470.00   5.69179392   0.05787530
5472.00   5.66400862   0.05681689
5474.00   5.49954224   0.05592768
5476.00   5.60128307   0.05610129
5478.00   5.54321623   0.05624791
5480.00   5.47047567   0.05663675
5482.00   5.31648207   0.05649152
5484.00   5.36820269   0.05629856
5486.00   5.28396130   0.05563822
5488.00   5.18384695   0.05537964
5490.00   5.21827793   0.05505251
5492.00   5.32125139   0.05526572
5494.00   5.15996504   0.05458217
5496.00   5.20495653   0.05471498
5498.00   5.20417070   0.05463362
5500.00   5.16603231   0.05448685
5502.00   5.21632051   0.05460202
5504.00   5.23258114   0.05459436
5506.00   5.23796892   0.05465103
5508.00   5.39240026   0.05524876
5510.00   5.46341610   0.05586926
5512.00   5.46863127   0.05617279
5514.00   5.54283524   0.05628382
5516.00   5.53511047   0.05660299
5518.00   5.59314060   0.05705808
5520.00   5.71982384   0.05749481
5522.00   5.83954859   0.05787893
5524.00   5.86074352   0.05776517
5526.00   5.87553310   0.05787549
5528.00   6.00954580   0.05797596
5530.00   6.11614132   0.05825604
5532.00   6.24355221   0.05887203
5534.00   6.27073622   0.05896667
5536.00   6.24012995   0.10120251
5538.00   6.36197853   0.10096025
5540.00   6.51987696   0.10086400
5542.00   6.61297750   0.10057335
5544.00   6.69230270   0.10026174
5546.00   6.81208086   0.09992605
5548.00   6.92072296   0.09943942
5550.00   6.96430206   0.09871224
5552.00   7.00498724   0.09790894
5554.00   7.10096979   0.09740091
5556.00   7.06679535   0.09652018
5558.00   7.05579615   0.09579272
5560.00   7.10787439   0.09545204
5562.00   7.15525055   0.09523436
5564.00   7.16632605   0.09520716
5566.00   7.30082846   0.09557668
5568.00   7.37411261   0.09565192
5570.00   7.39752054   0.09596356
5572.00   7.44229889   0.09699608
5574.00   7.50409889   0.09875637
5576.00   7.44632483   0.09913246
5578.00   7.45212317   0.09830792
5580.00   7.56841707   0.09686288
5582.00   7.73219299   0.09507647
5584.00   7.75042200   0.09197513
5586.00   7.67675161   0.08840758
5588.00   7.71711349   0.08653035
5590.00   7.79356241   0.08632863
5592.00   7.81986856   0.08860198
5594.00   7.77225685   0.08923266
5596.00   7.78474665   0.08080655
5598.00   7.81505346   0.08064852
5600.00   7.84353399   0.08030985
5602.00   7.78685904   0.08452559
5604.00   7.76565504   0.08251555
5606.00   7.85513306   0.08261237
5608.00   7.87441111   0.08257521
5610.00   7.78431320   0.08234635
5612.00   7.81031752   0.08110090
5614.00   7.82478571   0.08062198
5616.00   7.86473513   0.08086944
5618.00   7.87954187   0.08070691
5620.00   7.89499426   0.07985396
5622.00   7.90783644   0.07929122
5624.00   7.92595530   0.07905408
5626.00   7.91213036   0.07869301
5628.00   7.87224054   0.07821058
5630.00   7.81772280   0.07746450
5632.00   7.79412460   0.07836050
5634.00   7.87321234   0.07836005
5636.00   7.90255356   0.07718677
5638.00   7.85756254   0.07630786
5640.00   7.82547998   0.07670641
5642.00   7.73839569   0.07565518
5644.00   7.67433786   0.07478832
5646.00   7.63681650   0.07425598
5648.00   7.61879110   0.07394625
5650.00   7.55909729   0.07338468
5652.00   7.52855921   0.07301364
5654.00   7.45220327   0.07244905
5656.00   7.32558060   0.07179134
5658.00   7.21222258   0.07121281
5660.00   7.15028620   0.07118663
5662.00   7.13844490   0.07191861
5664.00   7.13751745   0.07155765
5666.00   7.13228750   0.07067481
5668.00   7.10691595   0.07297015
5670.00   7.05390549   0.07524571
5672.00   7.01305771   0.07564700
5674.00   7.06818962   0.07555709
5676.00   7.13974380   0.07654931
5678.00   7.09807444   0.07598231
5680.00   7.08843088   0.07596175
5682.00   7.14522028   0.07637344
5684.00   7.72160101   0.07736713
5686.00   7.82627869   0.07925470
5688.00   7.48646021   0.07925060
5690.00   7.23907232   0.07558219
5692.00   7.32257414   0.07311717
5694.00   7.37587976   0.07183781
5696.00   7.43650818   0.07087106
5698.00   7.46703148   0.06975266
5700.00   7.45662880   0.06881214
5702.00   7.45546770   0.06817535
5704.00   7.45599747   0.06767774
5706.00   7.45409441   0.06724021
5708.00   7.50607729   0.06705435
5710.00   7.55588007   0.06693853
5712.00   7.54199219   0.06665099
5714.00   7.51291656   0.06633659
5716.00   7.50919914   0.06602305
5718.00   7.49699593   0.06562466
5720.00   7.48762321   0.06529539
5722.00   7.46736765   0.06497466
5724.00   7.41900492   0.06457287
5726.00   7.41728020   0.06432274
5728.00   7.43143988   0.06413764
5730.00   7.44155502   0.06392363
5732.00   7.41317225   0.06362516
5734.00   7.32737970   0.06317730
5736.00   7.26516342   0.06279504
5738.00   7.25576782   0.06259496
5740.00   7.27776337   0.06251285
5742.00   7.27129602   0.06237967
5744.00   7.22134924   0.06210207
5746.00   7.16650391   0.06177573
5748.00   7.15867996   0.06163509
5750.00   7.13527536   0.06154408
5752.00   7.08346939   0.06136144
5754.00   7.01099539   0.06111578
5756.00   7.01081324   0.06112364
5758.00   6.93119955   0.06104637
5760.00   6.90879631   0.06117269
5762.00   6.88864517   0.06140891
5764.00   6.81470680   0.06164839
5766.00   6.79404974   0.06211661
5768.00   6.74513483   0.06217900
5770.00   6.68296194   0.06192442
5772.00   6.64426804   0.06152261
5774.00   6.68389463   0.06106152
5776.00   6.61812973   0.06009622
5778.00   6.52801371   0.05920250
5780.00   6.50375032   0.05890865
5782.00   6.52304125   0.05910225
5784.00   6.51413727   0.05948856
5786.00   6.50305939   0.06037301
5788.00   6.46936655   0.06248163
5790.00   6.42207479   0.06439657
5792.00   6.41651678   0.06483874
5794.00   6.45752001   0.06296010
5796.00   6.49364901   0.06292515
5798.00   6.50725508   0.06252450
5800.00   6.47849083   0.06077753
5802.00   6.44737053   0.05833076
5804.00   6.41985130   0.05765920
5806.00   6.43067503   0.05747867
5808.00   6.43907118   0.05744592
5810.00   6.39941931   0.05727198
5812.00   6.35116434   0.05706612
5814.00   6.38433504   0.05716202
5816.00   6.42786646   0.05729011
5818.00   6.44849205   0.05738823
5820.00   6.44845200   0.05742379
5822.00   6.45746565   0.05743101
5824.00   6.50763178   0.05757383
5826.00   6.53673315   0.05773719
5828.00   6.53619719   0.05783122
5830.00   6.55104446   0.05793542
5832.00   6.59403610   0.05804003
5834.00   6.59970617   0.05807107
5836.00   6.62344885   0.05820927
5838.00   6.63047981   0.05833861
5840.00   6.67893744   0.05854930
5842.00   6.72904587   0.05872185
5844.00   6.74278307   0.05880900
5846.00   6.75378561   0.05891886
5848.00   6.80371237   0.05915295
5850.00   6.84775543   0.05936524
5852.00   6.84827614   0.05945479
5854.00   6.88833094   0.05967798
5856.00   6.93858862   0.05988888
5858.00   6.96473694   0.06005111
5860.00   6.99237299   0.06023260
5862.00   7.01756287   0.06046079
5864.00   7.02628469   0.06066669
5866.00   7.03793573   0.06079045
5868.00   7.04834700   0.06087106
5870.00   7.03472281   0.06091879
5872.00   7.00178528   0.06098612
5874.00   7.00083685   0.06132699
5876.00   6.99748087   0.06204780
5878.00   6.96141815   0.06340224
5880.00   6.93705511   0.06583127
5882.00   6.81418419   0.06929716
5884.00   6.68806648   0.07464568
5886.00   6.58922815   0.08160789
5888.00   6.50491667   0.08799701
5890.00   6.45466661   0.09195396
5892.00   6.51577377   0.09477440
5894.00   6.59958839   0.09495481
5896.00   6.72871447   0.09105915
5898.00   6.79213715   0.08403344
5900.00   6.83307505   0.07728093
5902.00   6.89128256   0.07077729
5904.00   6.91738749   0.06436428
5906.00   6.94115210   0.06030173
5908.00   6.99053431   0.05956123
5910.00   6.97793722   0.05968957
5912.00   6.95257235   0.05970463
5914.00   6.93389130   0.05970370
5916.00   6.91283274   0.05967497
5918.00   6.86719513   0.05953726
5920.00   6.78362083   0.05922381
5922.00   6.72251272   0.05904709
5924.00   6.70259619   0.05898638
5926.00   6.72139502   0.05904342
5928.00   6.75809145   0.05919782
5930.00   6.80228567   0.05978914
5932.00   6.85007477   0.06033543
5934.00   6.89460373   0.06048142
5936.00   6.92828751   0.06034382
5938.00   6.92663813   0.06005390
5940.00   6.94607306   0.05959924
5942.00   6.99846888   0.05926151
5944.00   6.99469757   0.05898159
5946.00   6.97175074   0.05880492
5948.00   7.11282349   0.05920713
5950.00   7.21485758   0.05948862
5952.00   7.21756506   0.05947607
5954.00   7.18270063   0.05932641
5956.00   7.15100622   0.05914669
5958.00   7.17109156   0.05909694
5960.00   7.15445757   0.05892141
5962.00   7.11983252   0.05872676
5964.00   7.11586618   0.05863671
5966.00   7.12364578   0.05857258
5968.00   7.15091276   0.05856154
5970.00   7.13036203   0.05844234
5972.00   7.11039877   0.05834595
5974.00   7.09553194   0.05827982
5976.00   7.09598398   0.05822952
5978.00   7.06805754   0.05804517
5980.00   7.04524088   0.05788035
5982.00   7.04264593   0.05778702
5984.00   7.05316591   0.05775029
5986.00   7.04046249   0.05769498
5988.00   6.99262762   0.05755776
5990.00   7.00378466   0.05751748
5992.00   7.01315832   0.05746964
5994.00   6.99101782   0.05734184
5996.00   6.92902374   0.05708455
5998.00   6.90780258   0.05697257
6000.00   6.89693451   0.05688121
6002.00   6.91254807   0.05684546
6004.00   6.92473936   0.05676079
6006.00   6.84814835   0.05640509
6008.00   6.79986191   0.05618328
6010.00   6.83601379   0.05620800
6012.00   6.84568262   0.05612448
6014.00   6.78699493   0.05587753
6016.00   6.75498438   0.05570537
6018.00   6.73903894   0.05559998
6020.00   6.68716955   0.05538864
6022.00   6.64545822   0.05521132
6024.00   6.67346811   0.05526406
6026.00   6.62854004   0.05510220
6028.00   6.59426641   0.05496035
6030.00   6.58768034   0.05489019
6032.00   6.56921768   0.05476141
6034.00   6.53995514   0.05457939
6036.00   6.48773623   0.05434743
6038.00   6.47436571   0.05424913
6040.00   6.47209167   0.05415500
6042.00   6.45521116   0.05401936
6044.00   6.42417192   0.05392746
6046.00   6.35054064   0.05363746
6048.00   6.32177877   0.05347565
6050.00   6.28580523   0.05331914
6052.00   6.26109314   0.05321060
6054.00   6.22425890   0.05303661
6056.00   6.18662691   0.05285439
6058.00   6.15595055   0.05272026
6060.00   6.13885355   0.05261769
6062.00   6.15269852   0.05259259
6064.00   6.08830500   0.05238339
6066.00   6.01918364   0.05212207
6068.00   5.99568415   0.05200267
6070.00   5.99147415   0.05193843
6072.00   5.94364691   0.05178058
6074.00   5.87826109   0.05152785
6076.00   5.82855606   0.05129697
6078.00   5.75791740   0.05110791
6080.00   5.66999388   0.05092946
6082.00   5.61549902   0.05089824
6084.00   5.56753492   0.05096434
6086.00   5.45959234   0.05030764
6088.00   5.35564423   0.04962970
6090.00   5.27661848   0.04924675
6092.00   5.16371155   0.04894637
6094.00   5.05932474   0.04865550
6096.00   4.96013260   0.04837302
6098.00   4.84222221   0.04802070
6100.00   4.71304941   0.04774503
6102.00   4.59042740   0.04763386
6104.00   4.47282743   0.04759166
6106.00   4.31536436   0.04750594
6108.00   4.18565750   0.04766629
6110.00   4.06708336   0.04784710
6112.00   3.94413757   0.04770738
6114.00   3.84355354   0.04741324
6116.00   3.76996803   0.04683407
6118.00   3.67391944   0.04585945
6120.00   3.58157063   0.04479163
6122.00   3.53207278   0.04394982
6124.00   3.46588349   0.04314402
6126.00   3.37572646   0.04240096
6128.00   3.25871396   0.04171245
6130.00   3.15388894   0.04105974
6132.00   3.09213710   0.04073321
6134.00   3.04768491   0.04048184
6136.00   2.99211502   0.04021506
6138.00   2.94249821   0.04004919
6140.00   2.91722679   0.04006279
6142.00   2.85795236   0.03990613
6144.00   2.80578113   0.03981556
6146.00   2.77387691   0.04012432
6148.00   2.71872258   0.04005186
6150.00   2.64300823   0.03928994
6152.00   2.61551547   0.03944865
6154.00   2.59557748   0.03935058
6156.00   2.56944728   0.03934928
6158.00   2.55443954   0.03946688
6160.00   2.51442719   0.03920124
6162.00   2.51619029   0.03883622
6164.00   2.50022149   0.03830560
6166.00   2.47447658   0.03768516
6168.00   2.47352910   0.03713107
6170.00   2.47858071   0.03667006
6172.00   2.47761130   0.03643427
6174.00   2.49268174   0.03639336
6176.00   2.49953699   0.03633510
6178.00   2.50233078   0.03629686
6180.00   2.51570106   0.03630247
6182.00   2.54075074   0.03636239
6184.00   2.57521796   0.03649870
6186.00   2.62718987   0.03675878
6188.00   2.65248823   0.03686376
6190.00   2.67241096   0.03689922
6192.00   2.70207524   0.03703198
6194.00   2.73713994   0.03714339
6196.00   2.75256515   0.03721245
6198.00   2.78792500   0.03745034
6200.00   2.84882641   0.03773956
6202.00   2.90106893   0.03793956
6204.00   2.94565392   0.03814671
6206.00   2.97697282   0.03836634
6208.00   3.04678845   0.03870985
6210.00   3.09319425   0.03891947
6212.00   3.14906573   0.03905055
6214.00   3.21604705   0.03920380
6216.00   3.30852389   0.03946508
6218.00   3.37604213   0.03962925
6220.00   3.44056058   0.03982159
6222.00   3.49075127   0.03995793
6224.00   3.55641675   0.04016817
6226.00   3.62349248   0.04049412
6228.00   3.68390465   0.04074167
6230.00   3.75885010   0.04114058
6232.00   3.82902241   0.04163345
6234.00   3.88784599   0.04207959
6236.00   3.97723579   0.04253504
6238.00   4.03516436   0.04283826
6240.00   4.07934761   0.04296428
6242.00   4.13912439   0.04301369
6244.00   4.21388054   0.04302769
6246.00   4.31790876   0.04321931
6248.00   4.41304255   0.04354785
6250.00   4.47735834   0.04380567
6252.00   4.51372194   0.04397453
6254.00   4.59313583   0.04438856
6256.00   4.67366648   0.04483300
6258.00   4.76529551   0.04532671
6260.00   4.83682728   0.04556687
6262.00   4.86317587   0.04544580
6264.00   4.89178610   0.04529562
6266.00   4.95272493   0.04545930
6268.00   5.04412842   0.04579083
6270.00   5.12430334   0.04624707
6272.00   5.20141649   0.04682033
6274.00   5.24529171   0.04731369
6276.00   5.26830578   0.04762870
6278.00   5.24076319   0.04743379
6280.00   5.23395300   0.04710247
6282.00   5.28510332   0.04699692
6284.00   5.37209892   0.04719989
6286.00   5.42835951   0.04742488
6288.00   5.48719549   0.04770615
6290.00   5.55414629   0.04806585
6292.00   5.59189606   0.04834285
6294.00   5.62389421   0.04872080
6296.00   5.66587687   0.04960212
6298.00   5.72069693   0.05043514
6300.00   5.74449396   0.05085830
6302.00   5.74852943   0.05092792
6304.00   5.81515503   0.05105573
6306.00   5.84952736   0.05041455
6308.00   5.87154388   0.04950443
6310.00   5.88115740   0.04879869
6312.00   5.91000223   0.04850075
6314.00   5.96373892   0.04836003
6316.00   5.93826294   0.04799812
6318.00   5.91990995   0.04782671
6320.00   5.96735573   0.04794872
6322.00   5.98339128   0.04789874
6324.00   6.04841566   0.04826051
6326.00   6.08686638   0.04848664
6328.00   6.11244059   0.04856249
6330.00   6.15826273   0.04867326
6332.00   6.13779640   0.04843238
6334.00   6.11419821   0.04808345
6336.00   6.13775015   0.04795043
6338.00   6.17738962   0.04795702
6340.00   6.19376755   0.04796945
6342.00   6.16540480   0.04784822
6344.00   6.15114355   0.04765109
6346.00   6.17297745   0.04768632
6348.00   6.19012976   0.04780224
6350.00   6.17259598   0.04776232
6352.00   6.17877722   0.04777628
6354.00   6.18525743   0.04782118
6356.00   6.15647745   0.04768236
6358.00   6.10786104   0.04753972
6360.00   6.10820007   0.04770267
6362.00   6.11264372   0.04781451
6364.00   6.10659981   0.04772404
6366.00   6.13032341   0.04765722
6368.00   6.16893005   0.04756938
6370.00   6.15059519   0.04724413
6372.00   6.11989737   0.04692424
6374.00   6.10727549   0.04682136
6376.00   6.12063026   0.04687233
6378.00   6.12363577   0.04689823
6380.00   6.12015486   0.04689131
6382.00   6.08569956   0.04679776
6384.00   6.05659866   0.04669600
6386.00   6.04335928   0.04658930
6388.00   6.05705690   0.04652517
6390.00   6.05606508   0.04640384
6392.00   6.05221176   0.04628739
6394.00   6.02805758   0.04615927
6396.00   5.98419523   0.04606054
6398.00   5.96659470   0.04612753
6400.00   5.97008896   0.04581706
6402.00   5.98315763   0.04630630
6404.00   5.99893761   0.04425877
6406.00   6.01664686   0.04408854
6408.00   6.02006340   0.04404593
6410.00   5.99897242   0.04391530
6412.00   6.00824499   0.04386922
6414.00   5.99348593   0.04369667
6416.00   5.95625687   0.04358304
6418.00   5.96343470   0.04362452
6420.00   5.92020178   0.05036833
6422.00   5.87169647   0.04472436
6424.00   5.84593725   0.04470396
6426.00   5.82709360   0.04497914
6428.00   5.80222082   0.04476234
6430.00   5.76753998   0.04459508
6432.00   5.74788904   0.04453452
6434.00   5.72954798   0.04448675
6436.00   5.68431234   0.04431833
6438.00   5.66246605   0.04421563
6440.00   5.66577148   0.04419447
6442.00   5.67616320   0.04418750
6444.00   5.65786505   0.04412372
6446.00   5.59790421   0.04392815
6448.00   5.57964468   0.04382146
6450.00   5.57031012   0.04375511
6452.00   5.53399849   0.04362562
6454.00   5.51281357   0.04353707
6456.00   5.50538111   0.04349959
6458.00   5.48780775   0.04344771
6460.00   5.47054672   0.04344874
6462.00   5.43577814   0.04339516
6464.00   5.39061737   0.04328777
6466.00   5.34496164   0.04315154
6468.00   5.36947250   0.04322347
6470.00   5.32805395   0.04301925
6472.00   5.26997328   0.04270397
6474.00   5.26475000   0.04252877
6476.00   5.23918200   0.04233385
6478.00   5.17497063   0.04202931
6480.00   5.13632059   0.04184919
6482.00   5.15861082   0.04186953
6484.00   5.17462397   0.04186526
6486.00   5.14613295   0.04174240
6488.00   5.13803864   0.04165360
6490.00   5.12490273   0.04158753
6492.00   5.08101082   0.04152926
6494.00   5.07257986   0.04168659
6496.00   5.07351923   0.04186459
6498.00   5.07310438   0.04198357
6500.00   5.06123114   0.04206023
6502.00   5.06026220   0.04211790
6504.00   5.04974699   0.04199621
6506.00   5.03455162   0.04174308
6508.00   5.01583338   0.04152372
6510.00   5.00170851   0.04132705
6512.00   4.96664238   0.04103272
6514.00   4.90878630   0.04068036
6516.00   4.87725830   0.04049254
6518.00   4.89546347   0.04052813
6520.00   4.90998268   0.04060848
6522.00   4.90244818   0.04063093
6524.00   4.88478994   0.04059852
6526.00   4.86626863   0.04056614
6528.00   4.84785461   0.04063378
6530.00   4.84532404   0.04073584
6532.00   4.85557938   0.04080048
6534.00   4.86164474   0.04079438
6536.00   4.83947325   0.04063833
6538.00   4.82510900   0.04048743
6540.00   4.82193613   0.04033116
6542.00   4.79985428   0.04011540
6544.00   4.77323627   0.03998129
6546.00   4.77175665   0.04001402
6548.00   4.76795530   0.04007604
6550.00   4.75754690   0.04012915
6552.00   4.73351049   0.04009923
6554.00   4.69639969   0.03994467
6556.00   4.71269178   0.03993152
6558.00   4.72459078   0.03985514
6560.00   4.71492004   0.03963861
6562.00   4.70750046   0.03945366
6564.00   4.70990705   0.03944722
6566.00   4.67987204   0.03935411
6568.00   4.66702890   0.03927718
6570.00   4.67192030   0.03927099
6572.00   4.64989901   0.03932694
6574.00   4.67651892   0.03952495
6576.00   4.66795492   0.03954390
6578.00   4.65034676   0.03946136
6580.00   4.65806007   0.03942398
6582.00   4.63683367   0.03927641
6584.00   4.64908457   0.03918603
6586.00   4.64370489   0.03907581
6588.00   4.65047216   0.03905384
6590.00   4.63065529   0.03899030
6592.00   4.60553026   0.03889937
6594.00   4.59949350   0.03887000
6596.00   4.62198448   0.03897589
6598.00   4.69505930   0.03931553
6600.00   4.75647688   0.03964783
6602.00   4.81544542   0.03989823
6604.00   4.82301569   0.03988261
6606.00   4.76702833   0.03959000
6608.00   4.64830828   0.03904331
6610.00   4.52470160   0.03844782
6612.00   4.48677588   0.03818918
6614.00   4.47216654   0.03809889
6616.00   4.46176672   0.03805126
6618.00   4.46596289   0.03804955
6620.00   4.47795248   0.03813796
6622.00   4.48399973   0.03817787
6624.00   4.48378611   0.03817520
6626.00   4.49398088   0.03817965
6628.00   4.48460436   0.03812035
6630.00   4.41819239   0.03787816
6632.00   4.37738037   0.03770121
6634.00   4.35353231   0.03757669
6636.00   4.35507536   0.03754410
6638.00   4.35085106   0.03749882
6640.00   4.33672619   0.03741279
6642.00   4.32647514   0.03733960
6644.00   4.33730555   0.03733431
6646.00   4.33469582   0.03730489
6648.00   4.29191065   0.03716229
6650.00   4.26050520   0.03705795
6652.00   4.26240396   0.03705991
6654.00   4.26320410   0.03703531
6656.00   4.25758171   0.03698745
6658.00   4.26086712   0.03701137
6660.00   4.25085783   0.03699221
6662.00   4.21471119   0.03685125
6664.00   4.20316648   0.03679299
6666.00   4.21205282   0.03681016
6668.00   4.21230888   0.03679111
6670.00   4.17722893   0.03666094
6672.00   4.17085886   0.03666779
6674.00   4.16083574   0.03664566
6676.00   4.15905905   0.03666886
6678.00   4.16188288   0.03667806
6680.00   4.15935659   0.03665041
6682.00   4.13364363   0.03652564
6684.00   4.10907412   0.03645425
6686.00   4.10079956   0.03644928
6688.00   4.11718607   0.03650821
6690.00   4.11976385   0.03649450
6692.00   4.09032679   0.03635168
6694.00   4.05558157   0.03620954
6696.00   4.04645729   0.03612643
6698.00   4.06746435   0.03616485
6700.00   4.07078218   0.03618933
6702.00   4.03924131   0.03616038
6704.00   4.01412821   0.03616478
6706.00   4.03821802   0.03628969
6708.00   4.03414249   0.03628448
6710.00   4.02581692   0.03620139
6712.00   4.02789927   0.03611648
6714.00   3.99178386   0.03589597
6716.00   3.99764061   0.03583389
6718.00   3.99261189   0.03601961
6720.00   3.97573066   0.03628597
6722.00   3.96322703   0.03706855
6724.00   3.97675633   0.03970034
6726.00   3.96445656   0.04146911
6728.00   3.93526816   0.04025644
6730.00   3.92616343   0.03749613
6732.00   3.92661738   0.03582071
6734.00   3.91839290   0.03554312
6736.00   3.91487384   0.03535684
6738.00   3.91574478   0.03528086
6740.00   3.88146019   0.03515337
6742.00   3.84692168   0.03503436
6744.00   3.87337899   0.03506940
6746.00   3.88869309   0.03510115
6748.00   3.84454656   0.03489977
6750.00   3.82236028   0.03480057
6752.00   3.84241676   0.03488911
6754.00   3.84793568   0.03490784
6756.00   3.84476185   0.03491272
6758.00   3.83780980   0.03489365
6760.00   3.81868267   0.03480339
6762.00   3.78751826   0.03465804
6764.00   3.75579000   0.03450537
6766.00   3.73804164   0.03441538
6768.00   3.72601581   0.03434168
6770.00   3.71880984   0.03429408
6772.00   3.72480965   0.03428850
6774.00   3.68343902   0.03413924
6776.00   3.65132546   0.03402117
6778.00   3.64349961   0.03396545
6780.00   3.62681770   0.03387087
6782.00   3.59538627   0.03372996
6784.00   3.58474660   0.03367378
6786.00   3.60404015   0.03374368
6788.00   3.57923508   0.03363594
6790.00   3.55011296   0.03350621
6792.00   3.57057381   0.03354343
6794.00   3.54245758   0.03340526
6796.00   3.53139877   0.03335016
6798.00   3.52556229   0.03333345
6800.00   3.51578879   0.03328110
6802.00   3.47888947   0.03315619
6804.00   3.46802258   0.03308372
6806.00   3.45290065   0.03300917
6808.00   3.43637538   0.03293439
6810.00   3.43971372   0.03292052
6812.00   3.43367290   0.03289972
6814.00   3.41283035   0.03286745
6816.00   3.41245103   0.03287695
6818.00   3.42975616   0.03293111
6820.00   3.44009280   0.03298242
6822.00   3.45213389   0.03312916
6824.00   3.44864011   0.03342333
6826.00   3.43483257   0.03374936
6828.00   3.40854478   0.03397295
6830.00   3.38812518   0.03416541
6832.00   3.39975810   0.03433934
6834.00   3.41142440   0.03418722
6836.00   3.40443134   0.03393127
6838.00   3.40209198   0.03374875
6840.00   3.40513110   0.03351879
6842.00   3.38652349   0.03313477
6844.00   3.39284134   0.03296530
6846.00   3.40348411   0.03292768
6848.00   3.40973020   0.03289984
6850.00   3.37826276   0.03273583
6852.00   3.37742162   0.03273040
6854.00   3.39106750   0.03280323
6856.00   3.38941884   0.03295450
6858.00   3.39604664   0.03347484
6860.00   3.45303655   0.03475629
6862.00   3.46483803   0.03632806
6864.00   3.37949562   0.03812273
6866.00   3.29268861   0.04021683
6868.00   3.34536624   0.04244135
6870.00   3.37810707   0.04278356
6872.00   3.31535077   0.04177187
6874.00   3.29302025   0.03950248
6876.00   3.30427241   0.03725280
6878.00   3.32571149   0.03546330
6880.00   3.29104066   0.03441596
6882.00   3.24168968   0.03423358
6884.00   3.23155856   0.03480125
6886.00   3.26028752   0.03560909
6888.00   3.27996898   0.03593507
6890.00   3.27747154   0.03575006
6892.00   3.26764894   0.03548893
6894.00   3.26415467   0.03521359
6896.00   3.26453781   0.03489758
6898.00   3.22826862   0.03447466
6900.00   3.22109985   0.03428695
6902.00   3.23575950   0.03419912
6904.00   3.24093032   0.03405731
6906.00   3.22285390   0.03383317
6908.00   3.21861720   0.03371530
6910.00   3.21316934   0.03359123
6912.00   3.19612956   0.03341490
6914.00   3.18491721   0.03329522
6916.00   3.19172692   0.03327965
6918.00   3.19509578   0.03325905
6920.00   3.17335033   0.03318961
6922.00   3.17342854   0.03323877
6924.00   3.17371583   0.03327364
6926.00   3.14741135   0.03311103
6928.00   3.15265584   0.03285294
6930.00   3.16965461   0.03254762
6932.00   3.17100692   0.03237261
6934.00   3.15026641   0.03238566
6936.00   3.13076329   0.03251786
6938.00   3.12858176   0.03260492
6940.00   3.12295651   0.03256195
6942.00   3.11382103   0.03251937
6944.00   3.09827304   0.03252921
6946.00   3.09125710   0.03256383
6948.00   3.07307887   0.03244664
6950.00   3.07298851   0.03244342
6952.00   3.07698035   0.03242029
6954.00   3.06931949   0.03213831
6956.00   3.06802726   0.03169874
6958.00   3.06423187   0.03142171
6960.00   3.06932831   0.03132207
6962.00   3.07759356   0.03129010
6964.00   3.09257817   0.03132622
6966.00   3.10077214   0.03143023
6968.00   3.07520986   0.03132168
6970.00   3.05097318   0.03120336
6972.00   3.04505610   0.03129089
6974.00   3.07386208   0.03167035
6976.00   3.09133935   0.03186300
6978.00   3.08421350   0.03178291
6980.00   3.06669736   0.03164829
6982.00   3.05151200   0.03155346
6984.00   3.05052495   0.03151917
6986.00   3.03626442   0.03135380
6988.00   3.05756688   0.03133692
6990.00   3.07818055   0.03139881
6992.00   3.07321095   0.03139683
6994.00   3.03803611   0.03115471
6996.00   3.01612449   0.03095289
6998.00   2.98440957   0.03080806
7000.00   2.97346878   0.03080361
7002.00   2.97838283   0.03085870
7004.00   3.01017499   0.03102075
7006.00   3.01404119   0.03109737
7008.00   3.01539922   0.03117376
7010.00   3.01238441   0.03120051
7012.00   3.01233172   0.03116690
7014.00   2.97966123   0.03092121
7016.00   2.98675346   0.03086766
7018.00   3.00679469   0.03086273
7020.00   2.98701096   0.03068990
7022.00   2.94862247   0.03052857
7024.00   2.95517159   0.03063815
7026.00   2.96865559   0.03074487
7028.00   2.97678065   0.03077202
7030.00   2.96862149   0.03070155
7032.00   2.93140411   0.03054115
7034.00   2.92690682   0.03060449
7036.00   2.93441653   0.03070288
7038.00   2.93723321   0.03060627
7040.00   2.93179345   0.03035915
7042.00   2.91256332   0.03019216
7044.00   2.90708661   0.03029373
7046.00   2.92498088   0.03050911
7048.00   2.92059231   0.03055796
7050.00   2.87774014   0.03040037
7052.00   2.87535763   0.03043462
7054.00   2.90054035   0.03042371
7056.00   2.88663483   0.03017335
7058.00   2.86713219   0.03000808
7060.00   2.88971639   0.03018170
7062.00   2.89825916   0.03033318
7064.00   2.88344693   0.03031410
7066.00   2.87745953   0.03027935
7068.00   2.87228298   0.03024360
7070.00   2.88023543   0.03026455
7072.00   2.88807392   0.03031610
7074.00   2.85943031   0.03014278
7076.00   2.83136106   0.02993482
7078.00   2.83452415   0.02987842
7080.00   2.83866906   0.02993280
7082.00   2.85276008   0.03007186
7084.00   2.87163043   0.03015232
7086.00   2.88419628   0.03020911
7088.00   2.87738919   0.03019244
7090.00   2.84571171   0.02999501
7092.00   2.80887532   0.02976175
7094.00   2.81878972   0.02975160
7096.00   2.85097146   0.02982935
7098.00   2.86138916   0.02985293
7100.00   2.84557080   0.02973758
7102.00   2.81802917   0.02959031
7104.00   2.81165576   0.02951978
7106.00   2.81792426   0.02955732
7108.00   2.82697797   0.02964658
7110.00   2.82764935   0.02960172
7112.00   2.83761716   0.02960072
7114.00   2.84015155   0.02960596
7116.00   2.82157063   0.02955522
7118.00   2.81821370   0.02958600
7120.00   2.81899858   0.02960636
7122.00   2.83254433   0.02969549
7124.00   2.83341289   0.02973694
7126.00   2.80724359   0.02965537
7128.00   2.81058192   0.02966186
7130.00   2.80501652   0.02960675
7132.00   2.79092288   0.02947200
7134.00   2.77275491   0.02933048
7136.00   2.77182961   0.02933645
7138.00   2.80348802   0.02955551
7140.00   2.84157562   0.02980190
7142.00   2.84107399   0.02982595
7144.00   2.79313254   0.02961988
7146.00   2.74687576   0.02958851
7148.00   2.77174473   0.02964435
7150.00   2.79079509   0.02956092
7152.00   2.79359555   0.02949458
7154.00   2.78916574   0.02954005
7156.00   2.79011083   0.02959816
7158.00   2.78677487   0.02959781
7160.00   2.75014567   0.02948196
7162.00   2.73194718   0.02954241
7164.00   2.74314666   0.02985571
7166.00   2.74478555   0.03017706
7168.00   2.73311019   0.03044160
7170.00   2.74398422   0.03072278
7172.00   2.74597716   0.03083711
7174.00   2.72528958   0.03074147
7176.00   2.73548198   0.03076608
7178.00   2.75724530   0.03093616
7180.00   2.75006127   0.03106442
7182.00   2.72163391   0.03112113
7184.00   2.69624639   0.03114264
7186.00   2.73955321   0.03135772
7188.00   2.72658992   0.03100033
7190.00   2.67673421   0.03045368
7192.00   2.65777183   0.03030095
7194.00   2.68633652   0.03056946
7196.00   2.70271325   0.03067481
7198.00   2.72025871   0.03084101
7200.00   2.72142410   0.03086366
7202.00   2.71257591   0.03068522
7204.00   2.72723103   0.03045490
7206.00   2.70952344   0.02994711
7208.00   2.70839691   0.02949162
7210.00   2.69620395   0.02911265
7212.00   2.67692208   0.02886219
7214.00   2.65497851   0.02868329
7216.00   2.67706585   0.02885088
7218.00   2.68731570   0.02900826
7220.00   2.68370914   0.02906506
7222.00   2.68364406   0.02911621
7224.00   2.67537856   0.02919865
7226.00   2.70575690   0.02951439
7228.00   2.67171097   0.02965484
7230.00   2.64014554   0.02990960
7232.00   2.65494514   0.03048526
7234.00   2.69306564   0.03139980
7236.00   2.65454197   0.03205575
7238.00   2.63581944   0.03282512
7240.00   2.63234782   0.03377605
7242.00   2.64397407   0.03450931
7244.00   2.68773198   0.03443510
7246.00   2.65026498   0.03335446
7248.00   2.60482311   0.03230433
7250.00   2.61150765   0.03163730
7252.00   2.65136790   0.03113358
7254.00   2.65368867   0.03052312
7256.00   2.65223479   0.03014981
7258.00   2.62751269   0.02981410
7260.00   2.61284852   0.02960603
7262.00   2.61285615   0.02958320
7264.00   2.64575028   0.02976962
7266.00   2.64562583   0.02973268
7268.00   2.63146925   0.02982382
7270.00   2.62066460   0.03068252
7272.00   2.59157968   0.03229833
7274.00   2.58009291   0.03352264
7276.00   2.59839797   0.03381690
7278.00   2.60661006   0.03350752
7280.00   2.59049964   0.03281264
7282.00   2.60373306   0.03191024
7284.00   2.56927013   0.03093032
7286.00   2.54251981   0.03061308
7288.00   2.54407001   0.03059406
7290.00   2.57402205   0.03044735
7292.00   2.58811283   0.02997973
7294.00   2.58747220   0.02952186
7296.00   2.55861259   0.02928445
7298.00   2.52390528   0.02940637
7300.00   2.50931239   0.02974894
7302.00   2.54072833   0.03000073
7304.00   2.55050492   0.02991341
7306.00   2.53717589   0.02968234
7308.00   2.52748036   0.02955176
7310.00   2.51061797   0.02975626
7312.00   2.46051121   0.03046102
7314.00   2.45948291   0.03113752
7316.00   2.48600745   0.03150176
7318.00   2.51750731   0.03144481
7320.00   2.50238490   0.03069433
7322.00   2.48125863   0.02935100
7324.00   2.47959447   0.02875445
7326.00   2.48472667   0.02886503
7328.00   2.47528243   0.02911533
7330.00   2.47355580   0.02912749
7332.00   2.44167948   0.02886607
7334.00   2.42251945   0.02896951
7336.00   2.42334628   0.02962260
7338.00   2.41889644   0.03037424
7340.00   2.40415072   0.03064554
7342.00   2.36039591   0.03051271
7344.00   2.33905244   0.03016658
7346.00   2.34764504   0.02935239
7348.00   2.37255049   0.02813882
7350.00   2.37925363   0.02747389
7352.00   2.34613991   0.02739890
7354.00   2.32402897   0.02771345
7356.00   2.32257152   0.02801512
7358.00   2.31972766   0.02807088
7360.00   2.30962682   0.02804772
7362.00   2.29130673   0.02806840
7364.00   2.26186752   0.02825133
7366.00   2.24437761   0.02862098
7368.00   2.25309062   0.02899617
7370.00   2.25515819   0.02903427
7372.00   2.24055266   0.02873457
7374.00   2.20911598   0.02793441
7376.00   2.19053650   0.02697185
7378.00   2.19668365   0.02650996
7380.00   2.21315575   0.02655074
7382.00   2.21328521   0.02655108
7384.00   2.18901324   0.02644810
7386.00   2.17540669   0.02652447
7388.00   2.16888618   0.02676415
7390.00   2.16637492   0.02685053
7392.00   2.15310431   0.02673572
7394.00   2.15198398   0.02677123
7396.00   2.15811896   0.02712483
7398.00   2.15277648   0.02748143
7400.00   2.15226746   0.02764845
7402.00   2.15499377   0.02768151
7404.00   2.14745712   0.02751753
7406.00   2.12075734   0.02701509
7408.00   2.10173917   0.02623786
7410.00   2.09995484   0.02575255
7412.00   2.10303402   0.02563536
7414.00   2.08630300   0.02562071
7416.00   2.07759452   0.02561328
7418.00   2.07680678   0.02559916
7420.00   2.06893802   0.02552254
7422.00   2.05295277   0.02545317
7424.00   2.04694676   0.02551660
7426.00   2.04126668   0.02563491
7428.00   2.03629446   0.02570046
7430.00   2.04694390   0.02578398
7432.00   2.05353642   0.02592625
7434.00   2.04069471   0.02608609
7436.00   2.04274487   0.02621245
7438.00   2.05208492   0.02620395
7440.00   2.03881288   0.02608559
7442.00   2.02183032   0.02589164
7444.00   2.01284242   0.02556894
7446.00   2.01727605   0.02528533
7448.00   2.00720668   0.02511188
7450.00   1.99957407   0.02505962
7452.00   1.99709845   0.02506589
7454.00   1.99682391   0.02511317
7456.00   1.99111021   0.02512112
7458.00   1.99658823   0.02518563
7460.00   1.99708843   0.02526443
7462.00   1.98116195   0.02531907
7464.00   1.96359730   0.02535056
7466.00   1.95059490   0.02546010
7468.00   1.92520225   0.02555970
7470.00   1.89953518   0.02559902
7472.00   1.87903726   0.02555441
7474.00   1.85553837   0.02550288
7476.00   1.81782210   0.02544794
7478.00   1.79131949   0.02539785
7480.00   1.78561401   0.02538906
7482.00   1.77644575   0.02532237
7484.00   1.74390507   0.02501239
7486.00   1.71996176   0.02460514
7488.00   1.71556675   0.02427169
7490.00   1.70573854   0.02397272
7492.00   1.68818033   0.02371020
7494.00   1.68618333   0.02363988
7496.00   1.68423688   0.02361511
7498.00   1.66740847   0.02348843
7500.00   1.64623678   0.02329498
7502.00   1.65106714   0.02323704
7504.00   1.66151273   0.02325796
7506.00   1.65340328   0.02320086
7508.00   1.63534677   0.02309898
7510.00   1.62580311   0.02306228
7512.00   1.62920821   0.02312365
7514.00   1.63865983   0.02319994
7516.00   1.64611816   0.02347929
7518.00   1.64073908   0.02414325
7520.00   1.63337672   0.02502913
7522.00   1.62160432   0.02553609
7524.00   1.61925220   0.02568349
7526.00   1.63116777   0.02583847
7528.00   1.63984966   0.02559857
7530.00   1.64183795   0.02480604
7532.00   1.64756811   0.02404836
7534.00   1.65444815   0.02381284
7536.00   1.64898336   0.02360863
7538.00   1.64673579   0.02340568
7540.00   1.66720831   0.02339260
7542.00   1.67810094   0.02345821
7544.00   1.67631245   0.02341102
7546.00   1.66613817   0.02329236
7548.00   1.66390884   0.02322404
7550.00   1.67434371   0.02330138
7552.00   1.69858229   0.02354945
7554.00   1.70053399   0.02373524
7556.00   1.69856226   0.02386896
7558.00   1.70732081   0.02400395
7560.00   1.71824992   0.02406369
7562.00   1.72961044   0.02397617
7564.00   1.73053300   0.02398273
7566.00   1.73443413   0.02441268
7568.00   1.73889601   0.02509374
7570.00   1.73750722   0.02551916
7572.00   1.72604406   0.02558958
7574.00   1.74549639   0.02564035
7576.00   1.77070487   0.02534429
7578.00   1.76595128   0.02461695
7580.00   1.76601219   0.02420651
7582.00   1.77954662   0.02434504
7584.00   1.79144287   0.02456570
7586.00   1.81243515   0.02501928
7588.00   1.83950567   0.02609835
7590.00   1.79339063   0.02778677
7592.00   1.71819365   0.03084874
7594.00   1.74696922   0.03794883
7596.00   1.85315239   0.04879535
7598.00   1.84624708   0.06023766
7600.00   1.72632825   0.06835254
7602.00   1.68144929   0.07308755
7604.00   1.70504093   0.07145449
7606.00   1.69300508   0.06287877
7608.00   1.66408432   0.05205772
7610.00   1.69904840   0.04353951
7612.00   1.83538055   0.03808143
7614.00   1.94199312   0.03472219
7616.00   1.89683282   0.03208381
7618.00   1.76807213   0.03079888
7620.00   1.72359264   0.03235430
7622.00   1.78253174   0.03628663
7624.00   1.87638867   0.04002291
7626.00   1.90413439   0.04162614
7628.00   1.85911512   0.04100321
7630.00   1.84959114   0.04009457
7632.00   1.86005270   0.03914643
7634.00   1.85542262   0.03775245
7636.00   1.81417751   0.03587922
7638.00   1.85365677   0.03497332
7640.00   1.86705625   0.03403668
7642.00   1.87399638   0.03317094
7644.00   1.88366449   0.03240111
7646.00   1.85306704   0.03139772
7648.00   1.88488007   0.03094494
7650.00   1.87467515   0.03028200
7652.00   1.90119207   0.02989109
7654.00   1.94587910   0.02968020
7656.00   1.91403615   0.02906709
7658.00   1.92022789   0.02869249
7660.00   1.91682374   0.02841156
7662.00   1.89143944   0.02958438
7664.00   1.88561475   0.03113161
7666.00   1.88513029   0.03167041
7668.00   1.88557565   0.02979789
7670.00   1.90399230   0.02751707
7672.00   1.90983200   0.02597342
7674.00   1.89583623   0.02544131
7676.00   1.89934981   0.02545534
7678.00   1.91006100   0.02546669
7680.00   1.91963041   0.02544632
7682.00   1.93509197   0.02553360
7684.00   1.92662776   0.02554466
7686.00   1.92603433   0.02548077
7688.00   1.93805635   0.02551280
7690.00   1.94421434   0.02552775
7692.00   1.92863405   0.02541752
7694.00   1.91157186   0.02539627
7696.00   1.90311468   0.02552848
7698.00   1.90008545   0.02555058
7700.00   1.91367114   0.02554977
7702.00   1.91548789   0.02544886
7704.00   1.90580332   0.02532245
7706.00   1.91689062   0.02565083
7708.00   1.91833794   0.02670057
7710.00   1.92116201   0.02809598
7712.00   1.91749001   0.02939642
7714.00   1.87553084   0.03012088
7716.00   1.88726842   0.03003008
7718.00   1.91429460   0.02942081
7720.00   1.92816842   0.02860255
7722.00   1.91639936   0.02756066
7724.00   1.91442597   0.02636957
7726.00   1.91016257   0.02575151
7728.00   1.90686381   0.02550775
7730.00   1.89735734   0.02529429
7732.00   1.92870939   0.02522765
7734.00   1.94556808   0.02517444
7736.00   1.94647408   0.02509733
7738.00   1.93954086   0.02502880
7740.00   1.94294202   0.02500258
7742.00   1.93588674   0.02505788
7744.00   1.92456067   0.02611955
7746.00   1.91041505   0.02792375
7748.00   1.90837228   0.02916012
7750.00   1.92832315   0.02965082
7752.00   1.92356527   0.02973079
7754.00   1.91912138   0.02957034
7756.00   1.94073832   0.02860463
7758.00   1.96651554   0.02750885
7760.00   1.98067570   0.02697210
7762.00   1.98163688   0.02694251
7764.00   1.99688148   0.02661929
7766.00   2.01806927   0.02610395
7768.00   2.02596521   0.02580298
7770.00   2.02095890   0.02585274
7772.00   2.01182055   0.02589309
7774.00   2.01160932   0.02608634
7776.00   2.01810169   0.02643994
7778.00   2.02129722   0.02660854
7780.00   2.02028489   0.02649132
7782.00   2.03406405   0.02649333
7784.00   2.04486418   0.02629594
7786.00   2.04820061   0.02620696
7788.00   2.03729582   0.02681912
7790.00   2.03800654   0.02822208
7792.00   2.06965113   0.02920363
7794.00   2.07266879   0.02936925
7796.00   2.07701564   0.02915948
7798.00   2.07775140   0.02841198
7800.00   2.07945442   0.02696802
7802.00   2.07858253   0.02623694
7804.00   2.08882976   0.02654064
7806.00   2.10221982   0.02705943
7808.00   2.11302018   0.02727467
7810.00   2.12287402   0.02730407
7812.00   2.12207127   0.02707914
7814.00   2.11947441   0.02714441
7816.00   2.11112905   0.02798060
7818.00   2.13156533   0.02938776
7820.00   2.14280891   0.03018131
7822.00   2.15030098   0.03028268
7824.00   2.14596343   0.02987376
7826.00   2.14537930   0.02878813
7828.00   2.14882970   0.02718100
7830.00   2.16357136   0.02618949
7832.00   2.17389178   0.02600797
7834.00   2.17972183   0.02623757
7836.00   2.18828392   0.02668183
7838.00   2.19224095   0.02714966
7840.00   2.18318939   0.02729866
7842.00   2.17380142   0.02732857
7844.00   2.17086267   0.02733894
7846.00   2.17621732   0.02763534
7848.00   2.17687964   0.02858119
7850.00   2.19170260   0.02997947
7852.00   2.19430852   0.03072897
7854.00   2.19134283   0.03108420
7856.00   2.19472075   0.03120194
7858.00   2.20291495   0.03054101
7860.00   2.18579650   0.02912577
7862.00   2.16223598   0.02835780
7864.00   2.16903472   0.02846771
7866.00   2.19907260   0.02885494
7868.00   2.21147323   0.02897947
7870.00   2.19077802   0.02884875
7872.00   2.16583180   0.02871776
7874.00   2.16608405   0.02863924
7876.00   2.18885636   0.02844379
7878.00   2.17241788   0.02790502
7880.00   2.16955781   0.02777972
7882.00   2.17345762   0.02795596
7884.00   2.17932820   0.02829134
7886.00   2.17634273   0.02864530
7888.00   2.14699078   0.02860622
7890.00   2.12423801   0.02842549
7892.00   2.13359284   0.02831270
7894.00   2.15548921   0.02794606
7896.00   2.12215257   0.02687071
7898.00   2.11137414   0.02615692
7900.00   2.11114383   0.02601838
7902.00   2.10734439   0.02597769
7904.00   2.09993005   0.02596968
7906.00   2.09041333   0.02661821
7908.00   2.09401011   0.02877513
7910.00   2.06474972   0.03071899
7912.00   2.00196958   0.03154819
7914.00   1.98849714   0.03184837
7916.00   2.02413011   0.03246404
7918.00   2.02309895   0.03178489
7920.00   2.01485252   0.02993552
7922.00   1.99458790   0.02831682
7924.00   1.96502459   0.02784590
7926.00   1.94790709   0.02745490
7928.00   1.93562889   0.02702249
7930.00   1.92228019   0.02670858
7932.00   1.91355324   0.02650444
7934.00   1.89880216   0.02619146
7936.00   1.89711821   0.02572288
7938.00   1.87712240   0.02499674
7940.00   1.82916832   0.02440139
7942.00   1.78039968   0.02429782
7944.00   1.75663817   0.02475210
7946.00   1.74609184   0.02526449
7948.00   1.73052251   0.02534033
7950.00   1.71421874   0.02518770
7952.00   1.69985735   0.02498838
7954.00   1.69465446   0.02457384
7956.00   1.66400754   0.02395925
7958.00   1.63354158   0.02462417
7960.00   1.62259185   0.02640666
7962.00   1.62268126   0.02793621
7964.00   1.60807478   0.02820561
7966.00   1.58129227   0.02805770
7968.00   1.55058289   0.02720149
7970.00   1.52588212   0.02547396
7972.00   1.49775755   0.02369146
7974.00   1.49138606   0.02371351
7976.00   1.47369134   0.02427765
7978.00   1.45596921   0.02454216
7980.00   1.43669927   0.02440567
7982.00   1.42829573   0.02416564
7984.00   1.41612399   0.02359178
7986.00   1.40845859   0.02351710
7988.00   1.38735104   0.02474652
7990.00   1.36345112   0.02642249
7992.00   1.36066723   0.02718632
7994.00   1.35766602   0.02719286
7996.00   1.35319567   0.02681223
7998.00   1.35038984   0.02542591
8000.00   1.32706892   0.02315807
8002.00   1.31169510   0.02181132
8004.00   1.31761312   0.02159018
8006.00   1.30831254   0.02164965
8008.00   1.28809094   0.02192262
8010.00   1.26848948   0.02234600
8012.00   1.25633228   0.02257851
8014.00   1.25547493   0.02262327
8016.00   1.25191343   0.02261236
8018.00   1.24023759   0.02273064
8020.00   1.23520470   0.02337841
8022.00   1.24925423   0.02454143
8024.00   1.23469651   0.02496873
8026.00   1.20880270   0.02491427
8028.00   1.19926715   0.02468013
8030.00   1.20197093   0.02394629
8032.00   1.20358586   0.02237608
8034.00   1.21008694   0.02129462
8036.00   1.21428633   0.02092254
8038.00   1.20843136   0.02088105
8040.00   1.20948851   0.02087896
8042.00   1.21709764   0.02093606
8044.00   1.21604216   0.02094848
8046.00   1.20246220   0.02101727
8048.00   1.18604469   0.02121714
8050.00   1.19063580   0.02143542
8052.00   1.19689310   0.02148088
8054.00   1.20097482   0.02159576
8056.00   1.19528544   0.02185466
8058.00   1.18716490   0.02219687
8060.00   1.17760503   0.02239639
8062.00   1.18641913   0.02250801
8064.00   1.18490648   0.02242807
8066.00   1.18147850   0.02206167
8068.00   1.18712318   0.02141513
8070.00   1.19675815   0.02080116
8072.00   1.19198895   0.02057139
8074.00   1.19173193   0.02064647
8076.00   1.18210232   0.02069611
8078.00   1.15922785   0.02054733
8080.00   1.15261912   0.02048637
8082.00   1.16982639   0.02055315
8084.00   1.17793596   0.02061730
8086.00   1.18466246   0.02074784
8088.00   1.19287992   0.02091528
8090.00   1.18624032   0.02092253
8092.00   1.17434990   0.02083805
8094.00   1.16707885   0.02084768
8096.00   1.17104661   0.02106135
8098.00   1.17672932   0.02134432
8100.00   1.17630351   0.02147683
8102.00   1.18288887   0.02159373
8104.00   1.18589354   0.02161414
8106.00   1.18999577   0.02146642
8108.00   1.20098388   0.02128904
8110.00   1.20195436   0.02113754
8112.00   1.20312881   0.02115333
8114.00   1.21209013   0.02124602
8116.00   1.20996237   0.02122214
8118.00   1.20784986   0.02115869
8120.00   1.21255457   0.02114280
8122.00   1.22934127   0.02123443
8124.00   1.23570931   0.02129111
8126.00   1.22133529   0.02125147
8128.00   1.22285545   0.02144124
8130.00   1.23804986   0.02169637
8132.00   1.23970318   0.02185975
8134.00   1.25720680   0.02210890
8136.00   1.26295340   0.02224188
8138.00   1.25466120   0.02214032
8140.00   1.25885546   0.02220732
8142.00   1.26969111   0.02241924
8144.00   1.28398383   0.02266081
8146.00   1.29186738   0.02279407
8148.00   1.30339968   0.02286875
8150.00   1.31323218   0.02287827
8152.00   1.32841098   0.02286573
8154.00   1.35687506   0.02297743
8156.00   1.34172118   0.02293245
8158.00   1.30508006   0.02286697
8160.00   1.31396961   0.02330618
8162.00   1.35623884   0.02380948
8164.00   1.37348986   0.02374065
8166.00   1.36122382   0.02341682
8168.00   1.41284180   0.02373805
8170.00   1.44763196   0.02411115
8172.00   1.43804121   0.02427444
8174.00   1.39098692   0.02446117
8176.00   1.41466939   0.02590062
8178.00   1.45011413   0.02780358
8180.00   1.45679653   0.02895403
8182.00   1.44565904   0.02931992
8184.00   1.42792273   0.02957143
8186.00   1.41462708   0.02979771
8188.00   1.43314731   0.03013845
8190.00   1.46365011   0.03074982
8192.00   1.45430553   0.03127605
8194.00   1.45644295   0.03157726
8196.00   1.46581686   0.03159152
8198.00   1.47648942   0.03068335
8200.00   1.48791850   0.02877961
8202.00   1.50372314   0.02658842
8204.00   1.48576748   0.02523797
8206.00   1.45584393   0.02467570
8208.00   1.45504618   0.02448128
8210.00   1.48059666   0.02438527
8212.00   1.46846104   0.02396737
8214.00   1.44262648   0.02353466
8216.00   1.42716110   0.02334179
8218.00   1.43192053   0.02344369
8220.00   1.42485130   0.02368525
8222.00   1.39388072   0.02406445
8224.00   1.37451851   0.02471993
8226.00   1.38816011   0.02527857
8228.00   1.40031183   0.02513128
8230.00   1.39521182   0.02423641
8232.00   1.39994466   0.02337123
8234.00   1.40159369   0.02286823
8236.00   1.38339484   0.02257637
8238.00   1.36389554   0.02244067
8240.00   1.35521400   0.02238080
8242.00   1.35501492   0.02229696
8244.00   1.35256147   0.02216542
8246.00   1.35735929   0.02206597
8248.00   1.35371983   0.02199741
8250.00   1.33815777   0.02204166
8252.00   1.32233036   0.02216829
8254.00   1.31796563   0.02227032
8256.00   1.31695020   0.02223018
8258.00   1.31443381   0.02203461
8260.00   1.30762386   0.02173021
8262.00   1.30048120   0.02150947
8264.00   1.31707036   0.02158448
8266.00   1.32205093   0.02170645
8268.00   1.29027617   0.02168960
8270.00   1.24845219   0.02168979
8272.00   1.26627958   0.02242574
8274.00   1.28446162   0.02360538
8276.00   1.28206480   0.02474471
8278.00   1.26659489   0.02555716
8280.00   1.27413952   0.02614480
8282.00   1.27081001   0.02691278
8284.00   1.27515626   0.02786119
8286.00   1.29167998   0.02823122
8288.00   1.31266487   0.02776625
8290.00   1.30716741   0.02733039
8292.00   1.32112801   0.02762738
8294.00   1.31424832   0.02795505
8296.00   1.31035006   0.02812376
8298.00   1.32130921   0.02817017
8300.00   1.29656470   0.02798382
8302.00   1.30215788   0.02708348
8304.00   1.34835899   0.02554531
8306.00   1.38950598   0.02412469
8308.00   1.36127603   0.02352214
8310.00   1.33547699   0.02345494
8312.00   1.36516082   0.02388930
8314.00   1.38057029   0.02404732
8316.00   1.37775743   0.02366705
8318.00   1.38017225   0.02298493
8320.00   1.42359602   0.02291544
8322.00   1.43231428   0.02270388
8324.00   1.42375505   0.02243451
8326.00   1.42364752   0.02234528
8328.00   1.43336189   0.02241178
8330.00   1.44400787   0.02244279
8332.00   1.44637620   0.02246057
8334.00   1.45648229   0.02260784
8336.00   1.46389735   0.02350880
8338.00   1.46685696   0.02646648
8340.00   1.46004474   0.03059891
8342.00   1.44774020   0.03265047
8344.00   1.44559348   0.03319543
8346.00   1.45324802   0.03349148
8348.00   1.45966446   0.03329764
8350.00   1.48640347   0.03053738
8352.00   1.49873030   0.02782520
8354.00   1.50627196   0.02660953
8356.00   1.51178646   0.02624808
8358.00   1.50040114   0.02510838
8360.00   1.51236641   0.02439724
8362.00   1.51723862   0.02414596
8364.00   1.50699317   0.02406874
8366.00   1.51054966   0.02401253
8368.00   1.52274644   0.02381138
8370.00   1.51672709   0.02323180
8372.00   1.52079737   0.02279208
8374.00   1.53276694   0.02293701
8376.00   1.52885091   0.02374728
8378.00   1.51176512   0.02463163
8380.00   1.49985790   0.02503039
8382.00   1.50351870   0.02515714
8384.00   1.51320648   0.02516636
8386.00   1.53837907   0.02487683
8388.00   1.53596127   0.02373909
8390.00   1.51686144   0.02290044
8392.00   1.51209557   0.02403764
8394.00   1.52605104   0.02719823
8396.00   1.53915071   0.02983805
8398.00   1.54513347   0.03055374
8400.00   1.56054783   0.03069755
8402.00   1.57220078   0.03006767
8404.00   1.57704413   0.02772165
8406.00   1.59471738   0.02468218
8408.00   1.60019290   0.02358134
8410.00   1.60000455   0.02428630
8412.00   1.60208237   0.02535599
8414.00   1.61056769   0.02571347
8416.00   1.61042392   0.02574049
8418.00   1.61811292   0.02549286
8420.00   1.63556802   0.02480927
8422.00   1.65626442   0.02458128
8424.00   1.66570127   0.02641997
8426.00   1.68112123   0.02975520
8428.00   1.68005133   0.03136772
8430.00   1.67635059   0.03158410
8432.00   1.68842757   0.03119914
8434.00   1.70672894   0.02971700
8436.00   1.73313200   0.02667386
8438.00   1.76111400   0.02428379
8440.00   1.78734410   0.02350721
8442.00   1.80536139   0.02367823
8444.00   1.82426727   0.02395675
8446.00   1.85328686   0.02479903
8448.00   1.86200809   0.02579081
8450.00   1.87770212   0.02650658
8452.00   1.89493525   0.02663108
8454.00   1.91508341   0.02660533
8456.00   1.93482554   0.02633946
8458.00   1.95293367   0.02647893
8460.00   1.98739100   0.02782427
8462.00   1.98439312   0.02970684
8464.00   2.03021002   0.03041243
8466.00   2.04333138   0.03047900
8468.00   2.05396461   0.03001269
8470.00   2.05867457   0.02860560
8472.00   2.05289865   0.02628183
8474.00   2.08093262   0.02536279
8476.00   2.10701489   0.02527235
8478.00   2.12589550   0.02537118
8480.00   2.12152839   0.02528904
8482.00   2.13871241   0.02528095
8484.00   2.16092014   0.02535398
8486.00   2.17457175   0.02563024
8488.00   2.18118167   0.02617222
8490.00   2.20060539   0.02684824
8492.00   2.19483972   0.02703743
8494.00   2.21422029   0.02712985
8496.00   2.22096920   0.02714022
8498.00   2.20920491   0.02729693
8500.00   2.20964718   0.02789398
8502.00   2.22366142   0.02851271
8504.00   2.22729039   0.02868729
8506.00   2.22908807   0.02866393
8508.00   2.23347163   0.02826524
8510.00   2.25414515   0.02725458
8512.00   2.27771401   0.02627258
8514.00   2.28929925   0.02590715
8516.00   2.29548430   0.02590618
8518.00   2.30758882   0.02605491
8520.00   2.30252266   0.02627519
8522.00   2.32058072   0.02628193
8524.00   2.33436275   0.02620272
8526.00   2.34038258   0.02612576
8528.00   2.33500123   0.02606621
8530.00   2.33893704   0.02604839
8532.00   2.34330058   0.02621964
8534.00   2.33405805   0.02640471
8536.00   2.32851863   0.02653503
8538.00   2.35233212   0.02666754
8540.00   2.36116934   0.02671767
8542.00   2.35202336   0.02685296
8544.00   2.34338307   0.02705171
8546.00   2.34419656   0.02723408
8548.00   2.35467505   0.02734471
8550.00   2.35421872   0.02736477
8552.00   2.36551309   0.02719490
8554.00   2.38146257   0.02681645
8556.00   2.39408588   0.02642129
8558.00   2.38421798   0.02617639
8560.00   2.38256097   0.02614768
8562.00   2.37318873   0.02612802
8564.00   2.37181973   0.02614177
8566.00   2.37498450   0.02616526
8568.00   2.40059114   0.02626223
8570.00   2.40317869   0.02630138
8572.00   2.39256954   0.02628922
8574.00   2.39437675   0.02631955
8576.00   2.41950440   0.02640007
8578.00   2.42317224   0.02637254
8580.00   2.41295052   0.02632082
8582.00   2.39745212   0.02630316
8584.00   2.39383388   0.02638240
8586.00   2.41248584   0.02653465
8588.00   2.42316341   0.02660896
8590.00   2.41813350   0.02663360
8592.00   2.42853618   0.02677575
8594.00   2.43464708   0.02682941
8596.00   2.40018511   0.02661233
8598.00   2.40009332   0.02657978
8600.00   2.38714910   0.02643943
8602.00   2.38822436   0.02628678
8604.00   2.40406370   0.02620986
8606.00   2.41030788   0.02621540
8608.00   2.39852214   0.02629416
8610.00   2.39059424   0.02642807
8612.00   2.40131855   0.02669844
8614.00   2.39411664   0.02701900
8616.00   2.36399746   0.02729906
8618.00   2.39061451   0.02791154
8620.00   2.37606525   0.02835320
8622.00   2.36990833   0.02881180
8624.00   2.38223386   0.02952860
8626.00   2.38825011   0.03024462
8628.00   2.37666965   0.03175850
8630.00   2.39870071   0.03258717
8632.00   2.41872478   0.03253933
8634.00   2.41906476   0.03224184
8636.00   2.39733434   0.03345200
8638.00   2.38671613   0.03082823
8640.00   2.38203883   0.02876650
8642.00   2.37883973   0.02840762
8644.00   2.35465527   0.02896511
8646.00   2.34700608   0.02873452
8648.00   2.37045932   0.02867761
8650.00   2.35212827   0.02871043
8652.00   2.32842445   0.02882136
8654.00   2.35079980   0.02905145
8656.00   2.35277557   0.02903693
8658.00   2.34484267   0.02888579
8660.00   2.32521248   0.02869747
8662.00   2.31714988   0.02850597
8664.00   2.29398847   0.02823333
8666.00   2.31037736   0.02812646
8668.00   2.32626843   0.02798384
8670.00   2.34166288   0.02779031
8672.00   2.32997036   0.02747355
8674.00   2.32026410   0.02721626
8676.00   2.31759977   0.02696467
8678.00   2.30714607   0.02668274
8680.00   2.29238439   0.02640769
8682.00   2.30189204   0.02626122
8684.00   2.32787490   0.02622215
8686.00   2.31525207   0.02602612
8688.00   2.30265236   0.02585141
8690.00   2.29668641   0.02573020
8692.00   2.28108549   0.02559937
8694.00   2.27722406   0.02557623
8696.00   2.29336357   0.02565733
8698.00   2.30079913   0.02569554
8700.00   2.28603101   0.02563025
8702.00   2.27510166   0.02561435
8704.00   2.27073979   0.02559715
8706.00   2.27780032   0.02557933
8708.00   2.28568530   0.02554673
8710.00   2.27734542   0.02545463
8712.00   2.26322341   0.02528562
8714.00   2.26092982   0.02516488
8716.00   2.27044487   0.02516755
8718.00   2.27222991   0.02517675
8720.00   2.28288364   0.02520949
8722.00   2.27942061   0.02521752
8724.00   2.26699662   0.02518888
8726.00   2.25978208   0.02514557
8728.00   2.25799179   0.02511330
8730.00   2.25991464   0.02511441
8732.00   2.26493168   0.02513341
8734.00   2.26483989   0.02511737
8736.00   2.25803781   0.02508195
8738.00   2.26083565   0.02512324
8740.00   2.25443554   0.02514083
8742.00   2.25745773   0.02513915
8744.00   2.24484420   0.02507507
8746.00   2.23429799   0.02503753
8748.00   2.24033713   0.02506814
8750.00   2.23963356   0.02507516
8752.00   2.24479747   0.02545166
8754.00   2.23765635   0.02652824
8756.00   2.23510528   0.02809894
8758.00   2.24507833   0.02975273
8760.00   2.22639441   0.03112279
8762.00   2.22447205   0.03321352
8764.00   2.19727993   0.03402640
8766.00   2.18605304   0.03306875
8768.00   2.19653964   0.03142185
8770.00   2.17445445   0.03127572
8772.00   2.16951585   0.03253348
8774.00   2.16985059   0.03225236
8776.00   2.17218947   0.03174634
8778.00   2.17022777   0.03151010
8780.00   2.17555285   0.03106302
8782.00   2.18194747   0.02938187
8784.00   2.16840267   0.02729058
8786.00   2.15241528   0.02619019
8788.00   2.15783381   0.02649913
8790.00   2.16109753   0.02671105
8792.00   2.15991044   0.02667296
8794.00   2.16411352   0.02633632
8796.00   2.15325546   0.02558138
8798.00   2.17399883   0.02497463
8800.00   2.16208291   0.02460652
8802.00   2.15280986   0.02445405
8804.00   2.15120244   0.02447518
8806.00   2.14368677   0.02452846
8808.00   2.14105010   0.02460572
8810.00   2.13299632   0.02464903
8812.00   2.14590597   0.02478616
8814.00   2.13876915   0.02473585
8816.00   2.12178636   0.02458355
8818.00   2.11189437   0.02491991
8820.00   2.10556245   0.02814114
8822.00   2.08767819   0.03282086
8824.00   2.06865621   0.03619563
8826.00   2.05148244   0.03711360
8828.00   2.06799197   0.03728439
8830.00   2.08292460   0.03698641
8832.00   2.07780099   0.03487765
8834.00   2.08071613   0.03186307
8836.00   2.10413814   0.03010468
8838.00   2.10948777   0.02980215
8840.00   2.09731293   0.02858371
8842.00   2.09132266   0.02691203
8844.00   2.10252118   0.02595639
8846.00   2.12294936   0.02634616
8848.00   2.13109803   0.02686103
8850.00   2.12471938   0.02703632
8852.00   2.12618756   0.02690563
8854.00   2.12712383   0.02633319
8856.00   2.08515358   0.02526914
8858.00   2.04290414   0.02466390
8860.00   2.01501870   0.02502253
8862.00   1.99186194   0.02601209
8864.00   1.97258985   0.02706446
8866.00   1.95079672   0.02730230
8868.00   1.92491400   0.02705585
8870.00   1.92085874   0.02663885
8872.00   1.93182385   0.02580807
8874.00   1.91257370   0.02446732
8876.00   1.87958944   0.02384746
8878.00   1.86370373   0.02522350
8880.00   1.86368752   0.02906044
8882.00   1.88324451   0.03345815
8884.00   1.86086023   0.03605551
8886.00   1.82718086   0.03646290
8888.00   1.78763545   0.03694175
8890.00   1.79584253   0.03554643
8892.00   1.81763744   0.03147640
8894.00   1.77352619   0.02616829
8896.00   1.74867141   0.02608174
8898.00   1.74242437   0.02730798
8900.00   1.74931192   0.02821307
8902.00   1.74060857   0.02835739
8904.00   1.74777603   0.02808111
8906.00   1.71938813   0.02660372
8908.00   1.69429839   0.02456115
8910.00   1.69781053   0.02322615
8912.00   1.69596994   0.02419259
8914.00   1.69339025   0.02816282
8916.00   1.67723596   0.03164326
8918.00   1.66565418   0.03292374
8920.00   1.65480578   0.03282377
8922.00   1.64449692   0.03204571
8924.00   1.62531757   0.02935915
8926.00   1.63331938   0.02539200
8928.00   1.64606655   0.02291137
8930.00   1.65543783   0.02240535
8932.00   1.66871798   0.02242791
8934.00   1.66912079   0.02228329
8936.00   1.65727890   0.02286862
8938.00   1.64566386   0.02418683
8940.00   1.63014603   0.02537314
8942.00   1.59621203   0.02570491
8944.00   1.61890614   0.02599136
8946.00   1.62403786   0.02585489
8948.00   1.60918772   0.02512581
8950.00   1.59500945   0.02475325
8952.00   1.62835729   0.02699132
8954.00   1.64743555   0.02990223
8956.00   1.59440517   0.03126849
8958.00   1.54321063   0.03171079
8960.00   1.56294620   0.03188195
8962.00   1.63090479   0.03045939
8964.00   1.64841402   0.02693195
8966.00   1.62870967   0.02401678
8968.00   1.59990823   0.02295265
8970.00   1.60112953   0.02324083
8972.00   1.63679647   0.02349351
8974.00   1.61884654   0.02312883
8976.00   1.59570634   0.02274044
8978.00   1.61458576   0.02286893
8980.00   1.65662611   0.02368590
8982.00   1.61322939   0.02486396
8984.00   1.58224618   0.02675498
8986.00   1.59368861   0.02839830
8988.00   1.64420700   0.02895699
8990.00   1.70766151   0.02804627
8992.00   1.72369230   0.02631535
8994.00   1.67063570   0.02544186
8996.00   1.62877464   0.02668367
8998.00   1.65026855   0.02937133
9000.00   1.70552599   0.03127664
9002.00   1.73801756   0.03175985
9004.00   1.74956453   0.03079213
9006.00   1.72784078   0.02833483
9008.00   1.68358803   0.02519176
9010.00   1.66516209   0.02358894
9012.00   1.64363575   0.02329477
9014.00   1.66916764   0.02353956
9016.00   1.69415915   0.02370056
9018.00   1.66038835   0.02343253
9020.00   1.61480296   0.02313657
9022.00   1.61958253   0.02322279
9024.00   1.63842142   0.02322958
9026.00   1.64977014   0.02297033
9028.00   1.65230560   0.02257854
9030.00   1.66257632   0.02251240
9032.00   1.66900826   0.02273361
9034.00   1.64805257   0.02291020
9036.00   1.61027896   0.02293709
9038.00   1.60722697   0.02312985
9040.00   1.63097894   0.02343826
9042.00   1.63263476   0.02351478
9044.00   1.60776031   0.02366365
9046.00   1.59738028   0.02416794
9048.00   1.61470950   0.02465829
9050.00   1.64523220   0.02490909
9052.00   1.64549923   0.02460891
9054.00   1.60332394   0.02366376
9056.00   1.57712018   0.02262364
9058.00   1.57135153   0.02236944
9060.00   1.61256456   0.02271609
9062.00   1.63347089   0.02294120
9064.00   1.60452902   0.02292636
9066.00   1.56692541   0.02301727
9068.00   1.57658195   0.02330912
9070.00   1.60336459   0.02346928
9072.00   1.60119593   0.02324983
9074.00   1.57076800   0.02284475
9076.00   1.55935919   0.02275733
9078.00   1.61374855   0.02329174
9080.00   1.62059963   0.02341463
9082.00   1.58157694   0.02306823
9084.00   1.55003011   0.02274503
9086.00   1.56461525   0.02294519
9088.00   1.55900538   0.02306780
9090.00   1.55162895   0.02306974
9092.00   1.54209340   0.02306546
9094.00   1.52487838   0.02314017
9096.00   1.52731705   0.02347951
9098.00   1.57050657   0.02416351
9100.00   1.56099832   0.02432694
9102.00   1.52088833   0.02406453
9104.00   1.50266659   0.02373891
9106.00   1.54222023   0.02350633
9108.00   1.54850292   0.02264732
9110.00   1.52870190   0.02181042
9112.00   1.50040185   0.02154098
9114.00   1.48672235   0.02188347
9116.00   1.51530266   0.02227581
9118.00   1.55997097   0.02236649
9120.00   1.56990910   0.02214635
9122.00   1.53039491   0.02182219
9124.00   1.48794794   0.02189062
9126.00   1.50027072   0.02256824
9128.00   1.51053631   0.02313869
9130.00   1.48292577   0.02321416
9132.00   1.44755232   0.02296788
9134.00   1.49439180   0.02300061
9136.00   1.53214419   0.02278021
9138.00   1.51302898   0.02207753
9140.00   1.48651731   0.02143113
9142.00   1.49632502   0.02130721
9144.00   1.49480617   0.02147473
9146.00   1.44998586   0.02180345
9148.00   1.40993893   0.02253674
9150.00   1.41510582   0.02350291
9152.00   1.46199572   0.02423316
9154.00   1.49332631   0.02418041
9156.00   1.46518040   0.02348826
9158.00   1.43781233   0.02268320
9160.00   1.44065034   0.02218146
9162.00   1.45712721   0.02204344
9164.00   1.44454992   0.02185824
9166.00   1.43312967   0.02178212
9168.00   1.42090547   0.02190689
9170.00   1.42864120   0.02233250
9172.00   1.43675196   0.02269567
9174.00   1.47156954   0.02280932
9176.00   1.45972192   0.02223052
9178.00   1.41211700   0.02143888
9180.00   1.39265239   0.02114230
9182.00   1.41293800   0.02127966
9184.00   1.43577731   0.02132390
9186.00   1.43929565   0.02117851
9188.00   1.42549717   0.02098083
9190.00   1.40916240   0.02100417
9192.00   1.43256426   0.02136658
9194.00   1.45875740   0.02142796
9196.00   1.47965205   0.02128500
9198.00   1.48284805   0.02109157
9200.00   1.47782934   0.02108376
9202.00   1.44656658   0.02110381
9204.00   1.45232296   0.02132259
9206.00   1.46158278   0.02151012
9208.00   1.47387826   0.02176938
9210.00   1.48214781   0.02217213
9212.00   1.50119245   0.02282260
9214.00   1.54073679   0.02351352
9216.00   1.57974041   0.02390670
9218.00   1.58028471   0.02379722
9220.00   1.53934240   0.02331066
9222.00   1.49711323   0.02275671
9224.00   1.46521461   0.02228455
9226.00   1.45264566   0.02202099
9228.00   1.45372331   0.02186597
9230.00   1.45343149   0.02165942
9232.00   1.44484675   0.02146128
9234.00   1.43352687   0.02132263
9236.00   1.42664325   0.02121382
9238.00   1.42146051   0.02113003
9240.00   1.40400934   0.02106909
9242.00   1.40922463   0.02121247
9244.00   1.43646157   0.02148417
9246.00   1.44692659   0.02160283
9248.00   1.42744875   0.02144517
9250.00   1.41533458   0.02124869
9252.00   1.41409576   0.02112555
9254.00   1.40616858   0.02102033
9256.00   1.39772558   0.02098635
9258.00   1.39663696   0.02106273
9260.00   1.43576634   0.02128668
9262.00   1.44972384   0.02122881
9264.00   1.43137109   0.02097321
9266.00   1.41063118   0.02079922
9268.00   1.40683794   0.02086417
9270.00   1.40796602   0.02108287
9272.00   1.39700460   0.02134066
9274.00   1.39681971   0.02173829
9276.00   1.41503465   0.02220878
9278.00   1.44224393   0.02260392
9280.00   1.43783677   0.02268685
9282.00   1.41978157   0.02272432
9284.00   1.42996824   0.02297327
9286.00   1.45087147   0.02321491
9288.00   1.42737067   0.02319436
9290.00   1.39532840   0.02332735
9292.00   1.37788880   0.02364830
9294.00   1.39487219   0.02416015
9296.00   1.40889263   0.02465053
9298.00   1.41078079   0.02539313
9300.00   1.41844904   0.02770499
9302.00   1.38801956   0.03089106
9304.00   1.35641325   0.03446833
9306.00   1.40630531   0.03901100
9308.00   1.45305288   0.04474782
9310.00   1.36187518   0.04775191
9312.00   1.30074561   0.04901297
9314.00   1.35826123   0.05014746
9316.00   1.48494530   0.05121822
9318.00   1.43784046   0.04906744
9320.00   1.31681991   0.04677048
9322.00   1.33456481   0.04604853
9324.00   1.46114600   0.04547334
9326.00   1.45414364   0.04196030
9328.00   1.33878601   0.03728588
9330.00   1.30229306   0.03398839
9332.00   1.34684145   0.03423883
9334.00   1.41503775   0.03692035
9336.00   1.39789248   0.03838290
9338.00   1.27458775   0.03856612
9340.00   1.30185759   0.03936441
9342.00   1.50377524   0.03881400
9344.00   1.67540038   0.03472298
9346.00   1.50862920   0.02933157
9348.00   1.32216156   0.02694180
9350.00   1.26534474   0.02838117
9352.00   1.32592928   0.03138131
9354.00   1.42607343   0.03302845
9356.00   1.53190887   0.03182344
9358.00   1.50995290   0.02936594
9360.00   1.40780258   0.02737213
9362.00   1.31321776   0.02721344
9364.00   1.27886641   0.02925127
9366.00   1.32412255   0.03398143
9368.00   1.44473755   0.04408922
9370.00   1.51133645   0.05502303
9372.00   1.42837417   0.06293409
9374.00   1.28128994   0.06695361
9376.00   1.28140843   0.07043139
9378.00   1.37201881   0.06828160
9380.00   1.43150854   0.05762710
9382.00   1.40268147   0.04041884
9384.00   1.40252101   0.02932789
9386.00   1.39864814   0.02589556
9388.00   1.38994062   0.02467863
9390.00   1.36694562   0.02377463
9392.00   1.36986983   0.02371253
9394.00   1.34949160   0.02447955
9396.00   1.35529554   0.02628220
9398.00   1.36927032   0.02830450
9400.00   1.40178442   0.02956522
9402.00   1.40951824   0.02944132
9404.00   1.37353122   0.02882923
9406.00   1.34886420   0.02784622
9408.00   1.38200235   0.02672186
9410.00   1.41325140   0.02595446
9412.00   1.36268961   0.02629866
9414.00   1.34425116   0.02862086
9416.00   1.34543848   0.03112970
9418.00   1.33854043   0.03269217
9420.00   1.30294573   0.03356813
9422.00   1.19205153   0.03438896
9424.00   1.20002151   0.03508811
9426.00   1.36117935   0.03317015
9428.00   1.48609412   0.02975703
9430.00   1.43158424   0.02693584
9432.00   1.29427111   0.02797368
9434.00   1.18735230   0.03546139
9436.00   1.17620838   0.04734140
9438.00   1.23391116   0.05622123
9440.00   1.37625182   0.05778560
9442.00   1.41898191   0.04969317
9444.00   1.39545393   0.03907523
9446.00   1.33823836   0.03010753
9448.00   1.28096807   0.02610891
9450.00   1.21820986   0.02718712
9452.00   1.22697914   0.03231079
9454.00   1.25876462   0.03872333
9456.00   1.30495393   0.04231787
9458.00   1.34055519   0.04216401
9460.00   1.34822524   0.03923654
9462.00   1.26909828   0.03465187
9464.00   1.22920656   0.02968889
9466.00   1.27497375   0.02698064
9468.00   1.33832347   0.02774960
9470.00   1.28854859   0.03105413
9472.00   1.24871826   0.03653525
9474.00   1.20566738   0.04120230
9476.00   1.18670475   0.04429395
9478.00   1.20621169   0.04531605
9480.00   1.28287852   0.04250371
9482.00   1.32135427   0.03446088
9484.00   1.31715930   0.02733603
9486.00   1.26819718   0.02409610
9488.00   1.19677508   0.02399897
9490.00   1.16494036   0.02521183
9492.00   1.20568502   0.02774578
9494.00   1.23502672   0.03134162
9496.00   1.24498987   0.03540989
9498.00   1.30118597   0.03829791
9500.00   1.35830116   0.03700937
9502.00   1.32476413   0.03333343
9504.00   1.27701128   0.02992510
9506.00   1.24796152   0.02753496
9508.00   1.22424042   0.02544334
9510.00   1.19419515   0.02426634
9512.00   1.18848479   0.02572331
9514.00   1.18938255   0.02892891
9516.00   1.20829177   0.03202189
9518.00   1.24386358   0.03332776
9520.00   1.26337576   0.03294344
9522.00   1.24718702   0.03129316
9524.00   1.24230874   0.02907182
9526.00   1.27000034   0.02718744
9528.00   1.31097412   0.02642890
9530.00   1.31726730   0.02646907
9532.00   1.31497955   0.02691555
9534.00   1.31558073   0.02734899
9536.00   1.29534543   0.02731158
9538.00   1.23153758   0.02677635
9540.00   1.21993148   0.02651904
9542.00   1.25672340   0.02645283
9544.00   1.28388155   0.02658533
9546.00   1.23899138   0.02712404
9548.00   1.15383232   0.02864865
9550.00   1.09902942   0.03072823
9552.00   1.13014209   0.03237943
9554.00   1.19521630   0.03258449
9556.00   1.21467316   0.03086451
9558.00   1.14900792   0.02833883
9560.00   1.08487189   0.02908112
9562.00   1.07547581   0.03345851
9564.00   1.11850560   0.03756332
9566.00   1.14374316   0.03726289
9568.00   1.16540992   0.03451518
9570.00   1.15235400   0.03125028
9572.00   1.13393986   0.02779163
9574.00   1.08606231   0.02451406
9576.00   1.06764460   0.02334895
9578.00   1.11471736   0.02394064
9580.00   1.16033876   0.02426439
9582.00   1.14405453   0.02389953
9584.00   1.09680641   0.02374392
9586.00   1.12624919   0.02518093
9588.00   1.22159827   0.02703418
9590.00   1.25568283   0.02705464
9592.00   1.19790518   0.02542117
9594.00   1.10284817   0.02356287
9596.00   1.09827709   0.02289159
9598.00   1.08794212   0.02263261
9600.00   1.05526984   0.02292198
9602.00   1.05098736   0.02408378
9604.00   1.09769547   0.02552340
9606.00   1.12391174   0.02582335
9608.00   1.09298241   0.02505688
9610.00   1.06033123   0.02425247
9612.00   1.04723072   0.02397897
9614.00   1.03586292   0.02437552
9616.00   1.01632106   0.02560746
9618.00   1.02439272   0.02690771
9620.00   1.04347086   0.02761642
9622.00   1.05718338   0.02733665
9624.00   1.06381118   0.02596800
9626.00   1.06697118   0.02401981
9628.00   1.04771221   0.02247915
9630.00   1.01292169   0.02179415
9632.00   0.98239511   0.02193763
9634.00   0.98940372   0.02257806
9636.00   1.03059733   0.02310906
9638.00   1.03997397   0.02296590
9640.00   1.01661611   0.02245419
9642.00   1.00278783   0.02226345
9644.00   1.03447676   0.02248177
9646.00   1.04961050   0.02234419
9648.00   1.03746128   0.02198653
9650.00   1.00798464   0.02166530
9652.00   1.00363362   0.02177899
9654.00   1.00789750   0.02227823
9656.00   0.98403931   0.02269837
9658.00   0.96744186   0.02315057
9660.00   0.99180096   0.02392221
9662.00   1.02901423   0.02495436
9664.00   1.01033747   0.02527561
9666.00   0.98826963   0.02512097
9668.00   0.98562890   0.02475861
9670.00   0.99464637   0.02427028
9672.00   0.98864049   0.02360812
9674.00   0.95966178   0.02356362
9676.00   0.94942480   0.02479971
9678.00   0.95993656   0.02636958
9680.00   0.99530858   0.02718877
9682.00   0.98851460   0.02660612
9684.00   0.94202280   0.02556001
9686.00   0.93688422   0.02446401
9688.00   0.96006364   0.02354494
9690.00   0.96689039   0.02318074
9692.00   0.95898122   0.02432924
9694.00   0.97431344   0.02664356
9696.00   0.96118289   0.02818122
9698.00   0.93084520   0.02847146
9700.00   0.94614536   0.02821591
9702.00   0.94304436   0.02708818
9704.00   0.94777459   0.02521036
9706.00   0.94231147   0.02372249
9708.00   0.93191981   0.02354847
9710.00   0.93289948   0.02440490
9712.00   0.95307374   0.02626903
9714.00   0.95933199   0.02881391
9716.00   0.93942291   0.03044451
9718.00   0.87651974   0.03051297
9720.00   0.88916188   0.03066045
9722.00   0.90452605   0.03023943
9724.00   0.91301274   0.02792910
9726.00   0.91411525   0.02463485
9728.00   0.90998787   0.02266915
9730.00   0.89433074   0.02315491
9732.00   0.88925773   0.02489814
9734.00   0.90067416   0.02630197
9736.00   0.91482192   0.02681381
9738.00   0.90211725   0.02647698
9740.00   0.90257901   0.02615779
9742.00   0.89598298   0.02520245
9744.00   0.88875645   0.02391578
9746.00   0.89744067   0.02302379
9748.00   0.89490443   0.02268450
9750.00   0.88123733   0.02215833
9752.00   0.88198811   0.02175202
9754.00   0.89156359   0.02161327
9756.00   0.89848655   0.02162221
9758.00   0.88152170   0.02124443
9760.00   0.87520558   0.02096148
9762.00   0.88900423   0.02088502
9764.00   0.90084648   0.02071702
9766.00   0.89924937   0.02036554
9768.00   0.88239139   0.02007683
9770.00   0.87488765   0.02011938
9772.00   0.86465412   0.02029483
9774.00   0.84927911   0.02042634
9776.00   0.84799558   0.02057605
9778.00   0.86911505   0.02093205
9780.00   0.87767601   0.02160148
9782.00   0.86113524   0.02341005
9784.00   0.84147769   0.02684285
9786.00   0.84313917   0.03132712
9788.00   0.84319049   0.03498690
9790.00   0.84363246   0.03660384
9792.00   0.84704810   0.03658042
9794.00   0.84272546   0.03511794
9796.00   0.81862622   0.03226781
9798.00   0.82514185   0.02953758
9800.00   0.84974068   0.02804408
9802.00   0.86045700   0.02694043
9804.00   0.85087091   0.02555727
9806.00   0.85066146   0.02454367
9808.00   0.83654743   0.02437568
9810.00   0.83505851   0.02459576
9812.00   0.84660196   0.02470910
9814.00   0.85635644   0.02448999
9816.00   0.84947282   0.02388571
9818.00   0.83096772   0.02292101
9820.00   0.82036239   0.02228316
9822.00   0.83171207   0.02220102
9824.00   0.85544163   0.02235786
9826.00   0.84573817   0.02217858
9828.00   0.84369069   0.02205764
9830.00   0.84992057   0.02200644
9832.00   0.85659438   0.02186595
9834.00   0.84769511   0.02143370
9836.00   0.85323375   0.02120752
9838.00   0.84754854   0.02139515
9840.00   0.83418733   0.02234922
9842.00   0.81573600   0.02414930
9844.00   0.79863697   0.02629716
9846.00   0.80967140   0.02785862
9848.00   0.81061107   0.02829794
9850.00   0.79798645   0.02768641
9852.00   0.79623771   0.02619187
9854.00   0.78417724   0.02387545
9856.00   0.79702967   0.02265923
9858.00   0.87011641   0.02293488
9860.00   0.93008012   0.02383361
9862.00   0.91123390   0.02602562
9864.00   0.82867700   0.03016824
9866.00   0.81481457   0.03312117
9868.00   0.77566195   0.03720013
9870.00   0.75264257   0.03985653
9872.00   0.75805300   0.04049601
9874.00   0.77639335   0.03931208
9876.00   0.74628520   0.03505847
9878.00   0.77759624   0.02944619
9880.00   0.81964415   0.02499883
9882.00   0.81477100   0.02350471
9884.00   0.79729939   0.02321441
9886.00   0.78795838   0.02389985
9888.00   0.77759761   0.02589648
9890.00   0.76823884   0.02836439
9892.00   0.77906638   0.03013165
9894.00   0.76771003   0.03066555
9896.00   0.75611192   0.03023514
9898.00   0.75619155   0.02858702
9900.00   0.77305436   0.02604935
9902.00   0.78036433   0.02398490
9904.00   0.78553313   0.02373105
9906.00   0.78392965   0.02646403
9908.00   0.78266335   0.03178005
9910.00   0.78600234   0.03753249
9912.00   0.77829027   0.04100500
9914.00   0.78016686   0.04199827
9916.00   0.77798623   0.04109406
9918.00   0.75664490   0.03771121
9920.00   0.74340391   0.03175739
9922.00   0.73650926   0.02630905
9924.00   0.73847347   0.02369149
9926.00   0.74353880   0.02294349
9928.00   0.75723225   0.02294279
9930.00   0.76926786   0.02322432
9932.00   0.76421070   0.02406907
9934.00   0.76159221   0.02641826
9936.00   0.75348693   0.03047956
9938.00   0.74806118   0.03571510
9940.00   0.74559504   0.04130939
9942.00   0.71357363   0.04591668
9944.00   0.68590254   0.04795320
9946.00   0.68949729   0.04764906
9948.00   0.71917552   0.04609869
9950.00   0.72717160   0.04463523
9952.00   0.74316406   0.04381909
9954.00   0.74620122   0.04426524
9956.00   0.75269336   0.04595219
9958.00   0.75044417   0.04749438
9960.00   0.75147820   0.04655321
9962.00   0.71759957   0.04309732
9964.00   0.70503956   0.03926395
9966.00   0.71178836   0.03591504
9968.00   0.73844504   0.03322610
9970.00   0.72244358   0.03132885
9972.00   0.72030616   0.03084524
9974.00   0.71639222   0.03052032
9976.00   0.73511428   0.02974703
9978.00   0.74419194   0.02818372
9980.00   0.74201417   0.02664487
9982.00   0.71397680   0.02554211
9984.00   0.70064825   0.02485836
9986.00   0.71201605   0.02452392
9988.00   0.74299842   0.02463044
9990.00   0.74000567   0.02478518
9992.00   0.72205144   0.02538299
9994.00   0.71568328   0.02665003
9996.00   0.71340436   0.02802310
9998.00   0.70110512   0.02878617
10000.00   0.70467663   0.02927905
10002.00   0.72318363   0.03054219
10004.00   0.73684549   0.03434860
10006.00   0.73775750   0.04129516
10008.00   0.73256415   0.04976997
10010.00   0.69739008   0.05506750
10012.00   0.65621132   0.05690418
10014.00   0.66046822   0.05598408
10016.00   0.68272370   0.05241004
10018.00   0.66932243   0.04582184
10020.00   0.65465301   0.04097676
10022.00   0.68663245   0.03961983
10024.00   0.72217011   0.03982237
10026.00   0.70475769   0.03909895
10028.00   0.70713967   0.03740646
10030.00   0.68580323   0.03378602
10032.00   0.66994292   0.03006831
10034.00   0.68522835   0.02845137
10036.00   0.67441744   0.02869158
10038.00   0.67570710   0.02989698
10040.00   0.68230802   0.03098943
10042.00   0.69661051   0.03160106
10044.00   0.68922204   0.03148524
10046.00   0.67374486   0.03061991
10048.00   0.68696028   0.02927749
10050.00   0.69182366   0.02831118
10052.00   0.70612043   0.02898342
10054.00   0.71938729   0.03147812
10056.00   0.69461036   0.03417810
10058.00   0.68502802   0.03611029
10060.00   0.70762491   0.03740856
10062.00   0.69898754   0.03776064
10064.00   0.65538299   0.03697576
10066.00   0.67239410   0.03564555
10068.00   0.69341111   0.03449892
10070.00   0.69905871   0.03379949
10072.00   0.71197873   0.03428476
10074.00   0.69801664   0.03674542
10076.00   0.65672594   0.04195059
10078.00   0.68007785   0.04778823
10080.00   0.70641690   0.05149858
10082.00   0.70393866   0.05240244
10084.00   0.66999179   0.05088287
10086.00   0.61911035   0.04614532
10088.00   0.60335970   0.03939674
10090.00   0.62431198   0.03370288
10092.00   0.65145278   0.03131529
10094.00   0.65543050   0.03161940
10096.00   0.66101843   0.03387860
10098.00   0.66696405   0.03712796
10100.00   0.66208690   0.03973532
10102.00   0.65123528   0.04091594
10104.00   0.65854043   0.04093566
10106.00   0.64487749   0.03947005
10108.00   0.63877648   0.03676698
10110.00   0.66215688   0.03404370
10112.00   0.67159224   0.03270154
10114.00   0.64994115   0.03409092
10116.00   0.64383286   0.03986820
10118.00   0.63747782   0.04814615
10120.00   0.60348994   0.05549443
10122.00   0.57023436   0.05931257
10124.00   0.53990728   0.05962045
10126.00   0.46624517   0.05990745
10128.00   0.43966499   0.05598607
10130.00   0.51763386   0.04734845
10132.00   0.63191372   0.03751665
10134.00   0.63129967   0.03622459
10136.00   0.60712582   0.03569655
10138.00   0.61048001   0.03608254
10140.00   0.63150311   0.03708288
10142.00   0.63906962   0.03842759
10144.00   0.63675958   0.04004829
10146.00   0.62848634   0.04259525
10148.00   0.64316958   0.04564339
10150.00   0.67368585   0.04822771
10152.00   0.64478809   0.04930965
10154.00   0.59588569   0.04938808
10156.00   0.59332627   0.04845680
10158.00   0.63698953   0.04685865
10160.00   0.63148195   0.04514143
10162.00   0.65002012   0.04630334
10164.00   0.64982396   0.05154769
10166.00   0.62182087   0.05953327
10168.00   0.58135247   0.06639933
10170.00   0.59214705   0.06962460
10172.00   0.62021148   0.07019422
10174.00   0.61182237   0.06778838
10176.00   0.56354827   0.06170698
10178.00   0.53223902   0.05409550
10180.00   0.59736472   0.05084692
10182.00   0.56112570   0.05285248
10184.00   0.58369124   0.05795540
10186.00   0.63444000   0.06228305
10188.00   0.61289352   0.06391928
10190.00   0.58956951   0.06387345
10192.00   0.61480117   0.06183462
10194.00   0.64028865   0.05731061
10196.00   0.60939205   0.05278614
10198.00   0.59963125   0.05224500
10200.00   0.63849944   0.05502138
10202.00   0.64945573   0.06008918
10204.00   0.64761943   0.06778004
10206.00   0.59848136   0.07493000
10208.00   0.54194689   0.07853319
10210.00   0.55323344   0.07894894
10212.00   0.58397192   0.07668522
10214.00   0.61499411   0.07123286
10216.00   0.66397429   0.06352151
10218.00   0.62486190   0.05705783
10220.00   0.59988511   0.05789055
10222.00   0.56463546   0.06154173
10224.00   0.58916396   0.06588238
10226.00   0.59985608   0.07110632
10228.00   0.54994947   0.07430582
10230.00   0.57532042   0.07039473
10232.00   0.59975243   0.06309203
10234.00   0.62653583   0.05646347
10236.00   0.62510926   0.05394387
10238.00   0.54710388   0.05324392
10240.00   0.62828106   0.04858717
10242.00   0.65125328   0.04730418
10244.00   0.63636386   0.04698590
10246.00   0.60387295   0.04653428
10248.00   0.57384580   0.04550073
10250.00   0.55085176   0.04554742
10252.00   0.55800432   0.04600223
10254.00   0.56934625   0.04661994
10256.00   0.55272567   0.04713250
10258.00   0.53658193   0.04770484
10260.00   0.57754451   0.04928036
10262.00   0.58593333   0.05087753
10264.00   0.58999074   0.05303722
10266.00   0.60365641   0.05563408
10268.00   0.61380285   0.05796365
10270.00   0.60199660   0.05909952
10272.00   0.57570928   0.05987544
10274.00   0.53906721   0.06103647
10276.00   0.56388348   0.06651918
10278.00   0.57900715   0.08223320
10280.00   0.57626957   0.10614335
10282.00   0.59022301   0.12797903
10284.00   0.57245016   0.14179768
10286.00   0.50520927   0.14642067
10288.00   0.40908977   0.14608069
10290.00   0.37840223   0.13751043
10292.00   0.41306105   0.12270826
10294.00   0.52375007   0.10867717
10296.00   0.53418690   0.10162009
10298.00   0.46180853   0.09505511
10300.00   0.46460518   0.08680918
10302.00   0.52659917   0.07917165
10304.00   0.57243997   0.07562543
10306.00   0.55292940   0.07502162
10308.00   0.57219982   0.07513269
10310.00   0.58274317   0.07461759
10312.00   0.56839818   0.07251575
10314.00   0.48271823   0.06762160
10316.00   0.48990870   0.06398682
10318.00   0.51400274   0.06281362
10320.00   0.54208475   0.06339151
10322.00   0.55286747   0.06455137
10324.00   0.55627817   0.06553359
10326.00   0.55968523   0.06632792
10328.00   0.56576782   0.06664509
10330.00   0.52196175   0.06630557
10332.00   0.50080085   0.06654084
10334.00   0.53527856   0.06823840
10336.00   0.53769439   0.07045814
10338.00   0.48360959   0.07392184
10340.00   0.48052183   0.08063895
10342.00   0.53077990   0.08972275
10344.00   0.52602786   0.09654889
10346.00   0.46124518   0.09916540
10348.00   0.51243657   0.10085075
10350.00   0.57425898   0.09897519
10352.00   0.49002108   0.09201353
10354.00   0.56996673   0.08667574
10356.00   0.54207063   0.08281956
10358.00   0.50756121   0.08027289
10360.00   0.46439973   0.07927687
10362.00   0.45158395   0.08301596
10364.00   0.43954945   0.09569931
10366.00   0.48878562   0.11842070
10368.00   0.52199012   0.14056487
10370.00   0.52088636   0.15635622
10372.00   0.46984091   0.16569047
10374.00   0.57842278   0.15761101
10376.00   0.38523322   0.14472179
10378.00   0.35439900   0.12291356
10380.00   0.68375140   0.10014823
10382.00   0.65294284   0.09193569
10384.00   0.63333201   0.09696415
10386.00   0.62074083   0.09517527
10388.00   0.60705876   0.10005514
10390.00   0.53105706   0.11159297
10392.00   0.59667724   0.11968729
10394.00   0.61952543   0.12674321
10396.00   0.62748599   0.13041009
10398.00   0.54491371   0.12662132
10400.00   0.42434487   0.11710492
10402.00   0.44035563   0.10776641
10404.00   0.50792187   0.10242646
10406.00   0.54076272   0.10310066
10408.00   0.50080353   0.11030174
10410.00   0.53055000   0.12837283
10412.00   0.54138255   0.15667310
10414.00   0.50924510   0.17964995
10416.00   0.44120178   0.19288827
10418.00   0.43751726   0.19690631
10420.00   0.49213347   0.19367158
10422.00   0.48884726   0.17735916
10424.00   0.44570723   0.15077059
10426.00   0.40807343   0.12762386
10428.00   0.46607843   0.11770198
10430.00   0.51332253   0.11214373
10432.00   0.50285828   0.10922834
10434.00   0.50713712   0.10675661
10436.00   0.55106753   0.10529545
10438.00   0.61925405   0.10581139
10440.00   0.63148302   0.10790300
10442.00   0.55054563   0.11333337
10444.00   0.51951736   0.12306106
10446.00   0.48282719   0.13237487
10448.00   0.42674708   0.13794987
10450.00   0.55973786   0.14158660
10452.00   0.49738705   0.13975701
10454.00   0.46988520   0.13282080
10456.00   0.45439041   0.12372825
10458.00   0.50705618   0.12124891
10460.00   0.56121320   0.12956426
10462.00   0.54050797   0.15047610
10464.00   0.56825203   0.17335290
10466.00   0.62160873   0.18858294
10468.00   0.67532176   0.19407181
10470.00   0.50539201   0.18911181
10472.00   0.38797677   0.17441125
10474.00   0.38130113   0.15330802
10476.00   0.48749557   0.13510604
10478.00   0.52116460   0.12575459
10480.00   0.52225816   0.12137214
10482.00   0.54343128   0.12094314
10484.00   0.55202925   0.12176435
10486.00   0.48645720   0.12140411
10488.00   0.37293148   0.11894701
10490.00   0.49501696   0.12152178
10492.00   0.61693019   0.12393572
10494.00   0.62103313   0.12424467
10496.00   0.54820043   0.12352588
10498.00   0.52075237   0.12352812
10500.00   0.48059472   0.12521684
10502.00   0.54872102   0.13217820
10504.00   0.62667388   0.14139721
10506.00   0.55525166   0.14713018
10508.00   0.55626339   0.15057923
10510.00   0.50539124   0.14966582
10512.00   0.46491206   0.14644021
10514.00   0.47610620   0.14387570
10516.00   0.62346512   0.14722772
10518.00   0.61005008   0.15556242
10520.00   0.49681792   0.16476099
10522.00   0.37556073   0.17112525
10524.00   0.42477429   0.17450543
10526.00   0.48990226   0.17296006
10528.00   0.52693462   0.16276555
10530.00   0.46598825   0.14834301
10532.00   0.46222100   0.13782905
10534.00   0.45381597   0.13333799
10536.00   0.44785008   0.13183509
10538.00   0.36812815   0.13066389
10540.00   0.29708573   0.12877797
10542.00   0.33824483   0.12904483
10544.00   0.47606739   0.13286115
10546.00   0.53402358   0.13498104
10548.00   0.46301833   0.13340960
10550.00   0.37644061   0.13288175
10552.00   0.45366654   0.13691492
10554.00   0.56621271   0.13980038
10556.00   0.46602738   0.13652323
10558.00   0.40885606   0.13500671
10560.00   0.50595427   0.13720474
10562.00   0.53288752   0.13906933
10564.00   0.37579420   0.13909911
10566.00   0.40881220   0.14434756
10568.00   0.50245601   0.14920428
10570.00   0.55907506   0.15277046
10572.00   0.59969860   0.15536697
10574.00   0.57066298   0.15491593
10576.00   0.45530584   0.15125032
10578.00   0.55678171   0.15530601
10580.00   0.61806715   0.16159874
10582.00   0.53407174   0.16603148
10584.00   0.47702292   0.16817011
10586.00   0.42301121   0.16845220
10588.00   0.46674344   0.16690002
10590.00   0.49062201   0.16306563
10592.00   0.52249628   0.15936518
10594.00   0.42113701   0.15472683
10596.00   0.51290017   0.15511940
10598.00   0.49598551   0.15538208
10600.00   0.40583768   0.15456736
10602.00   0.40088043   0.15418912
10604.00   0.46751681   0.15484361
10606.00   0.42144680   0.15307289
10608.00   0.37216583   0.15311153
10610.00   0.33029184   0.15379579
10612.00   0.34765938   0.15402584
10614.00   0.35329422   0.15625648
10616.00   0.43582153   0.15828645
10618.00   0.48771811   0.15893662
10620.00   0.56784540   0.16077742
10622.00   0.53684044   0.16102219
10624.00   0.46204022   0.16222195
10626.00   0.46926156   0.16479810
10628.00   0.48563376   0.16495931
10630.00   0.56940943   0.16584998
10632.00   0.49311852   0.16374744
10634.00   0.53666669   0.16953659
10636.00   0.60498363   0.17485051
10638.00   0.58746529   0.17538489
10640.00   0.56526041   0.17605691
10642.00   0.52220005   0.17548196
10644.00   0.49514771   0.17593805
10646.00   0.47229639   0.17678075
10648.00   0.47418404   0.17829110
10650.00   0.40723833   0.18097250
10652.00   0.41161320   0.18267965
10654.00   0.42156497   0.18271576
10656.00   0.48591891   0.18319337
10658.00   0.55092096   0.18277967
10660.00   0.39866552   0.17720602
10662.00   0.47756854   0.17961152
10664.00   0.68855286   0.18769145
10666.00   0.67579931   0.18935542
10668.00   0.46400437   0.18443781
10670.00   0.55878365   0.18729651
10672.00   0.56509078   0.18660773
10674.00   0.49819243   0.18947245
10676.00   0.48634276   0.19422925
10678.00   0.39065075   0.19558430
10680.00   0.52125555   0.20474832
10682.00   0.61809856   0.21482731
10684.00   0.60874093   0.21945000
10686.00   0.55965853   0.21999967
10688.00   0.57088655   0.22555672
10690.00   0.68187886   0.23410456
10692.00   0.62941790   0.23181093
10694.00   0.54573470   0.22874357
10696.00   0.48012343   0.23219842
10698.00   0.37413764   0.23869579
10700.00   0.43893400   0.24247377
