# File created by shivutils (I.Shivvers)
# wl(A)   flm    er(optional)
3622.00   22.10802078   0.19106404
3624.00   21.87413406   0.18977925
3626.00   21.15242195   0.18607853
3628.00   20.71480942   0.18380500
3630.00   20.33574677   0.18176502
3632.00   20.19386673   0.18038732
3634.00   19.69284821   0.17743187
3636.00   19.25581932   0.17510848
3638.00   18.82224846   0.17232612
3640.00   18.39374542   0.17005374
3642.00   17.72864914   0.16675568
3644.00   17.58004570   0.16545124
3646.00   16.84449387   0.16200867
3648.00   16.36540985   0.16109300
3650.00   15.92972946   0.16199052
3652.00   15.66292763   0.15964322
3654.00   15.18201351   0.15507992
3656.00   14.93682384   0.15244006
3658.00   14.71233940   0.14926712
3660.00   14.30918789   0.14646897
3662.00   14.13608265   0.14683281
3664.00   13.74852276   0.14472070
3666.00   13.65759277   0.14186002
3668.00   13.12337875   0.13825782
3670.00   12.97888756   0.13684005
3672.00   12.60134506   0.13467830
3674.00   12.29382801   0.13254254
3676.00   11.91452789   0.12997209
3678.00   11.81474113   0.12911069
3680.00   11.56420612   0.12723698
3682.00   11.26313400   0.12559992
3684.00   11.16858578   0.12465794
3686.00   10.81218815   0.12224369
3688.00   10.86013985   0.12203270
3690.00   10.53889942   0.12020399
3692.00   10.28755379   0.11893464
3694.00   10.41867065   0.11908647
3696.00   10.21256924   0.11740726
3698.00   9.90422440   0.11599921
3700.00   9.80622673   0.11549020
3702.00   9.54677391   0.11377557
3704.00   9.32929420   0.11192122
3706.00   9.12930489   0.11027681
3708.00   9.05409813   0.10928083
3710.00   9.13408947   0.10930420
3712.00   9.12157822   0.10905631
3714.00   9.08822727   0.10841984
3716.00   9.09154510   0.10817710
3718.00   9.14647961   0.10786301
3720.00   8.99723339   0.10655109
3722.00   9.03658676   0.10630471
3724.00   9.07823658   0.10631988
3726.00   9.22695065   0.10700792
3728.00   9.37192440   0.10761652
3730.00   9.06984615   0.10571114
3732.00   9.33737946   0.10667034
3734.00   9.25825405   0.10609292
3736.00   9.43969154   0.10687858
3738.00   9.05687714   0.10465119
3740.00   9.41648769   0.10637574
3742.00   9.33878517   0.10583927
3744.00   9.69488144   0.10681226
3746.00   9.50334549   0.10543922
3748.00   9.74845791   0.10602149
3750.00   10.01695442   0.10706738
3752.00   10.10965824   0.10734681
3754.00   10.49923515   0.10894942
3756.00   10.49777317   0.10867258
3758.00   10.85843372   0.10991202
3760.00   11.29766846   0.11117671
3762.00   11.41778183   0.11134550
3764.00   11.61667538   0.11181999
3766.00   11.83922005   0.11256532
3768.00   12.06827545   0.11310653
3770.00   12.59602642   0.11490213
3772.00   12.55936623   0.11468300
3774.00   12.91983032   0.11566471
3776.00   13.30632973   0.11677617
3778.00   13.70160484   0.11802496
3780.00   13.85337925   0.11816458
3782.00   14.14970303   0.11893401
3784.00   14.61191940   0.12039902
3786.00   14.97031975   0.12130825
3788.00   15.16691208   0.12146324
3790.00   15.68080521   0.12303453
3792.00   16.12675095   0.12438671
3794.00   16.63607788   0.12574981
3796.00   17.16736412   0.12689811
3798.00   17.58001709   0.12813351
3800.00   18.29358482   0.13016136
3802.00   18.66040993   0.13103449
3804.00   18.99532127   0.13174666
3806.00   19.52163315   0.13310665
3808.00   19.76021385   0.13349207
3810.00   20.37685013   0.13500552
3812.00   21.08648300   0.13700575
3814.00   21.35342407   0.13751779
3816.00   22.11569977   0.13930494
3818.00   22.43931961   0.13991164
3820.00   23.20767021   0.14169976
3822.00   23.75238609   0.14287862
3824.00   23.97996521   0.14298883
3826.00   24.64451408   0.14443387
3828.00   25.45274734   0.14642796
3830.00   26.07011414   0.14784749
3832.00   26.40906143   0.14838669
3834.00   27.35050201   0.15030201
3836.00   27.86206245   0.15111837
3838.00   28.45844460   0.15215997
3840.00   29.11148071   0.15334021
3842.00   29.78656197   0.15476322
3844.00   30.18831825   0.15544739
3846.00   31.12334633   0.15718399
3848.00   31.55224991   0.15772530
3850.00   32.41273880   0.15935431
3852.00   32.93817139   0.16021341
3854.00   33.58486557   0.16124892
3856.00   34.40972519   0.16279225
3858.00   35.07992554   0.16388932
3860.00   35.36398315   0.16422082
3862.00   36.31563187   0.16603461
3864.00   36.82839203   0.16685587
3866.00   37.37889481   0.16761377
3868.00   38.36595535   0.16936731
3870.00   38.88501358   0.17002757
3872.00   39.21236038   0.17040622
3874.00   39.86527252   0.17144915
3876.00   40.52118683   0.17339079
3878.00   41.16680527   0.18572935
3880.00   41.68443298   0.17363493
3882.00   42.34376907   0.17462765
3884.00   42.22777939   0.17397997
3886.00   42.85053253   0.17482677
3888.00   43.07351303   0.17462440
3890.00   43.79636383   0.17569733
3892.00   43.71171570   0.17512809
3894.00   44.26101303   0.17570467
3896.00   44.56416321   0.17586058
3898.00   44.73104095   0.17573225
3900.00   44.82775879   0.17548953
3902.00   44.95938492   0.17533056
3904.00   45.00919342   0.17507845
3906.00   44.84708786   0.17471419
3908.00   44.89648056   0.17467959
3910.00   44.80865097   0.17417142
3912.00   45.02973938   0.17441832
3914.00   44.95409012   0.17371504
3916.00   44.81962585   0.17252439
3918.00   44.68635178   0.17137891
3920.00   44.46397400   0.17042476
3922.00   44.20256042   0.16946569
3924.00   43.87089539   0.16849193
3926.00   43.81762695   0.16793862
3928.00   43.59623337   0.16712761
3930.00   43.34777832   0.16617785
3932.00   41.70491028   0.16284147
3934.00   41.96307755   0.16300112
3936.00   42.64324570   0.16393596
3938.00   42.82327271   0.16387084
3940.00   42.45517349   0.16302671
3942.00   42.29317856   0.16253053
3944.00   42.03775024   0.16179194
3946.00   41.93632126   0.16124727
3948.00   41.59283066   0.16079600
3950.00   41.65546036   0.16047116
3952.00   41.75921631   0.15973057
3954.00   41.84111023   0.15947787
3956.00   41.37161636   0.15820165
3958.00   41.45727921   0.15805061
3960.00   41.47914124   0.15782964
3962.00   40.86309814   0.15637279
3964.00   40.54416275   0.15524168
3966.00   40.42868042   0.15452828
3968.00   40.34474182   0.15405725
3970.00   41.02490234   0.15496077
3972.00   41.28987503   0.15512170
3974.00   41.02262497   0.15451069
3976.00   41.28321075   0.15471049
3978.00   40.82298660   0.15355252
3980.00   40.60286331   0.15288121
3982.00   40.58745575   0.15256107
3984.00   40.35616684   0.15175574
3986.00   40.48151398   0.15168254
3988.00   40.13985062   0.15067808
3990.00   40.12049866   0.15042381
3992.00   39.89173126   0.14961915
3994.00   39.77479935   0.14912581
3996.00   39.47406006   0.14834991
3998.00   39.26672745   0.14769760
4000.00   38.86302567   0.14645606
4002.00   39.10417557   0.14653561
4004.00   39.20448685   0.14632063
4006.00   38.99092102   0.14567125
4008.00   39.18523788   0.14582883
4010.00   39.16967392   0.14553955
4012.00   39.34188843   0.14547458
4014.00   39.43840408   0.14527105
4016.00   39.34111404   0.14478287
4018.00   39.22792435   0.14446343
4020.00   39.48168564   0.14494878
4022.00   39.78821182   0.14529020
4024.00   39.65187073   0.14470962
4026.00   40.08292007   0.14489949
4028.00   39.95109558   0.14420754
4030.00   40.33020020   0.14453371
4032.00   40.28953171   0.14441736
4034.00   40.57460403   0.14414717
4036.00   40.88904572   0.14443757
4038.00   40.83782578   0.14408134
4040.00   41.09712219   0.14423795
4042.00   41.58137131   0.14489967
4044.00   41.90140533   0.14657111
4046.00   42.27334595   0.14949957
4048.00   42.42145920   0.14959598
4050.00   42.64583206   0.14707792
4052.00   42.91495514   0.14602672
4054.00   43.36429596   0.14634517
4056.00   43.14126587   0.14575614
4058.00   43.59609604   0.14603890
4060.00   44.14272308   0.14664629
4062.00   44.56877518   0.14697523
4064.00   44.59242249   0.14677748
4066.00   44.91743469   0.14714435
4068.00   45.36754608   0.14756794
4070.00   45.63327789   0.14765765
4072.00   45.91490173   0.14778489
4074.00   46.28585052   0.14818875
4076.00   46.30629349   0.14835700
4078.00   46.52114868   0.14876600
4080.00   46.60364532   0.14849596
4082.00   46.67872620   0.14824048
4084.00   47.00866699   0.14838627
4086.00   47.16422653   0.14831066
4088.00   47.22375107   0.14812361
4090.00   47.13036728   0.14765036
4092.00   47.02529907   0.14716840
4094.00   46.79307556   0.14657626
4096.00   46.77857590   0.14627002
4098.00   46.62921143   0.14576097
4100.00   46.58540726   0.14545967
4102.00   46.38356781   0.14490688
4104.00   46.14202881   0.14429767
4106.00   46.20658112   0.14417878
4108.00   45.62847137   0.14306422
4110.00   45.76639938   0.14304005
4112.00   45.50148392   0.14234805
4114.00   45.16731644   0.14167228
4116.00   45.05867004   0.14131393
4118.00   44.93063354   0.14080961
4120.00   44.95794296   0.14060596
4122.00   44.88922882   0.14025436
4124.00   44.27798462   0.13912573
4126.00   44.14771271   0.13865511
4128.00   43.96368408   0.13816760
4130.00   43.91853333   0.13789077
4132.00   43.59477615   0.13710484
4134.00   43.16030884   0.13632475
4136.00   43.07962799   0.13589399
4138.00   42.97365189   0.13549612
4140.00   42.75774002   0.13495284
4142.00   42.52262497   0.13424924
4144.00   42.29925156   0.13358331
4146.00   42.07832336   0.13296559
4148.00   41.76148605   0.13219674
4150.00   41.62145615   0.13176844
4152.00   41.48709869   0.13138232
4154.00   41.29237747   0.13088053
4156.00   41.04891968   0.13016917
4158.00   40.93104553   0.12974109
4160.00   40.63023376   0.12907386
4162.00   40.33433914   0.12848403
4164.00   40.27690125   0.12830138
4166.00   40.20325089   0.12812141
4168.00   40.27730179   0.12787153
4170.00   39.93011475   0.12706953
4172.00   39.98953247   0.12689801
4174.00   39.73267746   0.12625633
4176.00   39.84696198   0.12626447
4178.00   39.77413177   0.12599465
4180.00   39.90285873   0.12598929
4182.00   39.98606873   0.12592202
4184.00   39.96936035   0.12567154
4186.00   40.10273743   0.12559858
4188.00   39.98866653   0.12522599
4190.00   39.87537766   0.12490044
4192.00   39.83745193   0.12464841
4194.00   39.99127579   0.12469030
4196.00   39.78061295   0.12410150
4198.00   39.67138290   0.12368632
4200.00   39.38230133   0.12299100
4202.00   39.42873001   0.12289280
4204.00   39.22925186   0.12239128
4206.00   38.79304886   0.12154494
4208.00   38.75122833   0.12135151
4210.00   38.38998032   0.12062274
4212.00   37.83824539   0.11957566
4214.00   37.56366348   0.11891510
4216.00   37.04357147   0.11788016
4218.00   36.77328491   0.11724713
4220.00   36.29833221   0.11633480
4222.00   35.85766983   0.11543860
4224.00   35.36360168   0.11446475
4226.00   34.91226578   0.11349723
4228.00   34.52986908   0.11281884
4230.00   33.98014832   0.11180980
4232.00   33.27529526   0.11062061
4234.00   32.82114792   0.10975430
4236.00   32.37116623   0.10884242
4238.00   31.91248894   0.10797106
4240.00   31.23947525   0.10666157
4242.00   30.63346672   0.10547125
4244.00   30.14199257   0.10465265
4246.00   29.57723045   0.10387442
4248.00   29.09132576   0.10295096
4250.00   28.66808891   0.10175789
4252.00   28.05975342   0.10036922
4254.00   27.54580879   0.09933363
4256.00   26.93211365   0.09810733
4258.00   26.43498421   0.09707385
4260.00   26.05554771   0.09615484
4262.00   25.45620155   0.09486342
4264.00   24.94605255   0.09386004
4266.00   24.36708450   0.09269478
4268.00   24.16728210   0.09207579
4270.00   23.59807587   0.09084627
4272.00   23.06487274   0.08973154
4274.00   22.56168175   0.08870162
4276.00   22.20989799   0.08799314
4278.00   21.83278656   0.08721102
4280.00   21.46825600   0.08634612
4282.00   21.20633125   0.08565864
4284.00   20.78874207   0.08475680
4286.00   20.53074837   0.08411662
4288.00   20.26587486   0.08344680
4290.00   20.20042992   0.08318736
4292.00   19.80178261   0.08232152
4294.00   19.60856247   0.08189247
4296.00   19.32887459   0.08122934
4298.00   19.13142204   0.08067833
4300.00   18.93317223   0.08010925
4302.00   18.73270035   0.07957490
4304.00   18.60352135   0.07927658
4306.00   18.38941383   0.07880225
4308.00   18.11328506   0.07817983
4310.00   18.15538597   0.07816898
4312.00   17.92065811   0.07782176
4314.00   17.74513054   0.07762466
4316.00   17.63278389   0.07725970
4318.00   17.54264450   0.07692517
4320.00   17.44355202   0.07670787
4322.00   17.35800552   0.07638762
4324.00   17.39776611   0.07629862
4326.00   17.43343925   0.07619678
4328.00   17.22254944   0.07561131
4330.00   17.40302467   0.07586155
4332.00   17.31734276   0.07558024
4334.00   17.52189636   0.07592437
4336.00   17.54970360   0.07590913
4338.00   17.49203300   0.07569534
4340.00   17.65589714   0.07600018
4342.00   17.84341812   0.07630184
4344.00   17.99884415   0.07654931
4346.00   18.24713707   0.07712118
4348.00   18.21432877   0.07707738
4350.00   18.34845352   0.07722418
4352.00   18.49352646   0.07728515
4354.00   18.70598412   0.07787919
4356.00   18.93175888   0.08155072
4358.00   19.12907982   0.08515900
4360.00   19.31876755   0.08491630
4362.00   19.59769249   0.08188614
4364.00   19.74362373   0.08003268
4366.00   20.11735535   0.08002495
4368.00   20.09189606   0.07971790
4370.00   20.47679138   0.08031997
4372.00   20.87260246   0.08097431
4374.00   20.95802307   0.08107717
4376.00   21.40711021   0.08177637
4378.00   21.54411697   0.08183352
4380.00   21.71703911   0.08195521
4382.00   21.90286446   0.08208429
4384.00   22.35799980   0.08276916
4386.00   22.71487045   0.08328012
4388.00   23.04580116   0.08376515
4390.00   23.35795021   0.08419008
4392.00   23.61777306   0.08450606
4394.00   23.83784866   0.08481961
4396.00   24.49052620   0.08579349
4398.00   24.67546082   0.08602457
4400.00   25.15849686   0.08684280
4402.00   25.43441010   0.08715328
4404.00   25.91588593   0.08779210
4406.00   26.26309013   0.08819204
4408.00   26.38539505   0.08833551
4410.00   26.82834816   0.08898417
4412.00   27.28834724   0.08962378
4414.00   27.66491699   0.09015370
4416.00   27.95538902   0.09051766
4418.00   28.37398911   0.09101461
4420.00   28.72176170   0.09143991
4422.00   29.18910217   0.09197536
4424.00   29.39280128   0.09220535
4426.00   29.92941093   0.09289292
4428.00   30.34413338   0.09340090
4430.00   30.89588547   0.09414586
4432.00   31.28048897   0.09458169
4434.00   31.73181915   0.09511588
4436.00   32.26362228   0.09581320
4438.00   32.42581940   0.09597952
4440.00   33.02237701   0.09670009
4442.00   33.08024979   0.09673222
4444.00   33.58231354   0.09728964
4446.00   33.85507584   0.09760167
4448.00   34.13702774   0.09787929
4450.00   34.38296127   0.09812954
4452.00   34.66746902   0.09842084
4454.00   34.86039352   0.09856045
4456.00   35.21941376   0.09889571
4458.00   35.42746353   0.09910332
4460.00   35.55833435   0.09919914
4462.00   35.58805084   0.09914182
4464.00   36.02746582   0.09960297
4466.00   36.24610519   0.09982313
4468.00   36.32149887   0.09982390
4470.00   36.38947296   0.09978414
4472.00   36.55079269   0.09987736
4474.00   36.62277222   0.09989467
4476.00   36.87596512   0.10009217
4478.00   36.84938812   0.09997220
4480.00   37.00066757   0.10007742
4482.00   37.21061707   0.10025061
4484.00   37.43616104   0.10045069
4486.00   37.58600235   0.10059514
4488.00   37.93082428   0.10092956
4490.00   37.90821075   0.10081291
4492.00   38.07357407   0.10097987
4494.00   38.48998642   0.10141242
4496.00   38.71522903   0.10162638
4498.00   38.86886978   0.10175328
4500.00   38.98163986   0.10181181
4502.00   39.40708923   0.10222597
4504.00   39.48052216   0.10228351
4506.00   39.71710205   0.10251326
4508.00   39.81066513   0.10254803
4510.00   40.40087128   0.10318388
4512.00   40.34779739   0.10303661
4514.00   40.38309097   0.10299721
4516.00   40.41520691   0.10293163
4518.00   40.43737030   0.10291412
4520.00   40.57095718   0.10296116
4522.00   40.61717224   0.10293628
4524.00   40.35625839   0.10258982
4526.00   40.48287582   0.10261005
4528.00   40.42865372   0.10249136
4530.00   40.44600296   0.10240906
4532.00   40.41073608   0.10227531
4534.00   40.04914856   0.10175551
4536.00   39.92034912   0.10152353
4538.00   39.68306351   0.10111325
4540.00   39.53698349   0.10086512
4542.00   39.57974243   0.10084616
4544.00   39.17718887   0.10030072
4546.00   39.00179291   0.09998442
4548.00   38.85301590   0.09959313
4550.00   38.59389114   0.09922603
4552.00   38.49331665   0.09898891
4554.00   38.32120895   0.09867845
4556.00   38.02934265   0.09824826
4558.00   37.77116776   0.09781650
4560.00   37.46466064   0.09733044
4562.00   37.12309265   0.09684630
4564.00   37.09510422   0.09666202
4566.00   36.77919388   0.09618395
4568.00   36.67620087   0.09598713
4570.00   36.42833328   0.09558234
4572.00   36.31490326   0.09534060
4574.00   35.95560837   0.09488773
4576.00   35.77432251   0.09456062
4578.00   35.40295410   0.09397487
4580.00   35.23747635   0.09369523
4582.00   35.03914642   0.09335008
4584.00   34.90217972   0.09309183
4586.00   34.59245682   0.09263002
4588.00   34.37017441   0.09231541
4590.00   34.03697205   0.09178357
4592.00   34.02157593   0.09172189
4594.00   33.83211136   0.09147189
4596.00   33.53601074   0.09099668
4598.00   33.27713776   0.09056467
4600.00   33.04922104   0.09027493
4602.00   32.88406372   0.08996721
4604.00   32.69271088   0.08967706
4606.00   32.31100845   0.08916529
4608.00   32.08250809   0.08882867
4610.00   31.86007881   0.08851384
4612.00   31.62102509   0.08816350
4614.00   31.61736870   0.08808719
4616.00   31.21865654   0.08750152
4618.00   31.08249474   0.08729019
4620.00   30.69180679   0.08672413
4622.00   30.54085541   0.08647776
4624.00   30.19862938   0.08597200
4626.00   29.82889938   0.08543094
4628.00   29.38369942   0.08478370
4630.00   28.86739540   0.08405954
4632.00   28.60353470   0.08362886
4634.00   28.34623146   0.08319926
4636.00   28.05467033   0.08279137
4638.00   27.82841492   0.08241896
4640.00   27.30950928   0.08168459
4642.00   26.92792130   0.08113556
4644.00   26.53301811   0.08055623
4646.00   26.29948044   0.08016194
4648.00   26.19436264   0.08002800
4650.00   25.71798515   0.07934687
4652.00   25.53867340   0.07906540
4654.00   25.08767128   0.07946949
4656.00   24.92733955   0.08031074
4658.00   24.85037994   0.07809687
4660.00   24.73711395   0.07799693
4662.00   24.57815552   0.07775937
4664.00   24.40987396   0.07751347
4666.00   24.25152969   0.07726575
4668.00   24.15365791   0.07716421
4670.00   23.95497513   0.07683463
4672.00   23.87564087   0.07671040
4674.00   23.61142159   0.07628850
4676.00   23.44447136   0.07598220
4678.00   23.17177773   0.07549737
4680.00   22.90722275   0.07503257
4682.00   22.76930237   0.07481756
4684.00   22.51921463   0.07434349
4686.00   22.41486740   0.07416900
4688.00   22.28320885   0.07391608
4690.00   22.02194595   0.07346962
4692.00   21.81475449   0.07310487
4694.00   21.58020782   0.07272375
4696.00   21.50594711   0.07255028
4698.00   21.20997620   0.07201546
4700.00   20.99052620   0.07163423
4702.00   20.67612839   0.07108450
4704.00   20.47467422   0.07074648
4706.00   20.32488060   0.07051173
4708.00   20.16325951   0.07025734
4710.00   19.89988518   0.06984946
4712.00   19.73307228   0.06954338
4714.00   19.50135994   0.06909972
4716.00   19.30594444   0.06875912
4718.00   19.14203453   0.06842038
4720.00   18.90579224   0.06800384
4722.00   18.64560699   0.06753274
4724.00   18.55690002   0.06738979
4726.00   18.32761574   0.06703871
4728.00   18.16753387   0.06680612
4730.00   18.05305672   0.06658022
4732.00   17.93642807   0.06638340
4734.00   17.69103241   0.06598743
4736.00   17.55603790   0.06577033
4738.00   17.56640244   0.06584232
4740.00   17.31884575   0.06545021
4742.00   17.27182007   0.06539728
4744.00   17.17636490   0.06518874
4746.00   17.08558655   0.06481133
4748.00   17.05801201   0.06461293
4750.00   17.06201172   0.06452447
4752.00   17.02315140   0.06447800
4754.00   17.00117111   0.06441200
4756.00   17.18832970   0.06465354
4758.00   17.25159645   0.06470231
4760.00   17.11936760   0.06441267
4762.00   17.16702461   0.06444259
4764.00   17.12842369   0.06433430
4766.00   17.08203316   0.06423555
4768.00   17.15198708   0.06433332
4770.00   17.06575775   0.06415401
4772.00   17.00976753   0.06402324
4774.00   16.96885490   0.06396841
4776.00   17.04363060   0.06410304
4778.00   17.14118004   0.06428874
4780.00   17.07337761   0.06417888
4782.00   17.17350006   0.06428438
4784.00   17.20099258   0.06429691
4786.00   17.27616119   0.06433021
4788.00   17.22272682   0.06517810
4790.00   17.17605972   0.06434950
4792.00   17.28589439   0.06431937
4794.00   17.22956848   0.06421035
4796.00   17.37326622   0.06439205
4798.00   17.31734276   0.06428571
4800.00   17.48923111   0.06452241
4802.00   17.47413635   0.06447268
4804.00   17.45301819   0.06444354
4806.00   17.48024750   0.06447164
4808.00   17.53982925   0.06453412
4810.00   17.60312843   0.06464256
4812.00   17.63783264   0.06470615
4814.00   17.65407944   0.06470078
4816.00   17.70810890   0.06478240
4818.00   17.69613075   0.06475675
4820.00   17.66448402   0.06466539
4822.00   17.64905167   0.06462056
4824.00   17.55208969   0.06444734
4826.00   17.50645065   0.06431685
4828.00   17.27450180   0.06390803
4830.00   17.29697418   0.06392363
4832.00   17.17331696   0.06369590
4834.00   17.05528641   0.06344599
4836.00   17.01260376   0.06336231
4838.00   16.98611641   0.06332177
4840.00   16.93831635   0.06321663
4842.00   16.89454842   0.06309815
4844.00   16.82480049   0.06289680
4846.00   16.73826981   0.06272883
4848.00   16.70135117   0.06263931
4850.00   16.67186546   0.06253299
4852.00   16.57046318   0.06232247
4854.00   16.44099236   0.06205120
4856.00   16.27857590   0.06169438
4858.00   16.22231293   0.06160758
4860.00   16.06515694   0.06130718
4862.00   15.87169361   0.06092693
4864.00   15.66725540   0.06052908
4866.00   15.64470577   0.06042140
4868.00   15.59363270   0.06031115
4870.00   15.34600735   0.05981813
4872.00   15.24180698   0.05960303
4874.00   15.10692692   0.05929068
4876.00   15.01038647   0.05914785
4878.00   14.81661701   0.05876507
4880.00   14.85479927   0.05882112
4882.00   14.65158176   0.05842222
4884.00   14.58812809   0.05826412
4886.00   14.50071526   0.05803991
4888.00   14.37801838   0.05777652
4890.00   14.37774754   0.05776049
4892.00   14.31914234   0.05759782
4894.00   14.27397633   0.05750491
4896.00   14.30620956   0.05754608
4898.00   14.27088451   0.05743212
4900.00   14.29955387   0.05748137
4902.00   14.36158276   0.05755680
4904.00   14.39738846   0.05759725
4906.00   14.50554943   0.05781163
4908.00   14.37318325   0.05753690
4910.00   14.44624233   0.05765421
4912.00   14.40629387   0.05753213
4914.00   14.49973679   0.05771920
4916.00   14.49907494   0.05772151
4918.00   14.43985176   0.05755767
4920.00   14.44511604   0.05753307
4922.00   14.49137497   0.05757390
4924.00   14.54537773   0.05765109
4926.00   14.53863049   0.05762092
4928.00   14.59865379   0.05769005
4930.00   14.60094738   0.05768264
4932.00   14.42082214   0.05733688
4934.00   14.50101566   0.05744350
4936.00   14.51710224   0.05747791
4938.00   14.55587482   0.05754472
4940.00   14.46746349   0.05740130
4942.00   14.47473621   0.05736434
4944.00   14.55268574   0.05747446
4946.00   14.65195656   0.05763479
4948.00   14.68783474   0.05770081
4950.00   14.75625801   0.05780360
4952.00   14.72651482   0.05776498
4954.00   14.75538826   0.05781579
4956.00   14.80362415   0.05789491
4958.00   14.82508659   0.05786119
4960.00   14.87785816   0.05792438
4962.00   14.91042805   0.05797387
4964.00   14.92275429   0.05800280
4966.00   14.85606766   0.05790862
4968.00   14.98385620   0.05814684
4970.00   14.98526287   0.05818470
4972.00   14.89598560   0.05806859
4974.00   14.94444084   0.05821336
4976.00   14.89244270   0.05819326
4978.00   14.80954361   0.05813809
4980.00   15.00552750   0.05861485
4982.00   14.97490406   0.05863931
4984.00   14.99561596   0.05867818
4986.00   14.99772453   0.05861340
4988.00   15.13083744   0.05875427
4990.00   15.08161449   0.05857403
4992.00   15.13360882   0.05855387
4994.00   15.13789654   0.05849735
4996.00   15.18718910   0.05848667
4998.00   15.25440979   0.05852411
5000.00   15.19515610   0.05835073
5002.00   15.23258114   0.05836082
5004.00   15.15014744   0.05819857
5006.00   15.26458454   0.05840817
5008.00   15.28882980   0.05846076
5010.00   15.30589485   0.05845426
5012.00   15.35972404   0.05853966
5014.00   15.25055599   0.05834236
5016.00   15.48886490   0.05882101
5018.00   15.50468540   0.05885784
5020.00   15.59463120   0.05904151
5022.00   15.62001133   0.05908895
5024.00   15.70598125   0.05921045
5026.00   15.86940575   0.05952988
5028.00   15.98750114   0.05979391
5030.00   16.10662079   0.05999870
5032.00   16.18156052   0.06014856
5034.00   16.38395882   0.06048503
5036.00   16.41247940   0.06051617
5038.00   16.59555626   0.06084124
5040.00   16.77393723   0.06112077
5042.00   17.05516052   0.06160963
5044.00   17.21116066   0.06192761
5046.00   17.47379112   0.06237848
5048.00   17.59375763   0.06257038
5050.00   17.77914429   0.06291806
5052.00   18.06962395   0.06335790
5054.00   18.24906731   0.06365710
5056.00   18.26471519   0.06367150
5058.00   18.55763245   0.06417026
5060.00   18.89305878   0.06469946
5062.00   19.03225899   0.06493507
5064.00   19.30194092   0.06538747
5066.00   19.48109055   0.06565821
5068.00   19.71841812   0.06606025
5070.00   19.97784615   0.06649332
5072.00   20.20463181   0.06678094
5074.00   20.33893585   0.06693756
5076.00   20.58345604   0.06727303
5078.00   20.77955246   0.06756350
5080.00   20.90960312   0.06787580
5082.00   21.34490395   0.06870040
5084.00   21.45182991   0.06900599
5086.00   21.81598663   0.06954454
5088.00   22.08334732   0.06981210
5090.00   22.31716728   0.06997698
5092.00   22.65718460   0.07029402
5094.00   22.85295105   0.07048174
5096.00   23.13981628   0.07088093
5098.00   23.35265732   0.07121679
5100.00   23.67165947   0.07165951
5102.00   23.99982262   0.07208958
5104.00   24.21803665   0.07237037
5106.00   24.56662941   0.07276862
5108.00   24.79701233   0.07306954
5110.00   24.99683952   0.07330710
5112.00   25.27687454   0.07372732
5114.00   25.62521935   0.07422469
5116.00   25.74802971   0.07437086
5118.00   25.93521500   0.07462857
5120.00   26.23823166   0.07499464
5122.00   26.54165649   0.07537869
5124.00   26.62090111   0.07549787
5126.00   26.98940468   0.07595870
5128.00   27.04599762   0.07606744
5130.00   27.22727966   0.07630163
5132.00   27.50069046   0.07667906
5134.00   27.60929298   0.07684289
5136.00   27.99915123   0.07733299
5138.00   28.10022545   0.07747385
5140.00   28.19138145   0.07759283
5142.00   28.23835373   0.07767530
5144.00   28.43126297   0.07793820
5146.00   28.45560837   0.07797720
5148.00   28.63732338   0.07828880
5150.00   28.61678123   0.07826667
5152.00   28.95649529   0.07873507
5154.00   29.02826691   0.07889384
5156.00   28.79625702   0.07853570
5158.00   29.02195930   0.07880705
5160.00   29.04508591   0.07877374
5162.00   29.13466835   0.07884735
5164.00   29.34285545   0.07906917
5166.00   29.19370461   0.07882078
5168.00   29.13927841   0.07870605
5170.00   29.24262619   0.07878120
5172.00   29.19936180   0.07871109
5174.00   29.20511818   0.07869239
5176.00   29.07706070   0.07854156
5178.00   29.04439735   0.07844620
5180.00   28.97732925   0.07833003
5182.00   28.96166420   0.07824989
5184.00   28.85398293   0.07809930
5186.00   28.67065430   0.07781056
5188.00   28.67995071   0.07781149
5190.00   28.62800789   0.07772874
5192.00   28.45390320   0.07748529
5194.00   28.43797684   0.07745983
5196.00   28.13061905   0.07705443
5198.00   28.05889702   0.07698906
5200.00   28.12032318   0.07703429
5202.00   27.91580582   0.07675791
5204.00   27.74052238   0.07648618
5206.00   27.74448776   0.07645137
5208.00   27.53231239   0.07616410
5210.00   27.48728561   0.07610258
5212.00   27.30199051   0.07586737
5214.00   27.18254852   0.07570244
5216.00   27.00148010   0.07545257
5218.00   26.89559364   0.07532948
5220.00   26.59092712   0.07493387
5222.00   26.44601250   0.07471856
5224.00   26.21928024   0.07439927
5226.00   26.13032722   0.07424528
5228.00   25.99430275   0.07404839
5230.00   25.87483788   0.07389131
5232.00   25.66975212   0.07357428
5234.00   25.50801849   0.07333083
5236.00   25.32107544   0.07308149
5238.00   25.13585472   0.07285126
5240.00   25.03891182   0.07270193
5242.00   24.84184074   0.07242928
5244.00   24.62686920   0.07208027
5246.00   24.28350639   0.07155892
5248.00   24.30343628   0.07156640
5250.00   24.03420067   0.07115214
5252.00   23.85087013   0.07089595
5254.00   23.82020950   0.07083642
5256.00   23.58031464   0.07050741
5258.00   23.44754410   0.07031199
5260.00   23.27873039   0.07001367
5262.00   23.12748909   0.06975858
5264.00   22.97049141   0.06947156
5266.00   22.69878578   0.06901452
5268.00   22.65922165   0.06888950
5270.00   22.64321518   0.06888574
5272.00   22.49268532   0.06865224
5274.00   22.36535072   0.06844363
5276.00   22.23237228   0.06821567
5278.00   22.23099709   0.06817554
5280.00   22.03532600   0.06785665
5282.00   21.86047935   0.06759672
5284.00   21.79100418   0.06747534
5286.00   21.64677429   0.06723820
5288.00   21.67510033   0.06724136
5290.00   21.59290314   0.06709682
5292.00   21.48870087   0.06691422
5294.00   21.34500885   0.06667579
5296.00   21.14436913   0.06638482
5298.00   21.25814438   0.06653467
5300.00   21.16278076   0.06640343
5302.00   21.20894623   0.06644148
5304.00   21.09771729   0.06629037
5306.00   20.93415833   0.06604733
5308.00   20.97221947   0.06608051
5310.00   20.82712936   0.06588033
5312.00   20.84717369   0.06593037
5314.00   20.69157028   0.06567425
5316.00   20.83652496   0.06584596
5318.00   20.69097137   0.06564658
5320.00   20.55784416   0.06548524
5322.00   20.53730965   0.06540417
5324.00   20.50366783   0.06536700
5326.00   20.47166634   0.06533125
5328.00   20.29852486   0.06506091
5330.00   20.32115936   0.06508695
5332.00   20.27236176   0.06500930
5334.00   20.16024780   0.06484315
5336.00   20.12579727   0.06479519
5338.00   20.07363129   0.06473112
5340.00   20.00073433   0.06462595
5342.00   20.00409508   0.06463623
5344.00   20.01841927   0.06462114
5346.00   19.97869682   0.06460530
5348.00   19.95789146   0.06459503
5350.00   19.95693970   0.06463362
5352.00   19.91070557   0.06453492
5354.00   19.97753143   0.06485517
5356.00   19.83959198   0.06445721
5358.00   19.84648132   0.06445055
5360.00   19.65161705   0.06410301
5362.00   19.78931236   0.06430346
5364.00   19.71464729   0.06416271
5366.00   19.73643684   0.06421568
5368.00   19.71822739   0.06420577
5370.00   19.73068810   0.06424224
5372.00   19.59756088   0.06407204
5374.00   19.63300514   0.06420647
5376.00   19.64665031   0.06425026
5378.00   19.70933151   0.06438027
5380.00   19.70659065   0.06444072
5382.00   19.58807564   0.06429423
5384.00   19.67422485   0.06449609
5386.00   19.63223267   0.06452537
5388.00   19.70781136   0.06472792
5390.00   19.84880257   0.06511781
5392.00   19.72073746   0.06504740
5394.00   19.88360977   0.06540394
5396.00   19.75734138   0.06531793
5398.00   19.80699921   0.06556768
5400.00   19.84122467   0.06575230
5402.00   19.67668343   0.06567040
5404.00   19.78879547   0.06603539
5406.00   19.76376534   0.06614872
5408.00   19.74092484   0.06630210
5410.00   19.80100060   0.06661373
5412.00   19.71976852   0.06675340
5414.00   19.64417076   0.06692395
5416.00   19.56452560   0.06706554
5418.00   19.50818443   0.06720883
5420.00   19.53738594   0.06753360
5422.00   19.50536156   0.06769130
5424.00   19.45759392   0.06785751
5426.00   19.49973488   0.06819130
5428.00   19.31525421   0.06814095
5430.00   19.13765907   0.06811062
5432.00   19.22163391   0.06851988
5434.00   19.14522743   0.06866736
5436.00   18.96642876   0.06868265
5438.00   19.12865067   0.06926227
5440.00   18.85880280   0.06910510
5442.00   18.83290482   0.06937484
5444.00   18.84720421   0.06974960
5446.00   18.70144272   0.06981605
5448.00   18.74279213   0.07022212
5450.00   18.79070473   0.07065903
5452.00   18.76461411   0.07100861
5454.00   18.61250496   0.07105941
5456.00   18.63034821   0.07180973
5458.00   18.73910141   0.07372842
5460.00   18.78794289   0.07520434
5462.00   18.84582901   0.07554888
5464.00   18.87031174   0.07530903
5466.00   18.78460503   0.07499948
5468.00   18.85415459   0.07486963
5470.00   18.82339859   0.07470593
5472.00   18.79919624   0.07470777
5474.00   18.92773628   0.07499193
5476.00   18.94484711   0.07526900
5478.00   18.97863960   0.07558945
5480.00   19.04548073   0.07602765
5482.00   19.00432777   0.07636075
5484.00   19.08968163   0.07672750
5486.00   19.03491974   0.07680719
5488.00   19.14253044   0.07717849
5490.00   19.28500175   0.07762792
5492.00   19.18842506   0.07758650
5494.00   19.31542015   0.07803730
5496.00   19.26451683   0.07814392
5498.00   19.35121155   0.07849415
5500.00   19.55335236   0.07907667
5502.00   19.42909622   0.07903560
5504.00   19.43985748   0.07919825
5506.00   19.54531860   0.07962838
5508.00   19.64710617   0.07999946
5510.00   19.57758713   0.08013474
5512.00   19.70558357   0.08064247
5514.00   19.88937187   0.08117993
5516.00   19.90875435   0.08140982
5518.00   19.92046738   0.08168267
5520.00   20.08162498   0.08220089
5522.00   20.23804855   0.08268186
5524.00   20.25622749   0.08294968
5526.00   20.32439041   0.08329418
5528.00   20.63473701   0.08407599
5530.00   20.64998245   0.08434895
5532.00   20.71041870   0.08469822
5534.00   20.73633766   0.08503018
5536.00   20.99298668   0.08574069
5538.00   21.15072632   0.08629998
5540.00   21.45712090   0.08719784
5542.00   21.60652351   0.08776515
5544.00   21.79200172   0.08829698
5546.00   21.86035156   0.08858171
5548.00   21.99975014   0.08896255
5550.00   21.85015106   0.08876162
5552.00   21.94569206   0.08905430
5554.00   22.14098549   0.08949831
5556.00   22.30264854   0.08990363
5558.00   22.35172462   0.09000134
5560.00   22.56623840   0.09049708
5562.00   22.69472885   0.09085532
5564.00   22.79131508   0.13348763
5566.00   22.92079163   0.13244964
5568.00   22.94333076   0.13224542
5570.00   23.04563904   0.13262583
5572.00   23.22409058   0.13411140
5574.00   23.36370087   0.13504852
5576.00   23.34031105   0.13211113
5578.00   23.53003120   0.13239175
5580.00   23.77973175   0.13432185
5582.00   23.97988319   0.13397868
5584.00   24.10119057   0.13024475
5586.00   24.15925026   0.12872158
5588.00   24.37822151   0.12569663
5590.00   24.59890747   0.12430789
5592.00   24.73921394   0.12568028
5594.00   24.78011513   0.12808846
5596.00   24.85440826   0.12456590
5598.00   24.98646545   0.12190131
5600.00   25.13277245   0.12073877
5602.00   25.22334290   0.12042945
5604.00   25.22713280   0.12013900
5606.00   25.28947639   0.11970779
5608.00   25.30315399   0.11890098
5610.00   25.24381256   0.11822136
5612.00   25.17786598   0.11726457
5614.00   25.21549988   0.11535118
5616.00   25.13749695   0.12050947
5618.00   25.10132790   0.12167922
5620.00   25.12095451   0.11852894
5622.00   25.13922882   0.11395953
5624.00   25.03370667   0.11317886
5626.00   25.04161072   0.11301360
5628.00   24.89697838   0.11491394
5630.00   24.73779106   0.11428044
5632.00   24.68628120   0.11015472
5634.00   24.64365578   0.10591940
5636.00   24.46082878   0.10749511
5638.00   24.28651237   0.10593038
5640.00   24.08489418   0.10489086
5642.00   23.80694771   0.10392628
5644.00   23.53798676   0.10288990
5646.00   23.29314995   0.10191673
5648.00   22.98164177   0.10080528
5650.00   22.62775421   0.09983834
5652.00   22.32579994   0.09959143
5654.00   21.88879967   0.10036839
5656.00   21.34974098   0.10406061
5658.00   20.84322739   0.10922710
5660.00   20.32622719   0.11593177
5662.00   19.62703133   0.11763678
5664.00   19.02175331   0.12681584
5666.00   18.49374390   0.12539768
5668.00   17.95124626   0.13544822
5670.00   17.68975449   0.14009938
5672.00   17.91288376   0.13998875
5674.00   18.39278984   0.14058071
5676.00   17.39442444   0.13589227
5678.00   19.07629776   0.16277368
5680.00   24.55513382   0.20663898
5682.00   24.70484924   0.16951945
5684.00   24.64793396   0.18258518
5686.00   24.45594406   0.17903747
5688.00   23.57402039   0.17075230
5690.00   24.01861382   0.17491901
5692.00   23.02806282   0.15809175
5694.00   22.64694977   0.15937804
5696.00   22.60455322   0.14862911
5698.00   22.77498817   0.12538131
5700.00   21.55822182   0.10989494
5702.00   22.15176392   0.10371044
5704.00   22.13749123   0.09848982
5706.00   22.24629211   0.09388598
5708.00   22.39899445   0.09129102
5710.00   22.36577797   0.09135421
5712.00   22.40292931   0.09033009
5714.00   22.38670921   0.08981571
5716.00   22.36005211   0.08963885
5718.00   22.34594917   0.08936313
5720.00   22.29334450   0.08902317
5722.00   22.19384956   0.08864649
5724.00   22.17188454   0.08815936
5726.00   22.23831749   0.08863658
5728.00   22.28841591   0.08983856
5730.00   22.07172585   0.08868863
5732.00   22.00180054   0.08733345
5734.00   22.01279449   0.08684800
5736.00   22.02571678   0.08686962
5738.00   21.97661591   0.08658455
5740.00   21.93539429   0.08632642
5742.00   21.95269203   0.08619384
5744.00   21.96282196   0.08605319
5746.00   21.94277382   0.08585726
5748.00   21.89449501   0.08561163
5750.00   21.85476494   0.08538566
5752.00   21.80573082   0.08515840
5754.00   21.77002525   0.08496047
5756.00   21.75537300   0.08480033
5758.00   21.75485039   0.08467094
5760.00   21.75755501   0.08460534
5762.00   21.75030708   0.08451393
5764.00   21.72702599   0.08441231
5766.00   21.69465065   0.08432609
5768.00   21.67673302   0.08425824
5770.00   21.60750771   0.08404925
5772.00   21.58203697   0.08385274
5774.00   21.58576775   0.08367217
5776.00   21.57039070   0.08344904
5778.00   21.52646065   0.08314443
5780.00   21.49040794   0.08288974
5782.00   21.46069145   0.08271215
5784.00   21.45968628   0.08264486
5786.00   21.49057579   0.08266509
5788.00   21.41303062   0.08250657
5790.00   21.38796997   0.08242597
5792.00   21.44274330   0.08244096
5794.00   21.48032188   0.08237624
5796.00   21.36815834   0.08201041
5798.00   21.34768105   0.08160172
5800.00   21.38594627   0.08290207
5802.00   21.41697693   0.08307938
5804.00   21.39944458   0.08169878
5806.00   21.34271049   0.08105631
5808.00   21.33970833   0.08102358
5810.00   21.35790253   0.08098917
5812.00   21.35394859   0.08086886
5814.00   21.33857536   0.08074831
5816.00   21.40226746   0.08078025
5818.00   21.42743492   0.08074377
5820.00   21.41096306   0.08063769
5822.00   21.37448692   0.08049416
5824.00   21.36570168   0.08039407
5826.00   21.40267181   0.08038620
5828.00   21.42711639   0.08036838
5830.00   21.42582703   0.08030180
5832.00   21.40032768   0.08019006
5834.00   21.36750984   0.08007122
5836.00   21.36037254   0.07999633
5838.00   21.40337181   0.08001080
5840.00   21.44638634   0.08003404
5842.00   21.45174980   0.08000112
5844.00   21.41836548   0.07990150
5846.00   21.43113518   0.07988054
5848.00   21.42916107   0.07982248
5850.00   21.41751862   0.07975656
5852.00   21.40532875   0.07970490
5854.00   21.40528107   0.07967315
5856.00   21.39259529   0.07960764
5858.00   21.42619324   0.07964951
5860.00   21.44445801   0.07967311
5862.00   21.41612816   0.07961010
5864.00   21.39315224   0.07957373
5866.00   21.41488647   0.07961767
5868.00   21.42714500   0.07962708
5870.00   21.40297508   0.07955135
5872.00   21.34155846   0.07939826
5874.00   21.25423431   0.07919189
5876.00   21.16126060   0.07902689
5878.00   21.11590958   0.07901264
5880.00   21.04709244   0.07907041
5882.00   20.85989952   0.07910170
5884.00   20.68535423   0.07943169
5886.00   20.47066116   0.08001783
5888.00   20.27073669   0.08077136
5890.00   20.10973358   0.08147195
5892.00   19.95732307   0.08182602
5894.00   19.93301964   0.08211941
5896.00   19.98989677   0.08186936
5898.00   20.07965088   0.08104686
5900.00   20.18998528   0.07995418
5902.00   20.35908318   0.07917932
5904.00   20.38074303   0.07820511
5906.00   20.36675072   0.07739418
5908.00   20.32540703   0.07691818
5910.00   20.25334167   0.07675543
5912.00   20.18050194   0.07663768
5914.00   20.09778786   0.07650142
5916.00   19.94030952   0.07620782
5918.00   19.76978493   0.07587275
5920.00   19.66862869   0.07566015
5922.00   19.56225777   0.07543179
5924.00   19.45885468   0.07522666
5926.00   19.34461784   0.07500744
5928.00   19.23175240   0.07479560
5930.00   19.12370872   0.07460428
5932.00   18.90633583   0.07419411
5934.00   18.64707184   0.07366220
5936.00   18.40863419   0.07312660
5938.00   18.18682861   0.07282629
5940.00   17.90789604   0.07305679
5942.00   17.58403778   0.07238638
5944.00   17.31540298   0.07115472
5946.00   17.07695007   0.07019832
5948.00   16.84188271   0.06974644
5950.00   16.61146355   0.06931654
5952.00   16.43265533   0.06894564
5954.00   16.24161339   0.06852274
5956.00   15.97567463   0.06794679
5958.00   15.63121414   0.06720857
5960.00   15.29845142   0.06643536
5962.00   15.04015636   0.06582335
5964.00   14.79900455   0.06526265
5966.00   14.53734493   0.06466659
5968.00   14.24158955   0.06399493
5970.00   13.94310474   0.06334073
5972.00   13.70776463   0.06280671
5974.00   13.49383259   0.06230809
5976.00   13.27579021   0.06179027
5978.00   13.05034351   0.06124129
5980.00   12.79143238   0.06060417
5982.00   12.58006668   0.06008545
5984.00   12.36123943   0.05954617
5986.00   12.11585999   0.05893147
5988.00   11.88134480   0.05833265
5990.00   11.68625259   0.05783986
5992.00   11.51986980   0.05743152
5994.00   11.33219528   0.05695879
5996.00   11.10512447   0.05636998
5998.00   10.90373611   0.05585567
6000.00   10.67660522   0.05529187
6002.00   10.47896671   0.05478359
6004.00   10.31842327   0.05435480
6006.00   10.17947483   0.05398043
6008.00   10.02598190   0.05356274
6010.00   9.92108154   0.05324279
6012.00   9.80779171   0.05288905
6014.00   9.68054676   0.05252118
6016.00   9.55347157   0.05222893
6018.00   9.42612362   0.05216990
6020.00   9.29288006   0.05163273
6022.00   9.15827465   0.05120014
6024.00   9.04650784   0.05110512
6026.00   8.97209644   0.05105548
6028.00   8.84630585   0.05085358
6030.00   8.72971344   0.05078852
6032.00   8.61291981   0.05060145
6034.00   8.48940372   0.05019331
6036.00   8.36642933   0.04981134
6038.00   8.25344658   0.04948018
6040.00   8.12345505   0.04917833
6042.00   8.01713276   0.04889245
6044.00   7.94728327   0.04854882
6046.00   7.86408043   0.04802798
6048.00   7.74631929   0.04762830
6050.00   7.62440920   0.04706481
6052.00   7.52084208   0.04644274
6054.00   7.43836546   0.04598631
6056.00   7.35275650   0.04573740
6058.00   7.25800943   0.04543011
6060.00   7.20169258   0.04522945
6062.00   7.16225100   0.04509098
6064.00   7.09059954   0.04487027
6066.00   6.99162531   0.04454506
6068.00   6.95590210   0.04441939
6070.00   6.94448614   0.04437370
6072.00   6.92900467   0.04431599
6074.00   6.90019989   0.04421053
6076.00   6.86496544   0.04406155
6078.00   6.82519388   0.04392600
6080.00   6.83035898   0.04391554
6082.00   6.86213350   0.04396685
6084.00   6.82396460   0.04383177
6086.00   6.82700109   0.04383084
6088.00   6.84004450   0.04386626
6090.00   6.83664322   0.04384744
6092.00   6.82663679   0.04380209
6094.00   6.89253950   0.04399698
6096.00   6.92616844   0.04410594
6098.00   6.95325232   0.04419981
6100.00   6.99932861   0.04434494
6102.00   7.06988764   0.04456474
6104.00   7.10173464   0.04471857
6106.00   7.12835455   0.04487365
6108.00   7.16873741   0.04507686
6110.00   7.23383474   0.04535421
6112.00   7.31860113   0.04567327
6114.00   7.40641260   0.04592113
6116.00   7.46092939   0.04603617
6118.00   7.51724577   0.04611286
6120.00   7.58710241   0.04618843
6122.00   7.65893364   0.04624948
6124.00   7.72178602   0.04629642
6126.00   7.81674528   0.04648396
6128.00   7.92818689   0.04673610
6130.00   8.04192066   0.04699627
6132.00   8.14936066   0.04725904
6134.00   8.28806019   0.04761814
6136.00   8.39045620   0.04787869
6138.00   8.46834850   0.04808341
6140.00   8.55561447   0.04832761
6142.00   8.68616772   0.04867910
6144.00   8.80993271   0.04898791
6146.00   8.91492176   0.04923994
6148.00   9.03656101   0.04953318
6150.00   9.20155811   0.04993930
6152.00   9.33354855   0.05027964
6154.00   9.43859196   0.05054465
6156.00   9.56467342   0.05088380
6158.00   9.70677662   0.05127537
6160.00   9.82462406   0.05157977
6162.00   9.94700718   0.05182910
6164.00   10.11038589   0.05214475
6166.00   10.23767471   0.05237081
6168.00   10.33501148   0.05253324
6170.00   10.49088001   0.05283640
6172.00   10.67080688   0.05320945
6174.00   10.79057312   0.05345501
6176.00   10.90255260   0.05368017
6178.00   11.04561710   0.05396746
6180.00   11.20659924   0.05429065
6182.00   11.33210659   0.05455555
6184.00   11.45467281   0.05480930
6186.00   11.57988739   0.05507052
6188.00   11.71790218   0.05536668
6190.00   11.92032909   0.05579449
6192.00   12.06545639   0.05609641
6194.00   12.17089462   0.05631560
6196.00   12.27229691   0.05652198
6198.00   12.40654469   0.05679055
6200.00   12.57365704   0.05715102
6202.00   12.65778732   0.05732061
6204.00   12.76986694   0.05754210
6206.00   12.94241333   0.05789192
6208.00   13.12979126   0.05827974
6210.00   13.24434948   0.05849331
6212.00   13.38398266   0.05874790
6214.00   13.51303482   0.05897942
6216.00   13.63293362   0.05919588
6218.00   13.79806805   0.05950692
6220.00   13.94038391   0.05976494
6222.00   14.08179188   0.06000945
6224.00   14.19691467   0.06021112
6226.00   14.28228474   0.06036852
6228.00   14.36787891   0.06050761
6230.00   14.49656296   0.06075623
6232.00   14.63569164   0.06109234
6234.00   14.76303482   0.06142880
6236.00   14.87586308   0.06170239
6238.00   15.00541687   0.06196946
6240.00   15.13845730   0.06219010
6242.00   15.21328449   0.06224780
6244.00   15.27043629   0.06221942
6246.00   15.39235210   0.06231626
6248.00   15.63878155   0.06291823
6250.00   15.82459259   0.06342957
6252.00   15.89276123   0.06355119
6254.00   15.92567158   0.06353622
6256.00   16.06355286   0.06389577
6258.00   16.15330124   0.06415482
6260.00   16.24225235   0.06427228
6262.00   16.28644943   0.06416868
6264.00   16.30792809   0.06401307
6266.00   16.39951897   0.06419489
6268.00   16.61626816   0.06476749
6270.00   16.82031822   0.06537328
6272.00   16.92833710   0.06575233
6274.00   16.90602112   0.06581710
6276.00   16.75401115   0.06566823
6278.00   16.76187706   0.06584332
6280.00   16.86984253   0.06612856
6282.00   17.01511192   0.06636990
6284.00   17.15792656   0.06650496
6286.00   17.34187889   0.06665787
6288.00   17.46172142   0.06683523
6290.00   17.53071594   0.06700046
6292.00   17.55052185   0.06705791
6294.00   17.52369499   0.06698146
6296.00   17.50808144   0.06716911
6298.00   17.60277367   0.06795666
6300.00   17.73274040   0.06860899
6302.00   17.76220512   0.06857327
6304.00   17.60871315   0.06776014
6306.00   17.65704918   0.06738472
6308.00   17.71775627   0.06695296
6310.00   17.80375671   0.06673140
6312.00   17.91505623   0.06680932
6314.00   18.00264740   0.06691470
6316.00   17.87941551   0.06629229
6318.00   17.81410027   0.06593779
6320.00   17.82340431   0.06594192
6322.00   17.88169098   0.06615827
6324.00   18.01375771   0.06647616
6326.00   18.07849121   0.06671459
6328.00   18.14130974   0.06686947
6330.00   18.16240501   0.06679270
6332.00   18.11285210   0.06647176
6334.00   18.10518646   0.06641600
6336.00   18.03511620   0.06603337
6338.00   18.01036644   0.06588914
6340.00   18.13052940   0.06631758
6342.00   18.38417625   0.06714012
6344.00   18.29845428   0.06673091
6346.00   18.13833046   0.06618938
6348.00   18.11030388   0.06604936
6350.00   18.21875381   0.06632573
6352.00   18.29034615   0.06658012
6354.00   18.30783463   0.06658923
6356.00   18.17469215   0.06611237
6358.00   18.02096367   0.06566408
6360.00   17.92976570   0.06551939
6362.00   17.87140656   0.06545097
6364.00   17.87633705   0.06544831
6366.00   17.86786461   0.06538155
6368.00   17.88650703   0.06531098
6370.00   17.92696571   0.06522500
6372.00   17.82440186   0.06484431
6374.00   17.81473541   0.06471502
6376.00   17.83116531   0.06469715
6378.00   17.82817268   0.06467548
6380.00   17.79663658   0.06460235
6382.00   17.77986145   0.06456424
6384.00   17.76057243   0.06450877
6386.00   17.74317932   0.06443936
6388.00   17.71525764   0.06434811
6390.00   17.66790771   0.06422967
6392.00   17.65660858   0.06410670
6394.00   17.61067009   0.06390014
#6396.00   17.74348450   0.06541589
#6398.00   17.24631310   0.06322916
#6400.00   17.21401787   0.06315716
6402.00   17.62420654   0.06467493
6404.00   17.55930901   0.06369223
6406.00   17.50881004   0.06361949
6408.00   17.44927788   0.06355508
6410.00   17.43636322   0.06349326
6412.00   17.43825340   0.06346446
6414.00   17.36090851   0.06330212
6416.00   17.29164505   0.06315974
6418.00   17.29501534   0.06314673
6420.00   17.26965714   0.06306941
6422.00   17.17802429   0.06286117
6424.00   17.12117195   0.06272178
6426.00   17.11270142   0.06267754
6428.00   17.11385155   0.06265076
6430.00   17.03690529   0.06247383
6432.00   16.99038696   0.06235777
6434.00   16.91555214   0.06219737
6436.00   16.83360481   0.06202556
6438.00   16.79762840   0.06193356
6440.00   16.74353981   0.06182066
6442.00   16.70670891   0.06173664
6444.00   16.66903877   0.06164366
6446.00   16.62537575   0.06153576
6448.00   16.59277344   0.06145576
6450.00   16.52547264   0.06132230
6452.00   16.46407127   0.06119290
6454.00   16.39734077   0.06104594
6456.00   16.30824852   0.06085899
6458.00   16.17657661   0.06061390
6460.00   16.09095955   0.06046810
6462.00   16.05693817   0.06042163
6464.00   16.03834534   0.06040376
6466.00   15.99193859   0.06033380
6468.00   15.90155506   0.06018545
6470.00   15.74213123   0.05986348
6472.00   15.59467983   0.05953057
6474.00   15.50863934   0.05929968
6476.00   15.48141861   0.05918378
6478.00   15.43185139   0.05901604
6480.00   15.37115955   0.05885183
6482.00   15.31743908   0.05870621
6484.00   15.27601910   0.05858555
6486.00   15.23960972   0.05848386
6488.00   15.21334934   0.05841042
6490.00   15.13663864   0.05825929
6492.00   15.06926250   0.05800730
6494.00   15.02794647   0.05810486
6496.00   14.98448467   0.05950241
6498.00   14.99310970   0.05751721
6500.00   14.98437786   0.05748164
6502.00   14.96732807   0.05740768
6504.00   14.94707584   0.05733678
6506.00   14.89902210   0.05914081
6508.00   14.84238911   0.05792888
6510.00   14.75077152   0.05738724
6512.00   14.60554218   0.05702860
6514.00   14.43359852   0.05667556
6516.00   14.34898758   0.05646948
6518.00   14.28533649   0.05633397
6520.00   14.28618622   0.05633200
6522.00   14.31766033   0.05638801
6524.00   14.30995941   0.05636580
6526.00   14.25960064   0.05626538
6528.00   14.23305416   0.05622407
6530.00   14.20586872   0.05619897
6532.00   14.16635418   0.05614901
6534.00   14.11257648   0.05603893
6536.00   14.04455090   0.05588211
6538.00   14.02656555   0.05579580
6540.00   13.96508026   0.05560356
6542.00   13.85348988   0.05531606
6544.00   13.80193615   0.05518638
6546.00   13.72902393   0.05503654
6548.00   13.70553207   0.05499803
6550.00   13.67784023   0.05497478
6552.00   13.61653805   0.05489333
6554.00   13.60177326   0.05484357
6556.00   13.58805370   0.05480909
6558.00   13.52896881   0.05470532
6560.00   13.47834873   0.05460795
6562.00   13.46952438   0.05455847
6564.00   13.38645649   0.05435671
6566.00   13.32759857   0.05421990
6568.00   13.29346752   0.05408812
6570.00   13.28092575   0.05396494
6572.00   13.27255249   0.05387516
6574.00   13.22681904   0.05379451
6576.00   13.15921021   0.05367221
6578.00   13.13942242   0.05361865
6580.00   13.14900589   0.05360115
6582.00   13.10792160   0.05347878
6584.00   13.04973888   0.05327605
6586.00   12.98990917   0.05308374
6588.00   12.95248795   0.05296023
6590.00   12.93652344   0.05289981
6592.00   12.90134430   0.05281134
6594.00   12.86627960   0.05274752
6596.00   12.85927963   0.05273284
6598.00   12.84230042   0.05269733
6600.00   12.79453373   0.05260360
6602.00   12.76117229   0.05252511
6604.00   12.73451138   0.05244833
6606.00   12.69982433   0.05234851
6608.00   12.66437244   0.05224281
6610.00   12.63688755   0.05214844
6612.00   12.59654999   0.05200908
6614.00   12.57002544   0.05191401
6616.00   12.55897141   0.05186306
6618.00   12.55527496   0.05183866
6620.00   12.53488064   0.05178918
6622.00   12.46628189   0.05163498
6624.00   12.42291737   0.05153719
6626.00   12.40531540   0.05149032
6628.00   12.39460659   0.05145620
6630.00   12.37103558   0.05140092
6632.00   12.33987713   0.05133468
6634.00   12.30334854   0.05124393
6636.00   12.25711823   0.05112891
6638.00   12.21648026   0.05102343
6640.00   12.21487904   0.05098424
6642.00   12.19133282   0.05089920
6644.00   12.16507339   0.05081889
6646.00   12.13716030   0.05074251
6648.00   12.10166931   0.05065228
6650.00   12.05519962   0.05054178
6652.00   12.01241207   0.05044120
6654.00   11.97288895   0.05034206
6656.00   11.93912888   0.05025981
6658.00   11.91718292   0.05021555
6660.00   11.89395618   0.05014842
6662.00   11.85550404   0.05006346
6664.00   11.82317066   0.04998843
6666.00   11.80115128   0.04992816
6668.00   11.77740765   0.04986076
6670.00   11.74398518   0.04976757
6672.00   11.70869064   0.04967561
6674.00   11.68455410   0.04960801
6676.00   11.65533161   0.04952991
6678.00   11.59512806   0.04939086
6680.00   11.59294415   0.04935793
6682.00   11.55531406   0.04926093
6684.00   11.51582623   0.04916686
6686.00   11.48722553   0.04909534
6688.00   11.40956593   0.04891583
6690.00   11.39521503   0.04887303
6692.00   11.35934925   0.04878195
6694.00   11.31892395   0.04868120
6696.00   11.30404949   0.04864046
6698.00   11.28738785   0.04860391
6700.00   11.26362133   0.04855706
6702.00   11.21202564   0.04844822
6704.00   11.17230701   0.04836585
6706.00   11.18204117   0.04839182
6708.00   11.15111828   0.04831062
6710.00   11.10671234   0.04820383
6712.00   11.05851460   0.04809783
6714.00   11.01790905   0.04796484
6716.00   11.01034546   0.04784432
6718.00   11.02324200   0.04782305
6720.00   11.04957962   0.05083444
6722.00   11.05600262   0.04808233
6724.00   11.02671814   0.04798409
6726.00   10.97816181   0.05105754
6728.00   10.93690109   0.04839177
6730.00   10.87225056   0.04735359
6732.00   10.83072186   0.04736534
6734.00   10.82518101   0.04740374
6736.00   10.78939819   0.04730051
6738.00   10.76268387   0.04724059
6740.00   10.74776745   0.04719935
6742.00   10.72686481   0.04714324
6744.00   10.69087982   0.04705949
6746.00   10.65025997   0.04695908
6748.00   10.65145493   0.04694207
6750.00   10.64165211   0.04690706
6752.00   10.60591125   0.04682012
6754.00   10.56680393   0.04672105
6756.00   10.55907059   0.04668610
6758.00   10.52247429   0.04659696
6760.00   10.48774624   0.04651314
6762.00   10.47039509   0.04646185
6764.00   10.45559978   0.04641052
6766.00   10.43563080   0.04635949
6768.00   10.42017746   0.04632227
6770.00   10.40005398   0.04627265
6772.00   10.36536884   0.04618670
6774.00   10.31176472   0.04605870
6776.00   10.25575638   0.04592811
6778.00   10.24237537   0.04588876
6780.00   10.23319626   0.04585388
6782.00   10.19401550   0.04575349
6784.00   10.14429474   0.04565020
6786.00   10.12520123   0.04559956
6788.00   10.10777569   0.04554908
6790.00   10.08258533   0.04548720
6792.00   10.04755878   0.04541021
6794.00   10.01360893   0.04531920
6796.00   10.00419617   0.04528795
6798.00   9.97886848   0.04521782
6800.00   9.94442844   0.04513112
6802.00   9.92444420   0.04508871
6804.00   9.88894558   0.04499498
6806.00   9.86260223   0.04492965
6808.00   9.85142517   0.04490176
6810.00   9.84515095   0.04488080
6812.00   9.81799030   0.04480514
6814.00   9.81344700   0.04478983
6816.00   9.77545452   0.04470337
6818.00   9.71904278   0.04457558
6820.00   9.67830944   0.04448938
6822.00   9.69140148   0.04455070
6824.00   9.64750957   0.04458118
6826.00   9.61470032   0.04469224
6828.00   9.59259510   0.04481776
6830.00   9.56586552   0.04488336
6832.00   9.52500916   0.04490228
6834.00   9.51361942   0.04485538
6836.00   9.49118328   0.04466854
6838.00   9.47123623   0.04448307
6840.00   9.48442173   0.04446162
6842.00   9.52062607   0.04449644
6844.00   9.54254532   0.04454456
6846.00   9.56005764   0.04461120
6848.00   9.55024147   0.04457519
6850.00   9.48408031   0.04432470
6852.00   9.44008923   0.04422681
6854.00   9.40937901   0.04410204
6856.00   9.40676498   0.04412121
#6858.00   9.45325756   0.04449315
#6860.00   9.56520367   0.04535632
#6862.00   9.66784763   0.04636785
#6864.00   9.67178249   0.04763070
#6866.00   9.50055218   0.04888323
#6868.00   9.17657948   0.04981333
#6870.00   8.84191322   0.05017472
#6872.00   8.82301617   0.05052845
#6874.00   8.92971134   0.05019936
#6876.00   9.04585934   0.04925581
6878.00   9.13284397   0.04811383
6880.00   9.28640747   0.04743007
6882.00   9.31841660   0.04677266
6884.00   9.23956203   0.04633943
6886.00   9.11004734   0.04619611
6888.00   9.01079845   0.04631129
6890.00   9.00116062   0.04657479
6892.00   9.01211643   0.04673358
6894.00   8.99795914   0.04660503
6896.00   8.94577503   0.04619201
6898.00   8.86856174   0.04565195
6900.00   8.81979275   0.04532636
6902.00   8.85594940   0.04525035
6904.00   8.93091488   0.04538524
6906.00   8.97985363   0.04551952
6908.00   8.94619370   0.04533131
6910.00   8.83554173   0.04458663
6912.00   8.76211548   0.04416212
6914.00   8.75146580   0.04401399
6916.00   8.74373913   0.04382272
6918.00   8.59735012   0.04320784
6920.00   8.59149837   0.04329878
6922.00   8.61376095   0.04343846
6924.00   8.61459637   0.04344652
6926.00   8.59477711   0.04339045
6928.00   8.64082432   0.04360250
6930.00   8.62814713   0.04343657
6932.00   8.60259342   0.04316319
6934.00   8.57212925   0.04294683
6936.00   8.52878475   0.04285366
6938.00   8.44226074   0.04272251
6940.00   8.46494389   0.04293886
6942.00   8.50015259   0.04319601
6944.00   8.50389385   0.04331447
6946.00   8.48003292   0.04325198
6948.00   8.45209217   0.04307290
6950.00   8.44299603   0.04294354
6952.00   8.44258022   0.04285790
6954.00   8.42834949   0.04270793
6956.00   8.37250423   0.04232751
6958.00   8.31368160   0.04191909
6960.00   8.26415539   0.04167293
6962.00   8.26276970   0.04166089
6964.00   8.29880905   0.04172948
6966.00   8.28557968   0.04147288
6968.00   8.21437263   0.04109142
6970.00   8.24198437   0.04125892
6972.00   8.31127071   0.04164724
6974.00   8.30621815   0.04169312
6976.00   8.17100239   0.04116396
6978.00   8.14668179   0.04113254
6980.00   8.17144489   0.04131877
6982.00   8.18356228   0.04145645
6984.00   8.14420795   0.04136226
6986.00   8.07744980   0.04105462
6988.00   7.99843359   0.04076570
6990.00   7.99779749   0.04087187
6992.00   8.06844711   0.04124743
6994.00   8.12377167   0.04141829
6996.00   8.05642128   0.04115114
6998.00   8.02182388   0.04099222
7000.00   8.01982975   0.04098063
7002.00   8.01342773   0.04100068
7004.00   7.96332693   0.04088007
7006.00   7.90169001   0.04069746
7008.00   7.89936447   0.04068105
7010.00   7.94060087   0.04079591
7012.00   7.97467661   0.04090681
7014.00   7.93061066   0.04082645
7016.00   7.87131166   0.04064925
7018.00   7.88471985   0.04070642
7020.00   7.92409563   0.04082847
7022.00   7.91166353   0.04073440
7024.00   7.81199789   0.04028780
7026.00   7.75035286   0.04017175
7028.00   7.76155424   0.04049252
7030.00   7.80060959   0.04083800
7032.00   7.81063604   0.04078249
7034.00   7.87377787   0.04124723
7036.00   7.86924505   0.04179317
7038.00   7.84343719   0.04193110
7040.00   7.80618143   0.04207144
7042.00   7.73550844   0.04314227
7044.00   7.71491480   0.04253938
7046.00   7.73453712   0.04196455
7048.00   7.71252441   0.04105893
7050.00   7.65146208   0.03995435
7052.00   7.66101122   0.04001487
7054.00   7.66553497   0.04000882
7056.00   7.61145258   0.03968752
7058.00   7.58320665   0.03952257
7060.00   7.62104082   0.03973779
7062.00   7.61985588   0.03968931
7064.00   7.58713198   0.03955388
7066.00   7.57363462   0.03951898
7068.00   7.57006073   0.03947346
7070.00   7.54867887   0.03927864
7072.00   7.49379778   0.03903734
7074.00   7.50496912   0.03921693
7076.00   7.55183554   0.03946544
7078.00   7.55956793   0.03947565
7080.00   7.47970581   0.03916769
7082.00   7.50938654   0.03930511
7084.00   7.41805983   0.03892328
7086.00   7.33275986   0.03852262
7088.00   7.32641602   0.03845223
7090.00   7.37871790   0.03870326
7092.00   7.37987518   0.03878322
7094.00   7.35010338   0.03865257
7096.00   7.32126760   0.03848755
7098.00   7.32554102   0.03848837
7100.00   7.39382553   0.03879929
7102.00   7.38891983   0.03878978
7104.00   7.37848663   0.03874332
7106.00   7.36115694   0.03876243
7108.00   7.34652710   0.03887705
7110.00   7.39565039   0.03899461
7112.00   7.40577459   0.03898811
7114.00   7.35234785   0.03871755
7116.00   7.28656244   0.03839152
7118.00   7.27201033   0.03829490
7120.00   7.27189302   0.03835653
7122.00   7.33244133   0.03858443
7124.00   7.33604574   0.03857602
7126.00   7.28166628   0.03837551
7128.00   7.24599409   0.03830333
7130.00   7.25769997   0.03842566
7132.00   7.30921793   0.03871594
7134.00   7.35479498   0.03888689
7136.00   7.34172964   0.03874517
7138.00   7.23930359   0.03830494
7140.00   7.25764322   0.03847314
7142.00   7.23509836   0.03845177
7144.00   7.21264839   0.03836307
7146.00   7.23294449   0.03841637
7148.00   7.27734566   0.03865994
7150.00   7.22011900   0.03838937
7152.00   7.19676352   0.03827888
7154.00   7.21953630   0.03839036
7156.00   7.24462318   0.03851186
7158.00   7.19022894   0.03826256
7160.00   7.19864893   0.03843196
7162.00   7.22724915   0.03873907
7164.00   7.23459005   0.03906472
7166.00   7.19483757   0.03954135
7168.00   7.11674690   0.04085333
7170.00   7.06729460   0.04147590
7172.00   7.08501196   0.04161308
7174.00   7.11202240   0.04129559
7176.00   7.06448364   0.04061555
7178.00   7.09054375   0.04049506
7180.00   7.19493437   0.04097065
7182.00   7.16415548   0.04107393
7184.00   6.99657679   0.04068900
7186.00   6.92973375   0.04067564
7188.00   7.03353739   0.04124099
7190.00   7.03835344   0.04117441
7192.00   7.00230408   0.04080241
7194.00   7.00908899   0.04064293
7196.00   7.07300711   0.04096730
7198.00   7.02786493   0.04087797
7200.00   6.92580557   0.04035963
7202.00   6.84399176   0.03989885
7204.00   6.84563065   0.03986959
7206.00   6.91719055   0.03979459
7208.00   6.92767286   0.03930196
7210.00   6.98804665   0.03900725
7212.00   7.01690817   0.03869934
7214.00   6.92273569   0.03804855
7216.00   6.90682745   0.03787764
7218.00   6.91053438   0.03786965
7220.00   6.92232513   0.03797622
7222.00   6.93023300   0.03811431
7224.00   6.92575979   0.03820128
7226.00   6.90609407   0.03822961
7228.00   6.93149996   0.03854369
7230.00   6.89584208   0.03874844
7232.00   6.77895975   0.03878044
7234.00   6.69204092   0.03907618
7236.00   6.82350540   0.04042175
7238.00   6.85199404   0.04107855
7240.00   6.74454069   0.04099910
7242.00   6.60782480   0.04073268
7244.00   6.66685820   0.04121357
7246.00   6.75319242   0.04121785
7248.00   6.72377157   0.04050917
7250.00   6.60839653   0.03958500
7252.00   6.52423620   0.03909884
7254.00   6.65173864   0.03928164
7256.00   6.71956491   0.03923066
7258.00   6.72676086   0.03895359
7260.00   6.66419268   0.03852242
7262.00   6.55769920   0.03812987
7264.00   6.55758333   0.03822287
7266.00   6.60504341   0.03835244
7268.00   6.65913010   0.03849160
7270.00   6.65840149   0.03865612
7272.00   6.54995871   0.03890717
7274.00   6.43479300   0.03957916
7276.00   6.36229658   0.03994101
7278.00   6.38255072   0.04012920
7280.00   6.48326111   0.04018441
7282.00   6.59406424   0.03993537
7284.00   6.57000732   0.03898485
7286.00   6.45741987   0.03813426
7288.00   6.34323883   0.03779292
7290.00   6.29134512   0.03791453
7292.00   6.30344915   0.03789875
7294.00   6.32794189   0.03765683
7296.00   6.37737894   0.03755841
7298.00   6.39355516   0.03755136
7300.00   6.32350302   0.03744134
7302.00   6.17000914   0.03705075
7304.00   6.18368149   0.03726057
7306.00   6.21925926   0.03746903
7308.00   6.18887711   0.03725617
7310.00   6.09088278   0.03665474
7312.00   6.14258385   0.03718115
7314.00   6.15895271   0.03784062
7316.00   6.10006332   0.03786126
7318.00   6.03096199   0.03741949
7320.00   6.07269049   0.03735583
7322.00   6.13063049   0.03702100
7324.00   6.10068655   0.03628085
7326.00   6.05973244   0.03584215
7328.00   6.04884911   0.03591106
7330.00   6.02166748   0.03584624
7332.00   5.98369074   0.03575629
7334.00   5.96520233   0.03581003
7336.00   5.99904394   0.03622308
7338.00   6.06226730   0.03685620
7340.00   6.03000975   0.03696504
7342.00   5.95783663   0.03676071
7344.00   5.93483734   0.03673702
7346.00   5.92355347   0.03652782
7348.00   5.86898804   0.03571976
7350.00   5.82244730   0.03484401
7352.00   5.82846594   0.03471192
7354.00   5.80180120   0.03467794
7356.00   5.75803041   0.03467488
7358.00   5.76803446   0.03496117
7360.00   5.81641626   0.03528727
7362.00   5.77762842   0.03513335
7364.00   5.72425461   0.03504200
7366.00   5.70322561   0.03524938
7368.00   5.71337652   0.03556288
7370.00   5.68385315   0.03546892
7372.00   5.65499926   0.03521964
7374.00   5.63305426   0.03487070
7376.00   5.60221148   0.03436507
7378.00   5.54190207   0.03356883
7380.00   5.51732445   0.03338780
7382.00   5.53599882   0.03350987
7384.00   5.54950857   0.03358777
7386.00   5.53024292   0.03351817
7388.00   5.53851891   0.03376959
7390.00   5.51703501   0.03381606
7392.00   5.48234415   0.03370031
7394.00   5.44358444   0.03355627
7396.00   5.41113997   0.03352171
7398.00   5.37672997   0.03348219
7400.00   5.36795568   0.03351576
7402.00   5.35731888   0.03348006
7404.00   5.34450912   0.03342197
7406.00   5.34367228   0.03344652
7408.00   5.34844828   0.03324899
7410.00   5.28011513   0.03264373
7412.00   5.22912741   0.03223690
7414.00   5.23176050   0.03222994
7416.00   5.24295282   0.03227373
7418.00   5.21516562   0.03220415
7420.00   5.20190525   0.03215801
7422.00   5.20651150   0.03216086
7424.00   5.21272087   0.03219273
7426.00   5.19665003   0.03221731
7428.00   5.18158531   0.03224420
7430.00   5.17557573   0.03226469
7432.00   5.17000437   0.03229519
7434.00   5.16016626   0.03235918
7436.00   5.16206026   0.03247361
7438.00   5.15612411   0.03245210
7440.00   5.14805174   0.03240543
7442.00   5.13871431   0.03234826
7444.00   5.12679529   0.03223869
7446.00   5.13044882   0.03205058
7448.00   5.14503622   0.03197537
7450.00   5.14646196   0.03193887
7452.00   5.13781977   0.03191872
7454.00   5.14196253   0.03194506
7456.00   5.14345694   0.03196559
7458.00   5.14677763   0.03200422
7460.00   5.12277174   0.03197236
7462.00   5.08270311   0.03190655
7464.00   5.08407164   0.03198316
7466.00   5.09518957   0.03208761
7468.00   5.09186745   0.03217631
7470.00   5.08640099   0.03226193
7472.00   5.08152580   0.03231983
7474.00   5.05711985   0.03226671
7476.00   5.05832052   0.03232834
7478.00   5.04020929   0.03233221
7480.00   5.02575111   0.03232278
7482.00   5.03572989   0.03235020
7484.00   5.02854729   0.03230012
7486.00   5.02442598   0.03219092
7488.00   5.01481485   0.03202787
7490.00   5.00703859   0.03186199
7492.00   5.00848341   0.03174213
7494.00   4.98560572   0.03160849
7496.00   4.98115158   0.03158858
7498.00   4.97501087   0.03156768
7500.00   4.95988321   0.03149250
7502.00   4.94606781   0.03139387
7504.00   4.94664145   0.03136218
7506.00   4.96391726   0.03140674
7508.00   4.97000885   0.03142293
7510.00   4.96179438   0.03139868
7512.00   4.96520042   0.03143336
7514.00   4.95003653   0.03141238
7516.00   4.95011139   0.03144592
7518.00   4.94760847   0.03162989
7520.00   4.93496180   0.03199134
7522.00   4.93646240   0.03244008
7524.00   4.92350721   0.03256291
7526.00   4.90103912   0.03260371
7528.00   4.89921141   0.03258964
7530.00   4.92973948   0.03243992
7532.00   4.93257523   0.03196521
7534.00   4.91565514   0.03166228
7536.00   4.89581871   0.03148422
7538.00   4.88174534   0.03136919
7540.00   4.87379265   0.03126427
7542.00   4.90110826   0.03131978
7544.00   4.90882921   0.03133955
7546.00   4.88748884   0.03125181
7548.00   4.86067438   0.03113005
7550.00   4.87243223   0.03115205
7552.00   4.89575195   0.03127679
7554.00   4.87576246   0.03129917
7556.00   4.84667730   0.03126997
7558.00   4.84210205   0.03129995
7560.00   4.86987305   0.03149464
7562.00   4.89995623   0.03160714
7564.00   4.88208342   0.03148472
7566.00   4.86333799   0.03148859
7568.00   4.88234186   0.03183548
7570.00   4.90945959   0.03221666
7572.00   4.92126417   0.03244046
7574.00   4.92012548   0.03249048
7576.00   4.91848135   0.03236245
7578.00   4.92111731   0.03207477
7580.00   4.88832426   0.03160100
7582.00   4.90384245   0.03160605
#7584.00   4.96533442   0.03197789
#7586.00   5.04241562   0.03241289
#7588.00   5.11673117   0.03286493
#7590.00   5.34108591   0.03492850
#7592.00   5.49665594   0.03772805
#7594.00   5.17657518   0.03897731
#7596.00   4.56696129   0.04000322
#7598.00   4.33303785   0.04460374
#7600.00   4.58041143   0.05441280
#7602.00   4.48589897   0.06017968
#7604.00   4.26508760   0.06213995
#7606.00   4.22675467   0.06216210
#7608.00   4.51697969   0.06308418
#7610.00   4.59675741   0.05807117
#7612.00   4.44939280   0.04982885
#7614.00   4.51539278   0.04335724
#7616.00   4.99806261   0.04245827
#7618.00   5.39920473   0.04224348
#7620.00   5.17224026   0.03999248
#7622.00   4.80979395   0.03865809
#7624.00   4.62044525   0.03984139
#7626.00   4.70253277   0.04309524
#7628.00   4.78653860   0.04541454
#7630.00   4.77061176   0.04586007
7632.00   4.81023932   0.04583335
7634.00   4.88547325   0.04548615
7636.00   4.87666750   0.04427953
7638.00   4.83837700   0.04293168
7640.00   4.83295393   0.04204491
7642.00   4.87313414   0.04148747
7644.00   4.92432690   0.04091957
7646.00   4.92640877   0.04000579
7648.00   4.92681551   0.03919780
7650.00   4.93523550   0.03849361
7652.00   4.92519951   0.03780065
7654.00   4.90080643   0.03709179
7656.00   4.91783285   0.03647491
7658.00   4.89120245   0.03584347
7660.00   4.90217113   0.03551032
7662.00   4.92055893   0.03522212
7664.00   4.91336441   0.03476546
7666.00   4.94237661   0.03453288
7668.00   4.93930101   0.03412857
7670.00   4.90990591   0.03354144
7672.00   4.88778543   0.03302820
7674.00   4.90664816   0.03290305
7676.00   4.92403173   0.03308370
7678.00   4.88700104   0.03295273
7680.00   4.87589121   0.03262644
7682.00   4.89476776   0.03236838
7684.00   4.90257835   0.03243279
7686.00   4.91907167   0.03247109
7688.00   4.92509222   0.03248557
7690.00   4.94862890   0.03255506
7692.00   4.97221327   0.03260158
7694.00   4.93809557   0.03241456
7696.00   4.90292501   0.03212473
7698.00   4.88504124   0.03197021
7700.00   4.88097715   0.03191290
7702.00   4.88258171   0.03187370
7704.00   4.88290930   0.03181325
7706.00   4.93363953   0.03215712
7708.00   4.94242668   0.03263832
7710.00   4.91072464   0.03318786
7712.00   4.88450289   0.03383069
7714.00   4.91515684   0.03466003
7716.00   4.89769411   0.03483398
7718.00   4.89579630   0.03464644
7720.00   4.92582369   0.03434363
7722.00   4.97100973   0.03405007
7724.00   4.97124147   0.03341619
7726.00   4.96522665   0.03287216
7728.00   4.93951559   0.03253701
7730.00   4.90966463   0.03232770
7732.00   4.90494347   0.03204907
7734.00   4.87873173   0.03171888
7736.00   4.88451910   0.03167208
7738.00   4.91292238   0.03176819
7740.00   4.93221283   0.03183383
7742.00   4.90989637   0.03180444
7744.00   4.96236467   0.03225566
7746.00   4.96724463   0.03306184
7748.00   4.94724846   0.03386318
7750.00   4.94180298   0.03435111
7752.00   4.93891954   0.03433868
7754.00   4.97276783   0.03460008
7756.00   4.99876261   0.03448319
7758.00   4.98350334   0.03380428
7760.00   4.94200134   0.03287669
7762.00   4.97366428   0.03283731
7764.00   4.95252752   0.03265189
7766.00   4.93906260   0.03240323
7768.00   4.96492910   0.03227726
7770.00   5.01462650   0.03238446
7772.00   4.97216272   0.03226269
7774.00   4.99123573   0.03243689
7776.00   5.01638412   0.03268785
7778.00   5.00387335   0.03273544
7780.00   4.95186758   0.03242379
7782.00   4.94440603   0.03232145
7784.00   4.98050547   0.03245528
7786.00   5.01868725   0.03257708
7788.00   5.03949785   0.03272290
7790.00   5.05158043   0.03326105
7792.00   5.04946899   0.03397336
7794.00   5.03553963   0.03421284
7796.00   5.03258848   0.03415747
7798.00   5.05552435   0.03403242
7800.00   5.10082293   0.03373847
7802.00   5.13242769   0.03315090
7804.00   5.13042831   0.03287945
7806.00   5.10358667   0.03290105
7808.00   5.07846498   0.03297674
7810.00   5.07189226   0.03303048
7812.00   5.12026644   0.03331837
7814.00   5.16499233   0.03342244
7816.00   5.16397476   0.03347576
7818.00   5.10834455   0.03382533
7820.00   5.09165144   0.03430123
7822.00   5.10235453   0.03458795
7824.00   5.14959288   0.03483034
7826.00   5.19194984   0.03476899
7828.00   5.16743755   0.03391945
7830.00   5.15733957   0.03299682
7832.00   5.15520430   0.03258492
7834.00   5.16976786   0.03258674
7836.00   5.19304323   0.03281153
7838.00   5.18885994   0.03314703
7840.00   5.17582321   0.03325854
7842.00   5.14712524   0.03311617
7844.00   5.13551664   0.03306549
7846.00   5.16172504   0.03337003
7848.00   5.20806122   0.03390363
7850.00   5.20794678   0.03459892
7852.00   5.19292116   0.03511834
7854.00   5.19102383   0.03544305
7856.00   5.20877123   0.03564750
7858.00   5.18628645   0.03567015
7860.00   5.19934940   0.03519809
7862.00   5.21372414   0.03455730
7864.00   5.19016933   0.03403201
7866.00   5.11187410   0.03378795
7868.00   5.08409071   0.03372811
7870.00   5.07289743   0.03369459
7872.00   5.06072474   0.03372123
7874.00   5.04542875   0.03377580
7876.00   5.04450560   0.03376786
7878.00   5.04353476   0.03359516
7880.00   5.01741648   0.03334375
7882.00   4.97648668   0.03313486
7884.00   4.94389486   0.03310127
7886.00   4.93536758   0.03332510
7888.00   4.89249039   0.03335194
7890.00   4.85627222   0.03328393
7892.00   4.84688759   0.03327902
7894.00   4.86060333   0.03333375
7896.00   4.87276793   0.03309822
7898.00   4.86277437   0.03261057
7900.00   4.82397890   0.03209541
7902.00   4.76042175   0.03163307
7904.00   4.69709015   0.03132526
7906.00   4.69959688   0.03154869
7908.00   4.72992468   0.03259534
7910.00   4.70144224   0.03372447
7912.00   4.61567736   0.03438079
7914.00   4.53447199   0.03436473
7916.00   4.48657084   0.03441685
7918.00   4.45439768   0.03431707
7920.00   4.41806459   0.03360984
7922.00   4.37840033   0.03246777
7924.00   4.35555887   0.03174838
7926.00   4.32465172   0.03158541
7928.00   4.28535604   0.03128926
7930.00   4.24381065   0.03088494
7932.00   4.21864748   0.03062105
7934.00   4.23478127   0.03079203
7936.00   4.24308968   0.03078067
7938.00   4.20684767   0.03030832
7940.00   4.14688826   0.02968035
7942.00   4.09588861   0.02932396
7944.00   4.08548546   0.02942075
7946.00   4.03745842   0.02958637
7948.00   4.00341082   0.02972014
7950.00   3.98225713   0.02969272
7952.00   3.95351100   0.02947385
7954.00   3.93381858   0.02940509
7956.00   3.93273067   0.02926199
7958.00   3.87006879   0.02906510
7960.00   3.77385783   0.02926972
7962.00   3.73686242   0.03031495
7964.00   3.73598862   0.03100864
7966.00   3.73800015   0.03124443
7968.00   3.70810676   0.03094341
7970.00   3.64610982   0.03009699
7972.00   3.58882546   0.02880981
7974.00   3.56426167   0.02810588
7976.00   3.56224418   0.02823949
7978.00   3.54730988   0.02855590
7980.00   3.49763417   0.02852346
7982.00   3.41443419   0.02818902
7984.00   3.37722564   0.02782409
7986.00   3.37604618   0.02755765
7988.00   3.37880611   0.02778349
7990.00   3.35554790   0.02860024
7992.00   3.30786800   0.02933045
7994.00   3.28570557   0.02957968
7996.00   3.27239203   0.02957873
7998.00   3.24522901   0.02908258
8000.00   3.19881845   0.02785947
8002.00   3.20807457   0.02680377
8004.00   3.18893266   0.02636159
8006.00   3.14523315   0.02608655
8008.00   3.09732318   0.02590945
8010.00   3.06856346   0.02607837
8012.00   3.02743816   0.02622276
8014.00   3.02874279   0.02638523
8016.00   3.00706768   0.02638505
8018.00   2.95116067   0.02621049
8020.00   2.92833209   0.02607720
8022.00   2.84898376   0.02633198
8024.00   2.83582091   0.02692367
8026.00   2.83321738   0.02724624
8028.00   2.78894234   0.02698707
8030.00   2.74108672   0.02658004
8032.00   2.71915698   0.02580195
8034.00   2.68694854   0.02487010
8036.00   2.64725661   0.02416069
8038.00   2.61768746   0.02392729
8040.00   2.61138463   0.02389182
8042.00   2.56035590   0.02356959
8044.00   2.50916505   0.02334435
8046.00   2.48348880   0.02336550
8048.00   2.48258162   0.02354714
8050.00   2.45495081   0.02355010
8052.00   2.41518688   0.02341918
8054.00   2.38185334   0.02327309
8056.00   2.35922980   0.02321505
8058.00   2.33643365   0.02328117
8060.00   2.30201983   0.02329775
8062.00   2.26983690   0.02329929
8064.00   2.24727130   0.02333252
8066.00   2.23043466   0.02327055
8068.00   2.20990777   0.02282435
8070.00   2.19004226   0.02225694
8072.00   2.17064953   0.02190655
8074.00   2.13817525   0.02165234
8076.00   2.09908485   0.02141312
8078.00   2.09580064   0.02145176
8080.00   2.08716846   0.02153288
8082.00   2.06914210   0.02151409
8084.00   2.03893471   0.02134648
8086.00   2.00212264   0.02109953
8088.00   1.97206557   0.02097332
8090.00   1.97279799   0.02111290
8092.00   1.97096741   0.02118537
8094.00   1.95502222   0.02109044
8096.00   1.93242013   0.02094067
8098.00   1.91966546   0.02105807
8100.00   1.93097126   0.02132656
8102.00   1.93143845   0.02140079
8104.00   1.90842068   0.02122987
8106.00   1.87726009   0.02105430
8108.00   1.89067459   0.02111113
8110.00   1.89859581   0.02106049
8112.00   1.87584937   0.02079930
8114.00   1.83031464   0.02043249
8116.00   1.80828702   0.02028559
8118.00   1.81650960   0.02038532
8120.00   1.81779444   0.02042789
8122.00   1.80989456   0.02041248
8124.00   1.80238199   0.02042887
8126.00   1.80588067   0.02055485
8128.00   1.79928148   0.02057723
8130.00   1.76977634   0.02045324
8132.00   1.73653209   0.02037704
8134.00   1.73167932   0.02059362
8136.00   1.78114855   0.02117230
8138.00   1.79658830   0.02135489
8140.00   1.77231181   0.02120706
8142.00   1.73569286   0.02100511
8144.00   1.72467411   0.02105857
8146.00   1.72127163   0.02111976
8148.00   1.72559738   0.02126263
8150.00   1.73073292   0.02140286
8152.00   1.73064983   0.02140980
8154.00   1.72853363   0.02120862
8156.00   1.73078620   0.02116899
8158.00   1.71222913   0.02106758
8160.00   1.67803299   0.02092587
8162.00   1.65823555   0.02095936
8164.00   1.70114803   0.02152973
8166.00   1.71629620   0.02161628
8168.00   1.70223391   0.02128937
8170.00   1.69573700   0.02101288
8172.00   1.71782053   0.02111711
8174.00   1.72248113   0.02124453
8176.00   1.67790592   0.02102251
8178.00   1.65056074   0.02108314
8180.00   1.67723656   0.02164041
8182.00   1.74473107   0.02238206
8184.00   1.72872460   0.02208518
8186.00   1.71460378   0.02191378
8188.00   1.71178186   0.02245629
8190.00   1.72071040   0.02339897
8192.00   1.73705304   0.02408562
8194.00   1.74407399   0.02425025
8196.00   1.73236406   0.02419503
8198.00   1.72029865   0.02404786
8200.00   1.72970521   0.02381003
8202.00   1.77424276   0.02332348
8204.00   1.80580854   0.02179798
8206.00   1.80388987   0.02151046
8208.00   1.79295552   0.02141342
8210.00   1.79765069   0.02084561
8212.00   1.82576084   0.02084134
8214.00   1.83131182   0.02087105
8216.00   1.83823681   0.02086950
8218.00   1.85649645   0.02098749
8220.00   1.88573563   0.02135689
8222.00   1.93166769   0.02197960
8224.00   1.87805212   0.02209967
8226.00   1.81091321   0.02231942
8228.00   1.80151749   0.02290111
8230.00   1.87327754   0.02366008
8232.00   1.94669497   0.02374746
8234.00   1.99873078   0.02332097
8236.00   2.01759267   0.02265152
8238.00   2.00521350   0.02200461
8240.00   1.97644269   0.02157760
8242.00   1.98379040   0.02153314
8244.00   2.02253079   0.02178515
8246.00   2.07792234   0.02206645
8248.00   2.11304498   0.02209683
8250.00   2.08334923   0.02170614
8252.00   2.09753871   0.02183520
8254.00   2.10422397   0.02204239
8256.00   2.11844182   0.02229313
8258.00   2.15347290   0.02257512
8260.00   2.19687200   0.02280449
8262.00   2.21119905   0.02264788
8264.00   2.23950195   0.02258839
8266.00   2.28620100   0.02276423
8268.00   2.33101964   0.02306859
8270.00   2.32629585   0.02311200
8272.00   2.30819631   0.02331628
8274.00   2.33404183   0.02408460
8276.00   2.37137914   0.02549203
8278.00   2.35315561   0.02718588
8280.00   2.28090763   0.02844695
8282.00   2.35433006   0.02857976
8284.00   2.46738029   0.02832525
8286.00   2.53848290   0.02817268
8288.00   2.55260777   0.02827969
8290.00   2.59561920   0.02816667
8292.00   2.63600087   0.02829069
8294.00   2.67420936   0.02857701
8296.00   2.71985841   0.02892139
8298.00   2.77776027   0.02925027
8300.00   2.80180359   0.02919318
8302.00   2.78328776   0.02867946
8304.00   2.79634929   0.02802145
8306.00   2.87614536   0.02750880
8308.00   2.94919324   0.02713229
8310.00   2.96392727   0.02692190
8312.00   2.97964549   0.02695293
8314.00   3.01154137   0.02717497
8316.00   3.05553079   0.02743035
8318.00   3.09910083   0.02739885
8320.00   3.13829589   0.02739588
8322.00   3.21529698   0.02757644
8324.00   3.28526378   0.02762258
8326.00   3.27961802   0.02716511
8328.00   3.27817988   0.02696050
8330.00   3.34684730   0.02733248
8332.00   3.42559147   0.02778728
8334.00   3.46672440   0.02798153
8336.00   3.46061969   0.02792954
8338.00   3.45343423   0.02850500
8340.00   3.52818179   0.03084907
8342.00   3.60372424   0.03315451
8344.00   3.63087916   0.03427516
8346.00   3.64658475   0.03429416
8348.00   3.71385646   0.03481361
8350.00   3.78334451   0.03437381
8352.00   3.78956890   0.03278043
8354.00   3.73403287   0.03077452
8356.00   3.75903583   0.03048180
8358.00   3.84375930   0.03059017
8360.00   3.95386696   0.03062295
8362.00   4.03490591   0.03054908
8364.00   4.05978584   0.03055839
8366.00   4.11335421   0.03073451
8368.00   4.12700796   0.03060529
8370.00   4.15946150   0.03043523
8372.00   4.20725298   0.03029259
8374.00   4.23335600   0.03015944
8376.00   4.27075052   0.03043136
8378.00   4.35849714   0.03135388
8380.00   4.40964174   0.03201857
8382.00   4.41231155   0.03216129
8384.00   4.43281126   0.03220640
8386.00   4.49413919   0.03239324
8388.00   4.54066229   0.03215055
8390.00   4.58673334   0.03177691
8392.00   4.63462734   0.03178013
8394.00   4.63662958   0.03257443
8396.00   4.66523790   0.03428307
8398.00   4.68240690   0.03531214
8400.00   4.70701838   0.03567671
8402.00   4.75411987   0.03569157
8404.00   4.79708099   0.03533897
8406.00   4.77761412   0.03359745
8408.00   4.77762318   0.03218094
8410.00   4.79153252   0.03181997
8412.00   4.78750944   0.03232500
8414.00   4.83065176   0.03289753
8416.00   4.84591818   0.03305547
8418.00   4.87375784   0.03311723
8420.00   4.92522621   0.03306067
8422.00   4.98192644   0.03274195
8424.00   5.00553656   0.03286383
8426.00   5.02827120   0.03425672
8428.00   5.04329157   0.03570564
8430.00   5.05463982   0.03644587
8432.00   5.08108568   0.03646478
8434.00   5.11745214   0.03634987
8436.00   5.15130568   0.03528344
8438.00   5.18616486   0.03388722
8440.00   5.22354746   0.03299575
8442.00   5.25480413   0.03309181
8444.00   5.28490925   0.03321590
8446.00   5.30934143   0.03351171
8448.00   5.34437704   0.03402266
8450.00   5.39362860   0.03459334
8452.00   5.42450333   0.03468390
8454.00   5.42273474   0.03455802
8456.00   5.43977404   0.03441964
8458.00   5.47285509   0.03438056
8460.00   5.49468374   0.03456548
8462.00   5.50127220   0.03544622
8464.00   5.50620127   0.03618220
8466.00   5.51313257   0.03649380
8468.00   5.53372049   0.03644028
8470.00   5.58152437   0.03624214
8472.00   5.60414124   0.03530059
8474.00   5.61709213   0.03435944
8476.00   5.64200735   0.03395615
8478.00   5.67098284   0.03405464
8480.00   5.66457367   0.03401453
8482.00   5.69376612   0.03406541
8484.00   5.71879196   0.03410282
8486.00   5.73029947   0.03415595
8488.00   5.73510122   0.03430784
8490.00   5.75654078   0.03468011
8492.00   5.76814651   0.03494317
8494.00   5.78835058   0.03508652
8496.00   5.81579542   0.03516504
8498.00   5.83790350   0.03525329
8500.00   5.82536936   0.03536073
8502.00   5.84004545   0.03575932
8504.00   5.85266304   0.03601749
8506.00   5.85408592   0.03605099
8508.00   5.85341024   0.03596038
8510.00   5.86774874   0.03570822
8512.00   5.88235712   0.03511017
8514.00   5.89282656   0.03465023
8516.00   5.89534140   0.03450827
8518.00   5.89501429   0.03453838
8520.00   5.91678190   0.03459933
8522.00   5.92738962   0.03462509
8524.00   5.95351458   0.03469200
8526.00   5.99059534   0.03478129
8528.00   5.98240852   0.03472948
8530.00   5.97295237   0.03467402
8532.00   5.97446680   0.03468218
8534.00   5.99515867   0.03482387
8536.00   6.02350998   0.03504188
8538.00   6.01109457   0.03505915
8540.00   6.01010275   0.03506264
8542.00   6.02837038   0.03514685
8544.00   6.03735399   0.03526871
8546.00   6.01999044   0.03535536
8548.00   6.04795122   0.03547270
8550.00   6.04881144   0.03547996
8552.00   6.05593634   0.03546681
8554.00   6.06440592   0.03534414
8556.00   6.05763054   0.03501878
8558.00   6.09394693   0.03490860
8560.00   6.09899092   0.03485629
8562.00   6.09712410   0.03483935
8564.00   6.09219122   0.03481195
8566.00   6.07104111   0.03474542
8568.00   6.08288908   0.03491111
8570.00   6.09194756   0.03525545
8572.00   6.09797144   0.03593121
8574.00   6.11006546   0.03652449
8576.00   6.13848257   0.03611446
8578.00   6.12905121   0.03637510
8580.00   6.10700655   0.03717148
8582.00   6.10669947   0.03796117
8584.00   6.12794352   0.03802000
8586.00   6.10303116   0.03621280
8588.00   6.07974768   0.03493823
8590.00   6.06716585   0.03466648
8592.00   6.06215477   0.03490146
8594.00   6.05798531   0.03490641
8596.00   6.05984116   0.03489308
8598.00   6.06850767   0.03489168
8600.00   6.08998537   0.03492720
8602.00   6.10435343   0.03491606
8604.00   6.08759165   0.03476406
8606.00   6.06988668   0.03463846
8608.00   6.06786156   0.03462915
8610.00   6.06679869   0.03467813
8612.00   6.05843163   0.03474700
8614.00   6.04265213   0.03483318
8616.00   6.01420593   0.03493745
8618.00   6.00248766   0.03512022
8620.00   6.00661421   0.03536462
8622.00   6.01065636   0.03561612
8624.00   5.99327707   0.03581031
8626.00   5.96642494   0.03591788
8628.00   5.95407677   0.03609565
8630.00   5.96674395   0.03637511
8632.00   5.98345137   0.03659648
8634.00   5.93826818   0.03627126
8636.00   5.92559814   0.03609261
8638.00   5.92257500   0.03600449
8640.00   5.92672157   0.03590652
8642.00   5.93220854   0.03576548
8644.00   5.90769720   0.03604538
8646.00   5.90907669   0.03595255
8648.00   5.91556311   0.03621450
8650.00   5.92097473   0.03669081
8652.00   5.92720985   0.03658227
8654.00   5.92660856   0.03622070
8656.00   5.89088392   0.03822510
8658.00   5.85384512   0.03585287
8660.00   5.83868742   0.03867701
8662.00   5.83319855   0.03741018
8664.00   5.82477188   0.03852269
8666.00   5.81895447   0.03538799
8668.00   5.82716131   0.03808203
8670.00   5.83458757   0.03685482
8672.00   5.77277136   0.03708983
8674.00   5.78010321   0.03547754
8676.00   5.76359987   0.03437301
8678.00   5.73880911   0.03415172
8680.00   5.72634172   0.03407529
8682.00   5.68372488   0.03380453
8684.00   5.68384171   0.03369357
8686.00   5.68530655   0.03359675
8688.00   5.67151213   0.03346485
8690.00   5.65370941   0.03334003
8692.00   5.66549635   0.03332011
8694.00   5.64852905   0.03322645
8696.00   5.61071444   0.03310471
8698.00   5.58041620   0.03301670
8700.00   5.58736944   0.03300731
8702.00   5.58588457   0.03299802
8704.00   5.56186819   0.03295036
8706.00   5.54577398   0.03290151
8708.00   5.54345465   0.03285326
8710.00   5.52569437   0.03275667
8712.00   5.52307892   0.03271931
8714.00   5.51716089   0.03265152
8716.00   5.50060987   0.03254881
8718.00   5.47928476   0.03245062
8720.00   5.47987223   0.03244253
8722.00   5.47212648   0.03242937
8724.00   5.45197439   0.03238248
8726.00   5.42733192   0.03231645
8728.00   5.41365385   0.03227401
8730.00   5.42456675   0.03230002
8732.00   5.40534735   0.03222968
8734.00   5.37861776   0.03213937
8736.00   5.36094093   0.03208569
8738.00   5.35843706   0.03208860
8740.00   5.35420799   0.03208496
8742.00   5.35830498   0.03209784
8744.00   5.34860086   0.03207002
8746.00   5.32602310   0.03200203
8748.00   5.30985498   0.03194338
8750.00   5.30530691   0.03190283
8752.00   5.28837824   0.03188761
8754.00   5.26591349   0.03213464
8756.00   5.23993206   0.03274180
8758.00   5.20517015   0.03358534
8760.00   5.20550871   0.03423473
8762.00   5.21688700   0.03500314
8764.00   5.20506907   0.03574704
8766.00   5.16512537   0.03610105
8768.00   5.15049410   0.03549946
8770.00   5.14180279   0.03498147
8772.00   5.12848377   0.03489148
8774.00   5.10910130   0.03502885
8776.00   5.09271669   0.03506303
8778.00   5.09717321   0.03504573
8780.00   5.08138227   0.03494065
8782.00   5.07772446   0.03443275
8784.00   5.07289362   0.03343525
8786.00   5.04374695   0.03223215
8788.00   5.00759888   0.03200718
8790.00   5.00662994   0.03207974
8792.00   5.00187922   0.03212348
8794.00   4.98779106   0.03200397
8796.00   4.99334526   0.03177755
8798.00   5.02606821   0.03152819
8800.00   5.09937620   0.03166800
8802.00   5.12647915   0.03169161
8804.00   5.08063269   0.03141811
8806.00   5.03669691   0.03129554
8808.00   5.08188248   0.03164379
8810.00   5.10842562   0.03186724
8812.00   5.11328077   0.03192626
8814.00   5.10287046   0.03183963
8816.00   5.03814363   0.03140913
8818.00   4.95742989   0.03096333
8820.00   4.92272997   0.03146651
8822.00   4.95010424   0.03362705
8824.00   4.99983120   0.03682980
8826.00   4.92944574   0.03822548
8828.00   4.87671614   0.03853031
8830.00   4.83943892   0.03840769
8832.00   4.81703663   0.03763255
8834.00   4.81305742   0.03571032
8836.00   4.84524155   0.03420516
8838.00   4.87464523   0.03368500
8840.00   4.88232660   0.03344685
8842.00   4.88646412   0.03294400
8844.00   4.92200232   0.03208737
8846.00   4.89861870   0.03169152
8848.00   4.87340593   0.03162669
8850.00   4.87420702   0.03176225
8852.00   4.89116764   0.03190744
8854.00   4.87953138   0.03187096
8856.00   4.89339828   0.03169134
8858.00   4.94440794   0.03168500
8860.00   5.00026703   0.03194940
8862.00   5.02814722   0.03251689
8864.00   5.02722311   0.03350284
8866.00   5.00144053   0.03399651
8868.00   4.95854139   0.03390573
8870.00   4.90088797   0.03340702
8872.00   4.83164406   0.03270858
8874.00   4.74139977   0.03143877
8876.00   4.72122383   0.03054130
8878.00   4.72621202   0.03041191
8880.00   4.72210503   0.03139311
8882.00   4.69232988   0.03338064
8884.00   4.67229843   0.03503674
8886.00   4.64467573   0.03547581
8888.00   4.64023113   0.03548836
8890.00   4.66131639   0.03510447
8892.00   4.67762280   0.03351489
8894.00   4.64019108   0.03118959
8896.00   4.61361074   0.03024116
8898.00   4.60490227   0.03066724
8900.00   4.59681654   0.03156867
8902.00   4.55800200   0.03189451
8904.00   4.56338787   0.03209155
8906.00   4.59711123   0.03235593
8908.00   4.61983490   0.03217325
8910.00   4.60544968   0.03127120
8912.00   4.56661606   0.03028875
8914.00   4.53115129   0.03129603
8916.00   4.51092339   0.03338683
8918.00   4.47896194   0.03496565
8920.00   4.41875362   0.03503137
8922.00   4.41901159   0.03500880
8924.00   4.39113045   0.03427601
8926.00   4.38758755   0.03267157
8928.00   4.42044115   0.03090086
8930.00   4.47001219   0.03022856
8932.00   4.50091696   0.03041974
8934.00   4.52363539   0.03048845
8936.00   4.50609350   0.03042478
8938.00   4.44745398   0.03053781
8940.00   4.38671303   0.03123992
8942.00   4.39380693   0.03184759
8944.00   4.38038683   0.03244501
8946.00   4.41794634   0.03399596
8948.00   4.53278065   0.03572909
8950.00   4.63793898   0.03428542
8952.00   4.40593386   0.03237043
8954.00   4.27316093   0.03303511
8956.00   4.30920506   0.03501635
8958.00   4.37750196   0.03592553
8960.00   4.24546385   0.03564272
8962.00   4.15477562   0.03531906
8964.00   4.18091536   0.03431262
8966.00   4.27375793   0.03293224
8968.00   4.31614447   0.03187959
8970.00   4.20357656   0.03106797
8972.00   4.15768576   0.03086703
8974.00   4.21036100   0.03116251
8976.00   4.27344847   0.03134628
8978.00   4.22028017   0.03077602
8980.00   4.24027967   0.03061578
8982.00   4.27520323   0.03118751
8984.00   4.21099710   0.03214384
8986.00   4.04879856   0.03319067
8988.00   3.93666959   0.03426957
8990.00   4.04700899   0.03537967
8992.00   4.25635576   0.03564848
8994.00   4.36915302   0.03463431
8996.00   4.28252363   0.03285163
8998.00   4.08056116   0.03235901
9000.00   4.00977850   0.03332448
9002.00   4.05067205   0.03463176
9004.00   4.11704206   0.03531714
9006.00   4.13921785   0.03485244
9008.00   4.17422247   0.03334983
9010.00   4.22590590   0.03227093
9012.00   4.22949028   0.03178843
9014.00   4.21498871   0.03187819
9016.00   4.24702644   0.03228070
9018.00   4.31409836   0.03260092
9020.00   4.25305986   0.03212855
9022.00   4.13918447   0.03142044
9024.00   4.05185127   0.03093007
9026.00   4.03766966   0.03079136
9028.00   4.01817036   0.03032821
9030.00   3.99798846   0.02970432
9032.00   3.98136139   0.02919898
9034.00   3.96950412   0.02898414
9036.00   3.95780921   0.02900936
9038.00   3.93779564   0.02905174
9040.00   3.91618133   0.02910697
9042.00   3.91162682   0.02922414
9044.00   3.92449117   0.02941913
9046.00   3.91898227   0.02962597
9048.00   3.89209104   0.02974617
9050.00   3.88978410   0.02988833
9052.00   3.92072797   0.03011791
9054.00   3.96675801   0.03030158
9056.00   3.98689079   0.02978501
9058.00   3.88082314   0.02879159
9060.00   3.81834316   0.02847221
9062.00   3.85640144   0.02901787
9064.00   3.94290423   0.02979298
9066.00   3.90720868   0.02989244
9068.00   3.82927155   0.02981414
9070.00   3.79979825   0.02996768
9072.00   3.84438920   0.03036298
9074.00   3.91635323   0.03063187
9076.00   3.86255574   0.03015415
9078.00   3.78866935   0.02970439
9080.00   3.79020309   0.02982835
9082.00   3.84784770   0.03027990
9084.00   3.80171847   0.02992286
9086.00   3.72532654   0.02936441
9088.00   3.72698140   0.02948231
9090.00   3.76965261   0.02984340
9092.00   3.80096745   0.02997236
9094.00   3.85028958   0.03020335
9096.00   3.82828641   0.03032218
9098.00   3.79770732   0.03047744
9100.00   3.80317616   0.03078020
9102.00   3.83473969   0.03109072
9104.00   3.71400523   0.03044428
9106.00   3.64862347   0.02993452
9108.00   3.71622467   0.02976356
9110.00   3.83309674   0.02958489
9112.00   3.83532619   0.02888031
9114.00   3.71941757   0.02825854
9116.00   3.64598083   0.02828087
9118.00   3.66275883   0.02883681
9120.00   3.75672412   0.02947485
9122.00   3.85303140   0.02960434
9124.00   3.81467175   0.02912347
9126.00   3.68165135   0.02858383
9128.00   3.60647035   0.02877544
9130.00   3.64724135   0.02983131
9132.00   3.69502330   0.03095777
9134.00   3.64993286   0.03095627
9136.00   3.66887927   0.03078146
9138.00   3.74925041   0.03058076
9140.00   3.80968928   0.03011896
9142.00   3.71831632   0.02872331
9144.00   3.66123652   0.02795867
9146.00   3.64648342   0.02797861
9148.00   3.61780572   0.02846334
9150.00   3.53174281   0.02901576
9152.00   3.48115444   0.02988466
9154.00   3.57916999   0.03119750
9156.00   3.70985913   0.03191513
9158.00   3.77578616   0.03157540
9160.00   3.73641372   0.03031758
9162.00   3.70107722   0.02935088
9164.00   3.66877818   0.02877874
9166.00   3.65362740   0.02857944
9168.00   3.64339280   0.02865219
9170.00   3.60131907   0.02887634
9172.00   3.53065276   0.02928661
9174.00   3.56169772   0.02998631
9176.00   3.65573692   0.03052527
9178.00   3.73303890   0.03051437
9180.00   3.71859813   0.02982114
9182.00   3.63263392   0.02887917
9184.00   3.59681106   0.02841076
9186.00   3.63245106   0.02844355
9188.00   3.68922424   0.02858168
9190.00   3.65167546   0.02820822
9192.00   3.59355998   0.02799300
9194.00   3.58148289   0.02813321
9196.00   3.61542988   0.02836270
9198.00   3.65406990   0.02827092
9200.00   3.64977193   0.02782625
9202.00   3.61698914   0.02746723
9204.00   3.57398343   0.02725068
9206.00   3.54838371   0.02723533
9208.00   3.55882192   0.02744847
9210.00   3.60637355   0.02791912
9212.00   3.61151409   0.02829608
9214.00   3.60186768   0.02856586
9216.00   3.60773969   0.02874487
9218.00   3.62861133   0.02879362
9220.00   3.63064790   0.02871025
9222.00   3.61582923   0.02844849
9224.00   3.62388706   0.02840107
9226.00   3.68385339   0.02887023
9228.00   3.79623580   0.02982794
9230.00   3.86269188   0.03026707
9232.00   3.85558105   0.03023768
9234.00   3.79572606   0.02992863
9236.00   3.71799850   0.02952483
9238.00   3.63532901   0.02896927
9240.00   3.60115790   0.02870534
9242.00   3.56234860   0.02842917
9244.00   3.51249576   0.02812831
9246.00   3.48215556   0.02799315
9248.00   3.57158732   0.02842548
9250.00   3.56443477   0.02829713
9252.00   3.53358078   0.02796727
9254.00   3.51578140   0.02774541
9256.00   3.49523234   0.02772568
9258.00   3.47099590   0.02763010
9260.00   3.45996785   0.02755715
9262.00   3.49014974   0.02771030
9264.00   3.54472923   0.02797247
9266.00   3.55172038   0.02785643
9268.00   3.51717567   0.02758299
9270.00   3.47712612   0.02749674
9272.00   3.45691204   0.02773955
9274.00   3.45327377   0.02820755
9276.00   3.42026782   0.02852301
9278.00   3.41187191   0.02892106
9280.00   3.45159411   0.02964830
9282.00   3.48231578   0.03020027
9284.00   3.45638180   0.03016750
9286.00   3.44033742   0.03009769
9288.00   3.51558685   0.03073427
9290.00   3.54688573   0.03115156
9292.00   3.50525117   0.03119913
9294.00   3.43886685   0.03123598
9296.00   3.40703130   0.03163518
9298.00   3.40254784   0.03216370
9300.00   3.46253800   0.03362180
9302.00   3.55176806   0.03600642
9304.00   3.57375145   0.03855306
9306.00   3.43824387   0.03973339
9308.00   3.40121102   0.04268634
9310.00   3.45628929   0.04672074
9312.00   3.47180104   0.04950154
9314.00   3.24261737   0.04796596
9316.00   3.22112966   0.04870158
9318.00   3.39337754   0.05165675
9320.00   3.48523307   0.05259623
9322.00   3.35312772   0.04977678
9324.00   3.26660371   0.04834750
9326.00   3.48719716   0.04948570
9328.00   3.62301803   0.04814690
9330.00   3.52431870   0.04403070
9332.00   3.28090405   0.04003520
9334.00   3.29582858   0.04207936
9336.00   3.52989006   0.04740554
9338.00   3.56818080   0.04995114
9340.00   3.34223866   0.04913588
9342.00   3.07939410   0.04726761
9344.00   3.21012974   0.04637216
9346.00   3.57972360   0.04594935
9348.00   3.76615024   0.04314038
9350.00   3.59027743   0.03848417
9352.00   3.20816350   0.03665107
9354.00   3.19246507   0.04007354
9356.00   3.30931282   0.04233634
9358.00   3.46156192   0.04231793
9360.00   3.54805064   0.04039381
9362.00   3.47025037   0.03783921
9364.00   3.27973056   0.03638840
9366.00   3.13866353   0.03738197
9368.00   3.12870336   0.04206416
9370.00   3.26059341   0.05035514
9372.00   3.50428510   0.06194477
9374.00   3.45677543   0.06580498
9376.00   3.22459149   0.06492635
9378.00   3.06535172   0.06366103
9380.00   3.18610358   0.06433821
9382.00   3.41717601   0.05670336
9384.00   3.36426640   0.04524212
9386.00   3.30908608   0.03678406
9388.00   3.34851646   0.03425113
9390.00   3.40249062   0.03270777
9392.00   3.29672074   0.03060103
9394.00   3.23052001   0.02976125
9396.00   3.18878150   0.03030842
9398.00   3.16813254   0.03184436
9400.00   3.19133639   0.03373457
9402.00   3.27012372   0.03502848
9404.00   3.29358387   0.03528551
9406.00   3.23403335   0.03463286
9408.00   3.15423203   0.03366557
9410.00   3.20624137   0.03341708
9412.00   3.29237914   0.03373124
9414.00   3.28384852   0.03429806
9416.00   3.23328376   0.03510875
9418.00   3.22791219   0.03614428
9420.00   3.31196213   0.03729125
9422.00   3.23557830   0.03763751
9424.00   3.03617978   0.03740309
9426.00   2.89843678   0.03736887
9428.00   3.01953483   0.03808993
9430.00   3.37064385   0.03831561
9432.00   3.47225070   0.03690388
9434.00   3.31306100   0.03628494
9436.00   3.02873516   0.03866987
9438.00   2.83732700   0.04469414
9440.00   2.92875361   0.05388976
9442.00   3.15094543   0.05757454
9444.00   3.30901790   0.05365302
9446.00   3.32125831   0.04374387
9448.00   3.24910259   0.03602393
9450.00   3.13043141   0.03308316
9452.00   3.05383086   0.03406407
9454.00   3.02921176   0.03815565
9456.00   3.04763913   0.04333749
9458.00   3.09493709   0.04705502
9460.00   3.12884879   0.04691873
9462.00   3.15474606   0.04453458
9464.00   3.12545037   0.04056691
9466.00   3.03928399   0.03612347
9468.00   3.03566241   0.03424914
9470.00   3.13307881   0.03585694
9472.00   3.15724659   0.03846234
9474.00   3.08833313   0.04090439
9476.00   3.00472260   0.04302837
9478.00   2.93856430   0.04497802
9480.00   2.92220664   0.04577376
9482.00   3.02894568   0.04431815
9484.00   3.18525863   0.04031948
9486.00   3.21587849   0.03452139
9488.00   3.06861949   0.03135797
9490.00   2.93045354   0.03028421
9492.00   2.83697295   0.03108444
9494.00   2.81834674   0.03382396
9496.00   2.91137004   0.03866533
9498.00   2.93738556   0.04354568
9500.00   2.99940610   0.04558727
9502.00   3.11935806   0.04443980
9504.00   3.22771764   0.04068246
9506.00   3.12479472   0.03587784
9508.00   3.02879834   0.03248040
9510.00   2.98854184   0.03057609
9512.00   2.95615315   0.03023865
9514.00   2.87557888   0.03131713
9516.00   2.76977038   0.03357020
9518.00   2.81300092   0.03675082
9520.00   2.92648029   0.03927467
9522.00   2.99270535   0.03984884
9524.00   2.93208289   0.03790561
9526.00   2.90763116   0.03560976
9528.00   2.95246959   0.03428647
9530.00   2.97694302   0.03333890
9532.00   2.96079469   0.03247118
9534.00   2.95742869   0.03196837
9536.00   2.99783444   0.03238356
9538.00   3.01325345   0.03301395
9540.00   2.96760368   0.03337036
9542.00   2.92697120   0.03379054
9544.00   3.04633403   0.03536883
9546.00   3.25992036   0.03777966
9548.00   3.32194638   0.03916889
9550.00   3.19725394   0.03925869
9552.00   2.98255277   0.03868316
9554.00   2.88077736   0.03909736
9556.00   2.98330402   0.03985166
9558.00   3.06738019   0.03889230
9560.00   3.02197337   0.03702193
9562.00   2.84830666   0.03634328
9564.00   2.69921994   0.03840432
9566.00   2.74112034   0.04126970
9568.00   2.85510826   0.04187719
9570.00   2.91914344   0.03961933
9572.00   2.86184907   0.03553686
9574.00   2.78376031   0.03192694
9576.00   2.69701219   0.02966407
9578.00   2.66601992   0.02948713
9580.00   2.72393870   0.03085198
9582.00   2.84955692   0.03223583
9584.00   2.81184125   0.03178538
9586.00   2.67560482   0.03115142
9588.00   2.59403205   0.03182092
9590.00   2.65406108   0.03384186
9592.00   2.81159663   0.03555500
9594.00   2.83596206   0.03461391
9596.00   2.78531528   0.03269241
9598.00   2.73219514   0.03101906
9600.00   2.71266294   0.03034318
9602.00   2.66125107   0.03020130
9604.00   2.59098029   0.03052320
9606.00   2.58757949   0.03121835
9608.00   2.64041066   0.03170342
9610.00   2.68509007   0.03142078
9612.00   2.66079164   0.03040771
9614.00   2.61552906   0.02977837
9616.00   2.56480479   0.02992234
9618.00   2.52554488   0.03084472
9620.00   2.51583648   0.03218451
9622.00   2.56446815   0.03338486
9624.00   2.59595299   0.03335378
9626.00   2.62433028   0.03229002
9628.00   2.64939237   0.03068507
9630.00   2.63761210   0.02914787
9632.00   2.57872558   0.02825776
9634.00   2.47974801   0.02796805
9636.00   2.46285748   0.02877728
9638.00   2.55941176   0.03020729
9640.00   2.62985325   0.03054989
9642.00   2.54542184   0.02948190
9644.00   2.50380397   0.02903434
9646.00   2.52871966   0.02929361
9648.00   2.56621289   0.02948430
9650.00   2.54369092   0.02872307
9652.00   2.49437737   0.02795119
9654.00   2.45951080   0.02765652
9656.00   2.43310332   0.02775141
9658.00   2.39936161   0.02797416
9660.00   2.38524556   0.02863591
9662.00   2.39513135   0.02962916
9664.00   2.43147922   0.03067243
9666.00   2.46018291   0.03112023
9668.00   2.43496895   0.03038737
9670.00   2.42969966   0.02968764
9672.00   2.46118331   0.02910562
9674.00   2.46210456   0.02840725
9676.00   2.41479969   0.02791856
9678.00   2.36717820   0.02852277
9680.00   2.38859057   0.02983889
9682.00   2.42425442   0.03051219
9684.00   2.43412566   0.03024237
9686.00   2.40631986   0.02923774
9688.00   2.37495518   0.02816133
9690.00   2.40044808   0.02776698
9692.00   2.41909480   0.02801153
9694.00   2.39513898   0.02862934
9696.00   2.33138180   0.02930393
9698.00   2.29775643   0.02987640
9700.00   2.34129143   0.03068606
9702.00   2.38139558   0.03087314
9704.00   2.37713909   0.02996445
9706.00   2.33371854   0.02812299
9708.00   2.31946874   0.02731830
9710.00   2.32781601   0.02760136
9712.00   2.32513118   0.02831306
9714.00   2.30562854   0.02925996
9716.00   2.29195380   0.03057774
9718.00   2.32031083   0.03169617
9720.00   2.30887723   0.03190092
9722.00   2.26695848   0.03164514
9724.00   2.23917127   0.03114117
9726.00   2.27833343   0.03009803
9728.00   2.29626322   0.02831155
9730.00   2.25881815   0.02727441
9732.00   2.21219754   0.02749029
9734.00   2.20481229   0.02872282
9736.00   2.24589419   0.03027171
9738.00   2.27674580   0.03085727
9740.00   2.26024437   0.03041834
9742.00   2.22304463   0.02954076
9744.00   2.20727992   0.02889759
9746.00   2.22683167   0.02845894
9748.00   2.21314597   0.02787290
9750.00   2.17830539   0.02730573
9752.00   2.15101647   0.02702154
9754.00   2.16539407   0.02769417
9756.00   2.23576093   0.03121039
9758.00   2.26461673   0.02863940
9760.00   2.24456406   0.03163493
9762.00   2.20447564   0.02824412
9764.00   2.18650246   0.02835754
9766.00   2.20516562   0.02726000
9768.00   2.22029519   0.02694855
9770.00   2.20243192   0.02686650
9772.00   2.16030240   0.02687834
9774.00   2.13836670   0.02769615
9776.00   2.14929652   0.02720374
9778.00   2.13776970   0.02691191
9780.00   2.12108135   0.02701782
9782.00   2.11623549   0.02747809
9784.00   2.09577656   0.02843317
9786.00   2.09566498   0.03037099
9788.00   2.09412670   0.03271055
9790.00   2.10589075   0.03729873
9792.00   2.14209938   0.03484578
9794.00   2.16595840   0.03507793
9796.00   2.11937809   0.03582593
9798.00   2.06435180   0.03199898
9800.00   2.04168868   0.03067146
9802.00   2.06224132   0.03037500
9804.00   2.10302997   0.03003035
9806.00   2.08048272   0.02879786
9808.00   2.06737065   0.02796541
9810.00   2.08112836   0.02801977
9812.00   2.07665825   0.02828697
9814.00   2.06111979   0.02819428
9816.00   2.06257725   0.02800172
9818.00   2.05548668   0.02756826
9820.00   2.02915311   0.02698317
9822.00   2.00750947   0.02671633
9824.00   2.01681352   0.02685980
9826.00   2.02173328   0.02693708
9828.00   2.02423692   0.02687779
9830.00   2.02774167   0.02672851
9832.00   2.03792763   0.02663262
9834.00   2.04938507   0.02648884
9836.00   2.02742505   0.02610267
9838.00   1.98748481   0.02570115
9840.00   1.96696472   0.02574563
9842.00   1.98807621   0.02665138
9844.00   1.99709129   0.02807557
9846.00   1.98595083   0.02926522
9848.00   1.96369457   0.02975036
9850.00   1.95268333   0.02946178
9852.00   1.98494625   0.02936328
9854.00   2.00913072   0.02863735
9856.00   1.99372864   0.02731738
9858.00   1.95976102   0.02604677
9860.00   1.96787965   0.02588828
9862.00   1.97472703   0.02608317
9864.00   1.97237539   0.02700263
9866.00   1.96280181   0.02933969
9868.00   1.94568884   0.03270876
9870.00   1.91056764   0.03573463
9872.00   1.93056262   0.03732497
9874.00   1.93779910   0.03762142
9876.00   1.93306684   0.03631252
9878.00   1.93192875   0.03339061
9880.00   1.93904018   0.02980701
9882.00   1.93215716   0.02789038
9884.00   1.92435539   0.02714750
9886.00   1.92049539   0.02719408
9888.00   1.92256320   0.02783142
9890.00   1.94245303   0.02937028
9892.00   1.90611303   0.03037876
9894.00   1.87621343   0.03094541
9896.00   1.88431263   0.03125517
9898.00   1.92122591   0.03135964
9900.00   1.89457417   0.03004055
9902.00   1.87224138   0.02828118
9904.00   1.86419809   0.02713360
9906.00   1.86623049   0.02735368
9908.00   1.87275207   0.02904388
9910.00   1.87429678   0.03255830
9912.00   1.83810294   0.03565155
9914.00   1.82333803   0.03746037
9916.00   1.84313405   0.03779729
9918.00   1.81241882   0.03706738
9920.00   1.81927299   0.03472210
9922.00   1.82482195   0.03127806
9924.00   1.82263720   0.02836105
9926.00   1.81934786   0.02739505
9928.00   1.82429314   0.02714941
9930.00   1.82674730   0.02706012
9932.00   1.83099592   0.02726159
9934.00   1.84407151   0.02803337
9936.00   1.86014354   0.02966169
9938.00   1.82073784   0.03222166
9940.00   1.82513654   0.03568969
9942.00   1.81631577   0.03930302
9944.00   1.80425930   0.04217398
9946.00   1.83705080   0.04351105
9948.00   1.80941236   0.04276763
9950.00   1.79266751   0.04166679
9952.00   1.78954160   0.04074382
9954.00   1.79279745   0.04033829
9956.00   1.78865421   0.04061862
9958.00   1.79074252   0.04203111
9960.00   1.81431437   0.04270714
9962.00   1.81969261   0.04172034
9964.00   1.79351914   0.03924619
9966.00   1.78473914   0.03710535
9968.00   1.79109526   0.03506481
9970.00   1.79910624   0.03356466
9972.00   1.79114377   0.03275430
9974.00   1.76765490   0.03249565
9976.00   1.77612650   0.03243276
9978.00   1.77535188   0.03166860
9980.00   1.75839615   0.03061672
9982.00   1.74502528   0.02973193
9984.00   1.75742471   0.02931349
9986.00   1.78173387   0.02910702
9988.00   1.77148819   0.02883492
9990.00   1.75408268   0.02869748
9992.00   1.74916267   0.02887337
9994.00   1.75699747   0.02942403
9996.00   1.75637770   0.03028451
9998.00   1.75421250   0.03106666
10000.00   1.74739504   0.03154998
10002.00   1.74365127   0.03189180
10004.00   1.75976431   0.03264211
10006.00   1.77470815   0.03526646
10008.00   1.76150000   0.04013686
10010.00   1.72996724   0.04513326
10012.00   1.69330800   0.04846292
10014.00   1.64179850   0.04910657
10016.00   1.64874113   0.04838647
10018.00   1.68888950   0.04561995
10020.00   1.71088278   0.04178722
10022.00   1.69118893   0.03881851
10024.00   1.72889853   0.03883729
10026.00   1.73775196   0.03874006
10028.00   1.71345270   0.03806086
10030.00   1.69455850   0.03667264
10032.00   1.72270679   0.03479829
10034.00   1.70983124   0.03266679
10036.00   1.71713305   0.03201443
10038.00   1.71572554   0.03237007
10040.00   1.70236361   0.03309119
10042.00   1.69568551   0.03370858
10044.00   1.69207251   0.03390445
10046.00   1.68393612   0.03378683
10048.00   1.68313038   0.03333487
10050.00   1.68841302   0.03261818
10052.00   1.68752432   0.03190798
10054.00   1.68798733   0.03258045
10056.00   1.68505728   0.03420740
10058.00   1.67571199   0.03591480
10060.00   1.66105270   0.03706916
10062.00   1.64133012   0.03758917
10064.00   1.64657259   0.03791102
10066.00   1.66606474   0.03765767
10068.00   1.67473018   0.03688168
10070.00   1.65134966   0.03592964
10072.00   1.62799418   0.03552599
10074.00   1.63952029   0.03582910
10076.00   1.65330350   0.03766398
10078.00   1.63965702   0.04088014
10080.00   1.59637964   0.04447927
10082.00   1.63421285   0.04651754
10084.00   1.60793734   0.04692721
10086.00   1.59625423   0.04594392
10088.00   1.61700499   0.04334596
10090.00   1.61278594   0.03864237
10092.00   1.61263621   0.03584353
10094.00   1.61763334   0.03481475
10096.00   1.60645580   0.03505859
10098.00   1.58743632   0.03627164
10100.00   1.62073243   0.03877402
10102.00   1.63406169   0.04049076
10104.00   1.60597038   0.04103667
10106.00   1.58442783   0.04083539
10108.00   1.60274827   0.04017544
10110.00   1.61223078   0.03829660
10112.00   1.60131693   0.03649860
10114.00   1.59641969   0.03578870
10116.00   1.60106516   0.03705310
10118.00   1.60835791   0.04063609
10120.00   1.61252367   0.04662032
10122.00   1.56926250   0.05089532
10124.00   1.55398417   0.05323254
10126.00   1.56972253   0.05366756
10128.00   1.58108425   0.05229680
10130.00   1.57676029   0.04780743
10132.00   1.57684422   0.04287897
10134.00   1.57010078   0.03947598
10136.00   1.56317651   0.03837425
10138.00   1.57648146   0.03843224
10140.00   1.58092642   0.03867895
10142.00   1.55637062   0.03900954
10144.00   1.53833354   0.03967240
10146.00   1.54631817   0.04097495
10148.00   1.54509830   0.04302205
10150.00   1.55147171   0.04519483
10152.00   1.56512737   0.04675594
10154.00   1.56972790   0.04762297
10156.00   1.55767250   0.04784442
10158.00   1.52466547   0.04699502
10160.00   1.52316058   0.04562329
10162.00   1.52509129   0.04478598
10164.00   1.52737653   0.04571272
10166.00   1.52916276   0.04910627
10168.00   1.52442014   0.05497627
10170.00   1.51545715   0.05940103
10172.00   1.51719606   0.06154537
10174.00   1.51638615   0.06156842
10176.00   1.49021947   0.06007201
10178.00   1.49047339   0.05571732
10180.00   1.48038495   0.05091436
10182.00   1.48424757   0.04884513
10184.00   1.50790584   0.05069647
10186.00   1.52259004   0.05429351
10188.00   1.49979460   0.05645872
10190.00   1.51503384   0.05759374
10192.00   1.52294505   0.05757533
10194.00   1.49671948   0.05619720
10196.00   1.49867284   0.05320486
10198.00   1.49868643   0.05081536
10200.00   1.47961175   0.05051911
10202.00   1.45671666   0.05221329
10204.00   1.45205367   0.05540992
10206.00   1.45451641   0.06070946
10208.00   1.46226561   0.06575028
10210.00   1.44270694   0.06804407
10212.00   1.41000044   0.06778580
10214.00   1.40564728   0.06619550
10216.00   1.43889606   0.06261330
10218.00   1.42643201   0.05687167
10220.00   1.41052258   0.05392261
10222.00   1.41555786   0.05673799
10224.00   1.43269074   0.05911765
10226.00   1.41713607   0.06456336
10228.00   1.40316784   0.06419087
10230.00   1.39337635   0.06282391
10232.00   1.37364089   0.06068293
10234.00   1.31627035   0.05657043
10236.00   1.37987757   0.05406901
10238.00   1.40451396   0.05139001
10240.00   1.39959192   0.04924243
10242.00   1.39699590   0.04834129
10244.00   1.41128254   0.04818963
10246.00   1.37073612   0.04766838
10248.00   1.37614667   0.04792537
10250.00   1.40682137   0.04857300
10252.00   1.40954411   0.04893551
10254.00   1.38500226   0.04929851
10256.00   1.39726365   0.04982883
10258.00   1.40218496   0.05040812
10260.00   1.40287781   0.05110681
10262.00   1.40818465   0.05194139
10264.00   1.36150873   0.05242349
10266.00   1.37429488   0.05425652
10268.00   1.38449347   0.05633828
10270.00   1.38295424   0.05797356
10272.00   1.40299022   0.05902551
10274.00   1.38212776   0.05963231
10276.00   1.33092225   0.05984483
10278.00   1.31748700   0.06303889
10280.00   1.34908211   0.07269982
10282.00   1.34480393   0.08967850
10284.00   1.33968747   0.10589987
10286.00   1.36631298   0.11568835
10288.00   1.35295022   0.11970337
10290.00   1.27385902   0.11903197
10292.00   1.24255121   0.11341566
10294.00   1.30619419   0.10251250
10296.00   1.32671857   0.09335359
10298.00   1.33282185   0.08829883
10300.00   1.36207068   0.08522574
10302.00   1.29431176   0.07875372
10304.00   1.28602111   0.07341325
10306.00   1.31726897   0.07139388
10308.00   1.33913982   0.07171350
10310.00   1.30972850   0.07158776
10312.00   1.26658559   0.07082310
10314.00   1.29829025   0.06997589
10316.00   1.32005990   0.06807233
10318.00   1.31576180   0.06583913
10320.00   1.33721411   0.06544846
10322.00   1.33610725   0.06577609
10324.00   1.33670008   0.06663067
10326.00   1.31621134   0.06733293
10328.00   1.27883756   0.06758872
10330.00   1.28649378   0.06794661
10332.00   1.30507028   0.06860255
10334.00   1.28727233   0.06888286
10336.00   1.26653874   0.06944381
10338.00   1.27828562   0.07116315
10340.00   1.28630674   0.07399273
10342.00   1.24770010   0.07843928
10344.00   1.24340045   0.08381969
10346.00   1.24489594   0.08828014
10348.00   1.20688689   0.09053809
10350.00   1.19492912   0.09185668
10352.00   1.19786179   0.09049648
10354.00   1.20852220   0.08694180
10356.00   1.23466158   0.08308380
10358.00   1.28744066   0.08135147
10360.00   1.29309487   0.08044942
10362.00   1.27594388   0.07954746
10364.00   1.22751296   0.08036169
10366.00   1.18461478   0.08702677
10368.00   1.20929277   0.10257136
10370.00   1.25390422   0.12085727
10372.00   1.26076114   0.13164581
10374.00   1.26965344   0.13638358
10376.00   1.30350077   0.13594677
10378.00   1.34446228   0.12875646
10380.00   1.30715311   0.11273322
10382.00   1.27177584   0.09835964
10384.00   1.26669395   0.09081658
10386.00   1.27372205   0.08959913
10388.00   1.19286191   0.08754461
10390.00   1.25599611   0.09186163
10392.00   1.31648350   0.10024462
10394.00   1.29251003   0.10810933
10396.00   1.19145095   0.11218318
10398.00   1.16622555   0.11361065
10400.00   1.28423631   0.11427382
10402.00   1.32754314   0.11060254
10404.00   1.25807655   0.10323352
10406.00   1.18517196   0.09677068
10408.00   1.22575819   0.09700402
10410.00   1.26342523   0.10078317
10412.00   1.27836335   0.11203649
10414.00   1.27132416   0.13015063
10416.00   1.28537190   0.15069668
10418.00   1.30608988   0.15775608
10420.00   1.30555201   0.16156334
10422.00   1.20601928   0.15841568
10424.00   1.07365501   0.14976461
10426.00   1.17659044   0.13031867
10428.00   1.27565038   0.11708373
10430.00   1.27701986   0.10919521
10432.00   1.24283159   0.10533493
10434.00   1.24772692   0.10339463
10436.00   1.20436370   0.10126884
10438.00   1.18181288   0.09988116
10440.00   1.21767604   0.10047731
10442.00   1.23711169   0.10184079
10444.00   1.17217267   0.10318001
10446.00   1.11017036   0.10904584
10448.00   1.21415865   0.11795861
10450.00   1.30846870   0.12436733
10452.00   1.30932426   0.12631635
10454.00   1.24600947   0.12099192
10456.00   1.24098313   0.12056007
10458.00   1.20935762   0.11350115
10460.00   1.18719983   0.10946812
10462.00   1.20396674   0.11427918
10464.00   1.24337196   0.12836187
10466.00   1.31979477   0.14486356
10468.00   1.25934935   0.15453464
10470.00   1.22456539   0.15558928
10472.00   1.27483308   0.15542531
10474.00   1.14362729   0.14914367
10476.00   1.18409789   0.13425089
10478.00   1.17756021   0.12045404
10480.00   1.15925837   0.11250163
10482.00   1.19453442   0.11134189
10484.00   1.27324390   0.11289079
10486.00   1.28895772   0.11330056
10488.00   1.24149024   0.11223298
10490.00   1.18989003   0.11068777
10492.00   1.19833720   0.11019246
10494.00   1.10375726   0.10848815
10496.00   1.11739671   0.10980666
10498.00   1.20783794   0.11256055
10500.00   1.27190638   0.11447271
10502.00   1.19942057   0.11414582
10504.00   1.11391127   0.11560053
10506.00   1.09989655   0.12052987
10508.00   1.12064159   0.12561153
10510.00   1.14047265   0.12851976
10512.00   1.15435886   0.12910795
10514.00   1.16635966   0.12865563
10516.00   1.09333646   0.12436412
10518.00   1.06349981   0.12253690
10520.00   1.12574923   0.12754472
10522.00   1.05964947   0.13441819
10524.00   1.09902704   0.14122351
10526.00   1.12084579   0.14412099
10528.00   1.13872266   0.14374995
10530.00   1.18441153   0.14083408
10532.00   1.19816446   0.13126397
10534.00   1.10650074   0.12162828
10536.00   1.03232110   0.11665055
10538.00   1.01335704   0.11585107
10540.00   1.01931751   0.11514805
10542.00   1.03919935   0.11519635
10544.00   1.07101595   0.11567897
10546.00   1.11800003   0.11683453
10548.00   1.14722955   0.11805752
10550.00   1.12783170   0.11882307
10552.00   1.05618751   0.11815662
10554.00   1.07367933   0.11901895
10556.00   1.10717738   0.11994625
10558.00   1.10642374   0.11992527
10560.00   1.11932898   0.12014424
10562.00   1.13353527   0.12431185
10564.00   1.13886511   0.12487502
10566.00   1.10360420   0.12219002
10568.00   1.03192389   0.12351356
10570.00   1.00839794   0.12518457
10572.00   1.05842292   0.12837057
10574.00   1.07413542   0.12988798
10576.00   1.06439257   0.13015163
10578.00   1.07681668   0.13073805
10580.00   1.09725535   0.13207746
10582.00   1.08542299   0.13415968
10584.00   1.04562616   0.13665009
10586.00   1.02955306   0.13925625
10588.00   1.07999647   0.14153115
10590.00   1.05899692   0.14092861
10592.00   0.97482443   0.13641836
10594.00   0.98895025   0.13287534
10596.00   1.09713852   0.13246787
10598.00   1.11705625   0.13312428
10600.00   1.08424032   0.13443203
10602.00   1.09990573   0.13529356
10604.00   1.07336581   0.13388079
10606.00   0.97152692   0.13076565
10608.00   0.90159321   0.12984540
10610.00   1.05220068   0.13475989
10612.00   1.23004389   0.14018868
10614.00   1.30639112   0.14274421
10616.00   1.24046826   0.14146350
10618.00   1.16256964   0.13970415
10620.00   1.14590001   0.13997890
10622.00   1.13093674   0.14061846
10624.00   1.10341465   0.14063497
10626.00   1.07749748   0.14002602
10628.00   1.07975948   0.14160757
10630.00   1.10657632   0.14271331
10632.00   1.08381402   0.14608124
10634.00   1.04363585   0.14207847
10636.00   1.08511436   0.14437921
10638.00   1.06851912   0.14480953
10640.00   1.03048193   0.14608903
10642.00   1.00373685   0.14730738
10644.00   1.04280233   0.14938785
10646.00   1.20218027   0.15154377
10648.00   1.15667021   0.15561068
10650.00   1.01195872   0.15358372
10652.00   0.96618730   0.14945769
10654.00   1.06426084   0.15322691
10656.00   1.24375331   0.16465628
10658.00   1.11300039   0.16155304
10660.00   1.18203950   0.16262050
10662.00   1.24055636   0.16388321
10664.00   1.24742734   0.16557629
10666.00   1.14151001   0.16027570
10668.00   1.04998958   0.16160904
10670.00   1.12822890   0.16489531
10672.00   1.22174215   0.16532356
10674.00   1.11203611   0.17382357
10676.00   1.09924853   0.17016971
10678.00   0.99278259   0.16914965
10680.00   0.96312279   0.17239048
