# File created by shivutils (I.Shivvers)
# wl(A)   flm    er(optional)
3438.00   0.35682890   0.08555162
3440.00   0.42334563   0.07989063
3442.00   0.47773477   0.08099927
3444.00   0.31011581   0.08332181
3446.00   0.40396222   0.08871085
3448.00   0.17796125   0.09069239
3450.00   0.44889593   0.09389435
3452.00   0.56890142   0.09460708
3454.00   0.41135010   0.09513798
3456.00   0.63893795   0.09538727
3458.00   0.56161493   0.09100094
3460.00   0.65551519   0.09105896
3462.00   0.50730228   0.09329571
3464.00   0.44358808   0.09543416
3466.00   0.42989311   0.09478525
3468.00   0.43114597   0.09836668
3470.00   0.29812765   0.09534478
3472.00   0.41876885   0.09124383
3474.00   0.53092766   0.08860697
3476.00   0.46227032   0.09011345
3478.00   0.40267932   0.09408443
3480.00   0.38540620   0.09559834
3482.00   0.48473620   0.09358404
3484.00   0.57952249   0.09463972
3486.00   0.56325001   0.09701108
3488.00   0.52746075   0.09386490
3490.00   0.50339925   0.09029000
3492.00   0.49526167   0.09205022
3494.00   0.23153506   0.09092467
3496.00   0.41054225   0.09087405
3498.00   0.37473097   0.09596799
3500.00   0.44156837   0.10035924
3502.00   0.51823443   0.10142762
3504.00   0.44805750   0.09848262
3506.00   0.65692240   0.09865670
3508.00   0.54105234   0.09756284
3510.00   0.31291711   0.09236815
3512.00   0.56436282   0.09094530
3514.00   0.55009413   0.09192279
3516.00   0.67275226   0.09814193
3518.00   0.70812458   0.09916393
3520.00   0.39805666   0.09412366
3522.00   0.48446974   0.08955751
3524.00   0.49702153   0.08713288
3526.00   0.45864362   0.08872700
3528.00   0.45489356   0.09448053
3530.00   0.83856291   0.09719490
3532.00   0.64260405   0.09678406
3534.00   0.42429358   0.09690575
3536.00   0.67909235   0.09856476
3538.00   0.69239217   0.09808188
3540.00   0.63100493   0.09661856
3542.00   0.50544596   0.09517322
3544.00   0.54201442   0.09760561
3546.00   0.60149890   0.09751844
3548.00   0.71426344   0.09720175
3550.00   0.45085466   0.09468415
3552.00   0.65841180   0.09314157
3554.00   0.67011374   0.09220892
3556.00   0.77193266   0.09335011
3558.00   0.61418957   0.09110278
3560.00   0.54461116   0.09124976
3562.00   0.61021924   0.09219106
3564.00   0.83296686   0.08833513
3566.00   0.66526657   0.08153287
3568.00   0.48456454   0.07811367
3570.00   0.61612999   0.07841932
3572.00   0.63348645   0.08172410
3574.00   0.57094461   0.08294989
3576.00   0.53464073   0.08226937
3578.00   0.84758294   0.08006469
3580.00   0.58031631   0.07605428
3582.00   0.69763142   0.07453360
3584.00   0.69874179   0.07219835
3586.00   0.69965237   0.07195020
3588.00   0.65570563   0.07553889
3590.00   0.77278024   0.08072674
3592.00   0.67811662   0.08162370
3594.00   0.85712838   0.08265492
3596.00   0.67620975   0.08296746
3598.00   0.68191296   0.08311005
3600.00   0.60939473   0.08162275
3602.00   0.57301438   0.07707116
3604.00   0.60283256   0.07541296
3606.00   0.79971939   0.07459508
3608.00   0.71418357   0.07187474
3610.00   0.83129829   0.07395501
3612.00   0.61654514   0.07596389
3614.00   0.77873188   0.07730784
3616.00   0.60294241   0.07331523
3618.00   0.65777731   0.06936492
3620.00   0.59284878   0.07120480
3622.00   0.74120289   0.07470547
3624.00   0.60264075   0.07666631
3626.00   0.54856569   0.07794963
3628.00   0.84261131   0.07745140
3630.00   0.83429569   0.07204244
3632.00   0.73681164   0.06942669
3634.00   0.61294270   0.07051826
3636.00   0.76406431   0.07354061
3638.00   0.71944255   0.07518560
3640.00   0.69275391   0.07514351
3642.00   0.73302305   0.07395279
3644.00   0.76478320   0.07201731
3646.00   0.78785825   0.07122978
3648.00   0.84990054   0.07705422
3650.00   0.81199145   0.08098678
3652.00   0.67307913   0.07961953
3654.00   0.70113117   0.07823391
3656.00   0.82135260   0.07616035
3658.00   0.66981351   0.07507417
3660.00   0.81933200   0.07528641
3662.00   0.74803197   0.07652035
3664.00   0.73805308   0.07401676
3666.00   0.62089080   0.07094599
3668.00   0.85121524   0.07042485
3670.00   0.87737632   0.07088044
3672.00   0.80369234   0.07093967
3674.00   0.77050000   0.07007199
3676.00   0.86913592   0.06893916
3678.00   0.84060508   0.06723032
3680.00   0.98917890   0.06733714
3682.00   0.86541760   0.06867453
3684.00   0.88068730   0.06673368
3686.00   0.90087855   0.06486371
3688.00   0.94691432   0.06637478
3690.00   0.87413752   0.06893830
3692.00   0.92101204   0.06881508
3694.00   1.00046718   0.06793706
3696.00   1.10285723   0.06869235
3698.00   1.16194260   0.07053565
3700.00   1.11544609   0.06981356
3702.00   1.21303153   0.06762568
3704.00   1.13388598   0.06415015
3706.00   1.14159656   0.06271069
3708.00   1.26779532   0.06453243
3710.00   1.34193349   0.06685442
3712.00   1.13814950   0.06924567
3714.00   1.21581733   0.06905009
3716.00   1.28370452   0.06732401
3718.00   1.30282879   0.06225004
3720.00   1.26555729   0.05859594
3722.00   1.12722135   0.05978460
3724.00   1.19670534   0.06368957
3726.00   1.29561126   0.06408789
3728.00   1.40184510   0.06415170
3730.00   1.42051280   0.06351154
3732.00   1.31018424   0.05902849
3734.00   1.33200073   0.05541442
3736.00   1.24230218   0.05600850
3738.00   1.14288819   0.05964131
3740.00   1.28924954   0.06251819
3742.00   1.35894763   0.06128914
3744.00   1.19174385   0.05724436
3746.00   1.12493360   0.05462746
3748.00   1.13472879   0.05319548
3750.00   1.08290386   0.05562418
3752.00   0.99457008   0.05901591
3754.00   0.98594236   0.06117699
3756.00   0.95368493   0.05759390
3758.00   0.85737234   0.05426230
3760.00   0.92691231   0.05496268
3762.00   0.74052984   0.05411515
3764.00   0.74835414   0.05352547
3766.00   0.70828253   0.05337127
3768.00   0.66506892   0.05311183
3770.00   0.65685362   0.05458419
3772.00   0.56684309   0.05530017
3774.00   0.58722115   0.05616800
3776.00   0.51552707   0.05548130
3778.00   0.43531993   0.05571245
3780.00   0.44980127   0.05594655
3782.00   0.43652341   0.05659136
3784.00   0.51737648   0.05546524
3786.00   0.55230933   0.05220317
3788.00   0.48430896   0.05051081
3790.00   0.39157236   0.05039304
3792.00   0.45043814   0.05044259
3794.00   0.37302276   0.04847146
3796.00   0.27896377   0.04557984
3798.00   0.32114729   0.04577577
3800.00   0.37257069   0.04846086
3802.00   0.28164828   0.05054565
3804.00   0.34091207   0.05049917
3806.00   0.24800119   0.04869482
3808.00   0.38242263   0.04974892
3810.00   0.26180157   0.04980064
3812.00   0.39030486   0.04784491
3814.00   0.26148289   0.04405468
3816.00   0.34830788   0.04476191
3818.00   0.28485128   0.04378006
3820.00   0.37527618   0.04303995
3822.00   0.34488145   0.04292240
3824.00   0.35775697   0.04110724
3826.00   0.31281745   0.03934429
3828.00   0.30744335   0.04010200
3830.00   0.43723360   0.04027442
3832.00   0.34387144   0.03844530
3834.00   0.37227392   0.03891863
3836.00   0.40486294   0.03906681
3838.00   0.47582597   0.03888749
3840.00   0.28018016   0.03918516
3842.00   0.34296945   0.04239250
3844.00   0.34241110   0.04358811
3846.00   0.44021860   0.04426505
3848.00   0.49723458   0.04359876
3850.00   0.43440160   0.04297962
3852.00   0.36724618   0.04275088
3854.00   0.55589575   0.04295287
3856.00   0.56245285   0.04164962
3858.00   0.45527449   0.03978269
3860.00   0.61077219   0.04158261
3862.00   0.67083091   0.04451886
3864.00   0.53877574   0.04450262
3866.00   0.58331114   0.04395000
3868.00   0.66469663   0.04294756
3870.00   0.58660269   0.04099504
3872.00   0.65260643   0.04238826
3874.00   0.73602617   0.04503312
3876.00   0.70733422   0.04453903
3878.00   0.82047880   0.04357592
3880.00   0.83115119   0.04331370
3882.00   0.81714040   0.04404671
3884.00   0.85286140   0.04455160
3886.00   0.91577989   0.04308024
3888.00   0.91688871   0.04350575
3890.00   1.06731713   0.04595611
3892.00   1.03075755   0.04733263
3894.00   1.05704272   0.04749279
3896.00   1.12108672   0.04825520
3898.00   1.15986800   0.04815987
3900.00   1.16414320   0.04740462
3902.00   1.15558052   0.04761251
3904.00   1.22640824   0.04788782
3906.00   1.24903131   0.04989931
3908.00   1.19042206   0.05141309
3910.00   1.26774657   0.05365375
3912.00   1.31607783   0.05538704
3914.00   1.26081622   0.05318569
3916.00   1.32595146   0.04952573
3918.00   1.37898457   0.04692395
3920.00   1.41874588   0.04600167
3922.00   1.44939530   0.04618080
3924.00   1.40521860   0.04539902
3926.00   1.40795374   0.04395658
3928.00   1.48742425   0.04151359
3930.00   1.49138033   0.03950818
3932.00   1.44601381   0.03860759
3934.00   1.55930829   0.03884029
3936.00   1.59033036   0.04036339
3938.00   1.59875131   0.04254321
3940.00   1.59242487   0.04392946
3942.00   1.64045668   0.04436982
3944.00   1.59791207   0.04547716
3946.00   1.71657813   0.04643591
3948.00   1.72283173   0.04688513
3950.00   1.72089899   0.04703334
3952.00   1.64416492   0.04679786
3954.00   1.82805085   0.04712237
3956.00   1.84166563   0.04740470
3958.00   1.86705220   0.04739878
3960.00   1.79981959   0.04657710
3962.00   1.90267861   0.04402964
3964.00   1.95052505   0.04269665
3966.00   1.83205783   0.03992593
3968.00   1.91150522   0.03970335
3970.00   1.99998212   0.04136520
3972.00   1.95422435   0.04353042
3974.00   1.97887504   0.04534271
3976.00   2.01129603   0.04680032
3978.00   1.83191490   0.04742980
3980.00   2.07083726   0.04848414
3982.00   2.04202986   0.04812795
3984.00   2.15655470   0.04805714
3986.00   2.01512933   0.04836661
3988.00   1.91135991   0.04861914
3990.00   1.96452892   0.04938500
3992.00   2.07648087   0.04977322
3994.00   1.95087051   0.04947574
3996.00   2.01253462   0.04929182
3998.00   1.87756550   0.04890034
4000.00   1.97498608   0.04951796
4002.00   1.94647312   0.04927449
4004.00   2.03529239   0.04828546
4006.00   1.99224520   0.04807927
4008.00   1.88854718   0.04890480
4010.00   1.85029638   0.04929375
4012.00   1.82008672   0.04893810
4014.00   1.88029218   0.04913026
4016.00   1.84431469   0.04873186
4018.00   1.82656610   0.04941066
4020.00   1.83747745   0.05063552
4022.00   1.86433506   0.05047354
4024.00   1.91053545   0.05009512
4026.00   1.68571508   0.04896931
4028.00   1.90303159   0.04874643
4030.00   1.87268329   0.04741319
4032.00   1.69424808   0.04611900
4034.00   1.80092406   0.04671075
4036.00   1.66064847   0.04725877
4038.00   1.60672152   0.04697812
4040.00   1.66922581   0.04690899
4042.00   1.62922549   0.04644418
4044.00   1.61644435   0.05002280
4046.00   1.51283300   0.05249993
4048.00   1.47662437   0.04999797
4050.00   1.50607443   0.04597568
4052.00   1.44293940   0.04487209
4054.00   1.40644181   0.04447470
4056.00   1.34513497   0.04360077
4058.00   1.45153296   0.04357535
4060.00   1.47007024   0.04333071
4062.00   1.37498569   0.04191878
4064.00   1.40614378   0.04204293
4066.00   1.42495942   0.04293951
4068.00   1.24562776   0.04261974
4070.00   1.25242031   0.04208285
4072.00   1.37189078   0.04221375
4074.00   1.23674786   0.04245922
4076.00   1.30105042   0.04262072
4078.00   1.24282455   0.04255603
4080.00   1.29413557   0.04338011
4082.00   1.31407297   0.04300616
4084.00   1.18810761   0.04201638
4086.00   1.27509165   0.04304552
4088.00   1.21271527   0.04307131
4090.00   1.25224161   0.04246346
4092.00   1.30237508   0.04208698
4094.00   1.12296879   0.04106948
4096.00   1.12616265   0.04039473
4098.00   1.13238955   0.03970376
4100.00   1.13413334   0.03847527
4102.00   1.08577955   0.03800736
4104.00   1.05905747   0.03944121
4106.00   1.15751016   0.04054825
4108.00   1.06936586   0.04060661
4110.00   1.08095109   0.04037665
4112.00   1.06543982   0.04073056
4114.00   1.09614623   0.04122169
4116.00   1.10978854   0.04112307
4118.00   1.04469419   0.04038309
4120.00   1.03466165   0.04016132
4122.00   1.14417624   0.04043030
4124.00   0.97317469   0.03987740
4126.00   0.99237615   0.03953709
4128.00   1.08680427   0.03961845
4130.00   1.15181994   0.03934167
4132.00   1.05788672   0.03866486
4134.00   1.11994410   0.03897098
4136.00   1.05027509   0.03946841
4138.00   1.05903792   0.04018466
4140.00   1.14613664   0.04001006
4142.00   1.08670318   0.03851444
4144.00   1.09506214   0.03806296
4146.00   1.07053876   0.03856646
4148.00   1.09650385   0.03864643
4150.00   1.05081093   0.03827583
4152.00   0.99464387   0.03794404
4154.00   1.07541752   0.03791291
4156.00   1.11840975   0.03774510
4158.00   1.06354272   0.03810846
4160.00   1.18351471   0.03892972
4162.00   1.05382276   0.03905671
4164.00   1.07000911   0.03935304
4166.00   1.06406832   0.03893297
4168.00   1.11177039   0.03825790
4170.00   1.19697416   0.03755166
4172.00   1.16739464   0.03692781
4174.00   1.14113045   0.03687836
4176.00   1.18179870   0.03754362
4178.00   1.11475694   0.03737390
4180.00   1.07482874   0.03728557
4182.00   1.11523044   0.03712137
4184.00   1.13791251   0.03687948
4186.00   1.09323478   0.03647113
4188.00   1.16978276   0.03696091
4190.00   1.10980058   0.03720994
4192.00   1.06736612   0.03719428
4194.00   1.18549788   0.03718847
4196.00   1.12203610   0.03627996
4198.00   1.20218396   0.03618569
4200.00   1.20217848   0.03628950
4202.00   1.19534111   0.03651818
4204.00   1.21731901   0.03725899
4206.00   1.19833159   0.03748499
4208.00   1.33958173   0.03785463
4210.00   1.20008862   0.03755539
4212.00   1.22212291   0.03748707
4214.00   1.17330265   0.03685194
4216.00   1.21728218   0.03663823
4218.00   1.20367670   0.03694139
4220.00   1.14026451   0.03682731
4222.00   1.24812365   0.03636164
4224.00   1.25205505   0.03490035
4226.00   1.27459502   0.03439022
4228.00   1.25852633   0.03549859
4230.00   1.33147883   0.03687818
4232.00   1.26159406   0.03657379
4234.00   1.24699259   0.03605996
4236.00   1.27750897   0.03582800
4238.00   1.16113925   0.03544727
4240.00   1.23948061   0.03564588
4242.00   1.16179800   0.03542833
4244.00   1.24164343   0.03625860
4246.00   1.21200311   0.03638861
4248.00   1.21799886   0.03544923
4250.00   1.20863557   0.03517872
4252.00   1.22427058   0.03513853
4254.00   1.33572793   0.03571611
4256.00   1.33923674   0.03584772
4258.00   1.29613316   0.03527934
4260.00   1.30675042   0.03497076
4262.00   1.26487577   0.03555747
4264.00   1.27669895   0.03623790
4266.00   1.27389026   0.03602159
4268.00   1.24211657   0.03474769
4270.00   1.20979929   0.03361829
4272.00   1.29762149   0.03351762
4274.00   1.24096501   0.03418068
4276.00   1.35352147   0.03555283
4278.00   1.27314961   0.03522344
4280.00   1.27324021   0.03462773
4282.00   1.27770829   0.03437069
4284.00   1.28254402   0.03425985
4286.00   1.33298135   0.03371960
4288.00   1.37986076   0.03358828
4290.00   1.31325614   0.03336563
4292.00   1.31601679   0.03387884
4294.00   1.35837078   0.03406994
4296.00   1.39703846   0.03342978
4298.00   1.36938238   0.03242168
4300.00   1.40095556   0.03172458
4302.00   1.39242256   0.03169504
4304.00   1.37829041   0.03172474
4306.00   1.41606534   0.03134368
4308.00   1.38377178   0.03105112
4310.00   1.36247587   0.03159159
4312.00   1.45429587   0.03331883
4314.00   1.45472395   0.03471716
4316.00   1.48240995   0.03579289
4318.00   1.49623668   0.03624088
4320.00   1.42177463   0.03574362
4322.00   1.48408997   0.03471276
4324.00   1.51185870   0.03360116
4326.00   1.45727503   0.03385001
4328.00   1.39049780   0.03472200
4330.00   1.51909232   0.03535083
4332.00   1.46296430   0.03523802
4334.00   1.42544818   0.03516503
4336.00   1.43447959   0.03431381
4338.00   1.50073647   0.03331757
4340.00   1.52699006   0.03284877
4342.00   1.56229401   0.03382836
4344.00   1.45294857   0.03446592
4346.00   1.45188117   0.03531476
4348.00   1.42579663   0.03524638
4350.00   1.39275777   0.03435370
4352.00   1.40435171   0.03389171
4354.00   1.39282990   0.03630863
4356.00   1.39348090   0.04356427
4358.00   1.44917834   0.04673401
4360.00   1.35048974   0.04216835
4362.00   1.35409892   0.03737238
4364.00   1.37302577   0.03568277
4366.00   1.37001538   0.03535099
4368.00   1.33830345   0.03492498
4370.00   1.35744166   0.03481246
4372.00   1.29460466   0.03447339
4374.00   1.22066045   0.03408844
4376.00   1.29702425   0.03447071
4378.00   1.28064978   0.03437441
4380.00   1.16754520   0.03333052
4382.00   1.14583552   0.03191837
4384.00   1.18147373   0.03145230
4386.00   1.21128488   0.03203018
4388.00   1.16961491   0.03230684
4390.00   1.14194417   0.03207821
4392.00   1.00830615   0.03161802
4394.00   1.05344260   0.03166024
4396.00   1.01183343   0.03193102
4398.00   0.94961989   0.03189342
4400.00   1.10513020   0.03209022
4402.00   0.94859272   0.03121462
4404.00   0.90620017   0.03070737
4406.00   0.95913363   0.03103557
4408.00   0.92026085   0.03147283
4410.00   0.96206933   0.03218392
4412.00   0.88671517   0.03206724
4414.00   0.83954948   0.03168041
4416.00   0.83870339   0.03178117
4418.00   0.83714586   0.03202915
4420.00   0.79263616   0.03191059
4422.00   0.81081867   0.03168779
4424.00   0.85810429   0.03166178
4426.00   0.72164291   0.03139047
4428.00   0.75640357   0.03155502
4430.00   0.80268925   0.03162781
4432.00   0.81703949   0.03129471
4434.00   0.81255811   0.03093985
4436.00   0.73512906   0.03117102
4438.00   0.68565267   0.03139226
4440.00   0.73563719   0.03115011
4442.00   0.72044969   0.03070682
4444.00   0.71054548   0.03080647
4446.00   0.74963188   0.03093965
4448.00   0.69390297   0.03057278
4450.00   0.70274496   0.03087106
4452.00   0.68069452   0.03048284
4454.00   0.72000951   0.03007662
4456.00   0.73412949   0.02997868
4458.00   0.80645031   0.03030400
4460.00   0.82348675   0.03052428
4462.00   0.83994305   0.03094560
4464.00   0.78189582   0.03120570
4466.00   0.77585280   0.03120514
4468.00   0.77613276   0.03105866
4470.00   0.81707072   0.03123323
4472.00   0.81700605   0.03140596
4474.00   0.80436605   0.03128451
4476.00   0.81388676   0.03112488
4478.00   0.78731531   0.03057127
4480.00   0.85929382   0.03032054
4482.00   0.84858984   0.03050382
4484.00   0.80137247   0.03093966
4486.00   0.89474130   0.03146937
4488.00   0.78444242   0.03116076
4490.00   0.94353384   0.03151136
4492.00   0.94371647   0.03160075
4494.00   0.87196434   0.03159034
4496.00   0.88557869   0.03164485
4498.00   0.92888540   0.03195519
4500.00   0.86814147   0.03177872
4502.00   0.92414230   0.03202921
4504.00   1.01331985   0.03235777
4506.00   1.01452112   0.03228238
4508.00   1.01861727   0.03232985
4510.00   1.02043951   0.03226958
4512.00   0.99358946   0.03193071
4514.00   1.00236499   0.03180248
4516.00   1.10600948   0.03199209
4518.00   1.10243869   0.03210800
4520.00   1.05963802   0.03210719
4522.00   1.06385684   0.03189911
4524.00   1.13785779   0.03174794
4526.00   1.18970835   0.03159904
4528.00   1.24566293   0.03169666
4530.00   1.30370975   0.03202586
4532.00   1.25280261   0.03203348
4534.00   1.29343498   0.03233195
4536.00   1.37780678   0.03281801
4538.00   1.38159144   0.03318435
4540.00   1.35262227   0.03334676
4542.00   1.42158961   0.03336944
4544.00   1.48539448   0.03332816
4546.00   1.54083133   0.03311075
4548.00   1.41869533   0.03257577
4550.00   1.54756558   0.03270821
4552.00   1.55607975   0.03285793
4554.00   1.54589069   0.03288931
4556.00   1.63395119   0.03337815
4558.00   1.72895825   0.03373593
4560.00   1.73970902   0.03390473
4562.00   1.75320113   0.03368692
4564.00   1.78967607   0.03369033
4566.00   1.78835332   0.03369931
4568.00   1.81238055   0.03380745
4570.00   1.81679988   0.03379563
4572.00   1.82680190   0.03368486
4574.00   1.88636839   0.03381667
4576.00   1.94960201   0.03391344
4578.00   2.09418774   0.03396444
4580.00   2.03207254   0.03358613
4582.00   2.04171896   0.03352610
4584.00   1.99826407   0.03346822
4586.00   2.08119202   0.03381981
4588.00   2.19547296   0.03430017
4590.00   2.20691848   0.03455561
4592.00   2.21158552   0.03430699
4594.00   2.21096706   0.03445258
4596.00   2.30476594   0.03458061
4598.00   2.39175677   0.03453052
4600.00   2.37065935   0.03456288
4602.00   2.32344222   0.03435893
4604.00   2.48824692   0.03479668
4606.00   2.37840390   0.03480990
4608.00   2.41089368   0.03499494
4610.00   2.45309377   0.03516256
4612.00   2.50109267   0.03525452
4614.00   2.55665755   0.03541028
4616.00   2.55153108   0.03546533
4618.00   2.64900041   0.03575787
4620.00   2.63689590   0.03587331
4622.00   2.66621280   0.03606509
4624.00   2.68139482   0.03598737
4626.00   2.79124737   0.03613781
4628.00   2.66357899   0.03586299
4630.00   2.76934457   0.03588670
4632.00   2.69606900   0.03568661
4634.00   2.78619647   0.03588814
4636.00   2.81318879   0.03573159
4638.00   2.85778117   0.03575143
4640.00   2.74787998   0.03541259
4642.00   2.87656116   0.03570282
4644.00   2.79338431   0.03547443
4646.00   2.81451035   0.03528308
4648.00   2.86154747   0.03548437
4650.00   2.84804034   0.03563368
4652.00   2.81468201   0.03565251
4654.00   2.83001685   0.03569026
4656.00   2.84916639   0.03576866
4658.00   2.79972363   0.03597568
4660.00   2.85485935   0.03615333
4662.00   2.88452721   0.03603997
4664.00   2.88533854   0.03572861
4666.00   2.81818557   0.03531932
4668.00   2.83470249   0.03524175
4670.00   2.85679269   0.03557386
4672.00   2.84107900   0.03563309
4674.00   2.85799193   0.03571033
4676.00   2.76471829   0.03541458
4678.00   2.84439301   0.03530372
4680.00   2.70632434   0.03495942
4682.00   2.66321850   0.03469237
4684.00   2.63588715   0.03467547
4686.00   2.64125371   0.03448457
4688.00   2.57578778   0.03423432
4690.00   2.49996328   0.03396391
4692.00   2.46315026   0.03399054
4694.00   2.46409273   0.03388409
4696.00   2.35431409   0.03348820
4698.00   2.37185025   0.03316185
4700.00   2.32080865   0.03280127
4702.00   2.26428366   0.03250687
4704.00   2.13522744   0.03232115
4706.00   2.16928935   0.03254057
4708.00   2.11576557   0.03240110
4710.00   2.17613959   0.03264644
4712.00   2.05963564   0.03239016
4714.00   2.03124118   0.03236637
4716.00   2.02630138   0.03239807
4718.00   2.02749157   0.03243011
4720.00   1.95546377   0.03221784
4722.00   1.90145576   0.03214275
4724.00   1.89331520   0.03207229
4726.00   1.81940830   0.03172957
4728.00   1.76880991   0.03138309
4730.00   1.76467109   0.03132271
4732.00   1.74897850   0.03131354
4734.00   1.72207177   0.03133031
4736.00   1.67195988   0.03106374
4738.00   1.66154563   0.03108367
4740.00   1.53959024   0.03116651
4742.00   1.56192410   0.03134663
4744.00   1.54151058   0.03097645
4746.00   1.48695135   0.03040432
4748.00   1.51715648   0.03022656
4750.00   1.43979430   0.02998415
4752.00   1.40933406   0.02981591
4754.00   1.47600245   0.02976314
4756.00   1.40631151   0.02952340
4758.00   1.33084679   0.02933763
4760.00   1.30500698   0.02912419
4762.00   1.30735528   0.02890478
4764.00   1.28732300   0.02864782
4766.00   1.25837302   0.02844289
4768.00   1.22490537   0.02856777
4770.00   1.14764738   0.02830639
4772.00   1.14420867   0.02827883
4774.00   1.12070858   0.02827431
4776.00   1.10883379   0.02843502
4778.00   1.05086017   0.02833412
4780.00   1.07188535   0.02827720
4782.00   1.08114576   0.02802675
4784.00   1.03204989   0.02758293
4786.00   0.97008705   0.02716870
4788.00   0.97694337   0.02720552
4790.00   1.00456023   0.02729708
4792.00   1.12102413   0.02769199
4794.00   1.01287925   0.02742307
4796.00   1.00178373   0.02729596
4798.00   1.05498683   0.02739186
4800.00   1.05092740   0.02732085
4802.00   0.98334533   0.02719493
4804.00   1.04376185   0.02732070
4806.00   1.03561461   0.02728866
4808.00   1.00106907   0.02714268
4810.00   1.08344865   0.02737985
4812.00   1.07055140   0.02741469
4814.00   1.05022025   0.02745058
4816.00   0.99117625   0.02723652
4818.00   1.04724205   0.02747748
4820.00   0.99024737   0.02729658
4822.00   1.02266836   0.02736337
4824.00   1.06945598   0.02730106
4826.00   1.11134827   0.02751305
4828.00   1.10701251   0.02731995
4830.00   1.01765192   0.02722259
4832.00   1.04167819   0.02725580
4834.00   1.04587042   0.02728809
4836.00   1.10790086   0.02750362
4838.00   1.12886894   0.02744077
4840.00   1.02649868   0.02705195
4842.00   1.03267515   0.02695975
4844.00   1.04891932   0.02699429
4846.00   1.06076252   0.02705636
4848.00   1.07254791   0.02706019
4850.00   1.04999411   0.02698307
4852.00   1.04032230   0.02685307
4854.00   1.05641377   0.02657307
4856.00   1.00878906   0.02608822
4858.00   1.04434621   0.02567828
4860.00   1.04490614   0.02508928
4862.00   1.00476694   0.02501609
4864.00   1.02556598   0.02553594
4866.00   0.99062288   0.02594248
4868.00   1.01594973   0.02610236
4870.00   0.96243232   0.02589951
4872.00   0.98208970   0.02586725
4874.00   1.03398192   0.02609715
4876.00   0.97462791   0.02612826
4878.00   0.99792981   0.02625387
4880.00   1.02242076   0.02632883
4882.00   1.04658973   0.02615958
4884.00   1.02747679   0.02595273
4886.00   1.02409482   0.02574780
4888.00   1.11583972   0.02579076
4890.00   1.07514262   0.02563400
4892.00   1.07547832   0.02590086
4894.00   1.07648945   0.02622939
4896.00   1.14545166   0.02673126
4898.00   1.10772800   0.02669886
4900.00   1.08342719   0.02663887
4902.00   1.16826272   0.02679017
4904.00   1.16416764   0.02673246
4906.00   1.15074813   0.02673557
4908.00   1.15621746   0.02666286
4910.00   1.10086393   0.02643980
4912.00   1.13041806   0.02660043
4914.00   1.19589198   0.02698406
4916.00   1.18860698   0.02675923
4918.00   1.24123824   0.02654246
4920.00   1.24666333   0.02627215
4922.00   1.28807724   0.02651058
4924.00   1.22962964   0.02664952
4926.00   1.28875148   0.02694323
4928.00   1.26467741   0.02699495
4930.00   1.31937826   0.02710200
4932.00   1.29772568   0.02680757
4934.00   1.34202635   0.02688905
4936.00   1.37558544   0.02672589
4938.00   1.48301721   0.02692916
4940.00   1.44298530   0.02698425
4942.00   1.40034556   0.02706115
4944.00   1.43899810   0.02715611
4946.00   1.48020566   0.02730340
4948.00   1.45416546   0.02718184
4950.00   1.49695420   0.02737322
4952.00   1.55864656   0.02774392
4954.00   1.51898932   0.02749068
4956.00   1.50643086   0.02709216
4958.00   1.50891411   0.02706646
4960.00   1.52310693   0.02727949
4962.00   1.56440008   0.02749023
4964.00   1.69208586   0.02783360
4966.00   1.59052515   0.02753409
4968.00   1.58559728   0.02754137
4970.00   1.54610550   0.02753856
4972.00   1.55016041   0.02777422
4974.00   1.63286042   0.02808521
4976.00   1.60574007   0.02810216
4978.00   1.60588253   0.02824360
4980.00   1.57637441   0.02819431
4982.00   1.54754686   0.02789964
4984.00   1.59354186   0.02799257
4986.00   1.57794464   0.02792074
4988.00   1.48440194   0.02770444
4990.00   1.48873270   0.02762147
4992.00   1.50394452   0.02741027
4994.00   1.48812211   0.02729952
4996.00   1.41474807   0.02687102
4998.00   1.44127202   0.02663727
5000.00   1.42015648   0.02644494
5002.00   1.39201176   0.02615767
5004.00   1.28358150   0.02566469
5006.00   1.31530845   0.02551891
5008.00   1.21665597   0.02539069
5010.00   1.24557126   0.02540836
5012.00   1.23233819   0.02514852
5014.00   1.19441473   0.02501160
5016.00   1.19054461   0.02510097
5018.00   1.16096914   0.02495187
5020.00   1.19771802   0.02509342
5022.00   1.20175898   0.02504588
5024.00   1.16899824   0.02495228
5026.00   1.13407362   0.02469365
5028.00   1.18755949   0.02494369
5030.00   1.13803673   0.02499558
5032.00   1.09775162   0.02493934
5034.00   1.09574354   0.02473242
5036.00   1.08627760   0.02440201
5038.00   1.07309818   0.02421013
5040.00   1.13142371   0.02421964
5042.00   1.12982631   0.02420880
5044.00   1.10169470   0.02449821
5046.00   1.05641139   0.02427923
5048.00   1.08262384   0.02440181
5050.00   1.11075211   0.02432920
5052.00   1.05839467   0.02442970
5054.00   1.06236029   0.02443031
5056.00   1.04410374   0.02443558
5058.00   1.05777967   0.02456913
5060.00   1.00057900   0.02443780
5062.00   1.03669345   0.02458557
5064.00   1.05462348   0.02461160
5066.00   1.02080715   0.02454164
5068.00   1.03844512   0.02469888
5070.00   1.01254535   0.02478287
5072.00   1.04501319   0.02469724
5074.00   0.99820554   0.02456986
5076.00   1.06584096   0.02474553
5078.00   1.07205820   0.02467164
5080.00   1.11409724   0.02513924
5082.00   1.07776999   0.02570177
5084.00   1.00383854   0.02604217
5086.00   1.07195544   0.02628908
5088.00   1.03841209   0.02586119
5090.00   1.04344141   0.02544641
5092.00   1.08961964   0.02513563
5094.00   1.04744697   0.02493530
5096.00   1.05929339   0.02495454
5098.00   1.05126476   0.02487547
5100.00   1.11058736   0.02504686
5102.00   1.07622397   0.02498372
5104.00   1.07113826   0.02485833
5106.00   1.16860509   0.02499233
5108.00   1.07166791   0.02464491
5110.00   1.08415055   0.02477881
5112.00   1.11514914   0.02503731
5114.00   1.08991694   0.02510968
5116.00   1.09571838   0.02517068
5118.00   1.14714241   0.02530721
5120.00   1.12168872   0.02507675
5122.00   1.12627637   0.02503276
5124.00   1.07390821   0.02470020
5126.00   1.11412835   0.02470552
5128.00   1.17778122   0.02483687
5130.00   1.14342284   0.02477444
5132.00   1.11946666   0.02482689
5134.00   1.12551606   0.02500015
5136.00   1.08374894   0.02489708
5138.00   1.13900101   0.02490439
5140.00   1.15201139   0.02484719
5142.00   1.13646019   0.02485171
5144.00   1.23618639   0.02511025
5146.00   1.22712374   0.02517090
5148.00   1.20559824   0.02523877
5150.00   1.17188621   0.02535024
5152.00   1.16899192   0.02560221
5154.00   1.15885139   0.02557810
5156.00   1.13131082   0.02549397
5158.00   1.14608335   0.02560158
5160.00   1.16238058   0.02535976
5162.00   1.18886876   0.02532138
5164.00   1.17706704   0.02495824
5166.00   1.17963612   0.02448767
5168.00   1.15983129   0.02431891
5170.00   1.18813074   0.02432091
5172.00   1.17759943   0.02424368
5174.00   1.13892448   0.02455626
5176.00   1.18569553   0.02507517
5178.00   1.24555087   0.02551991
5180.00   1.22096837   0.02532439
5182.00   1.21634877   0.02492803
5184.00   1.21129620   0.02466192
5186.00   1.24940550   0.02507348
5188.00   1.31772208   0.02529647
5190.00   1.25501561   0.02531503
5192.00   1.20990026   0.02515821
5194.00   1.23653519   0.02552403
5196.00   1.25181723   0.02592014
5198.00   1.24098980   0.02633874
5200.00   1.34885442   0.02684619
5202.00   1.28611016   0.02645497
5204.00   1.29084516   0.02622349
5206.00   1.34797645   0.02625109
5208.00   1.36065376   0.02624865
5210.00   1.31196845   0.02632418
5212.00   1.29766870   0.02648333
5214.00   1.32566166   0.02655044
5216.00   1.35295939   0.02670601
5218.00   1.36294699   0.02685373
5220.00   1.38552070   0.02700990
5222.00   1.39022171   0.02700257
5224.00   1.36609352   0.02673832
5226.00   1.34901106   0.02653423
5228.00   1.41618633   0.02667775
5230.00   1.47007263   0.02693354
5232.00   1.38207603   0.02682298
5234.00   1.36341619   0.02694579
5236.00   1.41677499   0.02732319
5238.00   1.38695753   0.02733722
5240.00   1.50485981   0.02794258
5242.00   1.54966068   0.02792440
5244.00   1.55501831   0.02790366
5246.00   1.59892416   0.02805404
5248.00   1.55904841   0.02778090
5250.00   1.57634282   0.02790465
5252.00   1.53350711   0.02781287
5254.00   1.58050966   0.02794494
5256.00   1.57564461   0.02826306
5258.00   1.64093983   0.02869056
5260.00   1.60340929   0.02855616
5262.00   1.59425688   0.02827378
5264.00   1.67462528   0.02824677
5266.00   1.62141502   0.02814542
5268.00   1.64179063   0.02797769
5270.00   1.68595207   0.02804440
5272.00   1.69214261   0.02839944
5274.00   1.67651165   0.02855530
5276.00   1.69721794   0.02873626
5278.00   1.69387484   0.02893937
5280.00   1.72898459   0.02904354
5282.00   1.76189375   0.02913646
5284.00   1.71419775   0.02900175
5286.00   1.76342762   0.02929132
5288.00   1.71571660   0.02925033
5290.00   1.81287014   0.02965603
5292.00   1.73678052   0.02941717
5294.00   1.81831288   0.02968836
5296.00   1.81749821   0.02984437
5298.00   1.80358720   0.02979123
5300.00   1.82759094   0.02999670
5302.00   1.87793899   0.03017583
5304.00   1.88597894   0.03047225
5306.00   1.91378689   0.03065781
5308.00   1.91430092   0.03066322
5310.00   1.87045574   0.03084736
5312.00   1.85406029   0.03084114
5314.00   1.93359303   0.03100759
5316.00   1.91012824   0.03095342
5318.00   2.00488782   0.03131667
5320.00   1.96126842   0.03130641
5322.00   1.97844541   0.03145838
5324.00   2.01751828   0.03138254
5326.00   2.03331566   0.03147269
5328.00   2.04899025   0.03159112
5330.00   2.00935769   0.03180801
5332.00   2.03241396   0.03193253
5334.00   2.02431607   0.03208982
5336.00   2.01292133   0.03220707
5338.00   2.06094122   0.03248202
5340.00   2.06876326   0.03262391
5342.00   2.01494932   0.03262987
5344.00   2.04504919   0.03271139
5346.00   2.00719929   0.03280359
5348.00   2.05837941   0.03312513
5350.00   2.03199577   0.03312312
5352.00   2.00736070   0.03304451
5354.00   1.99872887   0.03345410
5356.00   2.01637459   0.03372711
5358.00   2.12205672   0.03400476
5360.00   2.03040719   0.03360852
5362.00   2.07540703   0.03376769
5364.00   2.10604739   0.03364603
5366.00   1.97566438   0.03319633
5368.00   1.94907546   0.03318533
5370.00   2.07875609   0.03350011
5372.00   2.14897370   0.03389150
5374.00   2.03271890   0.03395991
5376.00   1.96835291   0.03405420
5378.00   2.07859349   0.03435204
5380.00   2.08181524   0.03436523
5382.00   2.05868912   0.03433539
5384.00   2.07223225   0.03464263
5386.00   2.09441519   0.03461113
5388.00   2.11997104   0.03481581
5390.00   2.13464713   0.03494968
5392.00   2.07710552   0.03505968
5394.00   2.07169461   0.03485903
5396.00   2.13825774   0.03500513
5398.00   2.14976668   0.03510931
5400.00   2.01740503   0.03469863
5402.00   2.02901387   0.03474284
5404.00   2.16884613   0.03524477
5406.00   2.15614057   0.03527048
5408.00   2.04942513   0.03521517
5410.00   2.12239194   0.03554447
5412.00   2.03902411   0.03539322
5414.00   2.09775138   0.03584315
5416.00   2.09894657   0.03569361
5418.00   2.13685751   0.03599242
5420.00   2.09238648   0.03599772
5422.00   2.05990696   0.03579180
5424.00   2.10039639   0.03609790
5426.00   2.08387208   0.03593666
5428.00   2.07546711   0.03593450
5430.00   2.03207660   0.03564639
5432.00   1.99142253   0.03554435
5434.00   2.03550792   0.03581681
5436.00   1.93708384   0.03581372
5438.00   2.01987362   0.03621497
5440.00   1.96188629   0.01768857
5442.00   1.98291099   0.01796689
5444.00   2.09572577   0.01860791
5446.00   2.11786938   0.01839050
5448.00   2.07165980   0.01644970
5450.00   2.00905657   0.01558702
5452.00   1.93164420   0.01804864
5454.00   1.84683633   0.02140159
5456.00   1.84698796   0.02147103
5458.00   1.96936786   0.01800158
5460.00   1.96712255   0.01763961
5462.00   1.87294710   0.01989598
5464.00   1.79956234   0.02083112
5466.00   1.76832736   0.01937525
5468.00   1.75531280   0.01700367
5470.00   1.74991560   0.01670230
5472.00   1.76249552   0.01817993
5474.00   1.76431704   0.01788609
5476.00   1.76109314   0.01566405
5478.00   1.76228273   0.01502498
5480.00   1.75621426   0.01716506
5482.00   1.76598811   0.01921614
5484.00   1.83308089   0.01890488
5486.00   1.96021926   0.01696506
5488.00   1.98377502   0.01585223
5490.00   1.92200100   0.01452091
5492.00   1.88399458   0.01377032
5494.00   1.85104191   0.01388790
5496.00   1.82772064   0.01413333
5498.00   1.82242417   0.01391775
5500.00   1.83099115   0.01351164
5502.00   1.84939849   0.01381161
5504.00   1.89521396   0.01476773
5506.00   1.91558802   0.01542031
5508.00   1.92347133   0.01605678
5510.00   1.91770113   0.01655179
5512.00   1.89174342   0.01691435
5514.00   1.85276961   0.01712846
5516.00   1.83080733   0.01692622
5518.00   1.80668867   0.01625878
5520.00   1.80913365   0.01558198
5522.00   1.84442568   0.01448670
5524.00   1.87120271   0.01363176
5526.00   1.87937260   0.01309293
5528.00   1.88214862   0.01293721
5530.00   1.89286661   0.01358903
5532.00   1.90294051   0.01526297
5534.00   1.92801332   0.01567387
5536.00   1.97501421   0.01530629
5538.00   2.00898600   0.01503753
5540.00   2.02862716   0.01492489
5542.00   2.04100919   0.01474862
5544.00   2.04933834   0.01428813
5546.00   2.05082583   0.01350907
5548.00   2.05670261   0.01327828
5550.00   2.07917142   0.01304352
5552.00   2.06867218   0.01371311
5554.00   2.01294804   0.01574954
5556.00   1.95972705   0.01727365
5558.00   1.93895197   0.01728040
5560.00   1.93525469   0.01638853
5562.00   1.95178390   0.01609492
5564.00   2.01756024   0.01610728
5566.00   2.03403878   0.01571722
5568.00   2.01828933   0.01400262
5570.00   1.98757708   0.01370524
5572.00   1.93247640   0.01666737
5574.00   1.86734045   0.02037278
5576.00   1.87144780   0.02144429
5578.00   1.96620655   0.02124657
5580.00   1.97136092   0.02081509
5582.00   1.90872955   0.01964631
5584.00   1.86762738   0.01810054
5586.00   1.87059081   0.01570348
5588.00   1.88642001   0.01283036
5590.00   1.87983811   0.01162265
5592.00   1.86457229   0.01224697
5594.00   1.84224880   0.01204267
5596.00   1.80218673   0.01158639
5598.00   1.77463126   0.01163913
5600.00   1.76201630   0.01230070
5602.00   1.75506532   0.01318424
5604.00   1.74923146   0.01416626
5606.00   1.75043464   0.01549245
5608.00   1.72544122   0.01521253
5610.00   1.66724980   0.01274752
5612.00   1.63184392   0.01157494
5614.00   1.61845577   0.01199325
5616.00   1.60712242   0.01255738
5618.00   1.58257973   0.01246461
5620.00   1.55235994   0.01213157
5622.00   1.54978907   0.01199305
5624.00   1.58755481   0.01199641
5626.00   1.58620179   0.01182927
5628.00   1.56289589   0.01142290
5630.00   1.52352512   0.01113651
5632.00   1.46373153   0.01121767
5634.00   1.38974512   0.01144633
5636.00   1.33152032   0.01126211
5638.00   1.27781379   0.01042337
5640.00   1.22927690   0.01049652
5642.00   1.17224324   0.01141274
5644.00   1.14456201   0.01199462
5646.00   1.16175365   0.01217266
5648.00   1.19952083   0.01209307
5650.00   1.22280180   0.01162585
5652.00   1.25472283   0.01046626
5654.00   1.25036108   0.01008975
5656.00   1.20676780   0.01032943
5658.00   1.17458272   0.01047213
5660.00   1.15261960   0.01057488
5662.00   1.13578200   0.01063005
5664.00   1.12637675   0.01052969
5666.00   1.12671065   0.01028697
5668.00   1.10710037   0.01018489
5670.00   1.06968415   0.01015207
5672.00   1.03833306   0.01012841
5674.00   1.00423908   0.01010479
5676.00   0.97892892   0.01012789
5678.00   0.97572428   0.01019367
5680.00   0.98785007   0.01030217
5682.00   0.97612578   0.01068118
5684.00   0.94402051   0.01155861
5686.00   0.92484349   0.01183094
5688.00   0.91436338   0.01168400
5690.00   0.90197784   0.01142908
5692.00   0.87979341   0.01111270
5694.00   0.85588843   0.01072204
5696.00   0.85424763   0.01051289
5698.00   0.88850719   0.01027320
5700.00   0.87627816   0.01046457
5702.00   0.82195610   0.01142710
5704.00   0.78267765   0.01173724
5706.00   0.77132845   0.01098269
5708.00   0.76885724   0.00977829
5710.00   0.75583476   0.00925977
5712.00   0.74314779   0.00909569
5714.00   0.71529883   0.00903429
5716.00   0.65686160   0.00941851
5718.00   0.62847185   0.00947617
5720.00   0.63549536   0.00903678
5722.00   0.65656894   0.00857387
5724.00   0.67719632   0.00861106
5726.00   0.70694011   0.00894466
5728.00   0.71733063   0.00935503
5730.00   0.70933944   0.01037311
5732.00   0.70939654   0.01046808
5734.00   0.71715146   0.00932445
5736.00   0.72246122   0.00825558
5738.00   0.71470588   0.00841898
5740.00   0.69954854   0.00926234
5742.00   0.71600962   0.01023678
5744.00   0.76840198   0.01214341
5746.00   0.79772961   0.01259178
5748.00   0.81962407   0.01200853
5750.00   0.83207774   0.01117792
5752.00   0.82885861   0.01012445
5754.00   0.81748390   0.00885771
5756.00   0.82417262   0.00869465
5758.00   0.84502655   0.00965263
5760.00   0.85833019   0.01012510
5762.00   0.87217611   0.01074283
5764.00   0.88210464   0.01108439
5766.00   0.88406372   0.01089574
5768.00   0.88508904   0.01065603
5770.00   0.89790249   0.01125638
5772.00   0.92068726   0.01261158
5774.00   0.93624526   0.01287171
5776.00   0.94617850   0.01249309
5778.00   0.96187526   0.01200351
5780.00   0.97871965   0.01123389
5782.00   1.00464141   0.01036938
5784.00   1.05312002   0.00960866
5786.00   1.12282491   0.00869985
5788.00   1.16704369   0.00932265
5790.00   1.20093393   0.01161320
5792.00   1.22531283   0.01269110
5794.00   1.23555946   0.01334928
5796.00   1.24253035   0.01343778
5798.00   1.25191283   0.01244002
5800.00   1.26072574   0.01040982
5802.00   1.27517509   0.01006136
5804.00   1.30178630   0.01108316
5806.00   1.31183851   0.01178537
5808.00   1.30114281   0.01303185
5810.00   1.30024445   0.01359383
5812.00   1.31711483   0.01285420
5814.00   1.34694397   0.01139370
5816.00   1.39715374   0.01103760
5818.00   1.48891413   0.01133921
5820.00   1.53226411   0.01170437
5822.00   1.52969432   0.01253507
5824.00   1.55090976   0.01309983
5826.00   1.62029946   0.01348125
5828.00   1.69667113   0.01357738
5830.00   1.72105861   0.01290567
5832.00   1.70710754   0.01111783
5834.00   1.70938611   0.01040808
5836.00   1.70196891   0.01045978
5838.00   1.71116054   0.01052897
5840.00   1.74528313   0.01070738
5842.00   1.78131044   0.01093346
5844.00   1.79759407   0.01108582
5846.00   1.80343759   0.01122747
5848.00   1.80456316   0.01129452
5850.00   1.78069723   0.01091174
5852.00   1.78997266   0.01133672
5854.00   1.84013474   0.01299741
5856.00   1.88659823   0.01400856
5858.00   1.90321887   0.01330339
5860.00   1.90426815   0.01140375
5862.00   1.90329993   0.01082770
5864.00   1.88758111   0.01082547
5866.00   1.88355172   0.01135599
5868.00   1.87720454   0.01314042
5870.00   1.88752913   0.01398111
5872.00   1.93066895   0.01304112
5874.00   1.98828387   0.01111936
5876.00   2.01094556   0.01058826
5878.00   2.02003360   0.01106513
5880.00   2.00472116   0.01115354
5882.00   1.95103586   0.01112634
5884.00   1.90804768   0.01140451
5886.00   1.87873268   0.01200575
5888.00   1.85931897   0.01283077
5890.00   1.85454690   0.01391088
5892.00   1.85892355   0.01542428
5894.00   1.89169526   0.01596609
5896.00   1.98282778   0.01618638
5898.00   2.02365518   0.01572644
5900.00   2.00134945   0.01398714
5902.00   1.96591997   0.01194339
5904.00   1.95765936   0.01121759
5906.00   1.95821190   0.01144763
5908.00   1.96625209   0.01118392
5910.00   1.99089420   0.01084128
5912.00   2.00463414   0.01062540
5914.00   2.01902223   0.01056548
5916.00   2.01827765   0.01051529
5918.00   1.98342204   0.01036888
5920.00   1.92612052   0.01018527
5922.00   1.91168296   0.01015537
5924.00   1.92567265   0.01034760
5926.00   1.93980622   0.01031703
5928.00   1.95704341   0.00961114
5930.00   1.98936069   0.00974337
5932.00   2.05086541   0.01144734
5934.00   2.12404442   0.01351623
5936.00   2.15939450   0.01453927
5938.00   2.19231892   0.01568604
5940.00   2.15802622   0.01519743
5942.00   2.02654052   0.01218563
5944.00   1.93938720   0.00985214
5946.00   1.92564690   0.00980676
5948.00   1.93451571   0.01057623
5950.00   1.91154182   0.01043186
5952.00   1.87421036   0.00994943
5954.00   1.84956431   0.00983087
5956.00   1.83021951   0.00998418
5958.00   1.81263542   0.01003999
5960.00   1.79640639   0.01001305
5962.00   1.78318763   0.00995285
5964.00   1.77288008   0.00986499
5966.00   1.76422095   0.00973492
5968.00   1.77241838   0.00968906
5970.00   1.80813301   0.00973027
5972.00   1.82139087   0.00971887
5974.00   1.82459998   0.00962640
5976.00   1.81061089   0.00958777
5978.00   1.76669848   0.00969573
5980.00   1.70125306   0.00989230
5982.00   1.66604829   0.01003093
5984.00   1.64507270   0.01027166
5986.00   1.63084841   0.01025566
5988.00   1.62890196   0.00982356
5990.00   1.62977588   0.00964991
5992.00   1.63519776   0.01014581
5994.00   1.64096630   0.01082451
5996.00   1.62653756   0.01077806
5998.00   1.58853972   0.01011780
6000.00   1.57065785   0.00976410
6002.00   1.56320691   0.00939196
6004.00   1.55603135   0.00914725
6006.00   1.55064201   0.00910118
6008.00   1.54407346   0.00914561
6010.00   1.52866507   0.00913127
6012.00   1.50601625   0.00912984
6014.00   1.48501730   0.00908387
6016.00   1.46347976   0.00898934
6018.00   1.43949020   0.00891162
6020.00   1.41156733   0.00884864
6022.00   1.38342988   0.00879088
6024.00   1.35869479   0.00872997
6026.00   1.33591020   0.00866592
6028.00   1.31220996   0.00864732
6030.00   1.28766060   0.00870469
6032.00   1.26509821   0.00869014
6034.00   1.23836815   0.00859291
6036.00   1.22133815   0.00850932
6038.00   1.22738934   0.00842975
6040.00   1.24774230   0.00837310
6042.00   1.24239993   0.00873018
6044.00   1.22392213   0.00948926
6046.00   1.19761920   0.01007590
6048.00   1.14662492   0.01093688
6050.00   1.11243582   0.01129335
6052.00   1.10817659   0.01066733
6054.00   1.12215006   0.00959622
6056.00   1.14601970   0.00977292
6058.00   1.21004927   0.01127505
6060.00   1.20634961   0.01116823
6062.00   1.13491559   0.00955419
6064.00   1.08989406   0.00851707
6066.00   1.08823645   0.00879893
6068.00   1.09775114   0.00943330
6070.00   1.08641720   0.00944455
6072.00   1.06606066   0.00914116
6074.00   1.04522347   0.00914620
6076.00   1.00802588   0.00934345
6078.00   0.99448931   0.00948270
6080.00   1.01211476   0.00966670
6082.00   1.03449786   0.00973033
6084.00   1.03766418   0.00944983
6086.00   1.03065217   0.00886059
6088.00   1.04276812   0.00855925
6090.00   1.08348727   0.00831063
6092.00   1.09121096   0.00827938
6094.00   1.06069708   0.00863509
6096.00   1.03545606   0.00887176
6098.00   1.04029524   0.00867870
6100.00   1.06022370   0.00824355
6102.00   1.07005203   0.00811415
6104.00   1.08225012   0.00799171
6106.00   1.08502948   0.00825531
6108.00   1.07618630   0.00876833
6110.00   1.07039905   0.00950862
6112.00   1.06925833   0.01079677
6114.00   1.07290840   0.01199310
6116.00   1.09142232   0.01170120
6118.00   1.13460922   0.00967415
6120.00   1.14728975   0.00878901
6122.00   1.13766766   0.00845764
6124.00   1.13049519   0.00824594
6126.00   1.12957203   0.00819294
6128.00   1.12731850   0.00825106
6130.00   1.11519003   0.00823875
6132.00   1.09152591   0.00823706
6134.00   1.08767784   0.00821389
6136.00   1.09756756   0.00815899
6138.00   1.10925901   0.00813432
6140.00   1.12468684   0.00810257
6142.00   1.14255106   0.00813234
6144.00   1.16297185   0.00830873
6146.00   1.18736899   0.00859836
6148.00   1.19452906   0.00878835
6150.00   1.18644321   0.00901942
6152.00   1.17953527   0.00907927
6154.00   1.16716683   0.00881984
6156.00   1.15759003   0.00872394
6158.00   1.15473390   0.00919964
6160.00   1.15649569   0.00991677
6162.00   1.16598547   0.00989524
6164.00   1.18822134   0.00914177
6166.00   1.20268261   0.00881081
6168.00   1.21943867   0.00861197
6170.00   1.22665322   0.00851057
6172.00   1.21763444   0.00858920
6174.00   1.20048749   0.00872152
6176.00   1.19176126   0.00851230
6178.00   1.18488431   0.00781007
6180.00   1.18083251   0.00777725
6182.00   1.17731118   0.00834941
6184.00   1.18009663   0.00869451
6186.00   1.19122291   0.00881112
6188.00   1.20660889   0.00878077
6190.00   1.22175181   0.00851339
6192.00   1.24008012   0.00786458
6194.00   1.25209582   0.00780669
6196.00   1.21568561   0.00790724
6198.00   1.26885927   0.00856392
6200.00   1.46448946   0.01013099
6202.00   1.64608741   0.01130111
6204.00   1.68432105   0.01129531
6206.00   1.63850212   0.01053890
6208.00   1.54423130   0.00982178
6210.00   1.30299234   0.00828433
6212.00   1.19255555   0.00751113
6214.00   1.18490493   0.00768323
6216.00   1.20572472   0.00796512
6218.00   1.22946119   0.00794773
6220.00   1.26927078   0.00788701
6222.00   1.29382086   0.00808342
6224.00   1.32203937   0.00863850
6226.00   1.32797706   0.00879993
6228.00   1.30488837   0.00874105
6230.00   1.29098535   0.00860553
6232.00   1.29524672   0.00831451
6234.00   1.30992806   0.00799673
6236.00   1.33549976   0.00813143
6238.00   1.39203131   0.00851071
6240.00   1.39500093   0.00917015
6242.00   1.34667611   0.01059202
6244.00   1.31544077   0.01111195
6246.00   1.30508816   0.01049932
6248.00   1.30577266   0.00942076
6250.00   1.31963241   0.00874530
6252.00   1.35653687   0.00807206
6254.00   1.34804535   0.00777827
6256.00   1.29051530   0.00791636
6258.00   1.26232076   0.00809691
6260.00   1.26307154   0.00843214
6262.00   1.27160144   0.00875377
6264.00   1.27460217   0.00885372
6266.00   1.27817297   0.00880623
6268.00   1.28727436   0.00921725
6270.00   1.31114650   0.01028188
6272.00   1.31466806   0.01056507
6274.00   1.29881465   0.01027210
6276.00   1.27987456   0.00976106
6278.00   1.26315570   0.00901429
6280.00   1.24613929   0.00801654
6282.00   1.23897064   0.00785101
6284.00   1.24556255   0.00869698
6286.00   1.24050438   0.00881668
6288.00   1.23325503   0.00849854
6290.00   1.21775758   0.00834091
6292.00   1.19022989   0.00852082
6294.00   1.15563965   0.00885818
6296.00   1.12393332   0.00920670
6298.00   1.08934879   0.00967250
6300.00   1.06004548   0.01000059
6302.00   1.02303135   0.01040652
6304.00   1.00884199   0.01051618
6306.00   1.02564120   0.01026585
6308.00   1.05583179   0.00980007
6310.00   1.08150780   0.00916989
6312.00   1.11480856   0.00801587
6314.00   1.12598205   0.00817289
6316.00   1.12563264   0.00986667
6318.00   1.11054170   0.01042716
6320.00   1.07137692   0.01000203
6322.00   1.03044462   0.00933875
6324.00   1.00501084   0.00895559
6326.00   0.98638451   0.00860822
6328.00   0.98088962   0.00840139
6330.00   1.00352263   0.00834739
6332.00   0.99900436   0.00833431
6334.00   0.96814346   0.00852942
6336.00   0.93912125   0.00857030
6338.00   0.92384666   0.00819273
6340.00   0.91518617   0.00755356
6342.00   0.91236794   0.00730045
6344.00   0.91765183   0.00733164
6346.00   0.92435288   0.00729953
6348.00   0.94223493   0.00733259
6350.00   0.94982719   0.00735649
6352.00   0.93804216   0.00732155
6354.00   0.91820598   0.00729590
6356.00   0.90906733   0.00741965
6358.00   0.90098387   0.00763642
6360.00   0.90420276   0.00792648
6362.00   0.92475867   0.00850885
6364.00   0.93584794   0.00872286
6366.00   0.93626344   0.00836519
6368.00   0.93001688   0.00790798
6370.00   0.91642743   0.00803520
6372.00   0.89157337   0.00857335
6374.00   0.88393688   0.00868898
6376.00   0.89268756   0.00866954
6378.00   0.89211935   0.00848738
6380.00   0.87896460   0.00794361
6382.00   0.86866182   0.00744677
6384.00   0.87352431   0.00747593
6386.00   0.88820428   0.00784902
6388.00   0.89859158   0.00784888
6390.00   0.91051704   0.00747001
6392.00   0.92062002   0.00751930
6394.00   0.93182719   0.00811901
6396.00   0.93856788   0.00846675
6398.00   0.93137521   0.00815138
6400.00   0.91890860   0.00745731
6402.00   0.94234556   0.00724539
6404.00   1.01732802   0.00735960
6406.00   1.04071164   0.00736772
6408.00   1.02694464   0.00737490
6410.00   1.01909053   0.00743936
6412.00   1.02845883   0.00754505
6414.00   1.04264140   0.00772079
6416.00   1.04911816   0.00809292
6418.00   1.04764938   0.00884157
6420.00   1.06069970   0.00884724
6422.00   1.08777380   0.00810433
6424.00   1.11007178   0.00762850
6426.00   1.12730861   0.00759393
6428.00   1.14141488   0.00768666
6430.00   1.15123069   0.00763434
6432.00   1.15546417   0.00752469
6434.00   1.16662490   0.00755599
6436.00   1.18414164   0.00770701
6438.00   1.19730008   0.00784083
6440.00   1.20279121   0.00795645
6442.00   1.21172190   0.00809980
6444.00   1.23410571   0.00824912
6446.00   1.26576221   0.00839687
6448.00   1.28848374   0.00894101
6450.00   1.31499636   0.01031793
6452.00   1.32415259   0.01046983
6454.00   1.31015289   0.00928473
6456.00   1.29994547   0.00822193
6458.00   1.30662775   0.00839609
6460.00   1.32124007   0.00910110
6462.00   1.33173180   0.00900400
6464.00   1.34507358   0.00815811
6466.00   1.35244274   0.00797904
6468.00   1.35469270   0.00833646
6470.00   1.35665667   0.00849710
6472.00   1.35619926   0.00824011
6474.00   1.35742521   0.00783787
6476.00   1.37304997   0.00770886
6478.00   1.40483975   0.00769623
6480.00   1.42265892   0.00781726
6482.00   1.43388700   0.00801309
6484.00   1.44416308   0.00841373
6486.00   1.45503306   0.00921941
6488.00   1.46287787   0.00991037
6490.00   1.46232927   0.00994187
6492.00   1.45271242   0.00950893
6494.00   1.45568311   0.00914046
6496.00   1.46190584   0.00843641
6498.00   1.47858107   0.00803214
6500.00   1.51433027   0.00788794
6502.00   1.54665196   0.00798080
6504.00   1.55548656   0.00831476
6506.00   1.54968119   0.00885848
6508.00   1.56084597   0.00953761
6510.00   1.59304798   0.01078835
6512.00   1.59799135   0.01112694
6514.00   1.57110608   0.01064318
6516.00   1.55242288   0.01013820
6518.00   1.56071913   0.00995320
6520.00   1.58280993   0.00990023
6522.00   1.60084808   0.01002884
6524.00   1.62963700   0.01057300
6526.00   1.64067483   0.01063974
6528.00   1.64104903   0.01043479
6530.00   1.63448679   0.01013407
6532.00   1.61755586   0.00963365
6534.00   1.59639120   0.00909497
6536.00   1.58650351   0.00910676
6538.00   1.58134687   0.00976738
6540.00   1.58298206   0.00961513
6542.00   1.59459376   0.00868392
6544.00   1.60492325   0.00809795
6546.00   1.61970913   0.00800843
6548.00   1.62828231   0.00815994
6550.00   1.61235321   0.00840900
6552.00   1.57377386   0.00885589
6554.00   1.55826247   0.00908871
6556.00   1.55403972   0.00938189
6558.00   1.55160022   0.00932883
6560.00   1.55298471   0.00871280
6562.00   1.55671310   0.00812652
6564.00   1.56312168   0.00812989
6566.00   1.57249999   0.00848108
6568.00   1.56929481   0.00875021
6570.00   1.55661976   0.00916595
6572.00   1.54168975   0.00943439
6574.00   1.52026343   0.00972166
6576.00   1.49896610   0.00979922
6578.00   1.48214734   0.00947695
6580.00   1.46621156   0.00889956
6582.00   1.44173849   0.00865189
6584.00   1.40353167   0.00865407
6586.00   1.38155925   0.00850460
6588.00   1.36727130   0.00826791
6590.00   1.35973036   0.00808792
6592.00   1.36253941   0.00798468
6594.00   1.36953211   0.00795045
6596.00   1.36697042   0.00803202
6598.00   1.36230552   0.00828968
6600.00   1.34611750   0.00834225
6602.00   1.31295204   0.00815644
6604.00   1.28755093   0.00818721
6606.00   1.26933014   0.00854082
6608.00   1.25677776   0.00892393
6610.00   1.25230765   0.00910008
6612.00   1.25662696   0.00922279
6614.00   1.25600386   0.00899019
6616.00   1.25715113   0.00810177
6618.00   1.25308275   0.00768356
6620.00   1.24325991   0.00770990
6622.00   1.23147416   0.00797018
6624.00   1.22126698   0.00844553
6626.00   1.21107602   0.00911732
6628.00   1.19114304   0.00929068
6630.00   1.16317201   0.00921876
6632.00   1.13254797   0.00894072
6634.00   1.09188950   0.00816529
6636.00   1.05703318   0.00750703
6638.00   1.03593445   0.00729898
6640.00   1.02245939   0.00739147
6642.00   1.00608516   0.00775057
6644.00   0.99223858   0.00869941
6646.00   0.97539949   0.00897336
6648.00   0.95636904   0.00895308
6650.00   0.93748891   0.00874264
6652.00   0.91884142   0.00819062
6654.00   0.90051848   0.00749404
6656.00   0.88316411   0.00728119
6658.00   0.86435938   0.00734893
6660.00   0.85434556   0.00766948
6662.00   0.85419220   0.00854969
6664.00   0.85129863   0.00896748
6666.00   0.84465927   0.00884710
6668.00   0.83791584   0.00859649
6670.00   0.83501917   0.00861998
6672.00   0.83617157   0.00878129
6674.00   0.82563895   0.00875131
6676.00   0.80744988   0.00870330
6678.00   0.78505677   0.00842682
6680.00   0.75186819   0.00766221
6682.00   0.72222316   0.00699143
6684.00   0.70887393   0.00706339
6686.00   0.70570868   0.00759647
6688.00   0.68982100   0.00766899
6690.00   0.66356796   0.00753891
6692.00   0.64507574   0.00742695
6694.00   0.63063687   0.00698031
6696.00   0.61858320   0.00697063
6698.00   0.60612190   0.00795374
6700.00   0.59636527   0.00920488
6702.00   0.60197461   0.00944692
6704.00   0.62933946   0.00908647
6706.00   0.63916963   0.00867587
6708.00   0.64564329   0.00768777
6710.00   0.64183795   0.00695408
6712.00   0.62161070   0.00682220
6714.00   0.59496540   0.00699130
6716.00   0.58083498   0.00709353
6718.00   0.57394242   0.00732270
6720.00   0.56334883   0.00742788
6722.00   0.54838622   0.00752255
6724.00   0.54116750   0.00751091
6726.00   0.54831254   0.00732923
6728.00   0.55427080   0.00711708
6730.00   0.54009795   0.00704732
6732.00   0.51055586   0.00706141
6734.00   0.49630246   0.00704405
6736.00   0.49092284   0.00706947
6738.00   0.48309731   0.00702365
6740.00   0.47774896   0.00669433
6742.00   0.46752292   0.00662453
6744.00   0.44220895   0.00728647
6746.00   0.40662929   0.00831942
6748.00   0.39940566   0.00888923
6750.00   0.42032820   0.00957837
6752.00   0.42628178   0.00959707
6754.00   0.42645630   0.00885022
6756.00   0.42430523   0.00804831
6758.00   0.42123905   0.00747271
6760.00   0.41601178   0.00699234
6762.00   0.40575600   0.00682705
6764.00   0.38924709   0.00714594
6766.00   0.37471005   0.00715674
6768.00   0.35590854   0.00706109
6770.00   0.34345853   0.00695813
6772.00   0.34041229   0.00683850
6774.00   0.34226489   0.00672588
6776.00   0.34317160   0.00671024
6778.00   0.34491563   0.00678730
6780.00   0.35023922   0.00680673
6782.00   0.36227280   0.00681239
6784.00   0.36913508   0.00681395
6786.00   0.37165228   0.00681179
6788.00   0.36983725   0.00680365
6790.00   0.36016932   0.00678525
6792.00   0.34109858   0.00675445
6794.00   0.34018773   0.00674625
6796.00   0.35824007   0.00673832
6798.00   0.36435905   0.00676488
6800.00   0.36030996   0.00683864
6802.00   0.35423577   0.00691380
6804.00   0.34905687   0.00696347
6806.00   0.34320256   0.00700213
6808.00   0.34580791   0.00702877
6810.00   0.36294135   0.00704013
6812.00   0.36423606   0.00704879
6814.00   0.35550082   0.00707030
6816.00   0.34122798   0.00705576
6818.00   0.31782812   0.00695670
6820.00   0.29061973   0.00682220
6822.00   0.28461114   0.00681737
6824.00   0.29561713   0.00688701
6826.00   0.30509400   0.00701135
6828.00   0.32256120   0.00730825
6830.00   0.33683300   0.00744739
6832.00   0.34614119   0.00732243
6834.00   0.35285115   0.00711086
6836.00   0.35823846   0.00709224
6838.00   0.36175737   0.00720914
6840.00   0.36357275   0.00719571
6842.00   0.36189827   0.00711386
6844.00   0.36191836   0.00702588
6846.00   0.36473143   0.00688728
6848.00   0.36715707   0.00678091
6850.00   0.36542156   0.00682691
6852.00   0.36010185   0.00699377
6854.00   0.36153209   0.00706605
6856.00   0.37052217   0.00705362
6858.00   0.37382919   0.00715201
6860.00   0.37246627   0.00742168
6862.00   0.36947048   0.00762153
6864.00   0.36608598   0.00759867
6866.00   0.36165902   0.00743768
6868.00   0.35768968   0.00732416
6870.00   0.35029501   0.00720619
6872.00   0.35054970   0.00703757
6874.00   0.36089170   0.00675421
6876.00   0.36755672   0.00654162
6878.00   0.36270207   0.00648909
6880.00   0.35385129   0.00653410
6882.00   0.35841990   0.00659146
6884.00   0.37375373   0.00676006
6886.00   0.38571179   0.00678534
6888.00   0.40144747   0.00648237
6890.00   0.41272923   0.00659270
6892.00   0.41924956   0.00748963
6894.00   0.42108029   0.00837890
6896.00   0.41484842   0.00833502
6898.00   0.39665440   0.00755257
6900.00   0.39359573   0.00711912
6902.00   0.39795691   0.00657341
6904.00   0.40737036   0.00628017
6906.00   0.42644385   0.00636429
6908.00   0.44568193   0.00656751
6910.00   0.45361471   0.00655639
6912.00   0.45401484   0.00635466
6914.00   0.46058318   0.00716350
6916.00   0.47472408   0.00921013
6918.00   0.47775424   0.00978602
6920.00   0.46904683   0.00920586
6922.00   0.45809785   0.00834040
6924.00   0.44622231   0.00758962
6926.00   0.43291441   0.00671068
6928.00   0.44620264   0.00677540
6930.00   0.50070119   0.00811075
6932.00   0.51582670   0.00837213
6934.00   0.49961400   0.00797492
6936.00   0.48523280   0.00755257
6938.00   0.48298919   0.00730669
6940.00   0.48535129   0.00711757
6942.00   0.49019405   0.00705306
6944.00   0.49985787   0.00714573
6946.00   0.50854224   0.00719748
6948.00   0.52012497   0.00726620
6950.00   0.52855361   0.00735483
6952.00   0.53418142   0.00751305
6954.00   0.53607905   0.00764762
6956.00   0.53020173   0.00758555
6958.00   0.51516151   0.00734340
6960.00   0.50692248   0.00718995
6962.00   0.50152773   0.00682212
6964.00   0.49577233   0.00689775
6966.00   0.48756027   0.00767149
6968.00   0.48203242   0.00836024
6970.00   0.48389864   0.00835540
6972.00   0.49069905   0.00790405
6974.00   0.50569063   0.00768400
6976.00   0.53726685   0.00744849
6978.00   0.55548376   0.00727214
6980.00   0.56129944   0.00694842
6982.00   0.56555945   0.00695936
6984.00   0.57671726   0.00780412
6986.00   0.58994615   0.00901618
6988.00   0.58381170   0.00916111
6990.00   0.55751187   0.00834115
6992.00   0.53855187   0.00809057
6994.00   0.51639283   0.00819567
6996.00   0.50010544   0.00822681
6998.00   0.49361038   0.00803266
7000.00   0.49339056   0.00773261
7002.00   0.49428922   0.00747138
7004.00   0.49941751   0.00710523
7006.00   0.50429559   0.00696664
7008.00   0.51098001   0.00706958
7010.00   0.51745999   0.00712188
7012.00   0.52206534   0.00707234
7014.00   0.52779233   0.00700606
7016.00   0.54029870   0.00700843
7018.00   0.56062102   0.00706714
7020.00   0.57071465   0.00706154
7022.00   0.57751149   0.00676649
7024.00   0.57727474   0.00697484
7026.00   0.56580848   0.00779374
7028.00   0.55301690   0.00865344
7030.00   0.55010128   0.00928728
7032.00   0.55360246   0.00992480
7034.00   0.54539090   0.00979861
7036.00   0.52541327   0.00870864
7038.00   0.51290041   0.00798372
7040.00   0.50161648   0.00742163
7042.00   0.49811316   0.00703744
7044.00   0.50952595   0.00696180
7046.00   0.53158045   0.00714332
7048.00   0.54391432   0.00714193
7050.00   0.55688697   0.00681335
7052.00   0.55986345   0.00714744
7054.00   0.55179971   0.00827126
7056.00   0.54293334   0.00892288
7058.00   0.53303993   0.00874122
7060.00   0.52432388   0.00817468
7062.00   0.53230035   0.00804258
7064.00   0.56730932   0.00790127
7066.00   0.56695700   0.00831504
7068.00   0.53043193   0.00963034
7070.00   0.51384676   0.01013790
7072.00   0.52884603   0.00955994
7074.00   0.55520594   0.00850915
7076.00   0.57142371   0.00782630
7078.00   0.58538872   0.00693371
7080.00   0.60226202   0.00723345
7082.00   0.62801325   0.00905605
7084.00   0.63966751   0.00971179
7086.00   0.63555765   0.00933012
7088.00   0.62425178   0.00861210
7090.00   0.61041844   0.00804180
7092.00   0.59028333   0.00731534
7094.00   0.58250111   0.00713840
7096.00   0.58302242   0.00762262
7098.00   0.58499604   0.00778460
7100.00   0.58936334   0.00778437
7102.00   0.59700334   0.00771315
7104.00   0.61032742   0.00751156
7106.00   0.62763911   0.00721726
7108.00   0.63452530   0.00742990
7110.00   0.63390267   0.00808060
7112.00   0.63296765   0.00858591
7114.00   0.62451470   0.00935675
7116.00   0.62270355   0.00969543
7118.00   0.63496244   0.00929761
7120.00   0.65335566   0.00848125
7122.00   0.66167343   0.00804084
7124.00   0.66592854   0.00765738
7126.00   0.66655725   0.00750247
7128.00   0.66229588   0.00748659
7130.00   0.65638542   0.00776516
7132.00   0.64609271   0.00857775
7134.00   0.63659728   0.00934797
7136.00   0.63774145   0.00935073
7138.00   0.64714265   0.00879288
7140.00   0.65529877   0.00837268
7142.00   0.67411107   0.00764838
7144.00   0.67664057   0.00721502
7146.00   0.65508461   0.00704511
7148.00   0.63281351   0.00718310
7150.00   0.63030034   0.00781323
7152.00   0.63850719   0.00884619
7154.00   0.65156370   0.00906548
7156.00   0.68109149   0.00875783
7158.00   0.69630980   0.00847563
7160.00   0.69818956   0.00787562
7162.00   0.69909149   0.00749844
7164.00   0.70421273   0.00782144
7166.00   0.71080101   0.00852928
7168.00   0.72321856   0.00890383
7170.00   0.74867558   0.00942507
7172.00   0.75799525   0.00939532
7174.00   0.75415170   0.00875225
7176.00   0.75033325   0.00812639
7178.00   0.75010502   0.00771322
7180.00   0.75059617   0.00740950
7182.00   0.75091100   0.00731561
7184.00   0.75112998   0.00753156
7186.00   0.75228322   0.00755961
7188.00   0.75282156   0.00750870
7190.00   0.75629753   0.00750159
7192.00   0.76784652   0.00757527
7194.00   0.77772647   0.00765894
7196.00   0.76872551   0.00765740
7198.00   0.74072760   0.00757668
7200.00   0.73591113   0.00761315
7202.00   0.74632430   0.00779666
7204.00   0.75539345   0.00784299
7206.00   0.76246226   0.00773061
7208.00   0.77296686   0.00757724
7210.00   0.79262203   0.00746053
7212.00   0.82030362   0.00733365
7214.00   0.83558065   0.00733856
7216.00   0.84536922   0.00749222
7218.00   0.84941012   0.00758841
7220.00   0.84569174   0.00766277
7222.00   0.83934182   0.00773039
7224.00   0.83338398   0.00780522
7226.00   0.82601666   0.00787675
7228.00   0.81467402   0.00787653
7230.00   0.79454422   0.00776136
7232.00   0.78474545   0.00775711
7234.00   0.78191936   0.00771161
7236.00   0.78100771   0.00786897
7238.00   0.77649295   0.00823302
7240.00   0.77567667   0.00879421
7242.00   0.79857475   0.00973138
7244.00   0.85061085   0.01142726
7246.00   0.87915778   0.01163835
7248.00   0.90409684   0.01075091
7250.00   0.91425884   0.00981364
7252.00   0.90109819   0.00870297
7254.00   0.88111359   0.00756709
7256.00   0.87813163   0.00723650
7258.00   0.88312060   0.00770777
7260.00   0.89069194   0.00772016
7262.00   0.90669370   0.00758089
7264.00   0.91853732   0.00758007
7266.00   0.92825007   0.00773838
7268.00   0.93446964   0.00793138
7270.00   0.93289810   0.00808984
7272.00   0.92401689   0.00825702
7274.00   0.92978323   0.00829005
7276.00   0.94924498   0.00816433
7278.00   0.96186948   0.00811801
7280.00   0.97819847   0.00812429
7282.00   0.98228866   0.00813137
7284.00   0.95889270   0.00813558
7286.00   0.91869086   0.00813404
7288.00   0.90596598   0.00801468
7290.00   0.91096103   0.00751191
7292.00   0.91355395   0.00762991
7294.00   0.92118752   0.00835867
7296.00   0.92881685   0.00888972
7298.00   0.93333012   0.00912632
7300.00   0.93854064   0.00917809
7302.00   0.95329547   0.00889589
7304.00   0.98271501   0.00797633
7306.00   0.99195600   0.00773728
7308.00   0.98255801   0.00800698
7310.00   0.98077959   0.00822661
7312.00   0.99308735   0.00841302
7314.00   1.00638962   0.00855465
7316.00   1.00575376   0.00852379
7318.00   0.99701315   0.00834196
7320.00   0.98278630   0.00820548
7322.00   0.95126420   0.00800751
7324.00   0.93597388   0.00787834
7326.00   0.93977869   0.00780978
7328.00   0.94729078   0.00779369
7330.00   0.94618082   0.00783562
7332.00   0.94150937   0.00793508
7334.00   0.94566721   0.00804645
7336.00   0.95422381   0.00822606
7338.00   0.96801841   0.00833683
7340.00   0.99623430   0.00842679
7342.00   1.01539075   0.00845215
7344.00   1.01207352   0.00837228
7346.00   0.99471325   0.00821411
7348.00   0.97659802   0.00808536
7350.00   0.94102478   0.00788884
7352.00   0.92812115   0.00781949
7354.00   0.93473953   0.00788635
7356.00   0.93879640   0.00792343
7358.00   0.93282986   0.00777842
7360.00   0.92477381   0.00765653
7362.00   0.92492008   0.00807954
7364.00   0.92689359   0.00906154
7366.00   0.94077790   0.00944874
7368.00   0.97312003   0.00965231
7370.00   0.99599719   0.00963528
7372.00   1.00611663   0.00912086
7374.00   1.01085472   0.00861614
7376.00   1.01656163   0.00910227
7378.00   1.02218401   0.01039139
7380.00   1.01745331   0.01054923
7382.00   1.00422847   0.00998461
7384.00   0.98688990   0.00946583
7386.00   0.96192008   0.00875301
7388.00   0.93608737   0.00813302
7390.00   0.91533321   0.00807836
7392.00   0.89679235   0.00844992
7394.00   0.88074082   0.00839793
7396.00   0.86042470   0.00794497
7398.00   0.85726899   0.00792843
7400.00   0.87442338   0.00820464
7402.00   0.89255077   0.00867911
7404.00   0.90543228   0.00950088
7406.00   0.91584677   0.01043326
7408.00   0.90884960   0.01041263
7410.00   0.87485975   0.00929112
7412.00   0.86412793   0.00887728
7414.00   0.86877614   0.00870695
7416.00   0.87130427   0.00875492
7418.00   0.86368370   0.00923878
7420.00   0.85577822   0.00977606
7422.00   0.86648077   0.00944166
7424.00   0.89879102   0.00802859
7426.00   0.90916431   0.00761556
7428.00   0.90340561   0.00796223
7430.00   0.90342635   0.00816463
7432.00   0.91895211   0.00819367
7434.00   0.92977333   0.00817005
7436.00   0.90677530   0.00810286
7438.00   0.85226655   0.00796153
7440.00   0.83166790   0.00791054
7442.00   0.81953496   0.00790670
7444.00   0.82950169   0.00792405
7446.00   0.87344080   0.00791712
7448.00   0.92021596   0.00799705
7450.00   0.94413334   0.00821828
7452.00   0.95707583   0.00852934
7454.00   0.96909469   0.00917007
7456.00   0.98451245   0.01050858
7458.00   0.97842330   0.01087445
7460.00   0.95051849   0.01044101
7462.00   0.91515166   0.00986375
7464.00   0.87081242   0.00933605
7466.00   0.82132870   0.00877300
7468.00   0.81240493   0.00886538
7470.00   0.85033947   0.01002946
7472.00   0.85846883   0.00998692
7474.00   0.85099941   0.00889518
7476.00   0.84947115   0.00802330
7478.00   0.86113358   0.00793343
7480.00   0.87760025   0.00816819
7482.00   0.88708907   0.00816648
7484.00   0.89288235   0.00810624
7486.00   0.90050012   0.00815677
7488.00   0.91551036   0.00835184
7490.00   0.91672134   0.00843586
7492.00   0.89929104   0.00837689
7494.00   0.87409937   0.00825852
7496.00   0.85242230   0.00815459
7498.00   0.82871735   0.00802707
7500.00   0.80792832   0.00791401
7502.00   0.78526938   0.00766200
7504.00   0.77057958   0.00770637
7506.00   0.75410485   0.00801665
7508.00   0.75527716   0.00849871
7510.00   0.79636556   0.00925275
7512.00   0.86925429   0.01022341
7514.00   0.91666526   0.01015326
7516.00   0.96413147   0.00884226
7518.00   0.99196434   0.00826554
7520.00   0.99893832   0.00825949
7522.00   0.99915630   0.00835530
7524.00   1.00052154   0.00838779
7526.00   0.99742538   0.00845028
7528.00   0.97781634   0.00846433
7530.00   0.93103093   0.00847092
7532.00   0.90780210   0.00842783
7534.00   0.89856857   0.00823509
7536.00   0.88898057   0.00819822
7538.00   0.87534952   0.00828826
7540.00   0.86165440   0.00859028
7542.00   0.85168350   0.00947539
7544.00   0.84557486   0.01112323
7546.00   0.83626658   0.01150160
7548.00   0.83355790   0.01120441
7550.00   0.81512988   0.01063158
7552.00   0.77037460   0.00941795
7554.00   0.72220147   0.00800436
7556.00   0.70008630   0.00756126
7558.00   0.69600219   0.00790410
7560.00   0.67786056   0.00804247
7562.00   0.64692372   0.00823675
7564.00   0.63127929   0.00864267
7566.00   0.62581688   0.00959188
7568.00   0.63340300   0.01016032
7570.00   0.66122323   0.00958011
7572.00   0.70704579   0.00801935
7574.00   0.73993289   0.00750971
7576.00   0.78082556   0.00783012
7578.00   0.79600000   0.00784934
7580.00   0.78219342   0.00774120
7582.00   0.76699752   0.00771347
7584.00   0.76269639   0.00772157
7586.00   0.76128805   0.00784537
7588.00   0.75631219   0.00871216
7590.00   0.74697131   0.01044771
7592.00   0.74389213   0.01124024
7594.00   0.74892652   0.01123458
7596.00   0.74832439   0.01185994
7598.00   0.73961848   0.01366950
7600.00   0.72507298   0.01551944
7602.00   0.70490074   0.01609639
7604.00   0.68280685   0.01620261
7606.00   0.64189738   0.01528566
7608.00   0.55603325   0.01221369
7610.00   0.51724297   0.00966086
7612.00   0.53482419   0.00839510
7614.00   0.58228946   0.00805021
7616.00   0.64470702   0.00842918
7618.00   0.74081838   0.00986908
7620.00   0.78210455   0.01006415
7622.00   0.79388541   0.00940488
7624.00   0.78645980   0.00915323
7626.00   0.74576813   0.00933876
7628.00   0.70112687   0.00951954
7630.00   0.67816484   0.00940680
7632.00   0.66517025   0.00912875
7634.00   0.63449383   0.00900667
7636.00   0.58165151   0.00866876
7638.00   0.55186760   0.00897561
7640.00   0.53791213   0.01033827
7642.00   0.53194571   0.01099207
7644.00   0.53172630   0.01010692
7646.00   0.53845459   0.00816559
7648.00   0.54984665   0.00731571
7650.00   0.56434196   0.00723089
7652.00   0.59012425   0.00706232
7654.00   0.63257796   0.00723717
7656.00   0.67009717   0.00732574
7658.00   0.70238525   0.00717289
7660.00   0.72735578   0.00698562
7662.00   0.73161107   0.00708224
7664.00   0.72006422   0.00721915
7666.00   0.69429034   0.00788940
7668.00   0.63681638   0.00949898
7670.00   0.59765244   0.01003246
7672.00   0.57961726   0.00927350
7674.00   0.57217222   0.00806306
7676.00   0.56900352   0.00753087
7678.00   0.57292670   0.00729712
7680.00   0.58338153   0.00718440
7682.00   0.60647833   0.00740813
7684.00   0.62381220   0.00752020
7686.00   0.63287878   0.00755666
7688.00   0.64590460   0.00759441
7690.00   0.67440605   0.00768123
7692.00   0.71351731   0.00779535
7694.00   0.73362398   0.00782623
7696.00   0.73143375   0.00736935
7698.00   0.75068259   0.00786472
7700.00   0.80066073   0.00931920
7702.00   0.83131361   0.01042034
7704.00   0.81615680   0.01096817
7706.00   0.77553356   0.01121172
7708.00   0.75003457   0.01088605
7710.00   0.71875018   0.00949743
7712.00   0.70281166   0.00884343
7714.00   0.69875878   0.00858240
7716.00   0.69880164   0.00838829
7718.00   0.70524061   0.00809542
7720.00   0.71335405   0.00794829
7722.00   0.70841414   0.00839999
7724.00   0.68827122   0.00942661
7726.00   0.68975961   0.00996850
7728.00   0.71389329   0.01044862
7730.00   0.72396368   0.01069927
7732.00   0.70851052   0.01078122
7734.00   0.69515979   0.01062447
7736.00   0.71554244   0.01001215
7738.00   0.76022083   0.00878049
7740.00   0.79528832   0.00818864
7742.00   0.83797097   0.00800416
7744.00   0.86898571   0.00794020
7746.00   0.88836980   0.00793746
7748.00   0.90295517   0.00825209
7750.00   0.91926432   0.00922001
7752.00   0.93451756   0.01054343
7754.00   0.92760760   0.01066612
7756.00   0.89002126   0.00974206
7758.00   0.87319893   0.00919374
7760.00   0.87137777   0.00862850
7762.00   0.86812580   0.00822120
7764.00   0.85442936   0.00803234
7766.00   0.83778924   0.00808032
7768.00   0.83625889   0.00862910
7770.00   0.85099447   0.01009627
7772.00   0.85476124   0.01035016
7774.00   0.86098522   0.00985558
7776.00   0.85479796   0.00926203
7778.00   0.83162141   0.00839361
7780.00   0.79775482   0.00755038
7782.00   0.75937027   0.00800464
7784.00   0.70115924   0.00950794
7786.00   0.68382639   0.01034728
7788.00   0.70222616   0.01126789
7790.00   0.71573645   0.01176956
7792.00   0.72296065   0.01196173
7794.00   0.73171037   0.01180020
7796.00   0.74720013   0.01097576
7798.00   0.76876342   0.00916491
7800.00   0.78330261   0.00867168
7802.00   0.78549308   0.00921841
7804.00   0.80528343   0.00977445
7806.00   0.84808463   0.01086123
7808.00   0.88993323   0.01151587
7810.00   0.91305673   0.01100123
7812.00   0.92612958   0.00959052
7814.00   0.95029318   0.00894945
7816.00   0.98222107   0.00863573
7818.00   1.00896561   0.00846835
7820.00   1.04752743   0.00842695
7822.00   1.06174707   0.00872151
7824.00   1.02893364   0.00961234
7826.00   0.96899885   0.01068105
7828.00   0.93203825   0.01088363
7830.00   0.90615439   0.01052963
7832.00   0.86821908   0.01009283
7834.00   0.82463223   0.00874778
7836.00   0.77675784   0.00823279
7838.00   0.71776015   0.00951055
7840.00   0.65956068   0.01104336
7842.00   0.62608290   0.01117023
7844.00   0.59985161   0.01032725
7846.00   0.61915272   0.01010949
7848.00   0.69397515   0.00980746
7850.00   0.75923121   0.01009164
7852.00   0.82005817   0.01142660
7854.00   0.87436628   0.01251680
7856.00   0.91148466   0.01220043
7858.00   0.93540084   0.01078506
7860.00   0.95226777   0.00989991
7862.00   0.97352934   0.00880085
7864.00   0.95708555   0.00814456
7866.00   0.89499938   0.00816232
7868.00   0.82240325   0.00831331
7870.00   0.75749505   0.00823622
7872.00   0.69056237   0.00811400
7874.00   0.64906383   0.00809226
7876.00   0.62920487   0.00812970
7878.00   0.61230928   0.00819908
7880.00   0.60387009   0.00834486
7882.00   0.60140359   0.00846375
7884.00   0.60833549   0.00851331
7886.00   0.61987180   0.00852860
7888.00   0.61274785   0.00855690
7890.00   0.59040666   0.00867217
7892.00   0.57132828   0.00854566
7894.00   0.53978068   0.00793716
7896.00   0.52443683   0.00775970
7898.00   0.53269362   0.00836051
7900.00   0.55393648   0.00917261
7902.00   0.57677674   0.00960577
7904.00   0.61090910   0.01007541
7906.00   0.63107312   0.00986732
7908.00   0.64291441   0.00861383
7910.00   0.65310967   0.00789009
7912.00   0.66145802   0.00804246
7914.00   0.66740692   0.00838985
7916.00   0.67271596   0.00830745
7918.00   0.67893285   0.00796041
7920.00   0.66559660   0.00832185
7922.00   0.63171071   0.00938312
7924.00   0.60144889   0.00995860
7926.00   0.56558418   0.01034836
7928.00   0.53658718   0.01045651
7930.00   0.52344996   0.01003910
7932.00   0.52149981   0.00916296
7934.00   0.53003818   0.00897682
7936.00   0.55470765   0.00959883
7938.00   0.57776123   0.00943413
7940.00   0.60438567   0.00843015
7942.00   0.63247758   0.00760386
7944.00   0.66482854   0.00761590
7946.00   0.69742155   0.00801992
7948.00   0.71156251   0.00803778
7950.00   0.70783246   0.00783971
7952.00   0.70933086   0.00786298
7954.00   0.71644866   0.00805142
7956.00   0.70862442   0.00819015
7958.00   0.67707568   0.00824715
7960.00   0.63590193   0.00827088
7962.00   0.60617417   0.00829377
7964.00   0.57766426   0.00831304
7966.00   0.55920690   0.00827807
7968.00   0.55732757   0.00818424
7970.00   0.54427248   0.00809021
7972.00   0.51866257   0.00789069
7974.00   0.48785970   0.00779911
7976.00   0.45584926   0.00809944
7978.00   0.41935673   0.00868361
7980.00   0.39206398   0.00909581
7982.00   0.36210400   0.00982677
7984.00   0.35264486   0.00981974
7986.00   0.36664689   0.00878571
7988.00   0.38743997   0.00772254
7990.00   0.40794331   0.00762082
7992.00   0.43188158   0.00806187
7994.00   0.44011861   0.00807533
7996.00   0.44001737   0.00796608
7998.00   0.42924896   0.00784506
8000.00   0.39333716   0.00761737
8002.00   0.37194669   0.00745053
8004.00   0.39021981   0.00743703
8006.00   0.42341340   0.00750018
8008.00   0.40919900   0.00749049
8010.00   0.34457517   0.00745428
8012.00   0.32614169   0.00742536
8014.00   0.33463374   0.00730845
8016.00   0.34264424   0.00734395
8018.00   0.34404060   0.00749883
8020.00   0.34817070   0.00783285
8022.00   0.36669800   0.00860477
8024.00   0.40262732   0.01001296
8026.00   0.41636738   0.00997898
8028.00   0.41628733   0.00846308
8030.00   0.41452995   0.00745172
8032.00   0.40831417   0.00723107
8034.00   0.40152094   0.00728171
8036.00   0.40081933   0.00724529
8038.00   0.40480411   0.00730669
8040.00   0.39798868   0.00725169
8042.00   0.38104740   0.00705283
8044.00   0.36795369   0.00701404
8046.00   0.35546026   0.00716126
8048.00   0.34549218   0.00730410
8050.00   0.34189117   0.00731747
8052.00   0.34251896   0.00727112
8054.00   0.33093485   0.00735684
8056.00   0.30276740   0.00757456
8058.00   0.29138923   0.00769242
8060.00   0.29208252   0.00779669
8062.00   0.29484585   0.00782245
8064.00   0.29685196   0.00772797
8066.00   0.30001414   0.00755262
8068.00   0.30360907   0.00739314
8070.00   0.30393806   0.00712439
8072.00   0.31585044   0.00707261
8074.00   0.34192848   0.00703816
8076.00   0.36220086   0.00731969
8078.00   0.37531722   0.00821767
8080.00   0.38274470   0.00904668
8082.00   0.38015133   0.00888103
8084.00   0.36238465   0.00777849
8086.00   0.36571842   0.00737801
8088.00   0.39044121   0.00733495
8090.00   0.40140864   0.00728332
8092.00   0.40073758   0.00726008
8094.00   0.39036077   0.00725627
8096.00   0.36589384   0.00721964
8098.00   0.32590267   0.00716684
8100.00   0.30523244   0.00716790
8102.00   0.29688853   0.00723416
8104.00   0.28656188   0.00725661
8106.00   0.27885246   0.00726153
8108.00   0.26883259   0.00723333
8110.00   0.25049502   0.00713612
8112.00   0.22730048   0.00698861
8114.00   0.21862416   0.00695960
8116.00   0.22128654   0.00706597
8118.00   0.22336556   0.00706092
8120.00   0.22895965   0.00696774
8122.00   0.23536856   0.00689286
8124.00   0.24532528   0.00686303
8126.00   0.25456840   0.00686373
8128.00   0.24522865   0.00692586
8130.00   0.21217687   0.00711941
8132.00   0.20026936   0.00712810
8134.00   0.19838542   0.00698408
8136.00   0.19972447   0.00686733
8138.00   0.20802855   0.00679752
8140.00   0.21617283   0.00674970
8142.00   0.20882681   0.00672338
8144.00   0.18862519   0.00670957
8146.00   0.17501314   0.00676001
8148.00   0.16306686   0.00689052
8150.00   0.14914782   0.00699911
8152.00   0.13189597   0.00693912
8154.00   0.11499749   0.00705392
8156.00   0.10008838   0.00773056
8158.00   0.08460264   0.00876123
8160.00   0.08807737   0.00930302
8162.00   0.11609621   0.00993952
8164.00   0.13044278   0.00988854
8166.00   0.14261268   0.00869836
8168.00   0.14172700   0.00766393
8170.00   0.11457624   0.00813230
8172.00   0.06910496   0.00932088
8174.00   0.04732607   0.00941547
8176.00   0.03673276   0.00884992
8178.00   0.02987166   0.00841109
8180.00   0.03595700   0.00753947
8182.00   0.03563662   0.00710219
8184.00   0.01794644   0.00439939
8186.00   -0.00557842   0.00329187
8188.00   -0.00949601   0.01440158
8190.00   0.00005121   0.02738969
8192.00   0.00987992   0.02884342
8194.00   0.02861127   0.02353354
8196.00   0.04300331   0.01796085
8198.00   0.05169095   0.01273688
8200.00   0.05684993   0.00625997
8202.00   0.05876525   0.00090327
8204.00   0.05634563   0.00727777
8206.00   0.05495466   0.00752128
8208.00   0.05289730   0.00723345
8210.00   0.05017217   0.00707741
8212.00   0.04571531   0.00705073
8214.00   0.04186251   0.00703220
8216.00   0.04051178   0.00694359
8218.00   0.04042133   0.00680252
8220.00   0.04577784   0.00679911
8222.00   0.05671984   0.00697759
8224.00   0.06838560   0.00699756
8226.00   0.08375204   0.00677012
8228.00   0.09775655   0.00667046
8230.00   0.10722584   0.00700696
8232.00   0.11394607   0.00755810
8234.00   0.11969817   0.00767674
8236.00   0.12786385   0.00758121
8238.00   0.12511431   0.00736378
8240.00   0.11521281   0.00675856
8242.00   0.09757227   0.00633769
8244.00   0.06729855   0.00642500
8246.00   0.03117888   0.00674350
8248.00   0.01092853   0.00682849
8250.00   0.00046003   0.00665925
8252.00   -0.00847283   0.00701384
8254.00   -0.01181836   0.00773896
8256.00   -0.01403131   0.00842339
8258.00   -0.01706592   0.00928201
8260.00   -0.01732609   0.00991621
8262.00   -0.00958974   0.00963613
8264.00   0.00479515   0.00842360
8266.00   0.02128906   0.00772748
8268.00   0.04256462   0.00697994
8270.00   0.06488345   0.00659575
8272.00   0.09578744   0.00678787
8274.00   0.11944528   0.00712404
8276.00   0.11783423   0.00725261
8278.00   0.09696084   0.00734301
8280.00   0.08552769   0.00738935
8282.00   0.06922003   0.00737414
8284.00   0.06314301   0.00736358
8286.00   0.06972355   0.00734525
8288.00   0.07574932   0.00731812
8290.00   0.07353210   0.00727042
8292.00   0.06754973   0.00721098
8294.00   0.06447439   0.00722662
8296.00   0.06587347   0.00735912
8298.00   0.05866505   0.00736582
8300.00   0.03936897   0.00728773
8302.00   0.02680700   0.00719025
8304.00   0.02857545   0.00708310
8306.00   0.03704723   0.00696241
8308.00   0.03968852   0.00684804
8310.00   0.03481878   0.00656808
8312.00   0.04792986   0.00677262
8314.00   0.07633848   0.00740102
8316.00   0.10554566   0.00794964
8318.00   0.14321674   0.00860078
8320.00   0.17476340   0.00903851
8322.00   0.17076337   0.00863225
8324.00   0.13488442   0.00721601
8326.00   0.11649075   0.00670103
8328.00   0.10189269   0.00684559
8330.00   0.08503411   0.00686714
8332.00   0.06364366   0.00664633
8334.00   0.04421651   0.00663880
8336.00   0.03002741   0.00722869
8338.00   0.01775491   0.00816206
8340.00   0.03070077   0.00903226
8342.00   0.07100651   0.01058987
8344.00   0.10696445   0.01078802
8346.00   0.15514351   0.00946701
8348.00   0.18995163   0.00800231
8350.00   0.19320135   0.00757043
8352.00   0.17616796   0.00768196
8354.00   0.16690114   0.00748913
8356.00   0.15495738   0.00716040
8358.00   0.14199145   0.00713362
8360.00   0.12771155   0.00727599
8362.00   0.11168562   0.00762611
8364.00   0.09272970   0.00843942
8366.00   0.07251405   0.00924037
8368.00   0.05521889   0.00894140
8370.00   0.03198005   0.00722191
8372.00   0.03206331   0.00669393
8374.00   0.05970087   0.00685694
8376.00   0.07706904   0.00725703
8378.00   0.07240114   0.00814695
8380.00   0.06852600   0.00890698
8382.00   0.09777174   0.00864966
8384.00   0.15953368   0.00740566
8386.00   0.17728916   0.00698871
8388.00   0.16901460   0.00700057
8390.00   0.15419547   0.00711068
8392.00   0.12569192   0.00744180
8394.00   0.09461105   0.00777549
8396.00   0.07102743   0.00790512
8398.00   0.04927532   0.00792735
8400.00   0.04221518   0.00801388
8402.00   0.04777650   0.00785340
8404.00   0.05878444   0.00825509
8406.00   0.08863252   0.00938009
8408.00   0.10750894   0.01018887
8410.00   0.09099938   0.01033753
8412.00   0.05564184   0.01011044
8414.00   0.06166756   0.00959069
8416.00   0.10449185   0.00811516
8418.00   0.12771434   0.00746922
8420.00   0.14771165   0.00750794
8422.00   0.16240844   0.00763633
8424.00   0.17417225   0.00774854
8426.00   0.17903225   0.00790011
8428.00   0.16215540   0.00792894
8430.00   0.10754233   0.00789678
8432.00   0.10376228   0.00781045
8434.00   0.13850263   0.00760149
8436.00   0.16934681   0.00745210
8438.00   0.19653659   0.00736182
8440.00   0.22043598   0.00733699
8442.00   0.23348011   0.00738971
8444.00   0.23928952   0.00742281
8446.00   0.23509920   0.00797504
8448.00   0.21405703   0.00939397
8450.00   0.19978815   0.00980360
8452.00   0.18966454   0.00913640
8454.00   0.18337229   0.00821109
8456.00   0.18115702   0.00777042
8458.00   0.18219900   0.00750443
8460.00   0.19719495   0.00756085
8462.00   0.24124774   0.00818834
8464.00   0.25437322   0.00840619
8466.00   0.23874083   0.00837470
8468.00   0.21991479   0.00824901
8470.00   0.20672043   0.00804820
8472.00   0.19483989   0.00776436
8474.00   0.19960827   0.00763389
8476.00   0.22603357   0.00764554
8478.00   0.23894238   0.00757447
8480.00   0.24834666   0.00741331
8482.00   0.25383455   0.00735084
8484.00   0.25270820   0.00749195
8486.00   0.24898161   0.00770494
8488.00   0.25377274   0.00771886
8490.00   0.26566947   0.00734961
8492.00   0.27281162   0.00779503
8494.00   0.27121606   0.00896550
8496.00   0.28293031   0.00975827
8498.00   0.31871033   0.01033732
8500.00   0.35684535   0.01062010
8502.00   0.36797300   0.01021059
8504.00   0.36090887   0.00895571
8506.00   0.35801575   0.00839847
8508.00   0.34664091   0.00825444
8510.00   0.34360814   0.00809097
8512.00   0.35684040   0.00774532
8514.00   0.36368665   0.00771664
8516.00   0.34229451   0.00846735
8518.00   0.30094028   0.00967682
8520.00   0.27603763   0.01056747
8522.00   0.24132593   0.01182207
8524.00   0.24175264   0.01215929
8526.00   0.28058106   0.01158613
8528.00   0.32577062   0.01091468
8530.00   0.36684588   0.01061343
8532.00   0.40861169   0.01041426
8534.00   0.42786631   0.00996483
8536.00   0.42227143   0.00919611
8538.00   0.42764363   0.00866268
8540.00   0.43321121   0.00820680
8542.00   0.44062242   0.00789553
8544.00   0.45544547   0.00773492
8546.00   0.46931791   0.00776088
8548.00   0.45899743   0.00806890
8550.00   0.41734195   0.00860031
8552.00   0.41233528   0.00929186
8554.00   0.42818016   0.01059354
8556.00   0.45028573   0.01108914
8558.00   0.49052706   0.01061977
8560.00   0.52612001   0.00971300
8562.00   0.51803052   0.00894357
8564.00   0.47335589   0.00789652
8566.00   0.45333189   0.00743741
8568.00   0.43656999   0.00762912
8570.00   0.42839420   0.00770647
8572.00   0.43465635   0.00774995
8574.00   0.44044179   0.00780292
8576.00   0.43209031   0.00785704
8578.00   0.41530862   0.00791711
8580.00   0.40642419   0.00796654
8582.00   0.39626598   0.00803566
8584.00   0.39659169   0.00804528
8586.00   0.40397528   0.00777056
8588.00   0.42070511   0.00782362
8590.00   0.45432636   0.00855929
8592.00   0.49795753   0.00960773
8594.00   0.51340073   0.01039860
8596.00   0.51908803   0.01164855
8598.00   0.49918118   0.01170231
8600.00   0.43954316   0.01059790
8602.00   0.39132687   0.00951720
8604.00   0.36349055   0.00872140
8606.00   0.34934974   0.00813084
8608.00   0.35726115   0.00824200
8610.00   0.39769176   0.00916565
8612.00   0.41180497   0.00957519
8614.00   0.41330799   0.01004925
8616.00   0.41488802   0.01014621
8618.00   0.40654349   0.00961433
8620.00   0.40747565   0.00895319
8622.00   0.44987959   0.00897213
8624.00   0.52786005   0.00946484
8626.00   0.58905393   0.00960776
8628.00   0.66691506   0.00968811
8630.00   0.71032327   0.00965611
8632.00   0.72095031   0.00930327
8634.00   0.71048653   0.00911371
8636.00   0.68180192   0.00957238
8638.00   0.63192749   0.01042259
8640.00   0.59312159   0.01095672
8642.00   0.55805272   0.01188462
8644.00   0.51504755   0.01174552
8646.00   0.45966494   0.01015257
8648.00   0.40968770   0.00858663
8650.00   0.37125629   0.00830159
8652.00   0.34128964   0.00871162
8654.00   0.32851154   0.00869039
8656.00   0.33295807   0.00863901
8658.00   0.34387574   0.00857251
8660.00   0.37534210   0.00836269
8662.00   0.39727724   0.00834734
8664.00   0.40026090   0.00864666
8666.00   0.39524651   0.00909398
8668.00   0.39608714   0.00950096
8670.00   0.39668974   0.01012136
8672.00   0.40013996   0.01014671
8674.00   0.40844736   0.00939163
8676.00   0.41295633   0.00913086
8678.00   0.41262573   0.00981990
8680.00   0.41013932   0.01047145
8682.00   0.40823683   0.01003239
8684.00   0.40678608   0.00858926
8686.00   0.39857933   0.00807986
8688.00   0.37929159   0.00819505
8690.00   0.36945322   0.00824852
8692.00   0.36345446   0.00838213
8694.00   0.36775848   0.00848648
8696.00   0.39328802   0.00839563
8698.00   0.43652350   0.00816905
8700.00   0.45452195   0.00825412
8702.00   0.45008859   0.00868288
8704.00   0.46146512   0.00883649
8706.00   0.48294848   0.00880856
8708.00   0.50735033   0.00873544
8710.00   0.53637511   0.00865243
8712.00   0.56711692   0.00854312
8714.00   0.57504106   0.00849027
8716.00   0.56561321   0.00850253
8718.00   0.55040228   0.00845207
8720.00   0.51899499   0.00825952
8722.00   0.49071345   0.00824509
8724.00   0.46456638   0.00846426
8726.00   0.44466865   0.00885428
8728.00   0.45035964   0.00946751
8730.00   0.48368797   0.01062232
8732.00   0.50195098   0.01059741
8734.00   0.52332026   0.00937225
8736.00   0.53311521   0.00850552
8738.00   0.52536887   0.00817973
8740.00   0.51336342   0.00816482
8742.00   0.51144451   0.00836239
8744.00   0.51158339   0.00877506
8746.00   0.52698934   0.00953639
8748.00   0.55092597   0.01080714
8750.00   0.59101784   0.01165703
8752.00   0.67878020   0.01221796
8754.00   0.73837340   0.01267570
8756.00   0.70278186   0.01315809
8758.00   0.60183942   0.01362136
8760.00   0.52621794   0.01368414
8762.00   0.43560898   0.01326948
8764.00   0.36040732   0.01307428
8766.00   0.29045403   0.01317616
8768.00   0.23412921   0.01298143
8770.00   0.19133495   0.01202879
8772.00   0.16395253   0.01054417
8774.00   0.17408375   0.00976640
8776.00   0.22724506   0.00947821
8778.00   0.27714825   0.00927509
8780.00   0.34890017   0.00949569
8782.00   0.41090474   0.00959346
8784.00   0.45583820   0.00926516
8786.00   0.49198812   0.00893950
8788.00   0.52669418   0.00951382
8790.00   0.56135815   0.01085977
8792.00   0.57658881   0.01148629
8794.00   0.56052864   0.01213175
8796.00   0.56571251   0.01216640
8798.00   0.60151279   0.01125355
8800.00   0.64385808   0.01002446
8802.00   0.67305809   0.00948084
8804.00   0.70448011   0.00930547
8806.00   0.68746376   0.00929286
8808.00   0.60936540   0.00983978
8810.00   0.56041187   0.00992755
8812.00   0.52972358   0.00950173
8814.00   0.51176053   0.00903715
8816.00   0.50593728   0.00874922
8818.00   0.51233071   0.00850848
8820.00   0.53784263   0.00941932
8822.00   0.59809780   0.01173883
8824.00   0.63456029   0.01256873
8826.00   0.66068035   0.01261210
8828.00   0.67661077   0.01234623
8830.00   0.68675202   0.01168271
8832.00   0.68587422   0.01071843
8834.00   0.64600062   0.01084689
8836.00   0.54461008   0.01237051
8838.00   0.49484986   0.01243698
8840.00   0.46640807   0.01131989
8842.00   0.45034626   0.01061197
8844.00   0.45423806   0.01091484
8846.00   0.46439278   0.01155771
8848.00   0.44449893   0.01179011
8850.00   0.39500460   0.01193073
8852.00   0.37988892   0.01193432
8854.00   0.37901601   0.01156034
8856.00   0.39330602   0.01156015
8858.00   0.43239620   0.01209278
8860.00   0.47631633   0.01271558
8862.00   0.49874091   0.01309332
8864.00   0.50805837   0.01346372
8866.00   0.52813029   0.01324215
8868.00   0.55583042   0.01236816
8870.00   0.57674229   0.01150504
8872.00   0.59481901   0.01025810
8874.00   0.60590005   0.00919831
8876.00   0.60400862   0.00897495
8878.00   0.59165817   0.00937994
8880.00   0.58866459   0.01034157
8882.00   0.60739917   0.01221931
8884.00   0.58531195   0.01327854
8886.00   0.52375305   0.01438090
8888.00   0.45723614   0.01468246
8890.00   0.38780972   0.01352595
8892.00   0.31958896   0.01124865
8894.00   0.30977923   0.00995243
8896.00   0.36408144   0.00898369
8898.00   0.38926780   0.00855892
8900.00   0.41809705   0.00913427
8902.00   0.43644920   0.00954036
8904.00   0.43778902   0.00960357
8906.00   0.43178055   0.00956130
8908.00   0.43493581   0.00952040
8910.00   0.44393119   0.00937256
8912.00   0.44364381   0.00942502
8914.00   0.42899051   0.00965782
8916.00   0.42892355   0.00983885
8918.00   0.45094460   0.00993854
8920.00   0.47601670   0.01005227
8922.00   0.48436311   0.01025271
8924.00   0.48371607   0.01048890
8926.00   0.48169455   0.01087364
8928.00   0.46714461   0.01172198
8930.00   0.46711007   0.01188230
8932.00   0.49111652   0.01132200
8934.00   0.50660580   0.01055761
8936.00   0.48551196   0.00987388
8938.00   0.44105926   0.00909731
8940.00   0.42849913   0.00886455
8942.00   0.43477792   0.00940178
8944.00   0.44035545   0.00939168
8946.00   0.44336018   0.00869210
8948.00   0.46078146   0.00846873
8950.00   0.50600564   0.00918204
8952.00   0.56635654   0.01041009
8954.00   0.60309368   0.01201429
8956.00   0.64862657   0.01487374
8958.00   0.63853574   0.01535213
8960.00   0.56789941   0.01425342
8962.00   0.50409085   0.01290305
8964.00   0.45518917   0.01113923
8966.00   0.41350406   0.00909074
8968.00   0.38663238   0.00847119
8970.00   0.37736234   0.00925395
8972.00   0.35780582   0.00977876
8974.00   0.32774261   0.01106318
8976.00   0.31360573   0.01144821
8978.00   0.32136706   0.01065770
8980.00   0.33503053   0.00956102
8982.00   0.33885458   0.00929141
8984.00   0.33941421   0.00949658
8986.00   0.33988973   0.00952180
8988.00   0.33003688   0.00946510
8990.00   0.33864185   0.00968796
8992.00   0.36988375   0.00991715
8994.00   0.40277976   0.01061183
8996.00   0.42132652   0.01238233
8998.00   0.43342248   0.01459328
9000.00   0.46390024   0.01456248
9002.00   0.51927781   0.01214698
9004.00   0.55007529   0.01093104
9006.00   0.57798946   0.01046826
9008.00   0.57772088   0.01011051
9010.00   0.52833754   0.00960067
9012.00   0.45022729   0.00912066
9014.00   0.40405518   0.00883264
9016.00   0.37034231   0.00874985
9018.00   0.33872432   0.00869123
9020.00   0.31090951   0.00873431
9022.00   0.29078069   0.00882049
9024.00   0.27655971   0.00897031
9026.00   0.27166942   0.00913893
9028.00   0.28664020   0.00922255
9030.00   0.32930008   0.00925654
9032.00   0.34067696   0.00928144
9034.00   0.32992393   0.00925254
9036.00   0.32459152   0.00926619
9038.00   0.32789233   0.00937989
9040.00   0.32905927   0.00945684
9042.00   0.31694019   0.00932559
9044.00   0.29348576   0.00901142
9046.00   0.28493205   0.00890687
9048.00   0.29015961   0.00871003
9050.00   0.28571117   0.00897817
9052.00   0.26769564   0.01005786
9054.00   0.25472894   0.01074452
9056.00   0.25998425   0.01026847
9058.00   0.27673170   0.00895987
9060.00   0.28958035   0.00846330
9062.00   0.30567238   0.00842553
9064.00   0.31906751   0.00837988
9066.00   0.32777768   0.00850495
9068.00   0.34085217   0.00864298
9070.00   0.36453035   0.00871551
9072.00   0.39273587   0.00879038
9074.00   0.40892914   0.00898916
9076.00   0.41503641   0.00935659
9078.00   0.42630759   0.00953926
9080.00   0.44946438   0.00968523
9082.00   0.45275113   0.00969488
9084.00   0.42434475   0.00950461
9086.00   0.38284928   0.00921194
9088.00   0.35453790   0.00898254
9090.00   0.32533592   0.00868369
9092.00   0.31287399   0.00864821
9094.00   0.31846589   0.00893625
9096.00   0.32171705   0.00906528
9098.00   0.32511124   0.00901862
9100.00   0.32656947   0.00891932
9102.00   0.32118890   0.00885269
9104.00   0.31060940   0.00877944
9106.00   0.29989889   0.00870854
9108.00   0.28395429   0.00863232
9110.00   0.27357987   0.00856559
9112.00   0.26480666   0.00834443
9114.00   0.26275960   0.00835763
9116.00   0.27414492   0.00902484
9118.00   0.29547074   0.01002793
9120.00   0.30315894   0.01011324
9122.00   0.30656242   0.00939309
9124.00   0.30187505   0.00903159
9126.00   0.28271118   0.00870359
9128.00   0.26838589   0.00852922
9130.00   0.26400897   0.00865376
9132.00   0.26678744   0.00892416
9134.00   0.28303900   0.00889988
9136.00   0.32173336   0.00864031
9138.00   0.34118176   0.00852814
9140.00   0.34959334   0.00844751
9142.00   0.35907370   0.00840733
9144.00   0.37191796   0.00823778
9146.00   0.38476560   0.00824478
9148.00   0.39640287   0.00907814
9150.00   0.41508695   0.01068095
9152.00   0.40109313   0.01116218
9154.00   0.35852316   0.01094943
9156.00   0.31240469   0.01087352
9158.00   0.25171879   0.01087266
9160.00   0.19584262   0.01094290
9162.00   0.16813074   0.01123297
9164.00   0.15813671   0.01174587
9166.00   0.16508433   0.01167476
9168.00   0.20031089   0.01097037
9170.00   0.22889513   0.01059601
9172.00   0.25642318   0.01052569
9174.00   0.28414959   0.01047085
9176.00   0.31163093   0.01027991
9178.00   0.33910576   0.01002860
9180.00   0.36725548   0.00973018
9182.00   0.40070331   0.00926281
9184.00   0.42340618   0.00898672
9186.00   0.43921885   0.00885307
9188.00   0.44872865   0.00878616
9190.00   0.44935951   0.00876650
9192.00   0.44457409   0.00880734
9194.00   0.44766647   0.00889635
9196.00   0.45783275   0.00907938
9198.00   0.45956281   0.00919388
9200.00   0.45405659   0.00932235
9202.00   0.45111698   0.00937255
9204.00   0.45077708   0.00927077
9206.00   0.45347512   0.00914620
9208.00   0.46346763   0.00922467
9210.00   0.48236024   0.00943521
9212.00   0.49272430   0.00965424
9214.00   0.49871084   0.01003793
9216.00   0.50431079   0.01021883
9218.00   0.51478958   0.01016287
9220.00   0.51803458   0.01003219
9222.00   0.49842808   0.00993882
9224.00   0.45914164   0.00980443
9226.00   0.43969083   0.00990178
9228.00   0.43051153   0.01028674
9230.00   0.42055607   0.01047836
9232.00   0.40614754   0.01054885
9234.00   0.40104744   0.01055074
9236.00   0.41832799   0.01049129
9238.00   0.45055482   0.01036625
9240.00   0.45957991   0.01023791
9242.00   0.45016202   0.01009368
9244.00   0.45071182   0.00989777
9246.00   0.45132917   0.00957119
9248.00   0.45884204   0.00933553
9250.00   0.48164096   0.00931442
9252.00   0.50978589   0.00939904
9254.00   0.51293153   0.00936778
9256.00   0.49153206   0.00925202
9258.00   0.48687887   0.00924542
9260.00   0.48274130   0.00930641
9262.00   0.48991331   0.00938767
9264.00   0.51606447   0.00950870
9266.00   0.54757816   0.00963011
9268.00   0.56371409   0.00962838
9270.00   0.57617742   0.00937395
9272.00   0.56756252   0.00982582
9274.00   0.53266037   0.01075296
9276.00   0.50367898   0.01170825
9278.00   0.47027647   0.01315705
9280.00   0.44864315   0.01409738
9282.00   0.46303165   0.01347619
9284.00   0.50760400   0.01138989
9286.00   0.52643341   0.01074276
9288.00   0.53763670   0.01106159
9290.00   0.54254383   0.01123600
9292.00   0.53887969   0.01150915
9294.00   0.53160894   0.01177975
9296.00   0.51877862   0.01184116
9298.00   0.50204301   0.01182617
9300.00   0.51547241   0.01260138
9302.00   0.58804816   0.01423296
9304.00   0.58402222   0.01510747
9306.00   0.50037348   0.01547507
9308.00   0.43976185   0.01601171
9310.00   0.44008556   0.01699234
9312.00   0.46799377   0.01807448
9314.00   0.48256749   0.01873305
9316.00   0.50691110   0.01940225
9318.00   0.51136273   0.01932719
9320.00   0.48858136   0.01836377
9322.00   0.48503506   0.01752933
9324.00   0.50973952   0.01695156
9326.00   0.54732770   0.01648662
9328.00   0.58314770   0.01611434
9330.00   0.62558413   0.01575251
9332.00   0.66157573   0.01596125
9334.00   0.71472031   0.01690012
9336.00   0.72622102   0.01748117
9338.00   0.68113488   0.01796799
9340.00   0.62454695   0.01807922
9342.00   0.59295988   0.01730249
9344.00   0.56699389   0.01562236
9346.00   0.57574892   0.01464600
9348.00   0.64750862   0.01358537
9350.00   0.66176140   0.01344279
9352.00   0.61365414   0.01466660
9354.00   0.57084668   0.01567242
9356.00   0.57447952   0.01566377
9358.00   0.60089421   0.01515704
9360.00   0.60332668   0.01510235
9362.00   0.60234451   0.01465287
9364.00   0.58432227   0.01551333
9366.00   0.52941352   0.01744703
9368.00   0.50036538   0.01933495
9370.00   0.53261477   0.02114669
9372.00   0.58771181   0.02282929
9374.00   0.58021742   0.02377526
9376.00   0.51344210   0.02472490
9378.00   0.50009644   0.02408484
9380.00   0.52508491   0.02130441
9382.00   0.53404319   0.01875794
9384.00   0.51298469   0.01682674
9386.00   0.48715991   0.01525488
9388.00   0.48955846   0.01431955
9390.00   0.51756561   0.01434516
9392.00   0.50949842   0.01388904
9394.00   0.46380740   0.01326245
9396.00   0.44435579   0.01289737
9398.00   0.44887781   0.01282746
9400.00   0.46815851   0.01293354
9402.00   0.50544769   0.01315011
9404.00   0.56529224   0.01351630
9406.00   0.57482433   0.01382544
9408.00   0.55165809   0.01371386
9410.00   0.51703441   0.01455123
9412.00   0.44707447   0.01676191
9414.00   0.39064741   0.01819553
9416.00   0.37649071   0.01785899
9418.00   0.38826180   0.01644341
9420.00   0.41238987   0.01576868
9422.00   0.47217238   0.01519643
9424.00   0.50597525   0.01479087
9426.00   0.53415698   0.01455466
9428.00   0.54657048   0.01448798
9430.00   0.52935022   0.01446070
9432.00   0.50050682   0.01466183
9434.00   0.51122630   0.01567962
9436.00   0.56223339   0.01765324
9438.00   0.57397908   0.01859369
9440.00   0.55625063   0.01950459
9442.00   0.55018866   0.01951835
9444.00   0.56680310   0.01804357
9446.00   0.58549321   0.01597614
9448.00   0.57967281   0.01515238
9450.00   0.55362862   0.01502056
9452.00   0.54612815   0.01528801
9454.00   0.54828012   0.01591676
9456.00   0.54969764   0.01718856
9458.00   0.55143893   0.01976423
9460.00   0.55360031   0.02163971
9462.00   0.55260730   0.02131441
9464.00   0.54781818   0.01938019
9466.00   0.56901318   0.01821541
9468.00   0.62286848   0.01647444
9470.00   0.65632033   0.01589101
9472.00   0.68715215   0.01683421
9474.00   0.69716275   0.01775268
9476.00   0.66767508   0.01805700
9478.00   0.61110818   0.01810361
9480.00   0.58059424   0.01746107
9482.00   0.54758948   0.01560350
9484.00   0.54451114   0.01443824
9486.00   0.57941699   0.01305001
9488.00   0.60677093   0.01268585
9490.00   0.61674833   0.01405954
9492.00   0.61589259   0.01614845
9494.00   0.59565562   0.01767917
9496.00   0.54403073   0.01996084
9498.00   0.52227551   0.01983982
9500.00   0.51408291   0.01711999
9502.00   0.51279980   0.01484920
9504.00   0.52224976   0.01367107
9506.00   0.53516030   0.01305355
9508.00   0.53907084   0.01274957
9510.00   0.54039752   0.01297399
9512.00   0.53185481   0.01338484
9514.00   0.50190502   0.01427954
9516.00   0.49274081   0.01496274
9518.00   0.50475961   0.01561284
9520.00   0.52656704   0.01605410
9522.00   0.55526954   0.01606092
9524.00   0.59536153   0.01572209
9526.00   0.60341924   0.01543767
9528.00   0.57658827   0.01472848
9530.00   0.57055783   0.01467511
9532.00   0.58543795   0.01531837
9534.00   0.59300774   0.01599941
9536.00   0.57587779   0.01660780
9538.00   0.54513025   0.01716702
9540.00   0.52881205   0.01668869
9542.00   0.52417910   0.01405858
9544.00   0.50703317   0.01384739
9546.00   0.48490652   0.01542354
9548.00   0.45550480   0.01713967
9550.00   0.40788275   0.01929322
9552.00   0.35798323   0.02114645
9554.00   0.35223734   0.02035430
9556.00   0.38963458   0.01596078
9558.00   0.40197110   0.01441809
9560.00   0.40470168   0.01491335
9562.00   0.41319993   0.01535802
9564.00   0.43698189   0.01579663
9566.00   0.45739159   0.01618830
9568.00   0.44663092   0.01605700
9570.00   0.40986079   0.01548204
9572.00   0.38650823   0.01516780
9574.00   0.34877786   0.01495604
9576.00   0.34310731   0.01465443
9578.00   0.37990013   0.01415559
9580.00   0.42354175   0.01373312
9582.00   0.44597971   0.01366677
9584.00   0.46044165   0.01385373
9586.00   0.46818373   0.01401952
9588.00   0.45967862   0.01447844
9590.00   0.46412122   0.01450634
9592.00   0.48899975   0.01407364
9594.00   0.50051719   0.01361861
9596.00   0.47603923   0.01331284
9598.00   0.43069163   0.01308138
9600.00   0.40709841   0.01324379
9602.00   0.38612437   0.01407839
9604.00   0.38093001   0.01422447
9606.00   0.39505336   0.01387802
9608.00   0.40888739   0.01357297
9610.00   0.41851369   0.01336973
9612.00   0.42674243   0.01327612
9614.00   0.43111053   0.01360945
9616.00   0.43328422   0.01431880
9618.00   0.43027467   0.01499113
9620.00   0.42330566   0.01629040
9622.00   0.41147569   0.01660366
9624.00   0.39044183   0.01544094
9626.00   0.36870307   0.01373789
9628.00   0.35953018   0.01302570
9630.00   0.35952464   0.01281775
9632.00   0.35498127   0.01285398
9634.00   0.35076693   0.01352168
9636.00   0.34540945   0.01387787
9638.00   0.33241606   0.01404462
9640.00   0.32691592   0.01404736
9642.00   0.34625471   0.01374134
9644.00   0.38483793   0.01311396
9646.00   0.39834055   0.01320253
9648.00   0.39573365   0.01419511
9650.00   0.39621556   0.01433399
9652.00   0.39683217   0.01343311
9654.00   0.39488527   0.01289622
9656.00   0.39006707   0.01370614
9658.00   0.38234061   0.01510797
9660.00   0.36782286   0.01564943
9662.00   0.33167964   0.01602538
9664.00   0.32845157   0.01585535
9666.00   0.35264304   0.01487131
9668.00   0.37711293   0.01400814
9670.00   0.40194467   0.01354664
9672.00   0.42285976   0.01330272
9674.00   0.41226083   0.01324103
9676.00   0.35660815   0.01335809
9678.00   0.35769999   0.01374833
9680.00   0.40958682   0.01481869
9682.00   0.43900663   0.01520941
9684.00   0.43752232   0.01453661
9686.00   0.42482269   0.01365993
9688.00   0.41497669   0.01385618
9690.00   0.39858878   0.01481927
9692.00   0.39789024   0.01500964
9694.00   0.40479201   0.01456823
9696.00   0.42222947   0.01463196
9698.00   0.47428751   0.01549820
9700.00   0.50515372   0.01611047
9702.00   0.45507112   0.01559895
9704.00   0.34561688   0.01423591
9706.00   0.30769762   0.01370075
9708.00   0.31025353   0.01357545
9710.00   0.31074253   0.01354455
9712.00   0.31274208   0.01373254
9714.00   0.33021736   0.01399839
9716.00   0.38208500   0.01426295
9718.00   0.45217323   0.01457366
9720.00   0.46021548   0.01498883
9722.00   0.40793404   0.01590176
9724.00   0.38670132   0.01588334
9726.00   0.37980998   0.01489731
9728.00   0.36126465   0.01412724
9730.00   0.31047928   0.01395452
9732.00   0.25608313   0.01406950
9734.00   0.26369244   0.01423620
9736.00   0.33717209   0.01456655
9738.00   0.35124072   0.01494183
9740.00   0.32089898   0.01559753
9742.00   0.31446475   0.01592499
9744.00   0.34943137   0.01591026
9746.00   0.38731986   0.01565412
9748.00   0.38215584   0.01508220
9750.00   0.34503296   0.01391557
9752.00   0.33242327   0.01392544
9754.00   0.33473825   0.01511368
9756.00   0.32558048   0.01571362
9758.00   0.29937771   0.01603817
9760.00   0.27689409   0.01601695
9762.00   0.27464655   0.01533743
9764.00   0.28524634   0.01399789
9766.00   0.29572755   0.01341774
9768.00   0.32348561   0.01317890
9770.00   0.32653776   0.01327609
9772.00   0.30094287   0.01399558
9774.00   0.27997297   0.01456863
9776.00   0.27993309   0.01460060
9778.00   0.29012054   0.01439779
9780.00   0.29699397   0.01462272
9782.00   0.30893257   0.01526153
9784.00   0.31412965   0.01551265
9786.00   0.31025463   0.01553728
9788.00   0.31311741   0.01556282
9790.00   0.33291849   0.01567713
9792.00   0.35553929   0.01576996
9794.00   0.35117617   0.01565682
9796.00   0.31959110   0.01531851
9798.00   0.31228507   0.01513497
9800.00   0.31599882   0.01480908
9802.00   0.32319251   0.01487436
9804.00   0.34145129   0.01563048
9806.00   0.35605818   0.01638678
9808.00   0.34191236   0.01636082
9810.00   0.30109036   0.01579379
9812.00   0.29327181   0.01543374
9814.00   0.30777884   0.01497733
9816.00   0.31816742   0.01460315
9818.00   0.33323056   0.01369471
9820.00   0.34098437   0.01363089
9822.00   0.32608181   0.01599013
9824.00   0.29424599   0.01950951
9826.00   0.28663296   0.02013398
9828.00   0.29380268   0.01884959
9830.00   0.30099714   0.01786808
9832.00   0.32021436   0.01625976
9834.00   0.32919505   0.01497319
9836.00   0.31367427   0.01485010
9838.00   0.28433606   0.01540573
9840.00   0.26792288   0.01541978
9842.00   0.24810053   0.01498741
9844.00   0.24740046   0.01528291
9846.00   0.26995337   0.01640437
9848.00   0.28613886   0.01702815
9850.00   0.28851986   0.01676076
9852.00   0.28530511   0.01616498
9854.00   0.28250715   0.01615221
9856.00   0.26802081   0.01649242
9858.00   0.28512630   0.01664774
9860.00   0.33920208   0.01664220
9862.00   0.37534589   0.01689405
9864.00   0.39363736   0.01746170
9866.00   0.39825091   0.01815095
9868.00   0.38152325   0.01887382
9870.00   0.33659229   0.01981508
9872.00   0.33582756   0.01986029
9874.00   0.37636694   0.01899836
9876.00   0.39466366   0.01839860
9878.00   0.39999354   0.01795593
9880.00   0.39166048   0.01756215
9882.00   0.35890195   0.01713351
9884.00   0.30471942   0.01669029
9886.00   0.29023463   0.01680041
9888.00   0.30567008   0.01757090
9890.00   0.31508738   0.01799574
9892.00   0.33413786   0.01843814
9894.00   0.34353140   0.01857849
9896.00   0.33190569   0.01814325
9898.00   0.30766842   0.01733896
9900.00   0.28784302   0.01695961
9902.00   0.24745423   0.01658656
9904.00   0.25060269   0.01672058
9906.00   0.29666728   0.01732669
9908.00   0.33497274   0.01804933
9910.00   0.35923338   0.01900052
9912.00   0.37362841   0.01991824
9914.00   0.36564127   0.02016188
9916.00   0.32656175   0.01994745
9918.00   0.31789458   0.01958240
9920.00   0.33635440   0.01855116
9922.00   0.33570138   0.01801697
9924.00   0.30568662   0.01821648
9926.00   0.27147013   0.01864150
9928.00   0.25875545   0.01885913
9930.00   0.25657463   0.01911692
9932.00   0.26368579   0.01898547
9934.00   0.28546321   0.01781292
9936.00   0.30648446   0.01802604
9938.00   0.33647513   0.01974699
9940.00   0.35796300   0.02159980
9942.00   0.35668039   0.02306961
9944.00   0.33954883   0.02449508
9946.00   0.31281340   0.02475333
9948.00   0.24383721   0.02372294
9950.00   0.23183936   0.02320635
9952.00   0.27301410   0.02271666
9954.00   0.31834498   0.02246348
9956.00   0.35074764   0.02272609
9958.00   0.38033137   0.02324309
9960.00   0.40023947   0.02309424
9962.00   0.41081426   0.02180405
9964.00   0.41949922   0.02214252
9966.00   0.42904928   0.02383656
9968.00   0.42570055   0.02518819
9970.00   0.39994133   0.02644885
9972.00   0.36612442   0.02715781
9974.00   0.35260916   0.02551430
9976.00   0.35565659   0.02025101
9978.00   0.34107405   0.01812296
9980.00   0.31419444   0.01864621
9982.00   0.29053032   0.01879780
9984.00   0.26382503   0.01846735
9986.00   0.24534810   0.01821473
9988.00   0.25357628   0.01835742
9990.00   0.28474224   0.01879042
9992.00   0.30601802   0.01922390
9994.00   0.34014264   0.02001827
9996.00   0.34958434   0.02031525
9998.00   0.32634211   0.01993421
10000.00   0.30255029   0.01964288
10002.00   0.29937130   0.01992257
10004.00   0.30614331   0.02051119
10006.00   0.32288417   0.02173367
10008.00   0.37639952   0.02398998
10010.00   0.37926123   0.02522068
10012.00   0.33357319   0.02615372
10014.00   0.28684819   0.02643490
10016.00   0.25327080   0.02561728
10018.00   0.22539589   0.02407696
10020.00   0.22026278   0.02352631
10022.00   0.24544038   0.02376838
10024.00   0.25271347   0.02346413
10026.00   0.25280595   0.02287153
10028.00   0.25572067   0.02235162
10030.00   0.26381662   0.02196405
10032.00   0.27412918   0.02166314
10034.00   0.28357124   0.02147814
10036.00   0.29214439   0.02139955
10038.00   0.30557120   0.02143958
10040.00   0.32392266   0.02166790
10042.00   0.34173131   0.02186390
10044.00   0.35907999   0.02203508
10046.00   0.37643561   0.02219321
10048.00   0.39699936   0.02233187
10050.00   0.42500526   0.02246597
10052.00   0.41556484   0.02250355
10054.00   0.36881542   0.02233130
10056.00   0.32994986   0.02239771
10058.00   0.27046940   0.02272157
10060.00   0.24114639   0.02308417
10062.00   0.29961640   0.02332298
10064.00   0.41997439   0.02351725
10066.00   0.43411922   0.02396030
10068.00   0.36895338   0.02423010
10070.00   0.32569739   0.02533125
10072.00   0.26120752   0.02787004
10074.00   0.22494647   0.02933452
10076.00   0.24776314   0.02853587
10078.00   0.30336097   0.02656261
10080.00   0.32931828   0.02643831
10082.00   0.35657254   0.02808077
10084.00   0.35675377   0.02795813
10086.00   0.32134938   0.02657250
10088.00   0.29773623   0.02538662
10090.00   0.29729050   0.02468267
10092.00   0.30490512   0.02422296
10094.00   0.30385360   0.02400006
10096.00   0.29563484   0.02398624
10098.00   0.30489290   0.02438464
10100.00   0.33632699   0.02530049
10102.00   0.35322976   0.02615460
10104.00   0.35305002   0.02733139
10106.00   0.34588808   0.02809843
10108.00   0.33613899   0.02736121
10110.00   0.31714588   0.02512165
10112.00   0.32802835   0.02472872
10114.00   0.38461664   0.02547230
10116.00   0.39745498   0.02632444
10118.00   0.36253417   0.02767041
10120.00   0.32350090   0.02888406
10122.00   0.30423918   0.02960451
10124.00   0.29228038   0.03006241
10126.00   0.30202442   0.03009556
10128.00   0.34462136   0.02955892
10130.00   0.36724955   0.02912111
10132.00   0.38573441   0.02838941
10134.00   0.39214298   0.02795128
10136.00   0.37708390   0.02823939
10138.00   0.35019684   0.02885805
10140.00   0.34396940   0.02877997
10142.00   0.35910159   0.02800204
10144.00   0.35020748   0.02788443
10146.00   0.31824529   0.02813009
10148.00   0.29848364   0.02844622
10150.00   0.29941505   0.02884524
10152.00   0.30920848   0.02927528
10154.00   0.31457010   0.02954717
10156.00   0.31835446   0.02973027
10158.00   0.33255097   0.02987415
10160.00   0.37441939   0.02966845
10162.00   0.38145909   0.02999474
10164.00   0.33513227   0.03097016
10166.00   0.28346491   0.03215038
10168.00   0.27870238   0.03328677
10170.00   0.30453527   0.03463493
10172.00   0.30117330   0.03487882
10174.00   0.28720489   0.03391314
10176.00   0.26577824   0.03349740
10178.00   0.22558182   0.03257995
10180.00   0.19242746   0.03301517
10182.00   0.18441349   0.03707139
10184.00   0.19223173   0.04281582
10186.00   0.20646873   0.04270267
10188.00   0.22464420   0.03640430
10190.00   0.26561156   0.03370119
10192.00   0.34901243   0.03331220
10194.00   0.41124874   0.03337824
10196.00   0.43037999   0.03332477
10198.00   0.42133427   0.03352793
10200.00   0.38447082   0.03389324
10202.00   0.27251020   0.03439187
10204.00   0.25651339   0.03521878
10206.00   0.32460952   0.03670077
10208.00   0.36632845   0.03766876
10210.00   0.36804622   0.03802416
10212.00   0.34565452   0.03794730
10214.00   0.28942889   0.03733944
10216.00   0.16682343   0.03580009
10218.00   0.15963611   0.03536640
10220.00   0.25722814   0.03562341
10222.00   0.32164326   0.03598686
10224.00   0.35556501   0.03672103
10226.00   0.37472588   0.03733588
10228.00   0.38060105   0.03714740
10230.00   0.37126383   0.03630698
10232.00   0.35819474   0.03620483
10234.00   0.32345963   0.03674955
10236.00   0.31155732   0.03680544
10238.00   0.32039493   0.03648483
10240.00   0.33686045   0.03597920
10242.00   0.35682487   0.03519590
10244.00   0.38249174   0.03415881
10246.00   0.39418033   0.03422522
10248.00   0.41351199   0.03564616
10250.00   0.39182839   0.03603551
10252.00   0.31427842   0.03587830
10254.00   0.25189248   0.03551431
10256.00   0.23025288   0.03468705
10258.00   0.23033233   0.03375807
10260.00   0.23951058   0.03458015
10262.00   0.26848775   0.03738669
10264.00   0.29515225   0.03845561
10266.00   0.36166096   0.03902807
10268.00   0.36772090   0.03897115
10270.00   0.26346174   0.03775060
10272.00   0.13160083   0.03624437
10274.00   0.10629176   0.03622590
10276.00   0.15519893   0.03668288
10278.00   0.16738525   0.03918268
10280.00   0.17705446   0.04423416
10282.00   0.18593886   0.04764343
10284.00   0.17274049   0.04968814
10286.00   0.18280891   0.05122453
10288.00   0.28320244   0.05282229
10290.00   0.46654418   0.05441702
10292.00   0.51583624   0.05442266
10294.00   0.47347859   0.05303090
10296.00   0.43113074   0.05128964
10298.00   0.35732028   0.04835635
10300.00   0.28954950   0.04555861
10302.00   0.25113821   0.04408873
10304.00   0.22982003   0.04346224
10306.00   0.24449617   0.04268924
10308.00   0.32633433   0.04200627
10310.00   0.35076535   0.04183039
10312.00   0.32833144   0.04157944
10314.00   0.31460994   0.04253118
10316.00   0.33915094   0.04601622
10318.00   0.37348533   0.05007771
10320.00   0.35431764   0.05009361
10322.00   0.28809530   0.04546430
10324.00   0.23869850   0.04516518
10326.00   0.14741175   0.04853707
10328.00   0.12618677   0.04988530
10330.00   0.22398341   0.04785765
10332.00   0.35819411   0.04472654
10334.00   0.40617663   0.04379716
10336.00   0.41707924   0.04383807
10338.00   0.39379200   0.04487312
10340.00   0.26417679   0.04803763
10342.00   0.24204277   0.04959342
10344.00   0.37687865   0.04953181
10346.00   0.52305675   0.04884692
10348.00   0.54040611   0.04817500
10350.00   0.48209733   0.04716331
10352.00   0.45204854   0.04629748
10354.00   0.39650866   0.04528629
10356.00   0.37679937   0.04453861
10358.00   0.39811468   0.04388422
10360.00   0.42120811   0.04359341
10362.00   0.41966167   0.04371612
10364.00   0.40798321   0.04423571
10366.00   0.42245230   0.04601923
10368.00   0.46249950   0.04975101
10370.00   0.48805246   0.05165049
10372.00   0.52445912   0.05310079
10374.00   0.53184581   0.05336978
10376.00   0.49518916   0.05164131
10378.00   0.42691034   0.04873521
10380.00   0.33775651   0.04758187
10382.00   0.17520817   0.04743642
10384.00   0.12249002   0.04730199
10386.00   0.15649639   0.04722067
10388.00   0.18617037   0.04793907
10390.00   0.19274737   0.04986249
10392.00   0.20675494   0.05212660
10394.00   0.26678282   0.05366374
10396.00   0.38657194   0.05526359
10398.00   0.40896958   0.05527088
10400.00   0.32908833   0.05234667
10402.00   0.31069192   0.05208749
10404.00   0.37928534   0.05568192
10406.00   0.44755861   0.05923874
10408.00   0.43124437   0.05967558
10410.00   0.35726890   0.05823634
10412.00   0.34767887   0.05828062
10414.00   0.37668440   0.05853908
10416.00   0.39791995   0.05950214
10418.00   0.43764234   0.06254011
10420.00   0.45244846   0.06394435
10422.00   0.39612430   0.06094136
10424.00   0.29601064   0.05470517
10426.00   0.29365712   0.05149443
10428.00   0.38774681   0.04963021
10430.00   0.41804147   0.04834596
10432.00   0.40051705   0.04849100
10434.00   0.40401310   0.04860259
10436.00   0.46761972   0.04820133
10438.00   0.55009371   0.04766014
10440.00   0.55685359   0.04719466
10442.00   0.50138110   0.04668516
10444.00   0.46814784   0.04627969
10446.00   0.41172323   0.04587668
10448.00   0.38896099   0.04564559
10450.00   0.42732510   0.04562487
10452.00   0.47775874   0.04575393
10454.00   0.46695489   0.04581288
10456.00   0.41779193   0.04530933
10458.00   0.36923990   0.04739126
10460.00   0.28419712   0.05334776
10462.00   0.23749898   0.05539663
10464.00   0.21177508   0.05217991
10466.00   0.22954404   0.04889067
10468.00   0.35013899   0.05165306
10470.00   0.57639426   0.05806062
10472.00   0.57099777   0.05914269
10474.00   0.31806099   0.05740591
10476.00   0.22369422   0.05510006
10478.00   0.25265098   0.05017595
10480.00   0.30446595   0.04594361
10482.00   0.33504140   0.04514750
10484.00   0.36830854   0.04665558
10486.00   0.39578816   0.04960851
10488.00   0.40929708   0.05740343
10490.00   0.44593713   0.05842032
10492.00   0.52232891   0.05348677
10494.00   0.56779104   0.04909904
10496.00   0.55286467   0.04805554
10498.00   0.50598168   0.04847174
10500.00   0.47125450   0.04862515
10502.00   0.40643063   0.04919764
10504.00   0.41108802   0.05004037
10506.00   0.49488342   0.05084193
10508.00   0.54408473   0.05255070
10510.00   0.51708525   0.05545570
10512.00   0.48950481   0.05874433
10514.00   0.58066165   0.06187989
10516.00   0.80557060   0.06627297
10518.00   0.80514383   0.06524021
10520.00   0.59355378   0.05717237
10522.00   0.47209239   0.05233781
10524.00   0.42360151   0.05195536
10526.00   0.41945061   0.05282781
10528.00   0.47012812   0.05267758
10530.00   0.58257234   0.05252882
10532.00   0.61618042   0.05272745
10534.00   0.60733879   0.05294153
10536.00   0.58932078   0.05384665
10538.00   0.53991604   0.05629150
10540.00   0.49817529   0.05773296
10542.00   0.49070191   0.05630273
10544.00   0.50183451   0.05307887
10546.00   0.49942788   0.05273673
10548.00   0.48625514   0.05512606
10550.00   0.49088126   0.05541217
10552.00   0.52030897   0.05425203
10554.00   0.53517276   0.05339799
10556.00   0.51255959   0.05347236
10558.00   0.47831109   0.05392918
10560.00   0.49062973   0.05416247
10562.00   0.54886550   0.05442053
10564.00   0.56863844   0.05462898
10566.00   0.57337546   0.05477630
10568.00   0.56924313   0.05496164
10570.00   0.54527754   0.05511151
10572.00   0.52224201   0.05536467
10574.00   0.54014122   0.05606364
10576.00   0.59787309   0.05736990
10578.00   0.60667932   0.05745727
10580.00   0.58861703   0.05585049
10582.00   0.56226313   0.05576482
10584.00   0.50562012   0.05689658
10586.00   0.46320197   0.05912063
10588.00   0.48640296   0.06347601
10590.00   0.55824834   0.06980053
10592.00   0.58937383   0.06883367
10594.00   0.60761642   0.05877766
10596.00   0.61942035   0.05424176
10598.00   0.62216324   0.05518359
10600.00   0.61921179   0.05668940
10602.00   0.60753107   0.05640084
10604.00   0.58998317   0.05569421
10606.00   0.59929568   0.05589091
10608.00   0.64559996   0.05712097
10610.00   0.65638214   0.05736814
10612.00   0.64381409   0.05700537
10614.00   0.62825269   0.05652463
10616.00   0.60734308   0.05589544
10618.00   0.58796638   0.05523970
10620.00   0.60471743   0.05526420
10622.00   0.66721225   0.05595357
10624.00   0.68425512   0.05629882
10626.00   0.68452227   0.05670992
10628.00   0.66522390   0.05689213
10630.00   0.60590333   0.05663623
10632.00   0.54563105   0.05634547
10634.00   0.54962999   0.05663633
10636.00   0.60264701   0.05734570
10638.00   0.63462681   0.05789087
10640.00   0.69080281   0.05880716
10642.00   0.70136517   0.05902673
10644.00   0.63754046   0.05811188
10646.00   0.58090842   0.05730559
10648.00   0.60652500   0.05783614
10650.00   0.68390805   0.05921579
10652.00   0.74706721   0.06001977
10654.00   0.86431915   0.06128526
10656.00   0.88792294   0.06124333
10658.00   0.80048865   0.05962836
10660.00   0.71920156   0.05793690
10662.00   0.70265901   0.05696784
10664.00   0.71696997   0.05629751
10666.00   0.74634314   0.05585347
10668.00   0.83608985   0.05620242
10670.00   0.85341394   0.05556773
10672.00   0.81942958   0.05413227
10674.00   0.77603477   0.05264054
10676.00   0.72413284   0.05120508
10678.00   0.66926980   0.04979181
10680.00   0.65239698   0.04879364
10682.00   0.67495483   0.04832554
10684.00   0.66748685   0.04742136
10686.00   0.63995445   0.04607380
10688.00   0.62466347   0.04511305
10690.00   0.63175642   0.04481551
10692.00   0.64115381   0.04469835
10694.00   0.62241417   0.04412742
10696.00   0.57098627   0.04324602
10698.00   0.59168375   0.04272842
10700.00   0.68564141   0.04200297
10702.00   0.74733239   0.04218464
10704.00   0.78813314   0.04370059
10706.00   0.80989152   0.04521734
10708.00   0.80593199   0.04585482
10710.00   0.77875388   0.04613438
10712.00   0.73821461   0.04511058
10714.00   0.65643591   0.04177863
10716.00   0.61215848   0.04000019
10718.00   0.59316289   0.03954722
10720.00   0.58965933   0.03936598
10722.00   0.60181463   0.03900509
10724.00   0.62847680   0.03872266
10726.00   0.64778709   0.03846715
10728.00   0.67646694   0.03844357
10730.00   0.68459368   0.03803073
10732.00   0.66858000   0.03720267
10734.00   0.66084063   0.03646599
10736.00   0.67231953   0.03595530
10738.00   0.69164187   0.03557076
10740.00   0.70557797   0.03529484
10742.00   0.73479515   0.03510790
10744.00   0.71483642   0.03513772
10746.00   0.62848651   0.03537515
10748.00   0.58257997   0.03573120
10750.00   0.60426748   0.03665319
10752.00   0.63767290   0.03725326
10754.00   0.61238396   0.03605897
10756.00   0.53868806   0.03303184
10758.00   0.53716260   0.03135920
10760.00   0.58528411   0.02998266
10762.00   0.63394320   0.02930347
10764.00   0.70380408   0.02979410
10766.00   0.76147717   0.03038733
10768.00   0.76880813   0.03016056
10770.00   0.74014491   0.02950948
10772.00   0.73824888   0.02910973
10774.00   0.75467104   0.02835880
10776.00   0.74860108   0.02846677
10778.00   0.72133780   0.02983293
10780.00   0.69107902   0.03075590
10782.00   0.66449213   0.03030477
10784.00   0.63811314   0.02910691
10786.00   0.61953545   0.02872758
10788.00   0.60674679   0.02808023
10790.00   0.59737647   0.02899139
10792.00   0.59429103   0.03218988
10794.00   0.59150797   0.03385498
10796.00   0.58225298   0.03310834
10798.00   0.57605404   0.03106851
10800.00   0.59860581   0.02910981
10802.00   0.66779453   0.02576788
10804.00   0.66692317   0.02435474
10806.00   0.59052896   0.02499434
10808.00   0.55820191   0.02509856
10810.00   0.58588833   0.02426375
10812.00   0.63743281   0.02336142
10814.00   0.68766612   0.02342315
10816.00   0.76221615   0.02433662
10818.00   0.76472813   0.02408491
10820.00   0.69701511   0.02269173
10822.00   0.64833134   0.02197909
10824.00   0.60405028   0.02193206
10826.00   0.57193911   0.02218356
10828.00   0.56845659   0.02259975
10830.00   0.58807862   0.02326214
10832.00   0.58802080   0.02359388
10834.00   0.59602278   0.02361627
10836.00   0.56931329   0.02391873
10838.00   0.46556512   0.02428952
10840.00   0.41482219   0.02492376
10842.00   0.49998036   0.02607110
10844.00   0.66318429   0.02745767
10846.00   0.75800604   0.02809135
10848.00   0.88633287   0.02912620
10850.00   0.88212281   0.02802621
10852.00   0.71665680   0.02371116
10854.00   0.59843785   0.01994180
10856.00   0.58227456   0.01884329
10858.00   0.61290467   0.01917009
10860.00   0.64812905   0.01914049
10862.00   0.72853136   0.01983166
10864.00   0.75044531   0.01958983
10866.00   0.73074049   0.01832115
10868.00   0.71290135   0.01768562
10870.00   0.69509506   0.01809627
