# File created by shivutils (I.Shivvers)
# wl(A)   flm    er(optional)
3440.00   0.35893968   0.03758020
3442.00   0.33685011   0.03719753
3444.00   0.40925160   0.03851974
3446.00   0.36094189   0.03799691
3448.00   0.31069568   0.03790422
3450.00   0.32586676   0.03906643
3452.00   0.30737254   0.04032365
3454.00   0.31017730   0.04050219
3456.00   0.44979081   0.04134285
3458.00   0.31789911   0.04202306
3460.00   0.38437262   0.04103110
3462.00   0.38658834   0.04059026
3464.00   0.31266785   0.03919097
3466.00   0.40488079   0.04090001
3468.00   0.38863420   0.04054037
3470.00   0.40284768   0.04052553
3472.00   0.37838116   0.04076805
3474.00   0.37171590   0.03995866
3476.00   0.35338634   0.04064118
3478.00   0.34619305   0.04313265
3480.00   0.36226231   0.04473076
3482.00   0.44983050   0.04607712
3484.00   0.36282659   0.04356595
3486.00   0.37077886   0.04317417
3488.00   0.45959994   0.04456573
3490.00   0.35002953   0.04211214
3492.00   0.41691700   0.04209776
3494.00   0.40842405   0.04200727
3496.00   0.41886270   0.04151268
3498.00   0.43480933   0.04208067
3500.00   0.36953154   0.04133148
3502.00   0.40467957   0.04172987
3504.00   0.43535370   0.04148434
3506.00   0.35060579   0.03974923
3508.00   0.49085894   0.04230039
3510.00   0.46977028   0.04148523
3512.00   0.39435613   0.04040455
3514.00   0.38590068   0.03957883
3516.00   0.34251404   0.03977503
3518.00   0.46693236   0.04137165
3520.00   0.37685570   0.03966823
3522.00   0.31061587   0.03823260
3524.00   0.37083519   0.03873527
3526.00   0.38147268   0.03867463
3528.00   0.39081520   0.03884424
3530.00   0.35361707   0.03887513
3532.00   0.42237744   0.03907850
3534.00   0.38659021   0.03879977
3536.00   0.39426178   0.03898975
3538.00   0.47001049   0.04004306
3540.00   0.35279486   0.04004023
3542.00   0.37937245   0.04191184
3544.00   0.45963001   0.04292989
3546.00   0.35098112   0.04093703
3548.00   0.31741092   0.03938403
3550.00   0.39012462   0.04017080
3552.00   0.44473088   0.04073418
3554.00   0.38920072   0.04034292
3556.00   0.33930424   0.03978392
3558.00   0.42180252   0.03976538
3560.00   0.41847506   0.03907301
3562.00   0.35817698   0.03691864
3564.00   0.39750862   0.03714336
3566.00   0.43385082   0.03724590
3568.00   0.40279078   0.03641539
3570.00   0.48698971   0.03733360
3572.00   0.45153210   0.03749324
3574.00   0.45525062   0.03718871
3576.00   0.40504444   0.03611295
3578.00   0.41637030   0.03547460
3580.00   0.36802486   0.03451327
3582.00   0.40146348   0.03418558
3584.00   0.46648717   0.03460699
3586.00   0.48235244   0.03447521
3588.00   0.45380259   0.03410162
3590.00   0.46730873   0.03515847
3592.00   0.42425537   0.03382683
3594.00   0.41721666   0.03352448
3596.00   0.43620446   0.03321251
3598.00   0.49388143   0.03399057
3600.00   0.41718552   0.03281283
3602.00   0.42076781   0.03192472
3604.00   0.41354647   0.03202672
3606.00   0.46557248   0.03233276
3608.00   0.40322152   0.03126270
3610.00   0.40690002   0.03139418
3612.00   0.48332220   0.03315304
3614.00   0.43934667   0.03354254
3616.00   0.41301876   0.03271440
3618.00   0.46614733   0.03242818
3620.00   0.45400706   0.03222653
3622.00   0.47932845   0.03221046
3624.00   0.44343051   0.03181316
3626.00   0.46710008   0.03160856
3628.00   0.52198291   0.03326250
3630.00   0.49428371   0.03304026
3632.00   0.43721151   0.03252563
3634.00   0.46252447   0.03202089
3636.00   0.48398858   0.03290159
3638.00   0.46320534   0.03275861
3640.00   0.52111363   0.03264743
3642.00   0.47947624   0.03226498
3644.00   0.49516743   0.03316160
3646.00   0.46811607   0.03354508
3648.00   0.55122006   0.04156760
3650.00   0.49284360   0.04533508
3652.00   0.47452372   0.04215252
3654.00   0.51872265   0.03959355
3656.00   0.47252411   0.03602783
3658.00   0.49580351   0.03239830
3660.00   0.53936106   0.03328265
3662.00   0.56486636   0.03573930
3664.00   0.59615505   0.03551728
3666.00   0.52904004   0.03108335
3668.00   0.49546987   0.02888622
3670.00   0.60592926   0.02978065
3672.00   0.51815313   0.02860202
3674.00   0.49693200   0.02809014
3676.00   0.54403901   0.02815657
3678.00   0.53920561   0.02769505
3680.00   0.55566835   0.02773889
3682.00   0.50114965   0.02700711
3684.00   0.56941503   0.02738726
3686.00   0.55572110   0.02710170
3688.00   0.55248278   0.02684906
3690.00   0.48659503   0.02625786
3692.00   0.50831950   0.02692898
3694.00   0.45567429   0.02564854
3696.00   0.53548712   0.02677649
3698.00   0.44102809   0.02608734
3700.00   0.51442355   0.02718352
3702.00   0.53298575   0.02733887
3704.00   0.48547441   0.02630090
3706.00   0.51893288   0.02624593
3708.00   0.51300025   0.02594777
3710.00   0.49047956   0.02597092
3712.00   0.47043839   0.02584660
3714.00   0.51478469   0.02606646
3716.00   0.52554888   0.02556159
3718.00   0.48233703   0.02511828
3720.00   0.49946135   0.02485169
3722.00   0.50245398   0.02495443
3724.00   0.45654255   0.02450782
3726.00   0.47787595   0.02539885
3728.00   0.51352412   0.02554684
3730.00   0.47940233   0.02529404
3732.00   0.46238050   0.02479124
3734.00   0.54000533   0.02558913
3736.00   0.48341373   0.02475029
3738.00   0.46292692   0.02485369
3740.00   0.49117520   0.02524327
3742.00   0.51638854   0.02576859
3744.00   0.50915504   0.02479587
3746.00   0.44164672   0.02343562
3748.00   0.42140928   0.02311271
3750.00   0.46326062   0.02365384
3752.00   0.41021356   0.02310135
3754.00   0.46374932   0.02364710
3756.00   0.43462366   0.02303856
3758.00   0.40893558   0.02239194
3760.00   0.41520438   0.02249496
3762.00   0.45327133   0.02251104
3764.00   0.40964961   0.02223522
3766.00   0.44983840   0.02237712
3768.00   0.39838207   0.02155720
3770.00   0.36157805   0.02155178
3772.00   0.35866207   0.02177672
3774.00   0.38622698   0.02176427
3776.00   0.37305522   0.02161053
3778.00   0.33513513   0.02128851
3780.00   0.33254486   0.02119542
3782.00   0.34366775   0.02111179
3784.00   0.32454658   0.02125095
3786.00   0.32031021   0.02083371
3788.00   0.32542986   0.02066195
3790.00   0.30944076   0.02103960
3792.00   0.31011102   0.02079670
3794.00   0.28879216   0.02015555
3796.00   0.32015672   0.02027500
3798.00   0.28221759   0.01953909
3800.00   0.34164461   0.02019599
3802.00   0.33595321   0.02065316
3804.00   0.31415436   0.02024999
3806.00   0.32830533   0.02026705
3808.00   0.30084363   0.01993208
3810.00   0.28224710   0.01959724
3812.00   0.38075706   0.02098540
3814.00   0.51051390   0.02235810
3816.00   0.64115798   0.02365273
3818.00   0.68235499   0.02405950
3820.00   0.43475813   0.02164095
3822.00   0.37922537   0.02058836
3824.00   0.31638634   0.01949518
3826.00   0.30290264   0.01962164
3828.00   0.35646152   0.02077054
3830.00   0.31857544   0.02084138
3832.00   0.36389521   0.02090167
3834.00   0.29470044   0.01995132
3836.00   0.33956575   0.02007282
3838.00   0.31790945   0.01981274
3840.00   0.35528699   0.01997594
3842.00   0.34493691   0.02001406
3844.00   0.34697324   0.02011603
3846.00   0.35765076   0.01997712
3848.00   0.36923558   0.01984095
3850.00   0.36843446   0.01966067
3852.00   0.35016447   0.01930679
3854.00   0.34503645   0.01923836
3856.00   0.36690110   0.01920103
3858.00   0.31492099   0.01826946
3860.00   0.32097763   0.01850786
3862.00   0.34186521   0.01887668
3864.00   0.32039794   0.01866115
3866.00   0.38678768   0.01908231
3868.00   0.38875943   0.01886555
3870.00   0.41875419   0.01921084
3872.00   0.40529022   0.01937626
3874.00   0.40818170   0.01985068
3876.00   0.41528863   0.01968694
3878.00   0.40837401   0.01955576
3880.00   0.42281601   0.01944471
3882.00   0.39454964   0.01840586
3884.00   0.36906552   0.01806976
3886.00   0.35811713   0.01798735
3888.00   0.35656101   0.01804216
3890.00   0.33334294   0.01782694
3892.00   0.37188870   0.01823623
3894.00   0.40365350   0.01858938
3896.00   0.39635471   0.01878960
3898.00   0.43194947   0.01890299
3900.00   0.47208858   0.01943727
3902.00   0.49894750   0.01981675
3904.00   0.48995289   0.02045578
3906.00   0.43980840   0.02117881
3908.00   0.44652617   0.02204852
3910.00   0.45845175   0.02257767
3912.00   0.45593029   0.02244629
3914.00   0.49342096   0.02171639
3916.00   0.47681922   0.02058746
3918.00   0.51623976   0.02015292
3920.00   0.44516635   0.01917613
3922.00   0.44854897   0.01863766
3924.00   0.47919968   0.01879486
3926.00   0.44630107   0.01827645
3928.00   0.46023303   0.01817646
3930.00   0.45116189   0.01812598
3932.00   0.51776654   0.01884740
3934.00   0.48035350   0.01864481
3936.00   0.50022346   0.01840375
3938.00   0.55878925   0.01881179
3940.00   0.61616135   0.01969012
3942.00   0.60394669   0.02009544
3944.00   0.63402963   0.02050895
3946.00   0.64167559   0.02029108
3948.00   0.67841607   0.02035362
3950.00   0.64575762   0.01991581
3952.00   0.67305201   0.01996290
3954.00   0.66434759   0.01959318
3956.00   0.67515814   0.01968466
3958.00   0.69924366   0.01998181
3960.00   0.68236804   0.02016327
3962.00   0.76103961   0.02063876
3964.00   0.74275374   0.02003422
3966.00   0.67626500   0.01901698
3968.00   0.71792662   0.01914271
3970.00   0.71117282   0.01909994
3972.00   0.75601518   0.01963827
3974.00   0.75633901   0.01977317
3976.00   0.72170132   0.01955790
3978.00   0.73673689   0.02033493
3980.00   0.72179437   0.02020515
3982.00   0.72783667   0.01966724
3984.00   0.73302054   0.01948516
3986.00   0.76165628   0.01974957
3988.00   0.78572983   0.02005902
3990.00   0.77291465   0.01984336
3992.00   0.80106908   0.02005854
3994.00   0.78528339   0.02039794
3996.00   0.81557310   0.02077957
3998.00   0.79237807   0.02069307
4000.00   0.82086396   0.02048835
4002.00   0.80682665   0.02008965
4004.00   0.79140830   0.01989999
4006.00   0.84112716   0.02029212
4008.00   0.85257077   0.02054260
4010.00   0.87118274   0.02072992
4012.00   0.83243430   0.02055543
4014.00   0.78854257   0.02018005
4016.00   0.82587737   0.02047051
4018.00   0.85452408   0.02141713
4020.00   0.87645918   0.02232970
4022.00   0.85549563   0.02269232
4024.00   0.80066383   0.02205193
4026.00   0.71294743   0.02065304
4028.00   0.69459718   0.01998510
4030.00   0.76491082   0.02025633
4032.00   0.80586773   0.02024025
4034.00   0.84932911   0.02044787
4036.00   0.81933755   0.02021317
4038.00   0.81687462   0.02017264
4040.00   0.82745618   0.02025258
4042.00   0.78598845   0.02099789
4044.00   0.83752650   0.02871119
4046.00   0.81031895   0.03320805
4048.00   0.78211814   0.03097864
4050.00   0.77046925   0.02488104
4052.00   0.72123075   0.02123686
4054.00   0.76926023   0.02059577
4056.00   0.71260893   0.01977256
4058.00   0.70458096   0.01928707
4060.00   0.66737247   0.01858243
4062.00   0.54663128   0.01763561
4064.00   0.55751729   0.01771153
4066.00   0.62747788   0.01816379
4068.00   0.59945142   0.01803445
4070.00   0.62387401   0.01790362
4072.00   0.68048531   0.01815263
4074.00   0.70465070   0.01889182
4076.00   0.68066609   0.02018476
4078.00   0.68530083   0.02069946
4080.00   0.65367770   0.01993597
4082.00   0.68709207   0.01959461
4084.00   0.67806572   0.01920304
4086.00   0.70129019   0.01903196
4088.00   0.70299798   0.01871194
4090.00   0.68835151   0.01809894
4092.00   0.69100875   0.01783064
4094.00   0.65325093   0.01744001
4096.00   0.65577304   0.01733964
4098.00   0.69434929   0.01765027
4100.00   0.68449670   0.01736755
4102.00   0.71846187   0.01748270
4104.00   0.73079187   0.01754869
4106.00   0.71100169   0.01747726
4108.00   0.69842052   0.01739489
4110.00   0.75221986   0.01768888
4112.00   0.72722447   0.01749347
4114.00   0.70674330   0.01746669
4116.00   0.71262509   0.01752533
4118.00   0.72628379   0.01747339
4120.00   0.72389424   0.01724653
4122.00   0.75631952   0.01748026
4124.00   0.75994557   0.01761563
4126.00   0.75556880   0.01764043
4128.00   0.74571836   0.01754805
4130.00   0.74790788   0.01767550
4132.00   0.79443192   0.01816197
4134.00   0.77682871   0.01804667
4136.00   0.77350861   0.01787310
4138.00   0.79876202   0.01820393
4140.00   0.80300015   0.01824089
4142.00   0.76988214   0.01776532
4144.00   0.77730602   0.01744680
4146.00   0.83662748   0.01789440
4148.00   0.85655898   0.01830225
4150.00   0.82082546   0.01799964
4152.00   0.82699269   0.01822967
4154.00   0.78121781   0.01775427
4156.00   0.81780571   0.01782988
4158.00   0.85165817   0.01782178
4160.00   0.82012153   0.01773000
4162.00   0.83923626   0.01817366
4164.00   0.83807421   0.01854650
4166.00   0.85135287   0.01860821
4168.00   0.89587742   0.01850308
4170.00   0.85879827   0.01794550
4172.00   0.84238905   0.01757682
4174.00   0.83835244   0.01743971
4176.00   0.87215430   0.01769008
4178.00   0.92272764   0.01802009
4180.00   0.87628913   0.01760377
4182.00   0.88263500   0.01757041
4184.00   0.89454138   0.01754024
4186.00   0.91332233   0.01760005
4188.00   0.91994220   0.01763393
4190.00   0.90447974   0.01748506
4192.00   0.88899457   0.01745387
4194.00   0.88125271   0.01728259
4196.00   0.83888811   0.01690417
4198.00   0.86918294   0.01703159
4200.00   0.87113100   0.01696652
4202.00   0.85624164   0.01690886
4204.00   0.84856629   0.01685393
4206.00   0.85673022   0.01701171
4208.00   0.87754661   0.01718968
4210.00   0.86675560   0.01720136
4212.00   0.86250281   0.01713935
4214.00   0.90359294   0.01730412
4216.00   0.88259882   0.01715530
4218.00   0.83619523   0.01683618
4220.00   0.86477739   0.01693782
4222.00   0.86196631   0.01691042
4224.00   0.85568517   0.01681140
4226.00   0.87917131   0.01692358
4228.00   0.88799900   0.01701218
4230.00   0.85256135   0.01693113
4232.00   0.83859760   0.01685776
4234.00   0.84899390   0.01704754
4236.00   0.84527928   0.01713524
4238.00   0.87256134   0.01734582
4240.00   0.85390222   0.01703368
4242.00   0.88822371   0.01712703
4244.00   0.87427676   0.01771034
4246.00   0.84341985   0.01803512
4248.00   0.84274226   0.01775975
4250.00   0.88139552   0.01753256
4252.00   0.82602447   0.01678308
4254.00   0.83128428   0.01659060
4256.00   0.86342496   0.01683002
4258.00   0.85777885   0.01676795
4260.00   0.83785647   0.01656419
4262.00   0.86661631   0.01668149
4264.00   0.87250137   0.01675614
4266.00   0.85814422   0.01663571
4268.00   0.85038477   0.01665223
4270.00   0.84779692   0.01653143
4272.00   0.86297303   0.01654628
4274.00   0.86017263   0.01660617
4276.00   0.83921021   0.01656063
4278.00   0.85068381   0.01655438
4280.00   0.82986349   0.01653537
4282.00   0.84497142   0.01661411
4284.00   0.83004284   0.01646472
4286.00   0.78801620   0.01618251
4288.00   0.83033592   0.01634192
4290.00   0.83729762   0.01632481
4292.00   0.81409568   0.01627198
4294.00   0.82747161   0.01637312
4296.00   0.83856332   0.01643172
4298.00   0.82823044   0.01623893
4300.00   0.84069741   0.01621352
4302.00   0.80744046   0.01605374
4304.00   0.80778062   0.01618570
4306.00   0.83215421   0.01633214
4308.00   0.83144248   0.01641454
4310.00   0.82558244   0.01655944
4312.00   0.82195109   0.01703063
4314.00   0.81795406   0.01730403
4316.00   0.82941687   0.01721516
4318.00   0.80472058   0.01711826
4320.00   0.76656950   0.01696421
4322.00   0.80963969   0.01710037
4324.00   0.77844667   0.01687920
4326.00   0.78068370   0.01666020
4328.00   0.79106575   0.01646021
4330.00   0.78677613   0.01639080
4332.00   0.78385454   0.01636898
4334.00   0.76222926   0.01626789
4336.00   0.74480486   0.01634347
4338.00   0.72940558   0.01633440
4340.00   0.73533559   0.01645419
4342.00   0.78182042   0.01674780
4344.00   0.73681223   0.01678987
4346.00   0.74857724   0.01722826
4348.00   0.79386365   0.01753834
4350.00   0.73942596   0.01715965
4352.00   0.74303728   0.01710334
4354.00   0.74908119   0.02012636
4356.00   0.76789230   0.02906812
4358.00   0.75149417   0.03287297
4360.00   0.83183992   0.02999587
4362.00   0.72931206   0.02496415
4364.00   0.74371582   0.02052923
4366.00   0.74508250   0.01790223
4368.00   0.69649243   0.01705172
4370.00   0.72812051   0.01707107
4372.00   0.71999866   0.01726767
4374.00   0.69726962   0.01718231
4376.00   0.68886524   0.01687439
4378.00   0.65558892   0.01660049
4380.00   0.66824871   0.01632304
4382.00   0.67928606   0.01624140
4384.00   0.63754714   0.01588625
4386.00   0.63880622   0.01586828
4388.00   0.58699191   0.01557286
4390.00   0.53994739   0.01595623
4392.00   0.56502593   0.01545598
4394.00   0.61011577   0.01571650
4396.00   0.59242767   0.01572930
4398.00   0.55992675   0.01576011
4400.00   0.55995226   0.01583743
4402.00   0.58903462   0.01582479
4404.00   0.56390941   0.01563957
4406.00   0.57900172   0.01574188
4408.00   0.55747354   0.01562356
4410.00   0.56561244   0.01570996
4412.00   0.57488352   0.01581943
4414.00   0.59768844   0.01602568
4416.00   0.60883898   0.01618355
4418.00   0.64393717   0.01627252
4420.00   0.63816917   0.01612076
4422.00   0.63353938   0.01607716
4424.00   0.65687507   0.01612307
4426.00   0.64701223   0.01603610
4428.00   0.61937726   0.01596837
4430.00   0.63821107   0.01599433
4432.00   0.64892048   0.01608360
4434.00   0.65034002   0.01598548
4436.00   0.63642138   0.01596485
4438.00   0.61310619   0.01586540
4440.00   0.61882687   0.01586076
4442.00   0.69461221   0.01618415
4444.00   0.70072490   0.01619003
4446.00   0.70823789   0.01620111
4448.00   0.65315402   0.01594011
4450.00   0.65936780   0.01588694
4452.00   0.66216904   0.01589087
4454.00   0.66675752   0.01586288
4456.00   0.65234905   0.01578581
4458.00   0.69461054   0.01596945
4460.00   0.71192175   0.01599101
4462.00   0.69590282   0.01597216
4464.00   0.70325613   0.01602890
4466.00   0.73279709   0.01606336
4468.00   0.74632108   0.01611396
4470.00   0.74638736   0.01610751
4472.00   0.72363669   0.01603051
4474.00   0.75726515   0.01617501
4476.00   0.73636532   0.01603084
4478.00   0.70887047   0.01587179
4480.00   0.72986406   0.01608683
4482.00   0.77469629   0.01627141
4484.00   0.73152477   0.01609030
4486.00   0.73993862   0.01606360
4488.00   0.73575902   0.01598406
4490.00   0.74339175   0.01600975
4492.00   0.70837128   0.01594193
4494.00   0.75766635   0.01615305
4496.00   0.76421571   0.01626051
4498.00   0.79262513   0.01630545
4500.00   0.73917592   0.01598224
4502.00   0.73927593   0.01591529
4504.00   0.77568859   0.01605374
4506.00   0.78606719   0.01603539
4508.00   0.74801922   0.01579667
4510.00   0.74844116   0.01573727
4512.00   0.76343697   0.01574031
4514.00   0.77096164   0.01573357
4516.00   0.73729789   0.01557519
4518.00   0.77392548   0.01559488
4520.00   0.75849915   0.01557668
4522.00   0.75956303   0.01558877
4524.00   0.77011120   0.01553191
4526.00   0.75674844   0.01541850
4528.00   0.78149021   0.01544651
4530.00   0.74299896   0.01527071
4532.00   0.70387512   0.01561819
4534.00   0.76512611   0.01526944
4536.00   0.74217224   0.01519962
4538.00   0.75425392   0.01523470
4540.00   0.74549049   0.01519245
4542.00   0.76611221   0.01528302
4544.00   0.79591388   0.01548519
4546.00   0.74246699   0.01520785
4548.00   0.80865866   0.01536970
4550.00   0.75885296   0.01502683
4552.00   0.76023006   0.01492009
4554.00   0.81916672   0.01531324
4556.00   0.77799314   0.01505161
4558.00   0.79751962   0.01522130
4560.00   0.79721397   0.01505431
4562.00   0.80542052   0.01504879
4564.00   0.80816323   0.01504844
4566.00   0.79520553   0.01489301
4568.00   0.80768192   0.01493145
4570.00   0.82179987   0.01504638
4572.00   0.84829736   0.01513216
4574.00   0.84883064   0.01513192
4576.00   0.84944141   0.01512076
4578.00   0.82714885   0.01497107
4580.00   0.87186664   0.01511155
4582.00   0.85721880   0.01495618
4584.00   0.84695983   0.01484977
4586.00   0.87173599   0.01501401
4588.00   0.85064942   0.01488905
4590.00   0.88319618   0.01497819
4592.00   0.88443673   0.01506537
4594.00   0.89040351   0.01504597
4596.00   0.88080931   0.01499625
4598.00   0.91848183   0.01515658
4600.00   0.88279617   0.01485053
4602.00   0.88495535   0.01482719
4604.00   0.88269019   0.01483762
4606.00   0.91079330   0.01501063
4608.00   0.90646690   0.01494520
4610.00   0.91765916   0.01547575
4612.00   0.92850322   0.01515074
4614.00   0.91810167   0.01496666
4616.00   0.93015981   0.01498996
4618.00   0.93786532   0.01499399
4620.00   0.93320882   0.01496939
4622.00   0.92597246   0.01489908
4624.00   0.93880874   0.01497461
4626.00   0.92620456   0.01485905
4628.00   0.92884129   0.01484806
4630.00   0.91667980   0.01476410
4632.00   0.95143270   0.01533263
4634.00   0.90925556   0.01481743
4636.00   0.92168427   0.01475803
4638.00   0.90652990   0.01462524
4640.00   0.92323709   0.01473636
4642.00   0.90439379   0.01457465
4644.00   0.90597826   0.01458612
4646.00   0.94428635   0.01473870
4648.00   0.94643587   0.01472068
4650.00   0.92364973   0.01468985
4652.00   0.93363023   0.01475481
4654.00   0.92718148   0.01473214
4656.00   0.90112644   0.01465422
4658.00   0.93004042   0.01482509
4660.00   0.89853507   0.01472892
4662.00   0.89618677   0.01483213
4664.00   0.90371066   0.01495797
4666.00   0.88356489   0.01494965
4668.00   0.90359885   0.01514752
4670.00   0.90039951   0.01514252
4672.00   0.86824369   0.01500229
4674.00   0.90064389   0.01504698
4676.00   0.88014901   0.01481996
4678.00   0.90563756   0.01483987
4680.00   0.89772856   0.01464067
4682.00   0.90985888   0.01463913
4684.00   0.88473880   0.01438969
4686.00   0.90303338   0.01447048
4688.00   0.92186391   0.01452749
4690.00   0.92363906   0.01446500
4692.00   0.90467840   0.01438673
4694.00   0.90581167   0.01431597
4696.00   0.89003003   0.01421844
4698.00   0.88325763   0.01407193
4700.00   0.90261090   0.01417581
4702.00   0.91852915   0.01428067
4704.00   0.90543151   0.01426048
4706.00   0.90773058   0.01429194
4708.00   0.88326329   0.01423023
4710.00   0.90562665   0.01437113
4712.00   0.92419070   0.01445416
4714.00   0.90634269   0.01432886
4716.00   0.90511817   0.01427188
4718.00   0.92743295   0.01434882
4720.00   0.93545598   0.01441630
4722.00   0.92299169   0.01433912
4724.00   0.91435951   0.01427564
4726.00   0.91249067   0.01451765
4728.00   0.88375747   0.01459194
4730.00   0.92096388   0.01481574
4732.00   0.91246438   0.01482166
4734.00   0.93024206   0.01502053
4736.00   0.92009562   0.01509219
4738.00   0.90758663   0.01516342
4740.00   0.90905660   0.01537339
4742.00   0.89637572   0.01542783
4744.00   0.89892215   0.01527537
4746.00   0.90675908   0.01494521
4748.00   0.90070271   0.01465542
4750.00   0.86000317   0.01431764
4752.00   0.84039682   0.01415509
4754.00   0.87639493   0.01418663
4756.00   0.84811652   0.01390590
4758.00   0.83477920   0.01373724
4760.00   0.81584340   0.01349711
4762.00   0.79213244   0.01326599
4764.00   0.80631387   0.01325739
4766.00   0.81968755   0.01329951
4768.00   0.78929216   0.01311883
4770.00   0.78672415   0.01305900
4772.00   0.80521053   0.01319977
4774.00   0.79699832   0.01317048
4776.00   0.77330899   0.01312109
4778.00   0.78165382   0.01332660
4780.00   0.77645934   0.01325055
4782.00   0.75791681   0.01306390
4784.00   0.79578769   0.01315833
4786.00   0.79112589   0.01309619
4788.00   0.76223361   0.01295900
4790.00   0.78175098   0.01300698
4792.00   0.79638505   0.01312031
4794.00   0.77929950   0.01301493
4796.00   0.79871774   0.01308801
4798.00   0.78818679   0.01298083
4800.00   0.81229669   0.01340302
4802.00   0.79939735   0.01326999
4804.00   0.81686133   0.01306006
4806.00   0.80155200   0.01299601
4808.00   0.80228859   0.01304226
4810.00   0.80264813   0.01301395
4812.00   0.79306489   0.01295696
4814.00   0.79098207   0.01299397
4816.00   0.80243218   0.01305811
4818.00   0.80586880   0.01309961
4820.00   0.78994089   0.01302764
4822.00   0.79145598   0.01313400
4824.00   0.79270303   0.01316441
4826.00   0.80530870   0.01324371
4828.00   0.81051457   0.01324334
4830.00   0.81436408   0.01329852
4832.00   0.81469011   0.01333012
4834.00   0.79765713   0.01326865
4836.00   0.79495621   0.01331150
4838.00   0.79413193   0.01332123
4840.00   0.80721253   0.01345373
4842.00   0.75781977   0.01315105
4844.00   0.79236716   0.01326249
4846.00   0.76077068   0.01309286
4848.00   0.78224015   0.01317396
4850.00   0.74187875   0.01301783
4852.00   0.76950032   0.01313404
4854.00   0.75677782   0.01303748
4856.00   0.77467978   0.01301826
4858.00   0.78063118   0.01306206
4860.00   0.77393270   0.01302310
4862.00   0.81993163   0.01362881
4864.00   0.80458152   0.01341281
4866.00   0.76433516   0.01305466
4868.00   0.75753707   0.01295595
4870.00   0.76333863   0.01295620
4872.00   0.77411020   0.01305143
4874.00   0.74568576   0.01287165
4876.00   0.70389307   0.01275680
4878.00   0.72941917   0.01291587
4880.00   0.73112941   0.01288232
4882.00   0.74238217   0.01296822
4884.00   0.76854318   0.01300480
4886.00   0.74042797   0.01285804
4888.00   0.73268592   0.01277031
4890.00   0.74611455   0.01285379
4892.00   0.77877283   0.01295071
4894.00   0.75877309   0.01284463
4896.00   0.75670213   0.01284661
4898.00   0.75135475   0.01271508
4900.00   0.72832298   0.01266987
4902.00   0.76030660   0.01275496
4904.00   0.76681060   0.01277300
4906.00   0.75343794   0.01275172
4908.00   0.76831692   0.01280816
4910.00   0.74618471   0.01273187
4912.00   0.79242992   0.01291371
4914.00   0.76792765   0.01286661
4916.00   0.77954507   0.01288109
4918.00   0.77132672   0.01276345
4920.00   0.75450826   0.01263572
4922.00   0.77053845   0.01271898
4924.00   0.78272671   0.01273029
4926.00   0.72828156   0.01258951
4928.00   0.71023303   0.01249351
4930.00   0.74723905   0.01245525
4932.00   0.74060172   0.01238979
4934.00   0.72835827   0.01235418
4936.00   0.72809637   0.01236635
4938.00   0.72266853   0.01234403
4940.00   0.68797952   0.01221235
4942.00   0.67533565   0.01211587
4944.00   0.67767704   0.01208731
4946.00   0.65661854   0.01199339
4948.00   0.66638279   0.01199049
4950.00   0.64196682   0.01188063
4952.00   0.65730906   0.01205934
4954.00   0.63528681   0.01200726
4956.00   0.62350899   0.01189278
4958.00   0.61328596   0.01177989
4960.00   0.60829574   0.01183736
4962.00   0.61757511   0.01182745
4964.00   0.60777408   0.01184038
4966.00   0.60714996   0.01187364
4968.00   0.59516340   0.01190093
4970.00   0.58283645   0.01198899
4972.00   0.57808059   0.01215239
4974.00   0.60785127   0.01254337
4976.00   0.70612079   0.01343606
4978.00   0.74101681   0.01398472
4980.00   0.66007638   0.01392589
4982.00   0.66494256   0.01416231
4984.00   0.63962787   0.01405140
4986.00   0.58383983   0.01366081
4988.00   0.58365554   0.01336319
4990.00   0.59654337   0.01314873
4992.00   0.57070422   0.01280580
4994.00   0.59227717   0.01254725
4996.00   0.62689829   0.01246544
4998.00   0.58399743   0.01207537
5000.00   0.60960138   0.01203558
5002.00   0.59395254   0.01182927
5004.00   0.61977917   0.01183784
5006.00   0.60984164   0.01175161
5008.00   0.64385456   0.01187571
5010.00   0.64474744   0.01186721
5012.00   0.64818567   0.01179038
5014.00   0.67636508   0.01194091
5016.00   0.67238706   0.01195884
5018.00   0.67922413   0.01204467
5020.00   0.68981326   0.01212992
5022.00   0.69239217   0.01214282
5024.00   0.71296924   0.01216455
5026.00   0.68230420   0.01198857
5028.00   0.68606383   0.01208825
5030.00   0.71380383   0.01225867
5032.00   0.70641500   0.01216482
5034.00   0.68894595   0.01202870
5036.00   0.70457727   0.01206945
5038.00   0.67435300   0.01185130
5040.00   0.67998493   0.01181129
5042.00   0.69204670   0.01198733
5044.00   0.66757655   0.01183544
5046.00   0.72958922   0.01215460
5048.00   0.70272100   0.01203671
5050.00   0.71058345   0.01210838
5052.00   0.73547941   0.01220633
5054.00   0.71145934   0.01210569
5056.00   0.70671350   0.01209382
5058.00   0.74480778   0.01228350
5060.00   0.71420354   0.01215990
5062.00   0.75369424   0.01249017
5064.00   0.72849530   0.01244170
5066.00   0.75092095   0.01270768
5068.00   0.72964245   0.01277192
5070.00   0.71851987   0.01276524
5072.00   0.74130660   0.01274009
5074.00   0.75166947   0.01277077
5076.00   0.75293159   0.01273256
5078.00   0.75163150   0.01291894
5080.00   0.71004593   0.01318329
5082.00   0.71777350   0.01363884
5084.00   0.71705937   0.01404752
5086.00   0.73762327   0.01422395
5088.00   0.74039876   0.01401963
5090.00   0.72457176   0.01360996
5092.00   0.70754385   0.01308740
5094.00   0.71251702   0.01286786
5096.00   0.73980612   0.01297092
5098.00   0.70830441   0.01285789
5100.00   0.69111282   0.01275182
5102.00   0.74006736   0.01284322
5104.00   0.71980810   0.01261003
5106.00   0.71526831   0.01248642
5108.00   0.67879456   0.01223924
5110.00   0.75473398   0.01254203
5112.00   0.72788829   0.01240098
5114.00   0.74310958   0.01257597
5116.00   0.74663901   0.01265252
5118.00   0.73444808   0.01257450
5120.00   0.72677594   0.01243870
5122.00   0.74035102   0.01245539
5124.00   0.76571423   0.01253296
5126.00   0.80249137   0.01269315
5128.00   0.79465568   0.01270220
5130.00   0.74384499   0.01246771
5132.00   0.78009158   0.01264085
5134.00   0.75700849   0.01253338
5136.00   0.76777762   0.01258151
5138.00   0.75126600   0.01254335
5140.00   0.74304074   0.01251672
5142.00   0.76250100   0.01265112
5144.00   0.75660336   0.01262243
5146.00   0.73763061   0.01267260
5148.00   0.73593342   0.01280336
5150.00   0.75533682   0.01310021
5152.00   0.76238596   0.01327537
5154.00   0.77105141   0.01341373
5156.00   0.76125491   0.01331747
5158.00   0.75551546   0.01319438
5160.00   0.74972981   0.01307814
5162.00   0.76343286   0.01297557
5164.00   0.76689398   0.01283662
5166.00   0.76841676   0.01277367
5168.00   0.75127399   0.01267312
5170.00   0.76916081   0.01269606
5172.00   0.78165573   0.01274444
5174.00   0.77815348   0.01279927
5176.00   0.79027683   0.01293462
5178.00   0.80688906   0.01303095
5180.00   0.83598942   0.01316315
5182.00   0.79902369   0.01296991
5184.00   0.77368659   0.01290619
5186.00   0.79965872   0.01306974
5188.00   0.78344250   0.01306337
5190.00   0.78286344   0.01301728
5192.00   0.82797927   0.01324661
5194.00   0.82632726   0.01334769
5196.00   0.82180494   0.01342642
5198.00   0.85604000   0.01365924
5200.00   0.78487253   0.01342226
5202.00   0.81173074   0.01349614
5204.00   0.80871797   0.01349692
5206.00   0.85026991   0.01363667
5208.00   0.84033293   0.01367937
5210.00   0.85535747   0.01385133
5212.00   0.82294720   0.01368077
5214.00   0.82633072   0.01365014
5216.00   0.88438267   0.01393897
5218.00   0.84875435   0.01389594
5220.00   0.84752536   0.01388181
5222.00   0.85072410   0.01432514
5224.00   0.83787757   0.01472672
5226.00   0.86790097   0.01392474
5228.00   0.84765089   0.01381880
5230.00   0.84532487   0.01381920
5232.00   0.87560523   0.01392614
5234.00   0.85189843   0.01386762
5236.00   0.87445629   0.01404766
5238.00   0.84899563   0.01401581
5240.00   0.88221377   0.01415510
5242.00   0.86190534   0.01402498
5244.00   0.85524231   0.01400616
5246.00   0.85900229   0.01405385
5248.00   0.87062895   0.01412418
5250.00   0.86745691   0.01404226
5252.00   0.89820004   0.01425436
5254.00   0.88026261   0.01421217
5256.00   0.84718925   0.01422792
5258.00   0.85392398   0.01432510
5260.00   0.85770667   0.01437788
5262.00   0.86283118   0.01436995
5264.00   0.85163534   0.01421140
5266.00   0.85458642   0.01423944
5268.00   0.85066342   0.01419117
5270.00   0.84866101   0.01416493
5272.00   0.84799790   0.01422189
5274.00   0.82956791   0.01426994
5276.00   0.81648338   0.01421490
5278.00   0.81176221   0.01422288
5280.00   0.82716578   0.01428811
5282.00   0.84703475   0.01453699
5284.00   0.82611752   0.01446505
5286.00   0.82467192   0.01442715
5288.00   0.79819494   0.01431732
5290.00   0.81187820   0.01435035
5292.00   0.82465774   0.01446910
5294.00   0.80146682   0.01441130
5296.00   0.78199482   0.01430212
5298.00   0.81385607   0.01452329
5300.00   0.81287378   0.01455901
5302.00   0.79582947   0.01453602
5304.00   0.81353343   0.01468326
5306.00   0.82032937   0.01471889
5308.00   0.80789149   0.01461593
5310.00   0.84682250   0.01493132
5312.00   0.82074630   0.01483734
5314.00   0.83226144   0.01490140
5316.00   0.82233405   0.01492078
5318.00   0.82704449   0.01493724
5320.00   0.86222863   0.01515144
5322.00   0.86736691   0.01522347
5324.00   0.85380584   0.01517187
5326.00   0.86851734   0.01528373
5328.00   0.85270506   0.01524274
5330.00   0.83812785   0.01521877
5332.00   0.85634869   0.01542203
5334.00   0.82897967   0.01530147
5336.00   0.84844911   0.01547408
5338.00   0.85399067   0.01561761
5340.00   0.85647541   0.01572895
5342.00   0.86065996   0.01590250
5344.00   0.86555153   0.01594146
5346.00   0.85831183   0.01607597
5348.00   0.85970688   0.01625418
5350.00   0.85901511   0.01634636
5352.00   0.83738345   0.01620560
5354.00   0.84968609   0.01650416
5356.00   0.84908020   0.01720356
5358.00   0.84036672   0.01674891
5360.00   0.83454186   0.01625120
5362.00   0.78351849   0.01600908
5364.00   0.76247543   0.01579264
5366.00   0.80506068   0.01595035
5368.00   0.81480652   0.01598939
5370.00   0.80731964   0.01592833
5372.00   0.75889385   0.01576994
5374.00   0.76086020   0.01601844
5376.00   0.76685899   0.01613286
5378.00   0.75003844   0.01606739
5380.00   0.75512111   0.01618487
5382.00   0.76946145   0.01628078
5384.00   0.76431364   0.01630844
5386.00   0.75986689   0.01631843
5388.00   0.71183926   0.01618035
5390.00   0.73271382   0.01659459
5392.00   0.73211920   0.01664987
5394.00   0.74389493   0.01680874
5396.00   0.69941312   0.01660489
5398.00   0.65963113   0.01642803
5400.00   0.70046693   0.01671764
5402.00   0.69856000   0.01681275
5404.00   0.72905636   0.01701296
5406.00   0.70347673   0.01701710
5408.00   0.70398611   0.01706239
5410.00   0.72553176   0.01741194
5412.00   0.68157256   0.01748173
5414.00   0.67561829   0.01780687
5416.00   0.69488621   0.01809884
5418.00   0.71683335   0.01846707
5420.00   0.69405216   0.01844794
5422.00   0.68600148   0.01834519
5424.00   0.70458418   0.01860673
5426.00   0.70716399   0.01865968
5428.00   0.67319316   0.01842222
5430.00   0.71016419   0.01857392
5432.00   0.70125741   0.01857419
5434.00   0.72620803   0.01873550
5436.00   0.72083038   0.01872017
5438.00   0.68598813   0.01867365
5440.00   0.70876831   0.01884007
5442.00   0.71360177   0.00737430
5444.00   0.70536035   0.00702261
5446.00   0.70348132   0.00703370
5448.00   0.70530450   0.00710674
5450.00   0.70846802   0.00759393
5452.00   0.71424943   0.00869685
5454.00   0.72078860   0.00943850
5456.00   0.73008537   0.00944058
5458.00   0.73946571   0.00911391
5460.00   0.73393404   0.00939205
5462.00   0.70791972   0.01034871
5464.00   0.69990522   0.01043425
5466.00   0.69591749   0.00986732
5468.00   0.70303476   0.00934847
5470.00   0.73124200   0.00905908
5472.00   0.76457667   0.00881907
5474.00   0.76815832   0.00847353
5476.00   0.74508113   0.00801143
5478.00   0.74423009   0.00772338
5480.00   0.75615740   0.00749474
5482.00   0.76408637   0.00744425
5484.00   0.76506203   0.00776369
5486.00   0.76679367   0.00804195
5488.00   0.77822608   0.00774121
5490.00   0.79838377   0.00688916
5492.00   0.80584276   0.00667477
5494.00   0.80885994   0.00695009
5496.00   0.80338365   0.00709451
5498.00   0.78364766   0.00723978
5500.00   0.76444978   0.00729669
5502.00   0.75704259   0.00712387
5504.00   0.75597388   0.00676332
5506.00   0.75752991   0.00664175
5508.00   0.76904118   0.00669212
5510.00   0.77084959   0.00668749
5512.00   0.76334780   0.00667065
5514.00   0.75688237   0.00666351
5516.00   0.75610811   0.00657521
5518.00   0.75790834   0.00650350
5520.00   0.75887251   0.00700160
5522.00   0.76103461   0.00839057
5524.00   0.76169497   0.00858396
5526.00   0.76335716   0.00794720
5528.00   0.76131612   0.00731474
5530.00   0.75263399   0.00686974
5532.00   0.74141806   0.00649452
5534.00   0.73575562   0.00631227
5536.00   0.73236221   0.00632417
5538.00   0.73182452   0.00641368
5540.00   0.73641175   0.00665870
5542.00   0.73896754   0.00691467
5544.00   0.74162042   0.00725541
5546.00   0.74058551   0.00753512
5548.00   0.72792476   0.00754167
5550.00   0.70337313   0.00733511
5552.00   0.69146758   0.00716513
5554.00   0.68550134   0.00685945
5556.00   0.68179744   0.00668390
5558.00   0.68497074   0.00666922
5560.00   0.68555820   0.00668703
5562.00   0.67283088   0.00662179
5564.00   0.65057117   0.00651537
5566.00   0.64548719   0.00661283
5568.00   0.65798742   0.00666474
5570.00   0.65761590   0.00717945
5572.00   0.64413404   0.00829678
5574.00   0.63465130   0.00911395
5576.00   0.63927799   0.00935862
5578.00   0.65105611   0.00930413
5580.00   0.65305513   0.00918117
5582.00   0.64871269   0.00889188
5584.00   0.64690167   0.00845159
5586.00   0.64294320   0.00757853
5588.00   0.64270872   0.00688608
5590.00   0.65046483   0.00673649
5592.00   0.66054881   0.00683701
5594.00   0.65990579   0.00663192
5596.00   0.64750510   0.00607948
5598.00   0.64857900   0.00618935
5600.00   0.65761995   0.00692502
5602.00   0.66823095   0.00741076
5604.00   0.68299246   0.00770486
5606.00   0.69708592   0.00783054
5608.00   0.70185351   0.00763291
5610.00   0.70021117   0.00706215
5612.00   0.69664186   0.00668453
5614.00   0.68398935   0.00618241
5616.00   0.67972821   0.00598350
5618.00   0.68368977   0.00625128
5620.00   0.69161689   0.00655098
5622.00   0.70206702   0.00655144
5624.00   0.71646959   0.00640323
5626.00   0.72398669   0.00630635
5628.00   0.72601593   0.00611188
5630.00   0.72973830   0.00607759
5632.00   0.73192573   0.00623095
5634.00   0.73699200   0.00637473
5636.00   0.74839789   0.00642139
5638.00   0.76387918   0.00642400
5640.00   0.77627349   0.00638815
5642.00   0.79015571   0.00627386
5644.00   0.79875076   0.00620451
5646.00   0.80079800   0.00613707
5648.00   0.80471379   0.00609768
5650.00   0.81341159   0.00608772
5652.00   0.82404554   0.00611073
5654.00   0.83308399   0.00619726
5656.00   0.84308499   0.00639304
5658.00   0.84920281   0.00645745
5660.00   0.84971410   0.00641262
5662.00   0.85379779   0.00641270
5664.00   0.86544520   0.00643818
5666.00   0.87710577   0.00652542
5668.00   0.87704623   0.00679303
5670.00   0.86529154   0.00727149
5672.00   0.86956728   0.00739619
5674.00   0.88774413   0.00720982
5676.00   0.89958823   0.00717037
5678.00   0.90478075   0.00724451
5680.00   0.90866780   0.00740245
5682.00   0.91502404   0.00768995
5684.00   0.92238945   0.00810481
5686.00   0.92724663   0.00823849
5688.00   0.93058449   0.00818533
5690.00   0.93298733   0.00811659
5692.00   0.93350601   0.00796687
5694.00   0.93420094   0.00781101
5696.00   0.93758690   0.00772005
5698.00   0.94205451   0.00765316
5700.00   0.93814981   0.00745031
5702.00   0.92315316   0.00703170
5704.00   0.91715544   0.00681272
5706.00   0.91546190   0.00675687
5708.00   0.91640931   0.00670321
5710.00   0.92208821   0.00654740
5712.00   0.92934340   0.00640123
5714.00   0.92622280   0.00654785
5716.00   0.91211206   0.00689763
5718.00   0.90661001   0.00732433
5720.00   0.90210515   0.00822155
5722.00   0.90342176   0.00849181
5724.00   0.91415793   0.00771537
5726.00   0.92785484   0.00658689
5728.00   0.93432683   0.00667636
5730.00   0.93782538   0.00772018
5732.00   0.93786824   0.00783861
5734.00   0.93000132   0.00745099
5736.00   0.92808026   0.00715350
5738.00   0.93319339   0.00686975
5740.00   0.94029856   0.00666379
5742.00   0.94629776   0.00673573
5744.00   0.95348376   0.00706195
5746.00   0.95289797   0.00694452
5748.00   0.94401389   0.00634835
5750.00   0.93785149   0.00605271
5752.00   0.93187946   0.00598091
5754.00   0.92744952   0.00605496
5756.00   0.92591196   0.00627073
5758.00   0.92653519   0.00661266
5760.00   0.92777342   0.00689519
5762.00   0.93197542   0.00732659
5764.00   0.93317342   0.00743172
5766.00   0.93260604   0.00723620
5768.00   0.93101245   0.00701977
5770.00   0.92715085   0.00684043
5772.00   0.92276210   0.00668019
5774.00   0.92525923   0.00672515
5776.00   0.93854791   0.00707676
5778.00   0.93802315   0.00709576
5780.00   0.92408472   0.00678666
5782.00   0.91643518   0.00667984
5784.00   0.91898853   0.00689922
5786.00   0.92598867   0.00725712
5788.00   0.93314427   0.00760426
5790.00   0.94730669   0.00809347
5792.00   0.94268852   0.00821758
5794.00   0.91559809   0.00810443
5796.00   0.90116954   0.00789203
5798.00   0.90117902   0.00748891
5800.00   0.90629786   0.00702659
5802.00   0.91022021   0.00668866
5804.00   0.91609031   0.00638202
5806.00   0.92102993   0.00632023
5808.00   0.93101305   0.00655997
5810.00   0.93027282   0.00672931
5812.00   0.91281301   0.00692773
5814.00   0.89925593   0.00706678
5816.00   0.90597010   0.00705967
5818.00   0.92473781   0.00695219
5820.00   0.92776597   0.00692041
5822.00   0.92231232   0.00689347
5824.00   0.91613686   0.00690494
5826.00   0.90270698   0.00703443
5828.00   0.89412743   0.00705180
5830.00   0.89695156   0.00678928
5832.00   0.90560776   0.00638566
5834.00   0.90848613   0.00633018
5836.00   0.91335571   0.00661026
5838.00   0.90778321   0.00666263
5840.00   0.89025414   0.00662099
5842.00   0.87536746   0.00658692
5844.00   0.86440217   0.00656935
5846.00   0.85646302   0.00656243
5848.00   0.85530841   0.00659138
5850.00   0.86355537   0.00666364
5852.00   0.86164421   0.00669410
5854.00   0.85303527   0.00663231
5856.00   0.84550756   0.00670712
5858.00   0.83697498   0.00703436
5860.00   0.83081591   0.00732232
5862.00   0.83420420   0.00725923
5864.00   0.84762859   0.00693094
5866.00   0.84229225   0.00674826
5868.00   0.81949806   0.00654099
5870.00   0.80441725   0.00642710
5872.00   0.79445207   0.00638835
5874.00   0.78659487   0.00643730
5876.00   0.78027284   0.00648980
5878.00   0.77587444   0.00656632
5880.00   0.76966459   0.00739966
5882.00   0.76454341   0.00839595
5884.00   0.75524247   0.01000450
5886.00   0.73312300   0.01250059
5888.00   0.72363538   0.01415439
5890.00   0.74219668   0.01460407
5892.00   0.77634197   0.01446060
5894.00   0.79527003   0.01451106
5896.00   0.81440061   0.01459660
5898.00   0.81932795   0.01427821
5900.00   0.81227964   0.01366098
5902.00   0.79890877   0.01271610
5904.00   0.77372086   0.01108386
5906.00   0.74645627   0.00896976
5908.00   0.74315196   0.00768438
5910.00   0.76238620   0.00718175
5912.00   0.76441246   0.00681007
5914.00   0.76082528   0.00715569
5916.00   0.75366181   0.00733941
5918.00   0.73648423   0.00736897
5920.00   0.72218633   0.00732929
5922.00   0.73000312   0.00719120
5924.00   0.75604784   0.00693203
5926.00   0.76870883   0.00675654
5928.00   0.77791262   0.00656795
5930.00   0.78460002   0.00646766
5932.00   0.78698546   0.00649359
5934.00   0.78889960   0.00653466
5936.00   0.79406345   0.00650791
5938.00   0.80092305   0.00645261
5940.00   0.80286044   0.00640115
5942.00   0.79958564   0.00635039
5944.00   0.79933077   0.00627385
5946.00   0.79837430   0.00613906
5948.00   0.80153608   0.00604027
5950.00   0.81292319   0.00602889
5952.00   0.82924587   0.00607249
5954.00   0.83918083   0.00612426
5956.00   0.84649986   0.00625196
5958.00   0.85228115   0.00628075
5960.00   0.85607576   0.00624882
5962.00   0.85825461   0.00619346
5964.00   0.85808396   0.00610355
5966.00   0.85677969   0.00599988
5968.00   0.85723317   0.00595846
5970.00   0.85509443   0.00595996
5972.00   0.86424392   0.00596614
5974.00   0.88931030   0.00600558
5976.00   0.90438461   0.00602901
5978.00   0.90462911   0.00603506
5980.00   0.90104538   0.00602953
5982.00   0.90573072   0.00601131
5984.00   0.91587716   0.00597839
5986.00   0.91622925   0.00594600
5988.00   0.90629721   0.00588948
5990.00   0.90262973   0.00586912
5992.00   0.90574586   0.00590336
5994.00   0.90966004   0.00593324
5996.00   0.90977097   0.00590538
5998.00   0.90793377   0.00584020
6000.00   0.91037565   0.00582255
6002.00   0.91811949   0.00583977
6004.00   0.92111355   0.00584135
6006.00   0.92010289   0.00582054
6008.00   0.91854978   0.00582116
6010.00   0.91792840   0.00589043
6012.00   0.91737324   0.00599015
6014.00   0.91677988   0.00595173
6016.00   0.91753912   0.00575423
6018.00   0.91510969   0.00566314
6020.00   0.91153371   0.00562168
6022.00   0.90473586   0.00558749
6024.00   0.89452076   0.00555675
6026.00   0.88085169   0.00552882
6028.00   0.86199635   0.00547735
6030.00   0.83319169   0.00539430
6032.00   0.81674510   0.00535188
6034.00   0.80107838   0.00529551
6036.00   0.79997510   0.00532128
6038.00   0.81821829   0.00547466
6040.00   0.84627920   0.00565744
6042.00   0.87366086   0.00575613
6044.00   0.90889597   0.00583471
6046.00   0.92703396   0.00581475
6048.00   0.93205953   0.00561134
6050.00   0.93608880   0.00555540
6052.00   0.93699718   0.00565011
6054.00   0.93646157   0.00580840
6056.00   0.93583935   0.00600057
6058.00   0.93373287   0.00625075
6060.00   0.94046080   0.00634072
6062.00   0.96331972   0.00637073
6064.00   0.96796298   0.00627419
6066.00   0.95425504   0.00596894
6068.00   0.93954360   0.00566273
6070.00   0.93197572   0.00548612
6072.00   0.92697501   0.00537696
6074.00   0.92489731   0.00530940
6076.00   0.92723262   0.00530379
6078.00   0.92859155   0.00533374
6080.00   0.93093795   0.00540079
6082.00   0.93292791   0.00551680
6084.00   0.93322951   0.00575886
6086.00   0.93351746   0.00600512
6088.00   0.93832964   0.00591596
6090.00   0.94834620   0.00541299
6092.00   0.95410639   0.00527212
6094.00   0.96233308   0.00535169
6096.00   0.96198595   0.00542639
6098.00   0.94761646   0.00545128
6100.00   0.92933196   0.00550955
6102.00   0.92194921   0.00568817
6104.00   0.92100352   0.00595132
6106.00   0.91725171   0.00623861
6108.00   0.91289955   0.00670445
6110.00   0.91013438   0.00691300
6112.00   0.90877420   0.00687607
6114.00   0.90874165   0.00670972
6116.00   0.90999967   0.00646182
6118.00   0.91242498   0.00606838
6120.00   0.91760838   0.00581365
6122.00   0.92903972   0.00555883
6124.00   0.93397111   0.00547685
6126.00   0.93381095   0.00563574
6128.00   0.93096584   0.00580363
6130.00   0.92628211   0.00588022
6132.00   0.91932017   0.00592167
6134.00   0.91127723   0.00581823
6136.00   0.89798570   0.00544999
6138.00   0.89186156   0.00531128
6140.00   0.89247471   0.00531866
6142.00   0.89233345   0.00537912
6144.00   0.88926405   0.00549027
6146.00   0.88485920   0.00563472
6148.00   0.87923187   0.00570083
6150.00   0.87179470   0.00572886
6152.00   0.86461210   0.00573354
6154.00   0.85597616   0.00563152
6156.00   0.84897000   0.00564707
6158.00   0.84466702   0.00590656
6160.00   0.84124041   0.00617296
6162.00   0.83610356   0.00610659
6164.00   0.82998103   0.00577557
6166.00   0.82459301   0.00553066
6168.00   0.82031649   0.00513404
6170.00   0.81439525   0.00494981
6172.00   0.80576217   0.00509835
6174.00   0.79721934   0.00529424
6176.00   0.79213595   0.00528635
6178.00   0.78982860   0.00518091
6180.00   0.78209853   0.00507547
6182.00   0.76957893   0.00476455
6184.00   0.75880098   0.00478339
6186.00   0.74854285   0.00526182
6188.00   0.73898989   0.00561779
6190.00   0.73085523   0.00550316
6192.00   0.72375721   0.00510917
6194.00   0.71478230   0.00512968
6196.00   0.70555037   0.00548506
6198.00   0.69406974   0.00563729
6200.00   0.68144262   0.00578237
6202.00   0.66608644   0.00578030
6204.00   0.64658147   0.00550527
6206.00   0.62442648   0.00505682
6208.00   0.60407972   0.00483452
6210.00   0.58310121   0.00472821
6212.00   0.56435698   0.00467113
6214.00   0.54307389   0.00466422
6216.00   0.53026789   0.00477250
6218.00   0.53224647   0.00510150
6220.00   0.53867668   0.00543466
6222.00   0.53178382   0.00542503
6224.00   0.51550436   0.00514095
6226.00   0.50564796   0.00496731
6228.00   0.49740005   0.00472099
6230.00   0.49037918   0.00458298
6232.00   0.48501751   0.00459014
6234.00   0.48045948   0.00465912
6236.00   0.47623989   0.00472529
6238.00   0.47338733   0.00483112
6240.00   0.46487367   0.00484757
6242.00   0.44761533   0.00481318
6244.00   0.43846366   0.00474220
6246.00   0.43645346   0.00458513
6248.00   0.43735325   0.00444575
6250.00   0.44010118   0.00440448
6252.00   0.44537735   0.00442453
6254.00   0.44439960   0.00448686
6256.00   0.43674296   0.00465554
6258.00   0.43372178   0.00473262
6260.00   0.43277398   0.00475770
6262.00   0.43347922   0.00475948
6264.00   0.43781757   0.00474919
6266.00   0.44340849   0.00471796
6268.00   0.43926597   0.00465011
6270.00   0.42258886   0.00451969
6272.00   0.41747394   0.00443083
6274.00   0.41868159   0.00418689
6276.00   0.42082807   0.00425251
6278.00   0.42333427   0.00490164
6280.00   0.42665932   0.00557678
6282.00   0.42998433   0.00557907
6284.00   0.43415892   0.00502762
6286.00   0.43672627   0.00481903
6288.00   0.43896988   0.00467697
6290.00   0.43935215   0.00463544
6292.00   0.43454000   0.00469969
6294.00   0.43158492   0.00485743
6296.00   0.43941790   0.00504631
6298.00   0.45494765   0.00520242
6300.00   0.47196007   0.00592176
6302.00   0.50200033   0.00747909
6304.00   0.51548105   0.00792754
6306.00   0.51071703   0.00742926
6308.00   0.50205070   0.00661909
6310.00   0.49800345   0.00584314
6312.00   0.49417281   0.00481113
6314.00   0.49462566   0.00453679
6316.00   0.49675205   0.00511930
6318.00   0.50450790   0.00547210
6320.00   0.52323842   0.00605207
6322.00   0.53687173   0.00630776
6324.00   0.53492790   0.00588856
6326.00   0.52584583   0.00502033
6328.00   0.53263807   0.00478358
6330.00   0.55531609   0.00506468
6332.00   0.56529737   0.00512458
6334.00   0.56389630   0.00490866
6336.00   0.57082570   0.00517485
6338.00   0.59797734   0.00640853
6340.00   0.62833565   0.00754070
6342.00   0.62740690   0.00721335
6344.00   0.59369373   0.00515566
6346.00   0.59384245   0.00435709
6348.00   0.61940026   0.00459646
6350.00   0.63488144   0.00469079
6352.00   0.63505656   0.00455909
6354.00   0.63323212   0.00447191
6356.00   0.64296710   0.00466771
6358.00   0.66109335   0.00512134
6360.00   0.66914374   0.00513812
6362.00   0.66984648   0.00471134
6364.00   0.67318040   0.00456518
6366.00   0.67877984   0.00478353
6368.00   0.68434304   0.00497768
6370.00   0.68720287   0.00484475
6372.00   0.68806106   0.00449132
6374.00   0.69966149   0.00457916
6376.00   0.72489250   0.00502241
6378.00   0.74044448   0.00532125
6380.00   0.75263405   0.00575737
6382.00   0.75837499   0.00590873
6384.00   0.75322872   0.00544457
6386.00   0.74091959   0.00451762
6388.00   0.73780096   0.00422469
6390.00   0.73426598   0.00453759
6392.00   0.74283636   0.00450998
6394.00   0.76585668   0.00433813
6396.00   0.78705454   0.00422549
6398.00   0.80794066   0.00425552
6400.00   0.82379973   0.00433652
6402.00   0.81235701   0.00432694
6404.00   0.76311159   0.00423919
6406.00   0.75707638   0.00425237
6408.00   0.78173900   0.00430339
6410.00   0.80129272   0.00441384
6412.00   0.81447721   0.00460566
6414.00   0.82535613   0.00481940
6416.00   0.83360702   0.00501479
6418.00   0.83971292   0.00528014
6420.00   0.84146732   0.00516594
6422.00   0.83534175   0.00451530
6424.00   0.83430743   0.00415326
6426.00   0.83948129   0.00413879
6428.00   0.84471262   0.00424784
6430.00   0.84533924   0.00435711
6432.00   0.84342438   0.00453003
6434.00   0.84163702   0.00461069
6436.00   0.83449477   0.00469304
6438.00   0.83670050   0.00465527
6440.00   0.84869200   0.00442982
6442.00   0.86172819   0.00423323
6444.00   0.87207329   0.00420304
6446.00   0.88181370   0.00426399
6448.00   0.88951010   0.00431344
6450.00   0.89808702   0.00436081
6452.00   0.89947063   0.00449242
6454.00   0.89342755   0.00475584
6456.00   0.88667339   0.00493438
6458.00   0.87865287   0.00498978
6460.00   0.87128580   0.00496513
6462.00   0.87449545   0.00484995
6464.00   0.89136142   0.00451019
6466.00   0.89401573   0.00446919
6468.00   0.88726133   0.00468638
6470.00   0.88171685   0.00483247
6472.00   0.87754607   0.00491746
6474.00   0.87431276   0.00494099
6476.00   0.87345445   0.00481122
6478.00   0.87420893   0.00447390
6480.00   0.87753689   0.00440482
6482.00   0.88719124   0.00455635
6484.00   0.89083469   0.00463782
6486.00   0.88657415   0.00464922
6488.00   0.88162154   0.00466705
6490.00   0.88198292   0.00472863
6492.00   0.88509530   0.00480677
6494.00   0.88775092   0.00500530
6496.00   0.89564586   0.00531817
6498.00   0.89404637   0.00560696
6500.00   0.87953615   0.00605115
6502.00   0.86769831   0.00626785
6504.00   0.86805165   0.00598681
6506.00   0.87496239   0.00534164
6508.00   0.87763041   0.00502578
6510.00   0.88062936   0.00488248
6512.00   0.88144779   0.00471493
6514.00   0.87888652   0.00452942
6516.00   0.87796402   0.00446603
6518.00   0.88158530   0.00464523
6520.00   0.88652825   0.00491269
6522.00   0.88562274   0.00491707
6524.00   0.88111049   0.00462850
6526.00   0.87481260   0.00469376
6528.00   0.86217773   0.00502998
6530.00   0.85463369   0.00528299
6532.00   0.85391080   0.00551989
6534.00   0.85702151   0.00563717
6536.00   0.86189717   0.00532861
6538.00   0.87061745   0.00441857
6540.00   0.87642771   0.00415839
6542.00   0.88030142   0.00447178
6544.00   0.88574547   0.00460505
6546.00   0.89821285   0.00439516
6548.00   0.90506691   0.00437777
6550.00   0.89021271   0.00511772
6552.00   0.85705346   0.00625647
6554.00   0.84851557   0.00667854
6556.00   0.85656291   0.00692120
6558.00   0.86154586   0.00680118
6560.00   0.87062043   0.00600998
6562.00   0.87513947   0.00523304
6564.00   0.86627960   0.00518576
6566.00   0.84911466   0.00555273
6568.00   0.84709418   0.00552834
6570.00   0.85574996   0.00533552
6572.00   0.86268038   0.00516482
6574.00   0.87391645   0.00493771
6576.00   0.88196772   0.00471803
6578.00   0.88448602   0.00451507
6580.00   0.88314933   0.00433531
6582.00   0.87781483   0.00426576
6584.00   0.86409062   0.00434003
6586.00   0.85861713   0.00433635
6588.00   0.85951298   0.00427266
6590.00   0.85793525   0.00428693
6592.00   0.85148531   0.00444507
6594.00   0.84404033   0.00462577
6596.00   0.84036595   0.00466232
6598.00   0.83836567   0.00461898
6600.00   0.83889484   0.00453523
6602.00   0.84527689   0.00432355
6604.00   0.84675825   0.00419314
6606.00   0.84332478   0.00414609
6608.00   0.83685160   0.00415857
6610.00   0.82746685   0.00422271
6612.00   0.81409216   0.00433723
6614.00   0.80624741   0.00451813
6616.00   0.80086005   0.00491625
6618.00   0.79773295   0.00500772
6620.00   0.79649693   0.00479287
6622.00   0.79812104   0.00450688
6624.00   0.80445850   0.00426330
6626.00   0.81457293   0.00399864
6628.00   0.81894511   0.00400293
6630.00   0.82101232   0.00432355
6632.00   0.82034725   0.00447699
6634.00   0.81522107   0.00462937
6636.00   0.81044203   0.00467668
6638.00   0.80850255   0.00452636
6640.00   0.80722266   0.00426242
6642.00   0.80204934   0.00419200
6644.00   0.79119146   0.00427011
6646.00   0.78719461   0.00427635
6648.00   0.78835458   0.00423946
6650.00   0.78893304   0.00426384
6652.00   0.78797293   0.00438902
6654.00   0.78668863   0.00454703
6656.00   0.78564548   0.00465609
6658.00   0.78418815   0.00480289
6660.00   0.78440219   0.00473490
6662.00   0.78641343   0.00440022
6664.00   0.78791511   0.00415264
6666.00   0.78807104   0.00398729
6668.00   0.78894794   0.00390129
6670.00   0.79327619   0.00395375
6672.00   0.80079281   0.00414465
6674.00   0.80370486   0.00423753
6676.00   0.80660552   0.00429975
6678.00   0.80310869   0.00436902
6680.00   0.78980428   0.00447909
6682.00   0.77717191   0.00453541
6684.00   0.77235711   0.00445618
6686.00   0.77175283   0.00427530
6688.00   0.77333057   0.00417127
6690.00   0.77974153   0.00407702
6692.00   0.78461099   0.00401742
6694.00   0.78811067   0.00399490
6696.00   0.79371649   0.00399292
6698.00   0.80500805   0.00398794
6700.00   0.81848067   0.00400409
6702.00   0.82125723   0.00413268
6704.00   0.80340850   0.00428108
6706.00   0.81601411   0.00461694
6708.00   0.84382564   0.00509831
6710.00   0.88705748   0.00558857
6712.00   0.95617539   0.00614817
6714.00   1.03362870   0.00665521
6716.00   1.08145928   0.00684982
6718.00   1.12214220   0.00675890
6720.00   1.12118292   0.00688968
6722.00   1.07812345   0.00735672
6724.00   1.02581751   0.00734244
6726.00   0.95126998   0.00661943
6728.00   0.87777251   0.00558746
6730.00   0.83671457   0.00463634
6732.00   0.80954021   0.00280175
6734.00   0.83265418   0.00483109
6736.00   0.94287103   0.00915301
6738.00   0.98945343   0.01033895
6740.00   0.98146969   0.00965713
6742.00   0.94903630   0.00833785
6744.00   0.90045851   0.00702918
6746.00   0.82948852   0.00504540
6748.00   0.79408216   0.00388357
6750.00   0.78237593   0.00410798
6752.00   0.76862276   0.00401346
6754.00   0.76004046   0.00407779
6756.00   0.75308090   0.00413805
6758.00   0.74596125   0.00409909
6760.00   0.73977685   0.00402255
6762.00   0.73450202   0.00395340
6764.00   0.72945666   0.00382763
6766.00   0.72697389   0.00380429
6768.00   0.72610509   0.00388309
6770.00   0.72756994   0.00393933
6772.00   0.73303068   0.00389797
6774.00   0.73989946   0.00386626
6776.00   0.74202228   0.00407667
6778.00   0.74094754   0.00457217
6780.00   0.74039894   0.00464916
6782.00   0.73951137   0.00443911
6784.00   0.73746228   0.00423699
6786.00   0.73375481   0.00401674
6788.00   0.72943842   0.00380846
6790.00   0.72552210   0.00373228
6792.00   0.72089362   0.00377083
6794.00   0.72014868   0.00376333
6796.00   0.72557658   0.00376896
6798.00   0.72557485   0.00376527
6800.00   0.71912628   0.00370799
6802.00   0.71208972   0.00370525
6804.00   0.70836765   0.00388748
6806.00   0.70599687   0.00419385
6808.00   0.70624602   0.00422555
6810.00   0.71101302   0.00402008
6812.00   0.71279550   0.00391309
6814.00   0.71300101   0.00382866
6816.00   0.71215522   0.00378371
6818.00   0.70949042   0.00379817
6820.00   0.70578444   0.00385860
6822.00   0.70645076   0.00392963
6824.00   0.71136856   0.00403921
6826.00   0.71440488   0.00412958
6828.00   0.71944571   0.00424259
6830.00   0.72066373   0.00430956
6832.00   0.71428043   0.00431108
6834.00   0.70524299   0.00427060
6836.00   0.70433033   0.00420879
6838.00   0.71048385   0.00404166
6840.00   0.71077359   0.00407913
6842.00   0.70620966   0.00436065
6844.00   0.70532972   0.00448174
6846.00   0.71123588   0.00438697
6848.00   0.71758944   0.00421784
6850.00   0.71586090   0.00412205
6852.00   0.70773488   0.00402919
6854.00   0.70505267   0.00400143
6856.00   0.70737499   0.00399809
6858.00   0.70446914   0.00408722
6860.00   0.69187027   0.00430946
6862.00   0.68238288   0.00453192
6864.00   0.68557501   0.00461397
6866.00   0.69630921   0.00459895
6868.00   0.72329265   0.00495331
6870.00   0.78384542   0.00575173
6872.00   0.81314462   0.00606595
6874.00   0.82234687   0.00612975
6876.00   0.81658822   0.00598032
6878.00   0.79238260   0.00548515
6880.00   0.75301927   0.00464919
6882.00   0.72926098   0.00429615
6884.00   0.69702727   0.00391419
6886.00   0.70021743   0.00450005
6888.00   0.75011975   0.00626427
6890.00   0.78366292   0.00708098
6892.00   0.78088897   0.00663926
6894.00   0.76053685   0.00551022
6896.00   0.74136555   0.00488299
6898.00   0.70960861   0.00424640
6900.00   0.69177228   0.00403301
6902.00   0.68169272   0.00449707
6904.00   0.67392868   0.00470773
6906.00   0.66913140   0.00456645
6908.00   0.66607451   0.00431723
6910.00   0.66095334   0.00418466
6912.00   0.65319550   0.00402535
6914.00   0.65518802   0.00415452
6916.00   0.67038095   0.00470900
6918.00   0.67637688   0.00489545
6920.00   0.67118144   0.00470319
6922.00   0.66440135   0.00440350
6924.00   0.66393614   0.00421392
6926.00   0.66665703   0.00403035
6928.00   0.66593820   0.00393730
6930.00   0.66449612   0.00396603
6932.00   0.66072088   0.00395078
6934.00   0.65356606   0.00389610
6936.00   0.64637035   0.00386885
6938.00   0.64048332   0.00391293
6940.00   0.63523328   0.00400106
6942.00   0.63355470   0.00406083
6944.00   0.63538820   0.00413204
6946.00   0.63749403   0.00416803
6948.00   0.64113909   0.00418856
6950.00   0.64523637   0.00417632
6952.00   0.65045899   0.00411567
6954.00   0.65566325   0.00402289
6956.00   0.65614104   0.00394498
6958.00   0.65228093   0.00385325
6960.00   0.64940530   0.00378915
6962.00   0.64311308   0.00372149
6964.00   0.64136285   0.00370705
6966.00   0.64829093   0.00373523
6968.00   0.65651613   0.00382697
6970.00   0.65409261   0.00405555
6972.00   0.64220417   0.00447027
6974.00   0.64076406   0.00452910
6976.00   0.64736992   0.00429082
6978.00   0.65034020   0.00412924
6980.00   0.64988601   0.00398403
6982.00   0.64783931   0.00392789
6984.00   0.64478987   0.00413471
6986.00   0.64024562   0.00456166
6988.00   0.63649762   0.00455962
6990.00   0.63119149   0.00416369
6992.00   0.62936795   0.00394357
6994.00   0.63104677   0.00384369
6996.00   0.63397640   0.00379218
6998.00   0.63718277   0.00375397
7000.00   0.64117521   0.00374995
7002.00   0.64441669   0.00384015
7004.00   0.64999026   0.00411927
7006.00   0.64949310   0.00418172
7008.00   0.64265108   0.00408744
7010.00   0.63585156   0.00396777
7012.00   0.63070136   0.00384846
7014.00   0.62629390   0.00371886
7016.00   0.62437779   0.00365840
7018.00   0.62413716   0.00366311
7020.00   0.62617975   0.00365104
7022.00   0.63208741   0.00364640
7024.00   0.63687873   0.00365071
7026.00   0.63978457   0.00363093
7028.00   0.64188093   0.00364610
7030.00   0.64391685   0.00382928
7032.00   0.64614582   0.00420857
7034.00   0.64575887   0.00427390
7036.00   0.64396906   0.00410420
7038.00   0.63978291   0.00397556
7040.00   0.63083535   0.00386444
7042.00   0.62231648   0.00378258
7044.00   0.62037200   0.00379167
7046.00   0.62297559   0.00388501
7048.00   0.62362343   0.00388286
7050.00   0.62332857   0.00381218
7052.00   0.62561643   0.00377341
7054.00   0.63185203   0.00375343
7056.00   0.63735414   0.00374486
7058.00   0.63859069   0.00374720
7060.00   0.63735449   0.00376078
7062.00   0.63860905   0.00378048
7064.00   0.64293313   0.00380837
7066.00   0.64278775   0.00384283
7068.00   0.63852507   0.00387444
7070.00   0.63404429   0.00392810
7072.00   0.63014662   0.00404466
7074.00   0.62658179   0.00417451
7076.00   0.62601304   0.00414872
7078.00   0.62852609   0.00392743
7080.00   0.63030809   0.00386942
7082.00   0.63367528   0.00391767
7084.00   0.63532919   0.00394257
7086.00   0.63269645   0.00389581
7088.00   0.62992209   0.00384955
7090.00   0.63516229   0.00392712
7092.00   0.64834601   0.00413935
7094.00   0.65430850   0.00417606
7096.00   0.65887731   0.00406755
7098.00   0.65877521   0.00401971
7100.00   0.65255421   0.00405765
7102.00   0.64363956   0.00410653
7104.00   0.63510633   0.00410757
7106.00   0.62457615   0.00409130
7108.00   0.62022144   0.00402191
7110.00   0.62048858   0.00385177
7112.00   0.62191409   0.00375410
7114.00   0.62656128   0.00372173
7116.00   0.63083059   0.00371955
7118.00   0.63135862   0.00373511
7120.00   0.62970340   0.00377560
7122.00   0.63159883   0.00379675
7124.00   0.63594604   0.00379524
7126.00   0.63990587   0.00383179
7128.00   0.64666462   0.00393263
7130.00   0.64971322   0.00399018
7132.00   0.64530933   0.00393945
7134.00   0.63641584   0.00383426
7136.00   0.62961447   0.00382831
7138.00   0.62024450   0.00389964
7140.00   0.61610061   0.00393241
7142.00   0.61653686   0.00392876
7144.00   0.61693954   0.00397841
7146.00   0.61559653   0.00415242
7148.00   0.61482549   0.00433161
7150.00   0.61855912   0.00429873
7152.00   0.62792861   0.00407758
7154.00   0.63080692   0.00394203
7156.00   0.63002986   0.00366303
7158.00   0.62828726   0.00366480
7160.00   0.62436169   0.00411458
7162.00   0.62048519   0.00456924
7164.00   0.62055397   0.00465407
7166.00   0.62413639   0.00453355
7168.00   0.62221503   0.00442989
7170.00   0.61669046   0.00418670
7172.00   0.61071527   0.00404402
7174.00   0.60356683   0.00402161
7176.00   0.59588486   0.00401641
7178.00   0.58759427   0.00394219
7180.00   0.57846797   0.00383251
7182.00   0.57488370   0.00385421
7184.00   0.57369852   0.00403439
7186.00   0.57805127   0.00409598
7188.00   0.59007835   0.00405007
7190.00   0.60254598   0.00403421
7192.00   0.61328608   0.00413324
7194.00   0.62324792   0.00427870
7196.00   0.62730992   0.00430408
7198.00   0.62368137   0.00416208
7200.00   0.62466466   0.00422311
7202.00   0.62915772   0.00451606
7204.00   0.63033885   0.00464511
7206.00   0.62491059   0.00447179
7208.00   0.61719209   0.00417022
7210.00   0.61523300   0.00408245
7212.00   0.61752707   0.00414779
7214.00   0.61708611   0.00409949
7216.00   0.61663157   0.00395329
7218.00   0.61448997   0.00389660
7220.00   0.60911179   0.00399097
7222.00   0.60366803   0.00410708
7224.00   0.60293359   0.00407995
7226.00   0.60634226   0.00391324
7228.00   0.60426021   0.00404069
7230.00   0.59757900   0.00440498
7232.00   0.59307170   0.00469053
7234.00   0.59016740   0.00496260
7236.00   0.58818597   0.00518332
7238.00   0.58698756   0.00530704
7240.00   0.58664590   0.00536255
7242.00   0.58705145   0.00540359
7244.00   0.58658266   0.00546180
7246.00   0.59057403   0.00538090
7248.00   0.60119468   0.00509694
7250.00   0.61013651   0.00482645
7252.00   0.61343217   0.00471725
7254.00   0.61345893   0.00468767
7256.00   0.61126781   0.00456496
7258.00   0.60268283   0.00434676
7260.00   0.60045868   0.00423412
7262.00   0.60372889   0.00417076
7264.00   0.60507208   0.00417193
7266.00   0.60168087   0.00423114
7268.00   0.59667134   0.00435767
7270.00   0.59485620   0.00459063
7272.00   0.59420300   0.00496606
7274.00   0.59547508   0.00519833
7276.00   0.59803176   0.00544314
7278.00   0.60305148   0.00553476
7280.00   0.61290604   0.00541959
7282.00   0.62298131   0.00521330
7284.00   0.62654001   0.00507476
7286.00   0.62660098   0.00494451
7288.00   0.62197971   0.00478246
7290.00   0.60920572   0.00456215
7292.00   0.60001040   0.00439278
7294.00   0.59403539   0.00426071
7296.00   0.58907330   0.00418314
7298.00   0.58339828   0.00418145
7300.00   0.57739317   0.00424541
7302.00   0.57702714   0.00439676
7304.00   0.58331031   0.00464137
7306.00   0.58661962   0.00489871
7308.00   0.58730859   0.00526998
7310.00   0.58928812   0.00552460
7312.00   0.59558815   0.00554226
7314.00   0.60419947   0.00541257
7316.00   0.60701990   0.00531976
7318.00   0.60778052   0.00519258
7320.00   0.60362500   0.00504216
7322.00   0.59245586   0.00483778
7324.00   0.58200592   0.00464210
7326.00   0.57362843   0.00445719
7328.00   0.56670552   0.00429615
7330.00   0.56418103   0.00424338
7332.00   0.56590152   0.00422614
7334.00   0.56805873   0.00442446
7336.00   0.57175642   0.00489269
7338.00   0.57714260   0.00522906
7340.00   0.58445215   0.00547584
7342.00   0.59324473   0.00560961
7344.00   0.60350549   0.00547647
7346.00   0.61759394   0.00501426
7348.00   0.62224895   0.00484167
7350.00   0.62048918   0.00486356
7352.00   0.61590189   0.00482282
7354.00   0.60548937   0.00470538
7356.00   0.59505540   0.00459474
7358.00   0.59139925   0.00452837
7360.00   0.59223115   0.00446530
7362.00   0.58775544   0.00469640
7364.00   0.57809901   0.00530416
7366.00   0.57320428   0.00559717
7368.00   0.57140189   0.00573534
7370.00   0.57219315   0.00573711
7372.00   0.57723236   0.00555166
7374.00   0.58538628   0.00519462
7376.00   0.58495247   0.00494529
7378.00   0.57378054   0.00466892
7380.00   0.57264102   0.00449674
7382.00   0.57695353   0.00443049
7384.00   0.58441126   0.00440763
7386.00   0.59625888   0.00443091
7388.00   0.61042064   0.00448479
7390.00   0.61823601   0.00446505
7392.00   0.62364382   0.00431863
7394.00   0.62403178   0.00439331
7396.00   0.61840594   0.00468036
7398.00   0.61182761   0.00487915
7400.00   0.60391963   0.00500056
7402.00   0.59556723   0.00503930
7404.00   0.58964181   0.00489052
7406.00   0.58480120   0.00450731
7408.00   0.58195788   0.00426811
7410.00   0.58237511   0.00403494
7412.00   0.58139712   0.00388594
7414.00   0.57780850   0.00384615
7416.00   0.57509279   0.00387248
7418.00   0.57696551   0.00393599
7420.00   0.58237028   0.00406225
7422.00   0.58512962   0.00410172
7424.00   0.58696300   0.00408190
7426.00   0.58888143   0.00407744
7428.00   0.59186441   0.00406715
7430.00   0.59311301   0.00407053
7432.00   0.59064960   0.00410655
7434.00   0.58552891   0.00416436
7436.00   0.58002394   0.00420807
7438.00   0.57017034   0.00429222
7440.00   0.56641746   0.00427872
7442.00   0.56786108   0.00415492
7444.00   0.56995106   0.00404103
7446.00   0.57176280   0.00396381
7448.00   0.57363969   0.00391703
7450.00   0.57305944   0.00398601
7452.00   0.56943625   0.00424080
7454.00   0.56834096   0.00428923
7456.00   0.56848586   0.00420680
7458.00   0.56879771   0.00412399
7460.00   0.56910992   0.00403411
7462.00   0.56964326   0.00395843
7464.00   0.57071698   0.00399046
7466.00   0.57322645   0.00412447
7468.00   0.57209063   0.00419598
7470.00   0.56756926   0.00425315
7472.00   0.56362343   0.00430833
7474.00   0.55965835   0.00436881
7476.00   0.55633837   0.00441762
7478.00   0.55525720   0.00443278
7480.00   0.55628836   0.00441757
7482.00   0.55440289   0.00443297
7484.00   0.54789120   0.00447197
7486.00   0.54726464   0.00449340
7488.00   0.55358630   0.00455260
7490.00   0.56022513   0.00453435
7492.00   0.56300747   0.00429970
7494.00   0.56406516   0.00388249
7496.00   0.56486601   0.00377842
7498.00   0.56570375   0.00396122
7500.00   0.56395674   0.00402057
7502.00   0.55906922   0.00408444
7504.00   0.55413455   0.00408196
7506.00   0.54997158   0.00393693
7508.00   0.54619360   0.00371321
7510.00   0.54428387   0.00367287
7512.00   0.54447883   0.00376190
7514.00   0.54401702   0.00385074
7516.00   0.54464531   0.00391073
7518.00   0.54378384   0.00411850
7520.00   0.54036814   0.00454257
7522.00   0.53596455   0.00500816
7524.00   0.53277725   0.00532220
7526.00   0.52831000   0.00567845
7528.00   0.53017908   0.00563052
7530.00   0.54335248   0.00509391
7532.00   0.54615110   0.00468180
7534.00   0.53230351   0.00445629
7536.00   0.51725841   0.00429772
7538.00   0.51821226   0.00412484
7540.00   0.52961338   0.00396314
7542.00   0.53625470   0.00392140
7544.00   0.54647833   0.00406946
7546.00   0.54973704   0.00409359
7548.00   0.54400378   0.00393879
7550.00   0.53776473   0.00384441
7552.00   0.53783733   0.00403669
7554.00   0.54110354   0.00439337
7556.00   0.53743654   0.00446839
7558.00   0.52773124   0.00436892
7560.00   0.52036393   0.00428268
7562.00   0.51154667   0.00406799
7564.00   0.50605190   0.00396838
7566.00   0.50688654   0.00416753
7568.00   0.51169294   0.00449823
7570.00   0.51480412   0.00458129
7572.00   0.52087098   0.00451537
7574.00   0.52104777   0.00447444
7576.00   0.51435959   0.00435805
7578.00   0.51073200   0.00429795
7580.00   0.51172107   0.00436468
7582.00   0.51597679   0.00446099
7584.00   0.52559072   0.00441131
7586.00   0.54882079   0.00421283
7588.00   0.54518527   0.00417204
7590.00   0.52023602   0.00410570
7592.00   0.49433157   0.00428183
7594.00   0.45023471   0.00426730
7596.00   0.42111459   0.00486107
7598.00   0.46549886   0.00689408
7600.00   0.58271569   0.00954030
7602.00   0.60150164   0.01036532
7604.00   0.54227066   0.01034648
7606.00   0.51277924   0.01023337
7608.00   0.50716388   0.00986432
7610.00   0.50473261   0.00934601
7612.00   0.49589181   0.00881547
7614.00   0.48564827   0.00818699
7616.00   0.46747872   0.00738989
7618.00   0.42440385   0.00583565
7620.00   0.41844606   0.00517805
7622.00   0.45582747   0.00571840
7624.00   0.48614103   0.00634153
7626.00   0.48128477   0.00668700
7628.00   0.46084759   0.00699637
7630.00   0.46574271   0.00723295
7632.00   0.49437624   0.00754001
7634.00   0.50240451   0.00751127
7636.00   0.50054604   0.00717812
7638.00   0.49449834   0.00675504
7640.00   0.48439953   0.00619067
7642.00   0.47083119   0.00554477
7644.00   0.45727134   0.00524591
7646.00   0.43619487   0.00520332
7648.00   0.43387640   0.00533773
7650.00   0.45538282   0.00594230
7652.00   0.46255001   0.00616893
7654.00   0.44624338   0.00587112
7656.00   0.42622808   0.00542560
7658.00   0.42491031   0.00534174
7660.00   0.43442771   0.00547094
7662.00   0.44436139   0.00549740
7664.00   0.46026534   0.00510661
7666.00   0.47536379   0.00557151
7668.00   0.49563855   0.00731520
7670.00   0.50942367   0.00840361
7672.00   0.50382793   0.00773611
7674.00   0.48346794   0.00543599
7676.00   0.47358710   0.00436977
7678.00   0.46574119   0.00414425
7680.00   0.45971224   0.00418042
7682.00   0.45392933   0.00495056
7684.00   0.45244673   0.00550060
7686.00   0.46044725   0.00546816
7688.00   0.47393438   0.00514684
7690.00   0.47246715   0.00503734
7692.00   0.45577613   0.00501489
7694.00   0.44921854   0.00491148
7696.00   0.44646820   0.00476071
7698.00   0.44549429   0.00458831
7700.00   0.44567972   0.00433364
7702.00   0.44764784   0.00408053
7704.00   0.45219067   0.00413030
7706.00   0.45924670   0.00427355
7708.00   0.46783409   0.00486056
7710.00   0.48240051   0.00598610
7712.00   0.49098435   0.00664693
7714.00   0.49033490   0.00693937
7716.00   0.48684901   0.00699196
7718.00   0.48808581   0.00674511
7720.00   0.49083337   0.00607160
7722.00   0.49543867   0.00563805
7724.00   0.50679666   0.00519889
7726.00   0.50968492   0.00488995
7728.00   0.50125235   0.00479837
7730.00   0.49158993   0.00476790
7732.00   0.48873189   0.00462615
7734.00   0.48886651   0.00442765
7736.00   0.49254948   0.00445467
7738.00   0.50311565   0.00474051
7740.00   0.50933999   0.00486830
7742.00   0.51358622   0.00476289
7744.00   0.51546526   0.00483286
7746.00   0.51430017   0.00538820
7748.00   0.51051515   0.00613008
7750.00   0.50557292   0.00632761
7752.00   0.49648169   0.00620434
7754.00   0.49147955   0.00604729
7756.00   0.48950800   0.00567078
7758.00   0.48745981   0.00531915
7760.00   0.48364076   0.00509364
7762.00   0.47992313   0.00492786
7764.00   0.48029879   0.00475995
7766.00   0.48238286   0.00461845
7768.00   0.48958987   0.00449787
7770.00   0.50414914   0.00434018
7772.00   0.51673299   0.00432485
7774.00   0.52709359   0.00455013
7776.00   0.53552544   0.00482078
7778.00   0.53997314   0.00488923
7780.00   0.53994733   0.00484500
7782.00   0.54280925   0.00480916
7784.00   0.55006438   0.00455059
7786.00   0.55013931   0.00464788
7788.00   0.53955483   0.00522660
7790.00   0.52834600   0.00578199
7792.00   0.52634567   0.00601366
7794.00   0.52996814   0.00611382
7796.00   0.52904075   0.00597591
7798.00   0.52556127   0.00540962
7800.00   0.52389842   0.00504794
7802.00   0.52477026   0.00482954
7804.00   0.52445430   0.00468785
7806.00   0.51966953   0.00461352
7808.00   0.51232064   0.00461748
7810.00   0.51141769   0.00461483
7812.00   0.51429999   0.00451006
7814.00   0.51931673   0.00471686
7816.00   0.52947289   0.00526609
7818.00   0.53793377   0.00568303
7820.00   0.54312253   0.00590839
7822.00   0.54585689   0.00600990
7824.00   0.54356658   0.00586441
7826.00   0.53305960   0.00535016
7828.00   0.52992469   0.00501098
7830.00   0.52945036   0.00461649
7832.00   0.53169727   0.00436498
7834.00   0.53756553   0.00433837
7836.00   0.54543275   0.00445234
7838.00   0.55282474   0.00460166
7840.00   0.56299943   0.00486211
7842.00   0.56429386   0.00501243
7844.00   0.55760306   0.00485587
7846.00   0.55122370   0.00520697
7848.00   0.54224718   0.00622878
7850.00   0.53546566   0.00711578
7852.00   0.53847462   0.00740268
7854.00   0.54991990   0.00739741
7856.00   0.55030745   0.00716522
7858.00   0.54126924   0.00632634
7860.00   0.53787434   0.00586225
7862.00   0.53976983   0.00578647
7864.00   0.54155487   0.00581980
7866.00   0.53925371   0.00583495
7868.00   0.53493428   0.00589881
7870.00   0.53697860   0.00584745
7872.00   0.54675508   0.00565386
7874.00   0.55018502   0.00558630
7876.00   0.55025136   0.00562282
7878.00   0.54831553   0.00565336
7880.00   0.54221183   0.00562217
7882.00   0.53486973   0.00557902
7884.00   0.53942186   0.00563514
7886.00   0.55786759   0.00583527
7888.00   0.56538016   0.00586023
7890.00   0.56901217   0.00581309
7892.00   0.56980324   0.00567618
7894.00   0.56673419   0.00539215
7896.00   0.56166470   0.00503031
7898.00   0.55812514   0.00475423
7900.00   0.55174941   0.00441320
7902.00   0.55694056   0.00446138
7904.00   0.57548130   0.00478270
7906.00   0.58871204   0.00526320
7908.00   0.59860307   0.00598406
7910.00   0.60360712   0.00665612
7912.00   0.59792161   0.00706437
7914.00   0.58128667   0.00736935
7916.00   0.57722777   0.00745006
7918.00   0.58220100   0.00729043
7920.00   0.58324361   0.00709717
7922.00   0.58200830   0.00679040
7924.00   0.57948512   0.00645619
7926.00   0.57490271   0.00617385
7928.00   0.56851298   0.00590657
7930.00   0.56775767   0.00564836
7932.00   0.57304215   0.00539775
7934.00   0.57466316   0.00517536
7936.00   0.57250899   0.00494457
7938.00   0.57286060   0.00480045
7940.00   0.58024758   0.00478665
7942.00   0.59056467   0.00488191
7944.00   0.59146470   0.00508339
7946.00   0.58624578   0.00553050
7948.00   0.57919663   0.00567937
7950.00   0.56131577   0.00566781
7952.00   0.55409598   0.00560777
7954.00   0.56597888   0.00545014
7956.00   0.58498275   0.00528212
7958.00   0.59221256   0.00536810
7960.00   0.59402418   0.00564767
7962.00   0.59553236   0.00588499
7964.00   0.59244251   0.00626007
7966.00   0.59274101   0.00644062
7968.00   0.59803683   0.00635248
7970.00   0.60419798   0.00621348
7972.00   0.60681158   0.00628358
7974.00   0.60719955   0.00648883
7976.00   0.60983318   0.00651818
7978.00   0.61821300   0.00647306
7980.00   0.61698073   0.00635727
7982.00   0.60454684   0.00599228
7984.00   0.58988279   0.00577138
7986.00   0.57695633   0.00612358
7988.00   0.56320846   0.00681333
7990.00   0.56505269   0.00702650
7992.00   0.58547562   0.00706221
7994.00   0.59657443   0.00695457
7996.00   0.60518140   0.00661159
7998.00   0.61003840   0.00620999
8000.00   0.60807914   0.00578656
8002.00   0.60219115   0.00532565
8004.00   0.60503322   0.00512115
8006.00   0.61530089   0.00506242
8008.00   0.62185919   0.00526765
8010.00   0.63282663   0.00590819
8012.00   0.63489240   0.00630496
8014.00   0.62054533   0.00635490
8016.00   0.60023010   0.00623990
8018.00   0.59452206   0.00609850
8020.00   0.60137039   0.00568009
8022.00   0.59452295   0.00581175
8024.00   0.57168037   0.00651199
8026.00   0.56321746   0.00689249
8028.00   0.57549602   0.00701149
8030.00   0.59365052   0.00692423
8032.00   0.60258967   0.00649446
8034.00   0.60953009   0.00555127
8036.00   0.60934311   0.00508296
8038.00   0.59763777   0.00495146
8040.00   0.59302509   0.00483198
8042.00   0.59404498   0.00476204
8044.00   0.59834772   0.00477304
8046.00   0.60618192   0.00488547
8048.00   0.61793089   0.00509124
8050.00   0.62374395   0.00522143
8052.00   0.63002133   0.00534769
8054.00   0.62689590   0.00543087
8056.00   0.61019063   0.00547190
8058.00   0.59587169   0.00549579
8060.00   0.59213662   0.00552510
8062.00   0.59370291   0.00554213
8064.00   0.59368664   0.00547351
8066.00   0.59563917   0.00525091
8068.00   0.59593594   0.00518115
8070.00   0.59666586   0.00528723
8072.00   0.59495574   0.00527746
8074.00   0.58921736   0.00499542
8076.00   0.58147740   0.00461033
8078.00   0.57542992   0.00455594
8080.00   0.56651556   0.00483482
8082.00   0.56787801   0.00479487
8084.00   0.58423388   0.00445803
8086.00   0.59023649   0.00432097
8088.00   0.58174795   0.00437167
8090.00   0.56777042   0.00464264
8092.00   0.55560392   0.00533353
8094.00   0.53851408   0.00645373
8096.00   0.53933525   0.00656510
8098.00   0.56219131   0.00570500
8100.00   0.57213491   0.00533181
8102.00   0.56729662   0.00566719
8104.00   0.56134140   0.00596085
8106.00   0.56528085   0.00565376
8108.00   0.57487303   0.00489777
8110.00   0.57511073   0.00457488
8112.00   0.56931829   0.00454520
8114.00   0.56301677   0.00446643
8116.00   0.55308115   0.00433330
8118.00   0.54449594   0.00434170
8120.00   0.53952521   0.00465527
8122.00   0.53696132   0.00511652
8124.00   0.53881294   0.00526525
8126.00   0.54975736   0.00527458
8128.00   0.55176270   0.00518992
8130.00   0.54772568   0.00483595
8132.00   0.54326326   0.00462204
8134.00   0.53867799   0.00471690
8136.00   0.53444153   0.00497067
8138.00   0.53533345   0.00522694
8140.00   0.54168761   0.00566905
8142.00   0.54485178   0.00575358
8144.00   0.54721469   0.00556935
8146.00   0.54947352   0.00537354
8148.00   0.55293834   0.00513272
8150.00   0.55511701   0.00490350
8152.00   0.55144519   0.00487354
8154.00   0.54151648   0.00502179
8156.00   0.53865325   0.00506024
8158.00   0.53931618   0.00510781
8160.00   0.54139465   0.00508342
8162.00   0.54734474   0.00494892
8164.00   0.55221838   0.00480129
8166.00   0.55029047   0.00473296
8168.00   0.54342908   0.00470370
8170.00   0.54143310   0.00471855
8172.00   0.54104429   0.00469699
8174.00   0.54222363   0.00488745
8176.00   0.54916167   0.00531133
8178.00   0.55154663   0.00572245
8180.00   0.54109263   0.00603481
8182.00   0.52286571   0.00630913
8184.00   0.51536071   0.00649704
8186.00   0.51213437   0.00655489
8188.00   0.51291305   0.00671675
8190.00   0.51853615   0.00695215
8192.00   0.52695531   0.00716378
8194.00   0.54191417   0.00739910
8196.00   0.55780721   0.00757939
8198.00   0.55409396   0.00738189
8200.00   0.53094405   0.00669415
8202.00   0.51754266   0.00630002
8204.00   0.50122631   0.00600521
8206.00   0.49295440   0.00573987
8208.00   0.49566191   0.00544275
8210.00   0.50423425   0.00523369
8212.00   0.51350200   0.00536376
8214.00   0.52971321   0.00588544
8216.00   0.53053880   0.00588811
8218.00   0.51793092   0.00551597
8220.00   0.50723857   0.00519824
8222.00   0.49140611   0.00480392
8224.00   0.48272452   0.00453621
8226.00   0.49944422   0.00477573
8228.00   0.53804517   0.00539964
8230.00   0.54851776   0.00551321
8232.00   0.54312164   0.00536509
8234.00   0.53545851   0.00518102
8236.00   0.51909524   0.00480760
8238.00   0.50369155   0.00447577
8240.00   0.49605799   0.00440782
8242.00   0.49249539   0.00450571
8244.00   0.48780558   0.00451192
8246.00   0.48427740   0.00453649
8248.00   0.48035580   0.00451341
8250.00   0.47442803   0.00438675
8252.00   0.47180837   0.00434623
8254.00   0.47511357   0.00450578
8256.00   0.48191386   0.00474308
8258.00   0.48753574   0.00481131
8260.00   0.49577588   0.00475325
8262.00   0.49901468   0.00477513
8264.00   0.49767998   0.00484510
8266.00   0.49702737   0.00487708
8268.00   0.49666053   0.00477033
8270.00   0.49758938   0.00469971
8272.00   0.50406462   0.00499527
8274.00   0.51818746   0.00555263
8276.00   0.52057999   0.00598868
8278.00   0.51536697   0.00644131
8280.00   0.50838012   0.00685741
8282.00   0.49639568   0.00732236
8284.00   0.48533022   0.00767645
8286.00   0.48348254   0.00774927
8288.00   0.48874602   0.00761123
8290.00   0.48652983   0.00747058
8292.00   0.47780836   0.00703767
8294.00   0.47457680   0.00698530
8296.00   0.47737184   0.00749616
8298.00   0.48006654   0.00784919
8300.00   0.47941938   0.00761185
8302.00   0.47713527   0.00698776
8304.00   0.47119367   0.00646066
8306.00   0.45905077   0.00561117
8308.00   0.45135149   0.00515736
8310.00   0.44396949   0.00516223
8312.00   0.44085941   0.00522370
8314.00   0.44378451   0.00520104
8316.00   0.45139578   0.00518881
8318.00   0.46224582   0.00519594
8320.00   0.48359740   0.00524177
8322.00   0.49136832   0.00524497
8324.00   0.49070600   0.00526985
8326.00   0.48731855   0.00520451
8328.00   0.47840011   0.00492372
8330.00   0.46928468   0.00460814
8332.00   0.47268641   0.00456698
8334.00   0.48195446   0.00407441
8336.00   0.50468326   0.00585881
8338.00   0.55313993   0.00860800
8340.00   0.58394247   0.01057547
8342.00   0.60234022   0.01268476
8344.00   0.60293657   0.01401912
8346.00   0.56929076   0.01344795
8348.00   0.50088328   0.01101720
8350.00   0.46002099   0.00956926
8352.00   0.41944736   0.00817540
8354.00   0.40074256   0.00700810
8356.00   0.41303939   0.00635250
8358.00   0.42685634   0.00593597
8360.00   0.41900977   0.00547202
8362.00   0.40054986   0.00513553
8364.00   0.40085331   0.00510769
8366.00   0.41799992   0.00563179
8368.00   0.42532465   0.00573914
8370.00   0.42773145   0.00559836
8372.00   0.42872518   0.00539247
8374.00   0.42840531   0.00507990
8376.00   0.42719728   0.00471934
8378.00   0.43056765   0.00493823
8380.00   0.44456106   0.00582134
8382.00   0.44135270   0.00610633
8384.00   0.42018786   0.00620720
8386.00   0.40604427   0.00614557
8388.00   0.39997774   0.00542897
8390.00   0.40301949   0.00478141
8392.00   0.42937234   0.00634799
8394.00   0.48859164   0.00902041
8396.00   0.51184338   0.01038971
8398.00   0.52877074   0.01220395
8400.00   0.51483566   0.01241083
8402.00   0.44933239   0.01014880
8404.00   0.37673604   0.00646081
8406.00   0.35309711   0.00495005
8408.00   0.35875699   0.00570156
8410.00   0.36032206   0.00562314
8412.00   0.37300438   0.00595448
8414.00   0.38320756   0.00600834
8416.00   0.39625990   0.00571441
8418.00   0.40429121   0.00546145
8420.00   0.39926910   0.00549637
8422.00   0.38467216   0.00568502
8424.00   0.37280399   0.00641383
8426.00   0.35353979   0.00798463
8428.00   0.34608531   0.00846773
8430.00   0.34852165   0.00828794
8432.00   0.35477462   0.00784316
8434.00   0.36293837   0.00713958
8436.00   0.37399745   0.00610818
8438.00   0.38553143   0.00552273
8440.00   0.39657015   0.00517971
8442.00   0.41335079   0.00516315
8444.00   0.44250584   0.00576874
8446.00   0.46081278   0.00611222
8448.00   0.45907146   0.00596078
8450.00   0.44883215   0.00564910
8452.00   0.44923645   0.00573443
8454.00   0.45690292   0.00613380
8456.00   0.45426646   0.00624135
8458.00   0.44444907   0.00607514
8460.00   0.43409559   0.00615050
8462.00   0.41900939   0.00659640
8464.00   0.40714103   0.00707217
8466.00   0.41226619   0.00725718
8468.00   0.43229389   0.00727542
8470.00   0.44224966   0.00736718
8472.00   0.45628747   0.00772470
8474.00   0.45560333   0.00752064
8476.00   0.43314505   0.00640936
8478.00   0.41057041   0.00507540
8480.00   0.40560886   0.00457062
8482.00   0.41027963   0.00468080
8484.00   0.41406107   0.00463270
8486.00   0.42415431   0.00463898
8488.00   0.42883879   0.00487232
8490.00   0.43166107   0.00545033
8492.00   0.42996168   0.00587669
8494.00   0.41801417   0.00590468
8496.00   0.40064967   0.00574896
8498.00   0.40440407   0.00600037
8500.00   0.43192419   0.00661529
8502.00   0.44238746   0.00691997
8504.00   0.45006114   0.00726266
8506.00   0.44753346   0.00727643
8508.00   0.42422736   0.00665252
8510.00   0.39509404   0.00568182
8512.00   0.39891854   0.00547414
8514.00   0.43362474   0.00586877
8516.00   0.44619262   0.00608267
8518.00   0.45587274   0.00661962
8520.00   0.45382553   0.00668688
8522.00   0.43149716   0.00601682
8524.00   0.40568790   0.00502920
8526.00   0.40133944   0.00456004
8528.00   0.41135532   0.00440541
8530.00   0.41521886   0.00432589
8532.00   0.42123500   0.00446932
8534.00   0.42406121   0.00465787
8536.00   0.42137536   0.00499761
8538.00   0.41977316   0.00526640
8540.00   0.42546949   0.00524184
8542.00   0.43605831   0.00499899
8544.00   0.44407243   0.00507625
8546.00   0.45181400   0.00531581
8548.00   0.45993355   0.00561546
8550.00   0.47089568   0.00618417
8552.00   0.47824290   0.00650088
8554.00   0.47670671   0.00626287
8556.00   0.46976614   0.00564835
8558.00   0.47049806   0.00532186
8560.00   0.47839779   0.00509506
8562.00   0.47965458   0.00487029
8564.00   0.47720143   0.00464631
8566.00   0.47329038   0.00451761
8568.00   0.46762607   0.00455648
8570.00   0.46100324   0.00468491
8572.00   0.45710239   0.00472552
8574.00   0.45348346   0.00475038
8576.00   0.45427632   0.00474488
8578.00   0.46178061   0.00467481
8580.00   0.46580634   0.00465042
8582.00   0.46476623   0.00459668
8584.00   0.46158847   0.00465743
8586.00   0.45809788   0.00514125
8588.00   0.45103049   0.00603717
8590.00   0.45459539   0.00618318
8592.00   0.46832672   0.00581796
8594.00   0.47999147   0.00547900
8596.00   0.49184144   0.00502355
8598.00   0.50164568   0.00461744
8600.00   0.50505805   0.00458696
8602.00   0.50296956   0.00485267
8604.00   0.50838304   0.00487854
8606.00   0.52014172   0.00477417
8608.00   0.52817255   0.00476375
8610.00   0.53416508   0.00481357
8612.00   0.53864974   0.00490219
8614.00   0.54178834   0.00503046
8616.00   0.54347414   0.00519278
8618.00   0.54283154   0.00533366
8620.00   0.53723115   0.00547446
8622.00   0.53641522   0.00561001
8624.00   0.54066968   0.00568648
8626.00   0.54241145   0.00585247
8628.00   0.53867906   0.00623219
8630.00   0.53215557   0.00664753
8632.00   0.52659154   0.00669575
8634.00   0.51887631   0.00640498
8636.00   0.51548940   0.00629412
8638.00   0.51603830   0.00606270
8640.00   0.51608360   0.00612557
8642.00   0.51292473   0.00670241
8644.00   0.51133347   0.00732436
8646.00   0.51939255   0.00743349
8648.00   0.53650057   0.00723273
8650.00   0.54839408   0.00703406
8652.00   0.56348825   0.00659073
8654.00   0.57000238   0.00630378
8656.00   0.56420010   0.00618784
8658.00   0.55636185   0.00618419
8660.00   0.55683154   0.00626882
8662.00   0.56184000   0.00645325
8664.00   0.56217402   0.00668838
8666.00   0.55987006   0.00716706
8668.00   0.55810654   0.00729985
8670.00   0.55397713   0.00710664
8672.00   0.55315423   0.00682176
8674.00   0.56152934   0.00655513
8676.00   0.57590616   0.00624258
8678.00   0.57882571   0.00605461
8680.00   0.57164496   0.00597542
8682.00   0.56995976   0.00589569
8684.00   0.57439113   0.00575736
8686.00   0.57292283   0.00579131
8688.00   0.55678552   0.00619695
8690.00   0.53501546   0.00671323
8692.00   0.53289825   0.00673629
8694.00   0.55020958   0.00633798
8696.00   0.55330044   0.00612329
8698.00   0.55047864   0.00579687
8700.00   0.54674965   0.00567972
8702.00   0.53883153   0.00595659
8704.00   0.53286219   0.00632023
8706.00   0.54366958   0.00633980
8708.00   0.57168812   0.00617050
8710.00   0.58503872   0.00594202
8712.00   0.59501332   0.00542896
8714.00   0.59768844   0.00511631
8716.00   0.58938980   0.00506661
8718.00   0.57848924   0.00515424
8720.00   0.57424647   0.00531521
8722.00   0.57293862   0.00561005
8724.00   0.57103884   0.00566679
8726.00   0.56801987   0.00550770
8728.00   0.56915528   0.00546401
8730.00   0.57626623   0.00554323
8732.00   0.58294028   0.00560058
8734.00   0.58528715   0.00554179
8736.00   0.58533019   0.00541245
8738.00   0.58203864   0.00532574
8740.00   0.57328427   0.00522093
8742.00   0.56720334   0.00516978
8744.00   0.56137592   0.00500315
8746.00   0.55697232   0.00512110
8748.00   0.55680948   0.00551953
8750.00   0.55777210   0.00619325
8752.00   0.54710621   0.00755564
8754.00   0.50861895   0.00991765
8756.00   0.51626164   0.01055359
8758.00   0.57528949   0.01008216
8760.00   0.60955125   0.00979961
8762.00   0.59602070   0.01002414
8764.00   0.56687021   0.01036097
8766.00   0.56590343   0.01043173
8768.00   0.58280081   0.01019170
8770.00   0.58426601   0.01058039
8772.00   0.57134193   0.01195508
8774.00   0.57155359   0.01223556
8776.00   0.59514701   0.01100661
8778.00   0.61768913   0.00926489
8780.00   0.60939741   0.00861831
8782.00   0.57701427   0.00872655
8784.00   0.56948924   0.00823246
8786.00   0.57558018   0.00725080
8788.00   0.58068776   0.00662264
8790.00   0.58844393   0.00645617
8792.00   0.59552068   0.00641703
8794.00   0.59818810   0.00628665
8796.00   0.59815216   0.00617643
8798.00   0.60126984   0.00605169
8800.00   0.60674936   0.00591382
8802.00   0.61063230   0.00579607
8804.00   0.61636299   0.00558298
8806.00   0.61743414   0.00555454
8808.00   0.61332935   0.00554226
8810.00   0.60336590   0.00578710
8812.00   0.57552010   0.00755996
8814.00   0.49152827   0.01108149
8816.00   0.49745035   0.01165099
8818.00   0.59123629   0.01011524
8820.00   0.65901309   0.00908392
8822.00   0.67366928   0.00954255
8824.00   0.66617525   0.01053186
8826.00   0.66333675   0.01129099
8828.00   0.65313399   0.01247899
8830.00   0.64233875   0.01242142
8832.00   0.61978334   0.01109282
8834.00   0.61209494   0.00999270
8836.00   0.62887979   0.00930055
8838.00   0.64851046   0.00873070
8840.00   0.64350778   0.00809556
8842.00   0.61951995   0.00744617
8844.00   0.62006754   0.00703156
8846.00   0.64343840   0.00689515
8848.00   0.65148515   0.00679838
8850.00   0.64555198   0.00687629
8852.00   0.63474369   0.00690455
8854.00   0.62198716   0.00659142
8856.00   0.60499376   0.00599847
8858.00   0.60257280   0.00613410
8860.00   0.61770022   0.00662399
8862.00   0.62007868   0.00746463
8864.00   0.61643219   0.00907677
8866.00   0.60663986   0.00999277
8868.00   0.58464849   0.00969113
8870.00   0.55633938   0.00863877
8872.00   0.55478513   0.00801158
8874.00   0.57639027   0.00687307
8876.00   0.59304804   0.00696809
8878.00   0.61706483   0.00825160
8880.00   0.63701081   0.00929192
8882.00   0.65754890   0.00990475
8884.00   0.66970265   0.01043159
8886.00   0.64180690   0.01117408
8888.00   0.55962729   0.01250399
8890.00   0.53618532   0.01223054
8892.00   0.54664743   0.01009549
8894.00   0.56237745   0.00830630
8896.00   0.58924383   0.00731669
8898.00   0.61706948   0.00688845
8900.00   0.62560582   0.00711578
8902.00   0.62165052   0.00822954
8904.00   0.61671281   0.00831542
8906.00   0.60004461   0.00748319
8908.00   0.59326845   0.00734876
8910.00   0.59674346   0.00792476
8912.00   0.60351372   0.00871266
8914.00   0.61112177   0.00956870
8916.00   0.62192947   0.01057360
8918.00   0.61650324   0.01081192
8920.00   0.59391916   0.01057902
8922.00   0.57819825   0.01009801
8924.00   0.56215632   0.00902567
8926.00   0.55122435   0.00785891
8928.00   0.54930347   0.00692264
8930.00   0.55385751   0.00609630
8932.00   0.55940342   0.00570019
8934.00   0.57344258   0.00578905
8936.00   0.57739884   0.00615979
8938.00   0.57063627   0.00703131
8940.00   0.56896329   0.00773438
8942.00   0.57825077   0.00824783
8944.00   0.59220535   0.00862135
8946.00   0.60172212   0.00863471
8948.00   0.61394548   0.00809219
8950.00   0.61394852   0.00817331
8952.00   0.59561390   0.00857995
8954.00   0.58971816   0.00909592
8956.00   0.60457933   0.00991654
8958.00   0.62372839   0.01060447
8960.00   0.62777066   0.01055645
8962.00   0.62491095   0.00995584
8964.00   0.61451775   0.00930701
8966.00   0.58907521   0.00808349
8968.00   0.57206428   0.00711809
8970.00   0.56058902   0.00645388
8972.00   0.55529052   0.00604857
8974.00   0.56043321   0.00596271
8976.00   0.57554263   0.00623851
8978.00   0.58050942   0.00643375
8980.00   0.58136076   0.00669576
8982.00   0.58034313   0.00699729
8984.00   0.57176107   0.00734811
8986.00   0.56862795   0.00771582
8988.00   0.58186209   0.00812811
8990.00   0.60446376   0.00855372
8992.00   0.60932636   0.00872678
8994.00   0.60425043   0.00856442
8996.00   0.59521985   0.00871112
8998.00   0.57764566   0.00914215
9000.00   0.55950594   0.00942628
9002.00   0.54273319   0.00954198
9004.00   0.52599466   0.00947550
9006.00   0.50990194   0.00886112
9008.00   0.48914161   0.00722811
9010.00   0.48359776   0.00634362
9012.00   0.49198899   0.00593060
9014.00   0.50075352   0.00571420
9016.00   0.51038724   0.00576464
9018.00   0.51975054   0.00598451
9020.00   0.52316403   0.00613942
9022.00   0.52080941   0.00636897
9024.00   0.52463365   0.00641838
9026.00   0.53456545   0.00625573
9028.00   0.53940046   0.00623218
9030.00   0.53813565   0.00633846
9032.00   0.53534359   0.00651899
9034.00   0.53464425   0.00677945
9036.00   0.53445804   0.00713476
9038.00   0.53383034   0.00726728
9040.00   0.53538704   0.00710421
9042.00   0.53181368   0.00724439
9044.00   0.52191973   0.00770267
9046.00   0.51193011   0.00812013
9048.00   0.50647116   0.00840284
9050.00   0.50289381   0.00861129
9052.00   0.49216440   0.00834568
9054.00   0.46930331   0.00734832
9056.00   0.46128547   0.00674502
9058.00   0.46725830   0.00625102
9060.00   0.47088519   0.00596403
9062.00   0.46545634   0.00605049
9064.00   0.45700905   0.00634079
9066.00   0.45520386   0.00633049
9068.00   0.46218890   0.00614822
9070.00   0.45627144   0.00602324
9072.00   0.44037879   0.00581694
9074.00   0.42472291   0.00572262
9076.00   0.40601543   0.00584095
9078.00   0.39067966   0.00600429
9080.00   0.39462677   0.00595341
9082.00   0.41707513   0.00570377
9084.00   0.42854169   0.00571163
9086.00   0.44581357   0.00588312
9088.00   0.44635898   0.00606659
9090.00   0.41909045   0.00625969
9092.00   0.39178613   0.00648735
9094.00   0.39492056   0.00680284
9096.00   0.41870010   0.00722146
9098.00   0.42544332   0.00726105
9100.00   0.42457899   0.00695487
9102.00   0.42552671   0.00671999
9104.00   0.42666769   0.00646640
9106.00   0.42797190   0.00623487
9108.00   0.42886072   0.00606692
9110.00   0.42962927   0.00594702
9112.00   0.43685526   0.00591804
9114.00   0.45380047   0.00602906
9116.00   0.46221137   0.00607623
9118.00   0.46619412   0.00611876
9120.00   0.46692330   0.00613584
9122.00   0.46312895   0.00610131
9124.00   0.45657149   0.00604311
9126.00   0.45506021   0.00605115
9128.00   0.45435897   0.00599879
9130.00   0.45933881   0.00622267
9132.00   0.47089326   0.00678732
9134.00   0.48241884   0.00714781
9136.00   0.49572194   0.00728760
9138.00   0.50714493   0.00726612
9140.00   0.50632262   0.00698414
9142.00   0.49256852   0.00621865
9144.00   0.48956272   0.00606936
9146.00   0.49355361   0.00642064
9148.00   0.49370804   0.00667802
9150.00   0.48883680   0.00684636
9152.00   0.48296839   0.00701721
9154.00   0.47865918   0.00725433
9156.00   0.47350344   0.00756526
9158.00   0.47816381   0.00760843
9160.00   0.50179827   0.00748525
9162.00   0.50488782   0.00724251
9164.00   0.48306897   0.00657390
9166.00   0.46176207   0.00611393
9168.00   0.46008772   0.00659618
9170.00   0.46876019   0.00758724
9172.00   0.45941803   0.00775644
9174.00   0.42645454   0.00742637
9176.00   0.42015928   0.00719666
9178.00   0.43749359   0.00687390
9180.00   0.45517072   0.00656831
9182.00   0.46545675   0.00631973
9184.00   0.47312915   0.00611929
9186.00   0.47576889   0.00606787
9188.00   0.46730998   0.00623384
9190.00   0.47211525   0.00626704
9192.00   0.49052575   0.00627221
9194.00   0.50143540   0.00624950
9196.00   0.49491653   0.00613066
9198.00   0.48557359   0.00602835
9200.00   0.49947912   0.00622283
9202.00   0.53577977   0.00671781
9204.00   0.55065322   0.00689144
9206.00   0.55615360   0.00685301
9208.00   0.55682397   0.00689414
9210.00   0.55242497   0.00708698
9212.00   0.54296589   0.00724546
9214.00   0.52733475   0.00716845
9216.00   0.50276721   0.00690039
9218.00   0.49369016   0.00674201
9220.00   0.49833417   0.00659531
9222.00   0.49756864   0.00646558
9224.00   0.49142480   0.00632789
9226.00   0.48643005   0.00624207
9228.00   0.48808366   0.00626437
9230.00   0.49411574   0.00637007
9232.00   0.49061596   0.00647456
9234.00   0.47784269   0.00672672
9236.00   0.47040510   0.00673063
9238.00   0.46422932   0.00647565
9240.00   0.46122000   0.00621225
9242.00   0.46289268   0.00603796
9244.00   0.46805286   0.00590524
9246.00   0.47348857   0.00589660
9248.00   0.48224023   0.00604991
9250.00   0.48795199   0.00613919
9252.00   0.49384624   0.00624942
9254.00   0.49621624   0.00632967
9256.00   0.49177372   0.00638016
9258.00   0.48538414   0.00639681
9260.00   0.48681223   0.00629874
9262.00   0.48870420   0.00571726
9264.00   0.50666571   0.00637259
9266.00   0.55130786   0.00819724
9268.00   0.57750750   0.00910154
9270.00   0.57983130   0.00925635
9272.00   0.57243574   0.00903250
9274.00   0.56676376   0.00849988
9276.00   0.55646843   0.00730359
9278.00   0.55140507   0.00703279
9280.00   0.54926759   0.00766575
9282.00   0.54736829   0.00790447
9284.00   0.54815662   0.00775189
9286.00   0.54683226   0.00765433
9288.00   0.54020560   0.00798231
9290.00   0.53018731   0.00855847
9292.00   0.50968915   0.00870498
9294.00   0.46703833   0.00840989
9296.00   0.44764569   0.00851128
9298.00   0.44495925   0.00837862
9300.00   0.45062989   0.00912587
9302.00   0.46847486   0.01108907
9304.00   0.49363995   0.01347749
9306.00   0.48457977   0.01564479
9308.00   0.44122553   0.01841806
9310.00   0.41410252   0.01980091
9312.00   0.36833614   0.02034114
9314.00   0.35962650   0.02080366
9316.00   0.42341259   0.02141216
9318.00   0.51294363   0.02192140
9320.00   0.52865618   0.02203929
9322.00   0.48890775   0.02195541
9324.00   0.47804916   0.02138476
9326.00   0.47442108   0.02007070
9328.00   0.46592751   0.01883288
9330.00   0.45020336   0.01767161
9332.00   0.43234295   0.01659384
9334.00   0.41662124   0.01580018
9336.00   0.39852384   0.01522486
9338.00   0.39506721   0.01508786
9340.00   0.40256679   0.01592075
9342.00   0.41562492   0.01592997
9344.00   0.44154286   0.01507557
9346.00   0.46529594   0.01385519
9348.00   0.47271755   0.01248035
9350.00   0.46999282   0.01060088
9352.00   0.46579561   0.00999623
9354.00   0.45030403   0.01101609
9356.00   0.44563729   0.01122943
9358.00   0.44305906   0.01078007
9360.00   0.45305172   0.01060847
9362.00   0.48743483   0.01075894
9364.00   0.53764671   0.01131118
9366.00   0.56371635   0.01429663
9368.00   0.58436811   0.01747867
9370.00   0.58460402   0.02231278
9372.00   0.56174463   0.02943436
9374.00   0.53424269   0.03364277
9376.00   0.49526286   0.03511611
9378.00   0.45798060   0.03484576
9380.00   0.47442019   0.03215142
9382.00   0.55350351   0.02409919
9384.00   0.57943332   0.01910743
9386.00   0.58174604   0.01600596
9388.00   0.57682264   0.01354075
9390.00   0.56086308   0.01250732
9392.00   0.54100472   0.01253365
9394.00   0.53353536   0.01185303
9396.00   0.53632307   0.01109281
9398.00   0.52238810   0.01084903
9400.00   0.49261951   0.01124611
9402.00   0.47036499   0.01143336
9404.00   0.44733784   0.01143589
9406.00   0.43639684   0.01141555
9408.00   0.45811212   0.01139600
9410.00   0.50864863   0.01131251
9412.00   0.51652622   0.01181950
9414.00   0.48664990   0.01305079
9416.00   0.47938582   0.01367623
9418.00   0.49151605   0.01389421
9420.00   0.50212765   0.01400479
9422.00   0.50098598   0.01407875
9424.00   0.49384379   0.01408877
9426.00   0.48359746   0.01439085
9428.00   0.47115746   0.01452980
9430.00   0.45009741   0.01554285
9432.00   0.39785898   0.01703646
9434.00   0.37934244   0.01889509
9436.00   0.42780223   0.02130820
9438.00   0.50833130   0.02375614
9440.00   0.55043107   0.02520863
9442.00   0.59155285   0.02721115
9444.00   0.58973294   0.02595204
9446.00   0.53105587   0.01945684
9448.00   0.49140045   0.01389440
9450.00   0.48720875   0.01305075
9452.00   0.49000314   0.01484159
9454.00   0.46471769   0.01659390
9456.00   0.41024923   0.01973001
9458.00   0.41057998   0.02051281
9460.00   0.46264455   0.01997678
9462.00   0.49576065   0.01925027
9464.00   0.51357239   0.01788728
9466.00   0.52235109   0.01646957
9468.00   0.52134162   0.01580500
9470.00   0.51013976   0.01551413
9472.00   0.49660710   0.01669605
9474.00   0.46655238   0.02012420
9476.00   0.45660481   0.02129121
9478.00   0.47327939   0.02110283
9480.00   0.48453000   0.02004821
9482.00   0.46469870   0.01778301
9484.00   0.42815709   0.01389229
9486.00   0.43230531   0.01164968
9488.00   0.46974662   0.01058874
9490.00   0.49856123   0.01044867
9492.00   0.54707354   0.01160957
9494.00   0.56881899   0.01329966
9496.00   0.53134596   0.01562019
9498.00   0.46852136   0.01795852
9500.00   0.46855098   0.01875407
9502.00   0.51546353   0.01862856
9504.00   0.54623884   0.01831345
9506.00   0.60077435   0.01738785
9508.00   0.61979830   0.01630545
9510.00   0.57573283   0.01483710
9512.00   0.51470447   0.01328912
9514.00   0.51092100   0.01278274
9516.00   0.55050665   0.01324770
9518.00   0.55132818   0.01343781
9520.00   0.52620608   0.01400165
9522.00   0.51384616   0.01414707
9524.00   0.52071625   0.01374813
9526.00   0.52661729   0.01320843
9528.00   0.50940633   0.01296913
9530.00   0.47342923   0.01290180
9532.00   0.46970069   0.01247502
9534.00   0.49081844   0.01148183
9536.00   0.50734133   0.01101351
9538.00   0.52186668   0.01093443
9540.00   0.54011965   0.01125490
9542.00   0.56984764   0.01211452
9544.00   0.60726815   0.01333546
9546.00   0.61292428   0.01397898
9548.00   0.58506244   0.01390315
9550.00   0.57437080   0.01482251
9552.00   0.56740332   0.01699371
9554.00   0.56668746   0.01823418
9556.00   0.58053422   0.01763880
9558.00   0.59938890   0.01614344
9560.00   0.58614737   0.01635057
9562.00   0.53658885   0.01786464
9564.00   0.51501590   0.01858003
9566.00   0.49989411   0.01950551
9568.00   0.49777195   0.01965493
9570.00   0.51888090   0.01866313
9572.00   0.54605526   0.01697821
9574.00   0.54436582   0.01541199
9576.00   0.51941007   0.01331194
9578.00   0.51127833   0.01175140
9580.00   0.51588666   0.01033975
9582.00   0.50828993   0.00972521
9584.00   0.48135644   0.01050161
9586.00   0.45322531   0.01155128
9588.00   0.44174165   0.01185786
9590.00   0.43814337   0.01189358
9592.00   0.44965637   0.01189522
9594.00   0.49223945   0.01175240
9596.00   0.50877810   0.01156869
9598.00   0.49740902   0.01125592
9600.00   0.48366311   0.01097154
9602.00   0.48381406   0.01078460
9604.00   0.48977831   0.01065527
9606.00   0.49343976   0.01104494
9608.00   0.49359360   0.01214653
9610.00   0.50327510   0.01264551
9612.00   0.53010851   0.01286802
9614.00   0.54644442   0.01289341
9616.00   0.53405654   0.01252175
9618.00   0.50849909   0.01196727
9620.00   0.51261294   0.01246526
9622.00   0.53637779   0.01409694
9624.00   0.56022906   0.01471515
9626.00   0.60722077   0.01521520
9628.00   0.62948501   0.01507849
9630.00   0.61157948   0.01383878
9632.00   0.57400030   0.01196589
9634.00   0.54467684   0.01095806
9636.00   0.50990039   0.01043633
9638.00   0.48203337   0.01012736
9640.00   0.44719931   0.01036392
9642.00   0.43497029   0.01054257
9644.00   0.45506921   0.01069289
9646.00   0.48482731   0.01081673
9648.00   0.49945778   0.01082335
9650.00   0.50980026   0.01072874
9652.00   0.51516497   0.01071046
9654.00   0.51215559   0.01054974
9656.00   0.51197928   0.01074605
9658.00   0.51571006   0.01133693
9660.00   0.51710981   0.01199761
9662.00   0.51128399   0.01256022
9664.00   0.50039518   0.01311771
9666.00   0.49115789   0.01354725
9668.00   0.47338814   0.01385292
9670.00   0.47266334   0.01419923
9672.00   0.48696569   0.01458035
9674.00   0.50677568   0.01491622
9676.00   0.53754735   0.01523644
9678.00   0.57200521   0.01550201
9680.00   0.55711067   0.01539307
9682.00   0.47452772   0.01484680
9684.00   0.45114890   0.01444053
9686.00   0.45327929   0.01359605
9688.00   0.47137487   0.01342233
9690.00   0.51721126   0.01439519
9692.00   0.57067537   0.01580191
9694.00   0.57558739   0.01679314
9696.00   0.53936768   0.01808603
9698.00   0.52468717   0.01812541
9700.00   0.51776648   0.01699521
9702.00   0.50256503   0.01585124
9704.00   0.47065520   0.01445592
9706.00   0.43981025   0.01314979
9708.00   0.43484506   0.01290304
9710.00   0.45175287   0.01350275
9712.00   0.44679907   0.01424894
9714.00   0.42372566   0.01586623
9716.00   0.41429099   0.01656998
9718.00   0.41641188   0.01643118
9720.00   0.42539895   0.01604770
9722.00   0.44238549   0.01583076
9724.00   0.46840605   0.01559153
9726.00   0.47465828   0.01511781
9728.00   0.46371797   0.01417619
9730.00   0.45867014   0.01366317
9732.00   0.45137531   0.01345463
9734.00   0.44994229   0.01347648
9736.00   0.46043426   0.01381657
9738.00   0.47861138   0.01436468
9740.00   0.49256158   0.01444861
9742.00   0.50692278   0.01417004
9744.00   0.52046376   0.01402453
9746.00   0.53880078   0.01390040
9748.00   0.54760104   0.01371834
9750.00   0.53743887   0.01340036
9752.00   0.52052969   0.01304360
9754.00   0.52428889   0.01292712
9756.00   0.54978037   0.01320049
9758.00   0.54887962   0.01282429
9760.00   0.52391958   0.01157058
9762.00   0.51071233   0.01084638
9764.00   0.52284402   0.01099947
9766.00   0.53293359   0.01152251
9768.00   0.50090790   0.01201039
9770.00   0.42770559   0.01276728
9772.00   0.41066551   0.01284982
9774.00   0.43745002   0.01225324
9776.00   0.45079461   0.01194852
9778.00   0.45784205   0.01158125
9780.00   0.45752138   0.01173392
9782.00   0.43882963   0.01294192
9784.00   0.40268549   0.01473841
9786.00   0.41012853   0.01680116
9788.00   0.46206999   0.02005622
9790.00   0.49006215   0.02134205
9792.00   0.51201940   0.02119116
9794.00   0.51773280   0.02065149
9796.00   0.49263883   0.02016479
9798.00   0.44704518   0.01946586
9800.00   0.43311620   0.01863965
9802.00   0.44372240   0.01733228
9804.00   0.44079149   0.01650150
9806.00   0.43052784   0.01607966
9808.00   0.42427978   0.01568582
9810.00   0.42600188   0.01521739
9812.00   0.43182105   0.01475087
9814.00   0.43682685   0.01427104
9816.00   0.44647983   0.01369180
9818.00   0.44649807   0.01337567
9820.00   0.43271062   0.01326043
9822.00   0.42953095   0.01325893
9824.00   0.44496012   0.01351668
9826.00   0.46399194   0.01375322
9828.00   0.46614948   0.01345794
9830.00   0.45564473   0.01263883
9832.00   0.45671976   0.01231059
9834.00   0.46481854   0.01215013
9836.00   0.47043997   0.01222660
9838.00   0.46834174   0.01204070
9840.00   0.47223166   0.01267209
9842.00   0.49870089   0.01518911
9844.00   0.54398179   0.01864572
9846.00   0.56201476   0.02036056
9848.00   0.57737046   0.02211579
9850.00   0.56074238   0.02214684
9852.00   0.49367580   0.01985982
9854.00   0.43519464   0.01727000
9856.00   0.41877156   0.01593482
9858.00   0.42578897   0.01526061
9860.00   0.44508487   0.01529341
9862.00   0.49172050   0.01572777
9864.00   0.52876240   0.01750761
9866.00   0.59271181   0.02054461
9868.00   0.61224556   0.02328359
9870.00   0.54357058   0.02612432
9872.00   0.43376341   0.02849235
9874.00   0.39289087   0.02796468
9876.00   0.38929304   0.02406562
9878.00   0.38586879   0.02165747
9880.00   0.40197358   0.01898241
9882.00   0.41439101   0.01687470
9884.00   0.41985852   0.01573076
9886.00   0.42354247   0.01549604
9888.00   0.42893273   0.01611210
9890.00   0.43535495   0.01793089
9892.00   0.43882230   0.01869582
9894.00   0.43420750   0.01930651
9896.00   0.44069842   0.01939144
9898.00   0.46788824   0.01874545
9900.00   0.49137962   0.01786092
9902.00   0.48477742   0.01704046
9904.00   0.45660943   0.01584506
9906.00   0.44169274   0.01712234
9908.00   0.40096930   0.02019135
9910.00   0.42134476   0.02295629
9912.00   0.53759050   0.02676424
9914.00   0.62802106   0.02909908
9916.00   0.60526061   0.02863939
9918.00   0.51644278   0.02625996
9920.00   0.48559779   0.02429985
9922.00   0.47419500   0.02103477
9924.00   0.46656066   0.01883379
9926.00   0.46863639   0.01737452
9928.00   0.47523028   0.01666901
9930.00   0.48976797   0.01688743
9932.00   0.50675732   0.01788283
9934.00   0.49952263   0.01899209
9936.00   0.45551312   0.01916125
9938.00   0.45736170   0.02275247
9940.00   0.49719501   0.02948348
9942.00   0.52736390   0.03332179
9944.00   0.53941220   0.03425478
9946.00   0.54526788   0.03402980
9948.00   0.55614656   0.03409712
9950.00   0.57744026   0.03362073
9952.00   0.55958229   0.03387265
9954.00   0.49227580   0.03507059
9956.00   0.45251226   0.03534171
9958.00   0.44950849   0.03439168
9960.00   0.45184046   0.03312732
9962.00   0.42990601   0.03260513
9964.00   0.39272270   0.03260742
9966.00   0.37709215   0.03112098
9968.00   0.36515412   0.02754076
9970.00   0.37502986   0.02510233
9972.00   0.42283279   0.02391405
9974.00   0.46294039   0.02309825
9976.00   0.46087104   0.02217501
9978.00   0.43398321   0.02141902
9980.00   0.42388186   0.02042700
9982.00   0.41435331   0.01902886
9984.00   0.41135514   0.01815757
9986.00   0.41643998   0.01771291
9988.00   0.42178935   0.01753987
9990.00   0.41889352   0.01756014
9992.00   0.41651851   0.01784434
9994.00   0.44575846   0.01852613
9996.00   0.52536613   0.01975524
9998.00   0.54815567   0.02063613
10000.00   0.54272205   0.02051770
10002.00   0.51840121   0.02201528
10004.00   0.45925236   0.02550832
10006.00   0.39342409   0.02951718
10008.00   0.38719988   0.03304933
10010.00   0.43237737   0.03733319
10012.00   0.44321457   0.03871283
10014.00   0.43915063   0.03817958
10016.00   0.44156614   0.03709192
10018.00   0.45191649   0.03469212
10020.00   0.46463066   0.03210964
10022.00   0.47635981   0.03155929
10024.00   0.48972860   0.03262225
10026.00   0.49569669   0.03210699
10028.00   0.49268755   0.03098982
10030.00   0.49476767   0.02932334
10032.00   0.50947171   0.02631332
10034.00   0.51404065   0.02328614
10036.00   0.48851079   0.02175784
10038.00   0.44190717   0.02131905
10040.00   0.41119251   0.02130133
10042.00   0.37468329   0.02265856
10044.00   0.36167917   0.02305215
10046.00   0.37487555   0.02291034
10048.00   0.38980734   0.02259864
10050.00   0.39376166   0.02191522
10052.00   0.39637557   0.02111432
10054.00   0.41671279   0.02205082
10056.00   0.46419480   0.02462807
10058.00   0.48262846   0.02628380
10060.00   0.49179855   0.02839912
10062.00   0.48300469   0.02936103
10064.00   0.44143537   0.02861443
10066.00   0.39047080   0.02701329
10068.00   0.38184479   0.02603555
10070.00   0.39909676   0.02445568
10072.00   0.42501256   0.02523020
10074.00   0.48444229   0.02810670
10076.00   0.52005482   0.03058648
10078.00   0.52313566   0.03310286
10080.00   0.51620811   0.03514883
10082.00   0.52224845   0.03593025
10084.00   0.53535438   0.03594767
10086.00   0.52717125   0.03495679
10088.00   0.50617343   0.03217582
10090.00   0.47450945   0.02980157
10092.00   0.41074827   0.02717278
10094.00   0.36377347   0.02516335
10096.00   0.38022125   0.02509607
10098.00   0.44064388   0.02655277
10100.00   0.46587029   0.02732210
10102.00   0.49140513   0.02863804
10104.00   0.48955685   0.02891877
10106.00   0.44696766   0.02829331
10108.00   0.41321266   0.02737062
10110.00   0.41659653   0.02591396
10112.00   0.43710271   0.02417366
10114.00   0.43214229   0.02523169
10116.00   0.40711027   0.02756353
10118.00   0.39566889   0.03168153
10120.00   0.38044918   0.03866678
10122.00   0.38229594   0.04298159
10124.00   0.42049721   0.04458652
10126.00   0.46752030   0.04446624
10128.00   0.45904663   0.04213288
10130.00   0.39255375   0.03542744
10132.00   0.38550216   0.03202308
10134.00   0.41729683   0.03044122
10136.00   0.44293493   0.02965971
10138.00   0.46386299   0.03000746
10140.00   0.47952434   0.03100933
10142.00   0.47740194   0.03179727
10144.00   0.45280427   0.03274425
10146.00   0.47051796   0.03372253
10148.00   0.54692578   0.03511016
10150.00   0.56798720   0.03584414
10152.00   0.52832550   0.03587062
10154.00   0.47283593   0.03570624
10156.00   0.43033472   0.03573887
10158.00   0.38606423   0.03579686
10160.00   0.35514238   0.03563040
10162.00   0.31962129   0.03393632
10164.00   0.32076475   0.03515834
10166.00   0.37006104   0.03904624
10168.00   0.41688672   0.04301383
10170.00   0.43645623   0.04688798
10172.00   0.44363701   0.05058336
10174.00   0.44746524   0.05056892
10176.00   0.43329635   0.04605157
10178.00   0.43940282   0.04408055
10180.00   0.47381732   0.04250308
10182.00   0.48564297   0.04211835
10184.00   0.44909713   0.04394343
10186.00   0.39495298   0.04646954
10188.00   0.38380215   0.04639500
10190.00   0.39771414   0.04425462
10192.00   0.41508445   0.04313565
10194.00   0.46684211   0.04187170
10196.00   0.48272303   0.04113862
10198.00   0.43167484   0.04039397
10200.00   0.37473384   0.04073649
10202.00   0.39697996   0.04419468
10204.00   0.47680679   0.05026982
10206.00   0.53072476   0.05340607
10208.00   0.63196003   0.05643072
10210.00   0.63863868   0.05708257
10212.00   0.52391839   0.05444135
10214.00   0.38330033   0.05112429
10216.00   0.28554222   0.04979219
10218.00   0.19273804   0.04938532
10220.00   0.17899762   0.04911894
10222.00   0.24443558   0.04993679
10224.00   0.30947760   0.04970103
10226.00   0.41927880   0.04824728
10228.00   0.50096476   0.04697126
10230.00   0.50325364   0.04688466
10232.00   0.45754817   0.04739207
10234.00   0.44120425   0.04676879
10236.00   0.42033055   0.04560548
10238.00   0.41654333   0.04385199
10240.00   0.42730051   0.04059918
10242.00   0.44372579   0.03794641
10244.00   0.47798499   0.03707459
10246.00   0.51112282   0.03707787
10248.00   0.47371122   0.03620074
10250.00   0.33663023   0.03444166
10252.00   0.31731546   0.03431706
10254.00   0.38509718   0.03585778
10256.00   0.43917641   0.03681563
10258.00   0.47732812   0.03665761
10260.00   0.50233895   0.03645154
10262.00   0.49109641   0.03750489
10264.00   0.43676785   0.03927609
10266.00   0.43041244   0.04134863
10268.00   0.44988257   0.04509503
10270.00   0.47496963   0.04647944
10272.00   0.52201617   0.04390447
10274.00   0.55951953   0.04204114
10276.00   0.55549449   0.04541828
10278.00   0.52524114   0.05125945
10280.00   0.46256125   0.05974187
10282.00   0.31025857   0.07271988
10284.00   0.25615716   0.08000951
10286.00   0.25762722   0.08455809
10288.00   0.33336875   0.08703271
10290.00   0.55660534   0.08777311
10292.00   0.88077462   0.08670467
10294.00   0.89932829   0.08193196
10296.00   0.61893016   0.06877625
10298.00   0.49019071   0.06143183
10300.00   0.40720725   0.05899776
10302.00   0.33948871   0.05736204
10304.00   0.26821497   0.05530389
10306.00   0.21439366   0.05367784
10308.00   0.23674691   0.05195211
10310.00   0.35658252   0.05000688
10312.00   0.41051105   0.04911358
10314.00   0.46754849   0.04970513
10316.00   0.47148347   0.04962872
10318.00   0.38444221   0.04815179
10320.00   0.27263367   0.04643612
10322.00   0.24644090   0.04634601
10324.00   0.27818075   0.04763120
10326.00   0.27835152   0.04779006
10328.00   0.24191275   0.04740070
10330.00   0.26838702   0.04710442
10332.00   0.39781725   0.04611965
10334.00   0.52631736   0.04601205
10336.00   0.55004025   0.04909405
10338.00   0.51135266   0.05460484
10340.00   0.45421103   0.05576340
10342.00   0.31662211   0.05354235
10344.00   0.24810186   0.05266245
10346.00   0.23284380   0.05263642
10348.00   0.24621551   0.05274173
10350.00   0.28878641   0.05283228
10352.00   0.36028180   0.05298510
10354.00   0.37882847   0.05212165
10356.00   0.35225609   0.04974129
10358.00   0.34856614   0.04855331
10360.00   0.37176707   0.04671634
10362.00   0.36664063   0.04743436
10364.00   0.30334103   0.05157023
10366.00   0.20924090   0.05783146
10368.00   0.14337219   0.06590302
10370.00   0.02613859   0.08054369
10372.00   0.06737733   0.08186226
10374.00   0.31232411   0.07186112
10376.00   0.45729774   0.06293303
10378.00   0.43067232   0.05827052
10380.00   0.33589712   0.05556271
10382.00   0.28803173   0.05419736
10384.00   0.25057298   0.05557804
10386.00   0.17627493   0.05507173
10388.00   0.00377405   0.05377809
10390.00   -0.04044311   0.05267127
10392.00   0.08933388   0.05138817
10394.00   0.26436812   0.05057188
10396.00   0.37252694   0.05137516
10398.00   0.47780025   0.05362938
10400.00   0.46012092   0.05407468
10402.00   0.25267527   0.05284023
10404.00   0.18723123   0.05295549
10406.00   0.24609171   0.05376399
10408.00   0.34402803   0.05561588
10410.00   0.46055788   0.05921956
10412.00   0.60940570   0.06395778
10414.00   0.60089242   0.06642625
10416.00   0.39794132   0.06796366
10418.00   0.33578178   0.06868942
10420.00   0.35423207   0.06883226
10422.00   0.40098339   0.06782829
10424.00   0.48482916   0.06520458
10426.00   0.58682460   0.06115984
10428.00   0.57138985   0.05663211
10430.00   0.41913718   0.04901401
10432.00   0.37289223   0.04495831
10434.00   0.38022882   0.04436640
10436.00   0.38603693   0.04397492
10438.00   0.37644866   0.04309893
10440.00   0.36941001   0.04254401
10442.00   0.38682869   0.04282846
10444.00   0.43455321   0.04373729
10446.00   0.44505033   0.04525262
10448.00   0.44318631   0.04793523
10450.00   0.41742823   0.04987221
10452.00   0.35322511   0.05156046
10454.00   0.28178805   0.05237804
10456.00   0.23888981   0.05087613
10458.00   0.20625314   0.04664758
10460.00   0.20409979   0.04631309
10462.00   0.22565019   0.04871901
10464.00   0.27154779   0.05094077
10466.00   0.38077974   0.05469964
10468.00   0.46191841   0.05683079
10470.00   0.42613113   0.05442138
10472.00   0.31156164   0.04832975
10474.00   0.30810007   0.04601889
10476.00   0.40083340   0.04618881
10478.00   0.42710978   0.04579701
10480.00   0.40703794   0.04612424
10482.00   0.38450387   0.04570365
10484.00   0.37280244   0.04320128
10486.00   0.36488128   0.03946887
10488.00   0.37563634   0.03857318
10490.00   0.44014654   0.04107589
10492.00   0.42079359   0.04063040
10494.00   0.32462361   0.03805729
10496.00   0.24440153   0.03604655
10498.00   0.18936087   0.03541934
10500.00   0.15607142   0.03547984
10502.00   0.17984225   0.03565774
10504.00   0.28303674   0.03618302
10506.00   0.30574977   0.03699372
10508.00   0.27967027   0.03833666
10510.00   0.25636667   0.03945330
10512.00   0.22470090   0.04061327
10514.00   0.20323171   0.04137221
10516.00   0.23548624   0.04087579
10518.00   0.32612997   0.03906762
10520.00   0.31464100   0.03868138
10522.00   0.19090287   0.03921568
10524.00   0.14574249   0.03957549
10526.00   0.18450065   0.04021715
10528.00   0.23547213   0.04043245
10530.00   0.25328606   0.03936715
10532.00   0.26041177   0.03724698
10534.00   0.25052190   0.03634902
10536.00   0.20890921   0.03593175
10538.00   0.18996854   0.03607624
10540.00   0.18360482   0.03739699
10542.00   0.18539760   0.03824745
10544.00   0.19632572   0.03773013
10546.00   0.21499138   0.03646491
10548.00   0.22855397   0.03588988
10550.00   0.24977428   0.03548566
10552.00   0.25124097   0.03530899
10554.00   0.22969502   0.03547253
10556.00   0.21552861   0.03563718
10558.00   0.21987852   0.03577479
10560.00   0.22984499   0.03588038
10562.00   0.22524258   0.03573420
10564.00   0.20724057   0.03500904
10566.00   0.20378746   0.03543114
10568.00   0.20699696   0.03687581
10570.00   0.21490884   0.03806479
10572.00   0.22863522   0.03912377
10574.00   0.24607603   0.03991308
10576.00   0.26594877   0.03994381
10578.00   0.29445475   0.03920485
10580.00   0.29586732   0.03914288
10582.00   0.27087793   0.03965885
10584.00   0.25239629   0.03964232
10586.00   0.24024519   0.03901381
10588.00   0.22576752   0.03824290
10590.00   0.20231597   0.03768032
10592.00   0.17219007   0.03716400
10594.00   0.14893766   0.03667461
10596.00   0.11346648   0.03601858
10598.00   0.11235932   0.03584491
10600.00   0.15904397   0.03632581
10602.00   0.19586974   0.03670619
10604.00   0.19059780   0.03659127
10606.00   0.16319853   0.03622434
10608.00   0.14511307   0.03592750
10610.00   0.11158240   0.03536282
10612.00   0.10795428   0.03527137
10614.00   0.13003863   0.03561737
10616.00   0.15515639   0.03594764
10618.00   0.18384834   0.03623117
10620.00   0.21161290   0.03644397
10622.00   0.21126164   0.03624564
10624.00   0.17922954   0.03551071
10626.00   0.17181025   0.03524725
10628.00   0.17838493   0.03528786
10630.00   0.18019615   0.03524754
10632.00   0.17424005   0.03506617
10634.00   0.16640139   0.03485985
10636.00   0.16223675   0.03474390
10638.00   0.15981872   0.03469946
10640.00   0.15689911   0.03456061
10642.00   0.15740360   0.03442104
10644.00   0.15158172   0.03415399
10646.00   0.13041483   0.03364611
10648.00   0.11627194   0.03316775
10650.00   0.13364434   0.03299707
10652.00   0.17485206   0.03303084
10654.00   0.19258957   0.03301084
10656.00   0.20989434   0.03328273
10658.00   0.20373586   0.03302065
10660.00   0.16023445   0.03188676
10662.00   0.12473335   0.03105905
10664.00   0.12654746   0.03145974
10666.00   0.14830546   0.03252730
10668.00   0.15192695   0.03263815
10670.00   0.14686811   0.03233803
10672.00   0.14642087   0.03174648
10674.00   0.14586785   0.03036766
10676.00   0.14831895   0.02934853
10678.00   0.15756676   0.02927804
10680.00   0.16885953   0.02962958
10682.00   0.16828817   0.02944571
10684.00   0.15266305   0.02886616
10686.00   0.15468977   0.02873278
10688.00   0.17081639   0.02901267
10690.00   0.18294908   0.02908396
10692.00   0.18767101   0.02883214
10694.00   0.19089244   0.02845299
10696.00   0.19861291   0.02812995
10698.00   0.20894513   0.02773300
10700.00   0.21876290   0.02755728
10702.00   0.23449877   0.02763681
10704.00   0.23974054   0.02759979
10706.00   0.23062420   0.02743747
10708.00   0.21891034   0.02724259
10710.00   0.21469393   0.02708249
10712.00   0.21310297   0.02693314
10714.00   0.21675687   0.02672391
10716.00   0.22567709   0.02637323
10718.00   0.23704876   0.02620882
10720.00   0.25334659   0.02620371
10722.00   0.26979414   0.02628526
10724.00   0.28643942   0.02651238
10726.00   0.30301908   0.02684225
10728.00   0.29856914   0.02661690
10730.00   0.26747438   0.02556704
10732.00   0.25255257   0.02530246
10734.00   0.24386975   0.02574018
10736.00   0.23855655   0.02603971
10738.00   0.23806216   0.02589430
10740.00   0.24005117   0.02556519
10742.00   0.23394482   0.02539099
10744.00   0.21792535   0.02528976
10746.00   0.21350127   0.02509940
10748.00   0.22108763   0.02493293
10750.00   0.22122437   0.02460423
10752.00   0.19817552   0.02383424
10754.00   0.17915866   0.02308073
10756.00   0.21465999   0.02330295
10758.00   0.30523282   0.02439302
10760.00   0.34352198   0.02487042
10762.00   0.36282384   0.02531995
10764.00   0.36433107   0.02542170
10766.00   0.34315294   0.02523719
10768.00   0.30953676   0.02469102
10770.00   0.27109116   0.02348332
10772.00   0.21957833   0.02140534
10774.00   0.19931728   0.02054343
10776.00   0.19520116   0.02070249
10778.00   0.20887180   0.02068310
10780.00   0.26682809   0.02070575
10782.00   0.30478057   0.02073665
10784.00   0.26264730   0.02068220
10786.00   0.17103912   0.02058975
10788.00   0.17840286   0.02069324
10790.00   0.29094118   0.02141403
10792.00   0.31906584   0.02109291
10794.00   0.28208509   0.01961595
10796.00   0.25199959   0.01816478
10798.00   0.25149843   0.01706957
10800.00   0.26570201   0.01628680
10802.00   0.29835743   0.01688348
10804.00   0.37266064   0.01935562
10806.00   0.40021276   0.02009166
10808.00   0.39777112   0.02014352
10810.00   0.39236969   0.01989544
10812.00   0.39381623   0.01900701
10814.00   0.38730016   0.01803277
10816.00   0.34849212   0.01856651
10818.00   0.27306738   0.02056083
10820.00   0.22881186   0.02086194
10822.00   0.17266518   0.01932419
10824.00   0.16970462   0.01944228
10826.00   0.25854227   0.02198274
10828.00   0.34980771   0.02447017
10830.00   0.33367983   0.02519766
10832.00   0.23818678   0.02510742
10834.00   0.23009187   0.02433629
10836.00   0.28356367   0.02215158
10838.00   0.30925649   0.02028750
10840.00   0.31980196   0.01819684
10842.00   0.31860316   0.01654137
10844.00   0.29588056   0.01643590
10846.00   0.25510186   0.01751577
10848.00   0.26495361   0.01719304
10850.00   0.34499887   0.01566113
10852.00   0.35426459   0.01503804
10854.00   0.28477579   0.01470058
10856.00   0.24335170   0.01514508
10858.00   0.29283553   0.01706928
10860.00   0.38096911   0.01938989
10862.00   0.37777373   0.01941854
10864.00   0.29256210   0.01729537
10866.00   0.25823951   0.01617527
10868.00   0.22749086   0.01516921
10870.00   0.22215974   0.01420651
10872.00   0.26013854   0.01319162
