# File created by shivutils (I.Shivvers)
# wl(A)   flm    er(optional)
3614.00   0.04609381   0.01450346
3616.00   0.05425682   0.01465818
3618.00   0.07433899   0.01457862
3620.00   0.07833955   0.01454523
3622.00   0.05661359   0.01425562
3624.00   0.06581122   0.01432518
3626.00   0.06246462   0.01425642
3628.00   0.10622281   0.01534933
3630.00   0.05992022   0.01500565
3632.00   0.07920159   0.01549963
3634.00   0.07515860   0.01490507
3636.00   0.05707276   0.01487607
3638.00   0.04958306   0.01481643
3640.00   0.09474114   0.01566118
3642.00   0.05499370   0.01526548
3644.00   0.06468648   0.01538034
3646.00   0.12733017   0.01771468
3648.00   0.07589884   0.02151997
3650.00   0.09027883   0.02291484
3652.00   0.07005659   0.02021419
3654.00   0.08856032   0.01910253
3656.00   0.07569055   0.01729921
3658.00   0.07543340   0.01560468
3660.00   0.09635284   0.01727390
3662.00   0.06835454   0.01816421
3664.00   0.05644469   0.01635249
3666.00   0.07384257   0.01407852
3668.00   0.09889658   0.01395785
3670.00   0.08273049   0.01358468
3672.00   0.06334575   0.01301436
3674.00   0.08855413   0.01308872
3676.00   0.09776952   0.01306901
3678.00   0.09738495   0.01296789
3680.00   0.08766709   0.01274200
3682.00   0.06932092   0.01240252
3684.00   0.06700031   0.01206610
3686.00   0.09468463   0.01260761
3688.00   0.08643305   0.01275994
3690.00   0.08896719   0.01291627
3692.00   0.06361140   0.01261096
3694.00   0.07763537   0.01253787
3696.00   0.04348022   0.01215651
3698.00   0.05464746   0.01286264
3700.00   0.07660282   0.01317741
3702.00   0.08869408   0.01346428
3704.00   0.06563773   0.01295033
3706.00   0.07339368   0.01284314
3708.00   0.07647821   0.01263265
3710.00   0.09200008   0.01261799
3712.00   0.05840945   0.01227548
3714.00   0.06839778   0.01217425
3716.00   0.08766910   0.01244381
3718.00   0.08518383   0.01226001
3720.00   0.07365642   0.01219016
3722.00   0.07772348   0.01203188
3724.00   0.12214011   0.01252709
3726.00   0.10960361   0.01261402
3728.00   0.08919600   0.01242763
3730.00   0.09770538   0.01260894
3732.00   0.13363168   0.01324572
3734.00   0.10406009   0.01271963
3736.00   0.12585177   0.01320871
3738.00   0.11471006   0.01350985
3740.00   0.08871778   0.01323183
3742.00   0.11944454   0.01304052
3744.00   0.12748972   0.01279510
3746.00   0.10904651   0.01210317
3748.00   0.11824144   0.01235273
3750.00   0.11619151   0.01239800
3752.00   0.11944006   0.01235966
3754.00   0.12732787   0.01236841
3756.00   0.11514406   0.01201688
3758.00   0.10203621   0.01183455
3760.00   0.12854181   0.01191241
3762.00   0.08345333   0.01142007
3764.00   0.10927376   0.01181835
3766.00   0.10513227   0.01132261
3768.00   0.11958803   0.01143968
3770.00   0.09033523   0.01116497
3772.00   0.10477533   0.01146331
3774.00   0.09169255   0.01103528
3776.00   0.09495314   0.01105773
3778.00   0.07341474   0.01093307
3780.00   0.08088961   0.01106192
3782.00   0.07671481   0.01082349
3784.00   0.07030721   0.01074971
3786.00   0.08191609   0.01044015
3788.00   0.07999774   0.01049633
3790.00   0.06107617   0.01054275
3792.00   0.07456052   0.01078000
3794.00   0.06448259   0.01042839
3796.00   0.05480510   0.00986966
3798.00   0.06420433   0.00998885
3800.00   0.06329639   0.00995192
3802.00   0.06859522   0.01009429
3804.00   0.06886794   0.01006731
3806.00   0.07061059   0.01003455
3808.00   0.06624614   0.00990877
3810.00   0.06968236   0.00994424
3812.00   0.05715694   0.00986154
3814.00   0.05641985   0.00995259
3816.00   0.04639119   0.00969431
3818.00   0.03446811   0.00961217
3820.00   0.04418027   0.00973254
3822.00   0.03649316   0.00969985
3824.00   0.05452357   0.00963961
3826.00   0.04809096   0.00984641
3828.00   0.04621991   0.01041339
3830.00   0.05875666   0.01046796
3832.00   0.06138752   0.01031521
3834.00   0.05893079   0.01014625
3836.00   0.03480086   0.00969803
3838.00   0.03918613   0.00982536
3840.00   0.04432284   0.00983094
3842.00   0.04120847   0.00979123
3844.00   0.03940741   0.00963381
3846.00   0.04009408   0.00960199
3848.00   0.05201583   0.00956848
3850.00   0.05388134   0.00954431
3852.00   0.04572785   0.00926175
3854.00   0.04957277   0.00904400
3856.00   0.02752029   0.00880670
3858.00   0.05682661   0.00888017
3860.00   0.05199154   0.00882250
3862.00   0.06745573   0.00918882
3864.00   0.04309394   0.00865114
3866.00   0.03630058   0.00847845
3868.00   0.04744526   0.00858662
3870.00   0.04302146   0.00851576
3872.00   0.02767928   0.00867516
3874.00   0.05766666   0.00908881
3876.00   0.05496868   0.00889832
3878.00   0.04528914   0.00856729
3880.00   0.05246787   0.00842331
3882.00   0.05103498   0.00830521
3884.00   0.05444324   0.00829458
3886.00   0.05063364   0.00823080
3888.00   0.05241276   0.00822413
3890.00   0.05929746   0.00830542
3892.00   0.06285704   0.00846652
3894.00   0.05024258   0.00849554
3896.00   0.07800392   0.00873967
3898.00   0.08992404   0.00894395
3900.00   0.08503343   0.00891719
3902.00   0.06918861   0.00890746
3904.00   0.08931246   0.00976074
3906.00   0.08761068   0.01053071
3908.00   0.07408800   0.01065621
3910.00   0.07691083   0.01070258
3912.00   0.07951381   0.01046870
3914.00   0.08661624   0.01010063
3916.00   0.08430466   0.00973400
3918.00   0.09939128   0.00951423
3920.00   0.06541196   0.00890932
3922.00   0.09537829   0.00905383
3924.00   0.10872136   0.00901277
3926.00   0.09372632   0.00875234
3928.00   0.08122589   0.00848987
3930.00   0.10897505   0.00905779
3932.00   0.10086145   0.00913878
3934.00   0.11300302   0.00898800
3936.00   0.11134527   0.00879005
3938.00   0.10838805   0.00885415
3940.00   0.11789167   0.00932202
3942.00   0.11039194   0.00949050
3944.00   0.13585374   0.00980834
3946.00   0.13723804   0.00942440
3948.00   0.13254878   0.00930640
3950.00   0.11690366   0.00910419
3952.00   0.12841587   0.00901259
3954.00   0.13325772   0.00908496
3956.00   0.12769356   0.00893742
3958.00   0.14519794   0.00926252
3960.00   0.14070219   0.00957737
3962.00   0.13266733   0.00925428
3964.00   0.12293807   0.00881282
3966.00   0.11533438   0.00848601
3968.00   0.12646389   0.00850634
3970.00   0.13851836   0.00861193
3972.00   0.13651869   0.00884493
3974.00   0.14676367   0.00893881
3976.00   0.13469797   0.00901056
3978.00   0.14840478   0.00916513
3980.00   0.14270236   0.00912123
3982.00   0.14311616   0.00909354
3984.00   0.16128421   0.00917238
3986.00   0.13490772   0.00889015
3988.00   0.14937632   0.00904670
3990.00   0.15167277   0.00913062
3992.00   0.15215206   0.00898665
3994.00   0.15247530   0.00924413
3996.00   0.16231604   0.00939075
3998.00   0.16541864   0.00916130
4000.00   0.17389628   0.00893755
4002.00   0.15289706   0.00862029
4004.00   0.15281181   0.00858499
4006.00   0.16358998   0.00883734
4008.00   0.17746390   0.00921327
4010.00   0.16504535   0.00924420
4012.00   0.17634685   0.00933832
4014.00   0.17548442   0.00926156
4016.00   0.17195016   0.00945854
4018.00   0.18028308   0.01013535
4020.00   0.18871191   0.01086936
4022.00   0.19729191   0.01101293
4024.00   0.19571561   0.01065770
4026.00   0.18715303   0.00996000
4028.00   0.19210401   0.00974600
4030.00   0.19889972   0.00976992
4032.00   0.19278529   0.00947363
4034.00   0.20577540   0.00943185
4036.00   0.20752518   0.00939126
4038.00   0.20174584   0.00932701
4040.00   0.19914128   0.00943472
4042.00   0.18586144   0.01096056
4044.00   0.16125754   0.01561984
4046.00   0.20335299   0.01743536
4048.00   0.20295495   0.01433796
4050.00   0.20371288   0.01108209
4052.00   0.19360156   0.01016091
4054.00   0.18632029   0.00999909
4056.00   0.18026972   0.00978925
4058.00   0.17633624   0.00947245
4060.00   0.19204156   0.00950319
4062.00   0.17732088   0.00936497
4064.00   0.18816800   0.00948554
4066.00   0.17296535   0.00932942
4068.00   0.19931562   0.00941544
4070.00   0.19199067   0.00923489
4072.00   0.18040617   0.00922921
4074.00   0.19018963   0.00981392
4076.00   0.23467378   0.01087283
4078.00   0.24241759   0.01102823
4080.00   0.20588759   0.01030914
4082.00   0.22431700   0.01015403
4084.00   0.18300311   0.00976247
4086.00   0.18062297   0.00957199
4088.00   0.17369612   0.00913562
4090.00   0.15767209   0.00883627
4092.00   0.14881957   0.00871268
4094.00   0.16047779   0.00873538
4096.00   0.15645276   0.00870041
4098.00   0.15805216   0.00872979
4100.00   0.15247098   0.00849085
4102.00   0.16690499   0.00842953
4104.00   0.16579777   0.00833273
4106.00   0.14326411   0.00832513
4108.00   0.15193993   0.00843082
4110.00   0.15964702   0.00852790
4112.00   0.14159313   0.00831121
4114.00   0.15466979   0.00841034
4116.00   0.15254954   0.00828863
4118.00   0.14707634   0.00817844
4120.00   0.14358065   0.00803984
4122.00   0.14454485   0.00824217
4124.00   0.14983992   0.00834797
4126.00   0.18259153   0.00849144
4128.00   0.14225315   0.00827322
4130.00   0.16631004   0.00852815
4132.00   0.15324616   0.00855857
4134.00   0.14830980   0.00838111
4136.00   0.15620466   0.00843373
4138.00   0.15771823   0.00857832
4140.00   0.14388247   0.00849633
4142.00   0.14241010   0.00817418
4144.00   0.14634131   0.00815530
4146.00   0.14624330   0.00810743
4148.00   0.14715669   0.00816980
4150.00   0.14707808   0.00831547
4152.00   0.15140170   0.00856934
4154.00   0.15879507   0.00842698
4156.00   0.14658034   0.00821621
4158.00   0.14717615   0.00819194
4160.00   0.13895071   0.00824584
4162.00   0.13497004   0.00860985
4164.00   0.12114142   0.00871938
4166.00   0.13155341   0.00857504
4168.00   0.12555292   0.00815088
4170.00   0.13764083   0.00812542
4172.00   0.14754781   0.00796115
4174.00   0.12164825   0.00765641
4176.00   0.13733888   0.00785345
4178.00   0.12353975   0.00786694
4180.00   0.14375360   0.00787859
4182.00   0.13514227   0.00779016
4184.00   0.13730261   0.00775597
4186.00   0.13200033   0.00778361
4188.00   0.13860492   0.00778640
4190.00   0.14087982   0.00781180
4192.00   0.15350342   0.00790853
4194.00   0.13194522   0.00771232
4196.00   0.13901845   0.00766895
4198.00   0.12668402   0.00759179
4200.00   0.12512842   0.00754360
4202.00   0.11572299   0.00745494
4204.00   0.11594495   0.00748726
4206.00   0.13475375   0.00779633
4208.00   0.11489180   0.00771704
4210.00   0.13362435   0.00785791
4212.00   0.13874397   0.00784707
4214.00   0.11989655   0.00762745
4216.00   0.11331476   0.00754811
4218.00   0.11195169   0.00750901
4220.00   0.11800953   0.00749507
4222.00   0.11304369   0.00742653
4224.00   0.11453208   0.00743991
4226.00   0.11564935   0.00744671
4228.00   0.10592632   0.00737458
4230.00   0.11239542   0.00752265
4232.00   0.10937983   0.00762520
4234.00   0.11160596   0.00772845
4236.00   0.12043013   0.00781269
4238.00   0.12282763   0.00777257
4240.00   0.12686986   0.00766206
4242.00   0.12836690   0.00775146
4244.00   0.11312691   0.00817024
4246.00   0.12815386   0.00858624
4248.00   0.12196602   0.00822066
4250.00   0.10815495   0.00773592
4252.00   0.10843830   0.00752644
4254.00   0.09984089   0.00755076
4256.00   0.10956862   0.00758172
4258.00   0.12499908   0.00766219
4260.00   0.13409059   0.00773050
4262.00   0.10782391   0.00748740
4264.00   0.13358872   0.00763730
4266.00   0.13542570   0.00769186
4268.00   0.11935572   0.00759276
4270.00   0.10517371   0.00739947
4272.00   0.13002956   0.00753858
4274.00   0.12143593   0.00755122
4276.00   0.12195360   0.00756524
4278.00   0.13963419   0.00776053
4280.00   0.13564116   0.00775406
4282.00   0.13764393   0.00782588
4284.00   0.13108866   0.00778298
4286.00   0.13280240   0.00774811
4288.00   0.12512277   0.00760884
4290.00   0.13451239   0.00770041
4292.00   0.14049825   0.00776189
4294.00   0.13152456   0.00777030
4296.00   0.13066910   0.00777114
4298.00   0.12938729   0.00764321
4300.00   0.14744994   0.00767712
4302.00   0.13186370   0.00757677
4304.00   0.10500405   0.00747600
4306.00   0.13234253   0.00772262
4308.00   0.12908019   0.00773180
4310.00   0.12047794   0.00787011
4312.00   0.12886816   0.00828704
4314.00   0.13531634   0.00836271
4316.00   0.12573336   0.00822498
4318.00   0.13049887   0.00832684
4320.00   0.11676265   0.00825803
4322.00   0.13782588   0.00829082
4324.00   0.13088235   0.00817778
4326.00   0.12913699   0.00804225
4328.00   0.12586202   0.00791272
4330.00   0.12681924   0.00783355
4332.00   0.13386312   0.00786315
4334.00   0.13852771   0.00797222
4336.00   0.12540935   0.00800410
4338.00   0.12525800   0.00805467
4340.00   0.14359386   0.00814738
4342.00   0.11055497   0.00807749
4344.00   0.12754728   0.00834585
4346.00   0.12488060   0.00855993
4348.00   0.11784129   0.00845946
4350.00   0.12744755   0.00843616
4352.00   0.13058962   0.00842125
4354.00   0.14307891   0.01146534
4356.00   0.11757010   0.01593358
4358.00   0.15188961   0.01718553
4360.00   0.14559911   0.01425927
4362.00   0.14456017   0.01106933
4364.00   0.12688525   0.00904587
4366.00   0.15155026   0.00873734
4368.00   0.14211620   0.00861829
4370.00   0.14175291   0.00855923
4372.00   0.15118243   0.00870983
4374.00   0.12815405   0.00858085
4376.00   0.13041849   0.00846205
4378.00   0.13272862   0.00828772
4380.00   0.13328570   0.00811554
4382.00   0.13429065   0.00809017
4384.00   0.13723777   0.00800488
4386.00   0.14008254   0.00799983
4388.00   0.13655329   0.00807870
4390.00   0.14306001   0.00825456
4392.00   0.13567713   0.00826629
4394.00   0.13748205   0.00828155
4396.00   0.14293355   0.00836356
4398.00   0.13303800   0.00844882
4400.00   0.12961483   0.00849341
4402.00   0.12483719   0.00840687
4404.00   0.12838084   0.00831124
4406.00   0.13909569   0.00840907
4408.00   0.14840451   0.00851913
4410.00   0.15183659   0.00856469
4412.00   0.13788535   0.00859389
4414.00   0.13384801   0.00857442
4416.00   0.13769376   0.00855702
4418.00   0.12672028   0.00839590
4420.00   0.13432781   0.00841202
4422.00   0.12386759   0.00837037
4424.00   0.13697033   0.00842166
4426.00   0.12015470   0.00840822
4428.00   0.12482253   0.00839211
4430.00   0.10624210   0.00826866
4432.00   0.11353480   0.00831502
4434.00   0.13514939   0.00836481
4436.00   0.12697729   0.00839192
4438.00   0.13532841   0.00844486
4440.00   0.12865692   0.00841461
4442.00   0.12856331   0.00838860
4444.00   0.13966650   0.00845564
4446.00   0.12418651   0.00830414
4448.00   0.13001832   0.00832378
4450.00   0.12477230   0.00832262
4452.00   0.11991808   0.00822129
4454.00   0.12961236   0.00827827
4456.00   0.10837824   0.00816690
4458.00   0.11211623   0.00815551
4460.00   0.09892906   0.00805805
4462.00   0.11789196   0.00817278
4464.00   0.11334098   0.00805909
4466.00   0.12974411   0.00816609
4468.00   0.11824238   0.00814709
4470.00   0.11189857   0.00813465
4472.00   0.10349644   0.00806360
4474.00   0.11617728   0.00816143
4476.00   0.11279732   0.00814776
4478.00   0.10389993   0.00808005
4480.00   0.10531510   0.00806328
4482.00   0.09156650   0.00800373
4484.00   0.11206451   0.00808857
4486.00   0.10819622   0.00810760
4488.00   0.09637542   0.00801507
4490.00   0.09071931   0.00810869
4492.00   0.11231859   0.00817115
4494.00   0.09752064   0.00811299
4496.00   0.11434811   0.00821501
4498.00   0.09233078   0.00809405
4500.00   0.10196024   0.00807548
4502.00   0.10358988   0.00806393
4504.00   0.11393044   0.00809980
4506.00   0.09275364   0.00792827
4508.00   0.10053215   0.00793538
4510.00   0.10726528   0.00799400
4512.00   0.09869023   0.00786282
4514.00   0.10184398   0.00785112
4516.00   0.10584665   0.00786839
4518.00   0.09404702   0.00785163
4520.00   0.11495218   0.00787710
4522.00   0.11460625   0.00784523
4524.00   0.11632190   0.00784790
4526.00   0.12036096   0.00783094
4528.00   0.10393138   0.00778856
4530.00   0.10108291   0.00776298
4532.00   0.11615481   0.00775840
4534.00   0.11715312   0.00772957
4536.00   0.11905511   0.00768827
4538.00   0.11627055   0.00761326
4540.00   0.09521247   0.00751321
4542.00   0.13036090   0.00773393
4544.00   0.12652375   0.00773406
4546.00   0.13174762   0.00773864
4548.00   0.12607841   0.00759307
4550.00   0.12499665   0.00754570
4552.00   0.11088809   0.00748567
4554.00   0.12560736   0.00755792
4556.00   0.11749870   0.00753371
4558.00   0.11510911   0.00742260
4560.00   0.12607756   0.00745645
4562.00   0.13590944   0.00746446
4564.00   0.10732124   0.00730525
4566.00   0.11882286   0.00735237
4568.00   0.12533136   0.00734430
4570.00   0.11626942   0.00733369
4572.00   0.12341984   0.00732493
4574.00   0.13068302   0.00734015
4576.00   0.14669624   0.00739904
4578.00   0.12867707   0.00725158
4580.00   0.12534195   0.00721406
4582.00   0.13380237   0.00719415
4584.00   0.12391251   0.00716685
4586.00   0.12774499   0.00722058
4588.00   0.12989818   0.00717243
4590.00   0.13779855   0.00720152
4592.00   0.14617600   0.00726047
4594.00   0.14358042   0.00719323
4596.00   0.15384085   0.00722933
4598.00   0.15444933   0.00718351
4600.00   0.15497853   0.00712071
4602.00   0.15777123   0.00715068
4604.00   0.16041601   0.00715039
4606.00   0.16688511   0.00717635
4608.00   0.16260855   0.00715325
4610.00   0.16788603   0.00714598
4612.00   0.17158695   0.00715043
4614.00   0.18053080   0.00716061
4616.00   0.17939001   0.00712481
4618.00   0.17872350   0.00718656
4620.00   0.18642132   0.00724131
4622.00   0.17469828   0.00714110
4624.00   0.19984473   0.00727525
4626.00   0.21692447   0.00732589
4628.00   0.21042392   0.00733727
4630.00   0.22522591   0.00741732
4632.00   0.23256415   0.00741075
4634.00   0.22835527   0.00741264
4636.00   0.22387967   0.00735531
4638.00   0.24376687   0.00750230
4640.00   0.24328406   0.00746335
4642.00   0.23303881   0.00745419
4644.00   0.25064534   0.00747908
4646.00   0.25920689   0.00753703
4648.00   0.26413482   0.00755901
4650.00   0.25707379   0.00757867
4652.00   0.27817944   0.00762790
4654.00   0.26299298   0.00769014
4656.00   0.27053806   0.00773774
4658.00   0.27282465   0.00781036
4660.00   0.26021624   0.00776751
4662.00   0.27532786   0.00785152
4664.00   0.26723698   0.00785816
4666.00   0.27155271   0.00791388
4668.00   0.28079161   0.00802973
4670.00   0.28299031   0.00807362
4672.00   0.28371456   0.00802452
4674.00   0.26714042   0.00788497
4676.00   0.25942495   0.00776457
4678.00   0.26292801   0.00767138
4680.00   0.26230460   0.00763741
4682.00   0.26837918   0.00763021
4684.00   0.26418874   0.00760894
4686.00   0.26932621   0.00759691
4688.00   0.29061195   0.00772777
4690.00   0.26847544   0.00758692
4692.00   0.28187948   0.00768956
4694.00   0.27710411   0.00761519
4696.00   0.28043219   0.00756549
4698.00   0.27301854   0.00752626
4700.00   0.27810678   0.00754726
4702.00   0.27697524   0.00756062
4704.00   0.28374815   0.00760338
4706.00   0.27076390   0.00762906
4708.00   0.28126252   0.00766179
4710.00   0.28509566   0.00765530
4712.00   0.28438285   0.00763774
4714.00   0.27908677   0.00758100
4716.00   0.28080752   0.00751747
4718.00   0.28471738   0.00753630
4720.00   0.27880174   0.00751841
4722.00   0.27559525   0.00745946
4724.00   0.28043854   0.00748111
4726.00   0.28909576   0.00762449
4728.00   0.27379489   0.00766939
4730.00   0.27415085   0.00769177
4732.00   0.27352595   0.00775616
4734.00   0.26400185   0.00775441
4736.00   0.26478845   0.00780429
4738.00   0.26680985   0.00791076
4740.00   0.25352550   0.00799057
4742.00   0.25574914   0.00804028
4744.00   0.24848028   0.00779960
4746.00   0.23880666   0.00748604
4748.00   0.23575398   0.00729001
4750.00   0.23650035   0.00725843
4752.00   0.20986257   0.00712368
4754.00   0.20973821   0.00703239
4756.00   0.21189834   0.00696140
4758.00   0.21166460   0.00684289
4760.00   0.19731529   0.00670866
4762.00   0.19386621   0.00663095
4764.00   0.18658309   0.00656861
4766.00   0.18217117   0.00651765
4768.00   0.18134899   0.00651925
4770.00   0.18733671   0.00651381
4772.00   0.18786682   0.00651085
4774.00   0.18262701   0.00649331
4776.00   0.18063007   0.00660398
4778.00   0.16275792   0.00653942
4780.00   0.16508618   0.00651687
4782.00   0.17062250   0.00646509
4784.00   0.14576647   0.00633221
4786.00   0.15368830   0.00630458
4788.00   0.15048905   0.00627483
4790.00   0.14196491   0.00618898
4792.00   0.14959249   0.00628230
4794.00   0.14613684   0.00625087
4796.00   0.14961420   0.00619380
4798.00   0.15326346   0.00624428
4800.00   0.13941705   0.00620896
4802.00   0.13812804   0.00621638
4804.00   0.14120787   0.00621621
4806.00   0.15128736   0.00628521
4808.00   0.14113416   0.00620138
4810.00   0.14013159   0.00615679
4812.00   0.14269565   0.00618525
4814.00   0.14007010   0.00620343
4816.00   0.15173323   0.00623861
4818.00   0.14355527   0.00626594
4820.00   0.14074157   0.00630265
4822.00   0.15684725   0.00639240
4824.00   0.15104295   0.00638215
4826.00   0.14337875   0.00636245
4828.00   0.15147102   0.00642871
4830.00   0.14791949   0.00647570
4832.00   0.14245562   0.00642760
4834.00   0.15236859   0.00648070
4836.00   0.14862756   0.00645516
4838.00   0.14670861   0.00650038
4840.00   0.14408630   0.00645640
4842.00   0.14479023   0.00640252
4844.00   0.15762992   0.00647088
4846.00   0.15223029   0.00645300
4848.00   0.15180837   0.00642220
4850.00   0.14457509   0.00635080
4852.00   0.15010196   0.00638468
4854.00   0.15387399   0.00633988
4856.00   0.14616524   0.00631353
4858.00   0.16429144   0.00634703
4860.00   0.14586101   0.00633268
4862.00   0.14406963   0.00633480
4864.00   0.15328066   0.00641325
4866.00   0.17111939   0.00651394
4868.00   0.15694903   0.00645145
4870.00   0.15462738   0.00644454
4872.00   0.17636903   0.00650678
4874.00   0.16702099   0.00647492
4876.00   0.16943945   0.00656728
4878.00   0.15981387   0.00655447
4880.00   0.16750892   0.00658676
4882.00   0.17464635   0.00662883
4884.00   0.17772838   0.00661005
4886.00   0.17606191   0.00654033
4888.00   0.18808247   0.00663080
4890.00   0.19620222   0.00670540
4892.00   0.20141189   0.00671707
4894.00   0.20691818   0.00677970
4896.00   0.18960378   0.00668942
4898.00   0.20734721   0.00679858
4900.00   0.20989814   0.00675521
4902.00   0.21600229   0.00679785
4904.00   0.21340883   0.00679677
4906.00   0.22737430   0.00690012
4908.00   0.23122197   0.00690715
4910.00   0.22830950   0.00692622
4912.00   0.24649781   0.00701930
4914.00   0.23761451   0.00699307
4916.00   0.24085315   0.00697208
4918.00   0.22794536   0.00686434
4920.00   0.23786251   0.00690520
4922.00   0.21329799   0.00680475
4924.00   0.22157882   0.00680362
4926.00   0.21678704   0.00674308
4928.00   0.21115921   0.00667253
4930.00   0.21646529   0.00676135
4932.00   0.21066929   0.00669872
4934.00   0.21573630   0.00672894
4936.00   0.22254451   0.00677651
4938.00   0.22145067   0.00676532
4940.00   0.20162806   0.00666131
4942.00   0.19198568   0.00655124
4944.00   0.20039745   0.00652506
4946.00   0.18794118   0.00642760
4948.00   0.20487410   0.00654540
4950.00   0.18812406   0.00648856
4952.00   0.18967584   0.00655650
4954.00   0.18975882   0.00656258
4956.00   0.18877392   0.00656667
4958.00   0.18954664   0.00652254
4960.00   0.18961552   0.00657350
4962.00   0.21139881   0.00669410
4964.00   0.21758987   0.00678405
4966.00   0.20721453   0.00681093
4968.00   0.21431977   0.00688787
4970.00   0.21714325   0.00696975
4972.00   0.23215607   0.00714488
4974.00   0.21719167   0.00723384
4976.00   0.21625850   0.00740967
4978.00   0.22333816   0.00765485
4980.00   0.21105857   0.00776178
4982.00   0.21316585   0.00787199
4984.00   0.22772557   0.00790620
4986.00   0.22551881   0.00779274
4988.00   0.23170619   0.00770390
4990.00   0.25155687   0.00761555
4992.00   0.24736980   0.00748082
4994.00   0.24603856   0.00729880
4996.00   0.24256353   0.00723174
4998.00   0.25880238   0.00717761
5000.00   0.27074686   0.00721326
5002.00   0.25112155   0.00707190
5004.00   0.27098030   0.00712264
5006.00   0.25719872   0.00702987
5008.00   0.26150286   0.00699412
5010.00   0.28955466   0.00714106
5012.00   0.29295418   0.00713424
5014.00   0.29234764   0.00719328
5016.00   0.27781728   0.00720151
5018.00   0.29278067   0.00726247
5020.00   0.29890227   0.00731126
5022.00   0.29073250   0.00725730
5024.00   0.31170207   0.00732321
5026.00   0.28954759   0.00718822
5028.00   0.28245175   0.00720398
5030.00   0.30674252   0.00735591
5032.00   0.30629337   0.00729808
5034.00   0.30680415   0.00731270
5036.00   0.31142816   0.00732954
5038.00   0.30614293   0.00725153
5040.00   0.29727980   0.00720822
5042.00   0.29591769   0.00724444
5044.00   0.29118034   0.00721582
5046.00   0.29211336   0.00721719
5048.00   0.27737650   0.00713596
5050.00   0.29828659   0.00722091
5052.00   0.30489221   0.00726745
5054.00   0.28033829   0.00712019
5056.00   0.28639385   0.00715263
5058.00   0.28823593   0.00717986
5060.00   0.28066596   0.00717628
5062.00   0.30391026   0.00736522
5064.00   0.27918768   0.00731614
5066.00   0.25886536   0.00730144
5068.00   0.26496008   0.00733527
5070.00   0.24717873   0.00723320
5072.00   0.23715726   0.00710689
5074.00   0.25288290   0.00716837
5076.00   0.23453246   0.00704643
5078.00   0.24194939   0.00728721
5080.00   0.22286287   0.00748860
5082.00   0.21186186   0.00772716
5084.00   0.22282036   0.00789539
5086.00   0.21032938   0.00777163
5088.00   0.21821795   0.00761271
5090.00   0.19943391   0.00720931
5092.00   0.21934500   0.00710679
5094.00   0.20059313   0.00694541
5096.00   0.21737826   0.00708157
5098.00   0.20554657   0.00705312
5100.00   0.18205050   0.00690098
5102.00   0.18711330   0.00679996
5104.00   0.19620664   0.00675389
5106.00   0.18394464   0.00665541
5108.00   0.17838566   0.00659399
5110.00   0.17246076   0.00651363
5112.00   0.18204272   0.00659873
5114.00   0.17678760   0.00661505
5116.00   0.17936526   0.00664718
5118.00   0.17966898   0.00660727
5120.00   0.18073872   0.00655505
5122.00   0.19129732   0.00656534
5124.00   0.15392472   0.00641409
5126.00   0.17365022   0.00644331
5128.00   0.18656094   0.00648048
5130.00   0.17079224   0.00639292
5132.00   0.17301023   0.00644563
5134.00   0.16282049   0.00642646
5136.00   0.16498975   0.00641919
5138.00   0.16244055   0.00641619
5140.00   0.15712203   0.00640191
5142.00   0.16888940   0.00649457
5144.00   0.16714686   0.00645836
5146.00   0.15419334   0.00649228
5148.00   0.15934800   0.00661822
5150.00   0.14503920   0.00666946
5152.00   0.14747036   0.00672764
5154.00   0.16856420   0.00682615
5156.00   0.16334602   0.00673175
5158.00   0.14774145   0.00653024
5160.00   0.14315331   0.00642793
5162.00   0.14159979   0.00634640
5164.00   0.14720553   0.00627604
5166.00   0.15554331   0.00628795
5168.00   0.15460521   0.00624082
5170.00   0.15359221   0.00622006
5172.00   0.15452248   0.00623761
5174.00   0.15159816   0.00624994
5176.00   0.15035348   0.00628343
5178.00   0.15008022   0.00627903
5180.00   0.13188612   0.00618834
5182.00   0.13712557   0.00620914
5184.00   0.14291567   0.00619117
5186.00   0.14300574   0.00623962
5188.00   0.14382748   0.00623255
5190.00   0.15309957   0.00630346
5192.00   0.14918095   0.00626597
5194.00   0.15304735   0.00629556
5196.00   0.13739118   0.00625833
5198.00   0.13707419   0.00632275
5200.00   0.14699222   0.00630342
5202.00   0.14669551   0.00629559
5204.00   0.14416064   0.00627518
5206.00   0.13837875   0.00630665
5208.00   0.16034397   0.00640719
5210.00   0.15359111   0.00641451
5212.00   0.14942013   0.00636279
5214.00   0.14897436   0.00632361
5216.00   0.15334252   0.00636519
5218.00   0.13816130   0.00629252
5220.00   0.15115835   0.00633767
5222.00   0.13751236   0.00626901
5224.00   0.14344376   0.00622330
5226.00   0.14992057   0.00623042
5228.00   0.14210153   0.00622452
5230.00   0.14239530   0.00620244
5232.00   0.14085430   0.00618004
5234.00   0.15337849   0.00622832
5236.00   0.15720750   0.00627321
5238.00   0.15217309   0.00625032
5240.00   0.13865459   0.00622709
5242.00   0.14328079   0.00613888
5244.00   0.14661860   0.00620880
5246.00   0.14096998   0.00616299
5248.00   0.14540814   0.00622681
5250.00   0.15448262   0.00624700
5252.00   0.15387522   0.00627900
5254.00   0.15554556   0.00630340
5256.00   0.16155760   0.00630960
5258.00   0.14424534   0.00617245
5260.00   0.15273868   0.00621283
5262.00   0.14904949   0.00615315
5264.00   0.14580187   0.00602247
5266.00   0.15101534   0.00604552
5268.00   0.14442053   0.00605573
5270.00   0.15988566   0.00614948
5272.00   0.16722718   0.00618941
5274.00   0.16742224   0.00623000
5276.00   0.15799280   0.00615745
5278.00   0.16363695   0.00619076
5280.00   0.17031516   0.00627738
5282.00   0.15983793   0.00620929
5284.00   0.16480127   0.00630673
5286.00   0.15925409   0.00626138
5288.00   0.17170763   0.00634425
5290.00   0.17754672   0.00638159
5292.00   0.17549834   0.00635431
5294.00   0.17892291   0.00638671
5296.00   0.17367329   0.00635713
5298.00   0.16972466   0.00630674
5300.00   0.19004577   0.00641200
5302.00   0.17507564   0.00634584
5304.00   0.19299728   0.00645752
5306.00   0.18828642   0.00645017
5308.00   0.18387473   0.00643175
5310.00   0.19232807   0.00650011
5312.00   0.18799195   0.00652136
5314.00   0.20584589   0.00656444
5316.00   0.20184466   0.00654458
5318.00   0.20328371   0.00657411
5320.00   0.20044135   0.00657726
5322.00   0.21154852   0.00660520
5324.00   0.20871270   0.00661396
5326.00   0.19514772   0.00653857
5328.00   0.19695562   0.00659016
5330.00   0.21528378   0.00668426
5332.00   0.20604724   0.00668387
5334.00   0.21285525   0.00668292
5336.00   0.21237296   0.00674115
5338.00   0.21139526   0.00673116
5340.00   0.22159469   0.00681302
5342.00   0.21654807   0.00681971
5344.00   0.22216719   0.00684999
5346.00   0.22355290   0.00695834
5348.00   0.22308889   0.00696720
5350.00   0.21880524   0.00696377
5352.00   0.23143259   0.00702438
5354.00   0.21435200   0.00702592
5356.00   0.22318785   0.00700167
5358.00   0.22143328   0.00688775
5360.00   0.22008413   0.00684416
5362.00   0.21837993   0.00681176
5364.00   0.22180413   0.00675756
5366.00   0.23053256   0.00687743
5368.00   0.24143150   0.00697052
5370.00   0.25088105   0.00699794
5372.00   0.24453661   0.00706246
5374.00   0.24582058   0.00713646
5376.00   0.24742825   0.00713579
5378.00   0.24315715   0.00713417
5380.00   0.24457249   0.00718372
5382.00   0.24411267   0.00718313
5384.00   0.25569659   0.00726882
5386.00   0.23897855   0.00725149
5388.00   0.25867480   0.00741690
5390.00   0.24917291   0.00743994
5392.00   0.26950428   0.00753623
5394.00   0.26338249   0.00747125
5396.00   0.25662038   0.00749529
5398.00   0.25800562   0.00756505
5400.00   0.25946966   0.00758916
5402.00   0.26929840   0.00769275
5404.00   0.26259151   0.00771029
5406.00   0.26584387   0.00776644
5408.00   0.25768694   0.00779636
5410.00   0.26463664   0.00794860
5412.00   0.26663500   0.00804926
5414.00   0.26089865   0.00816475
5416.00   0.26891220   0.00829306
5418.00   0.25330484   0.00826403
5420.00   0.24738596   0.00828075
5422.00   0.24701208   0.00831596
5424.00   0.24342878   0.00830889
5426.00   0.24481416   0.00829224
5428.00   0.23796405   0.00831796
5430.00   0.23708940   0.00836010
5432.00   0.22161914   0.00833358
5434.00   0.23595372   0.00840118
5436.00   0.25246644   0.00853828
5438.00   0.23333463   0.00849768
5440.00   0.22873792   0.00854329
5442.00   0.23905613   0.00863482
5444.00   0.22533254   0.00859913
5446.00   0.24408385   0.00874526
5448.00   0.23378703   0.00878044
5450.00   0.21452123   0.00870542
5452.00   0.23247069   0.00883512
5454.00   0.23053560   0.00903611
5456.00   0.23357156   0.01044339
5458.00   0.20910877   0.01213158
5460.00   0.22811474   0.01272623
5462.00   0.20307042   0.01195453
5464.00   0.22654837   0.01140795
5466.00   0.22656785   0.01074327
5468.00   0.22868635   0.01018137
5470.00   0.23039652   0.00975257
5472.00   0.22203429   0.00936152
5474.00   0.21896404   0.00912792
5476.00   0.22798508   0.00913438
5478.00   0.23488019   0.00923984
5480.00   0.23463804   0.00944043
5482.00   0.25958794   0.00958817
5484.00   0.23828402   0.00940023
5486.00   0.25635186   0.00940640
5488.00   0.25709394   0.00936116
5490.00   0.25815126   0.00925350
5492.00   0.25025901   0.00911295
5494.00   0.25413334   0.00915209
5496.00   0.24992062   0.00908739
5498.00   0.27421576   0.00919716
5500.00   0.28181919   0.00921605
5502.00   0.29117599   0.00924671
5504.00   0.29218477   0.00924240
5506.00   0.29076687   0.00930963
5508.00   0.30047923   0.00936247
5510.00   0.31916085   0.00956360
5512.00   0.30677554   0.00958724
5514.00   0.30814251   0.00963996
5516.00   0.30119082   0.00971206
5518.00   0.32539639   0.00987449
5520.00   0.32684806   0.00984663
5522.00   0.33448255   0.00985309
5524.00   0.33606115   0.00991978
5526.00   0.33909896   0.00987544
5528.00   0.36266589   0.00993528
5530.00   0.37763324   0.01004182
5532.00   0.37598312   0.00999157
5534.00   0.36904952   0.00991761
5536.00   0.36355469   0.00988350
5538.00   0.36935878   0.01003813
5540.00   0.38514605   0.01009429
5542.00   0.41224614   0.01026080
5544.00   0.39823323   0.01019916
5546.00   0.39152622   0.01019655
5548.00   0.38699508   0.01674907
5550.00   0.39274195   0.01688878
5552.00   0.39278612   0.01697336
5554.00   0.40838441   0.01685817
5556.00   0.41949448   0.01639005
5558.00   0.43190756   0.01650990
5560.00   0.43474340   0.01668393
5562.00   0.43699798   0.01694877
5564.00   0.43332052   0.01733798
5566.00   0.43475655   0.01792093
5568.00   0.44134355   0.01852846
5570.00   0.45110250   0.01918339
5572.00   0.44656435   0.02011027
5574.00   0.44194523   0.02148164
5576.00   0.47261134   0.02274749
5578.00   0.47816625   0.02290510
5580.00   0.45393136   0.02208713
5582.00   0.46034241   0.02084134
5584.00   0.47153330   0.01907597
5586.00   0.48389474   0.01701417
5588.00   0.47291002   0.01541393
5590.00   0.46475318   0.01489710
5592.00   0.46856710   0.01484015
5594.00   0.47546268   0.01475222
5596.00   0.47942868   0.01466283
5598.00   0.46827498   0.01453820
5600.00   0.46072653   0.01441323
5602.00   0.46323872   0.01431124
5604.00   0.47430292   0.01429381
5606.00   0.48240009   0.01426577
5608.00   0.48490617   0.01418129
5610.00   0.48006701   0.01407977
5612.00   0.47584185   0.01397707
5614.00   0.47959161   0.01391701
5616.00   0.47960380   0.01384931
5618.00   0.48445225   0.01378542
5620.00   0.48566255   0.01368856
5622.00   0.47693756   0.01355076
5624.00   0.46632394   0.01344859
5626.00   0.46462440   0.01343629
5628.00   0.47389439   0.01332366
5630.00   0.48928508   0.01329270
5632.00   0.48063374   0.01318826
5634.00   0.47773242   0.01309952
5636.00   0.47955307   0.01306901
5638.00   0.46213746   0.01292440
5640.00   0.45677611   0.01279503
5642.00   0.45100236   0.01275205
5644.00   0.44392419   0.01267304
5646.00   0.44066978   0.01255472
5648.00   0.43526319   0.01250292
5650.00   0.43882087   0.01253477
5652.00   0.43665305   0.01248022
5654.00   0.43559375   0.01236363
5656.00   0.42066613   0.01231805
5658.00   0.42219985   0.01222941
5660.00   0.42330742   0.01220379
5662.00   0.42954695   0.01224656
5664.00   0.42763135   0.01226949
5666.00   0.42419684   0.01235683
5668.00   0.41682801   0.01242844
5670.00   0.42420515   0.01257200
5672.00   0.43312475   0.01271914
5674.00   0.43082824   0.01281960
5676.00   0.43530628   0.01295998
5678.00   0.43406764   0.01310598
5680.00   0.42188278   0.01325779
5682.00   0.41644880   0.01346691
5684.00   0.41170248   0.01368410
5686.00   0.41488755   0.01385061
5688.00   0.42444193   0.01391723
5690.00   0.41608927   0.01371964
5692.00   0.41479656   0.01338561
5694.00   0.42186669   0.01303559
5696.00   0.42479053   0.01262309
5698.00   0.42407194   0.01224323
5700.00   0.43083271   0.01196865
5702.00   0.42754218   0.01171823
5704.00   0.42536387   0.01157620
5706.00   0.41924384   0.01142637
5708.00   0.42752448   0.01139275
5710.00   0.42447111   0.01131011
5712.00   0.41966906   0.01122916
5714.00   0.41868982   0.01114485
5716.00   0.41932869   0.01106429
5718.00   0.41351560   0.01094699
5720.00   0.41119632   0.01085520
5722.00   0.40962115   0.01076391
5724.00   0.40191725   0.01065785
5726.00   0.39794824   0.01059229
5728.00   0.39859533   0.01052533
5730.00   0.39427397   0.01043472
5732.00   0.38794270   0.01036144
5734.00   0.38934469   0.01033039
5736.00   0.39383420   0.01031961
5738.00   0.38412645   0.01024089
5740.00   0.37343821   0.01017979
5742.00   0.36314335   0.01010959
5744.00   0.36878493   0.01011086
5746.00   0.37560144   0.01011977
5748.00   0.36718145   0.01004595
5750.00   0.36168051   0.01003665
5752.00   0.35220686   0.01002521
5754.00   0.34800652   0.01001511
5756.00   0.34805775   0.01006367
5758.00   0.34503591   0.01010757
5760.00   0.34063753   0.01015257
5762.00   0.33244714   0.01021844
5764.00   0.32193416   0.01033753
5766.00   0.33026826   0.01056938
5768.00   0.33067012   0.01073403
5770.00   0.32592559   0.01077726
5772.00   0.32121286   0.01065655
5774.00   0.32158628   0.01048234
5776.00   0.31885734   0.01023551
5778.00   0.31259504   0.00998351
5780.00   0.31201088   0.00986417
5782.00   0.31686500   0.00992420
5784.00   0.31116521   0.01001822
5786.00   0.30643335   0.01017397
5788.00   0.30367571   0.01034851
5790.00   0.30249727   0.01045709
5792.00   0.29749191   0.01043832
5794.00   0.29551664   0.01031783
5796.00   0.29512078   0.01011737
5798.00   0.29140732   0.00986232
5800.00   0.28608489   0.00963541
5802.00   0.29353225   0.00957901
5804.00   0.29966679   0.00957343
5806.00   0.29369822   0.00952213
5808.00   0.28688926   0.00947708
5810.00   0.29253888   0.00948947
5812.00   0.28822538   0.00942158
5814.00   0.29178169   0.00944801
5816.00   0.29866490   0.00951440
5818.00   0.29333720   0.00949535
5820.00   0.28818694   0.00947662
5822.00   0.28426853   0.00948822
5824.00   0.28269055   0.00950753
5826.00   0.27883396   0.00949623
5828.00   0.27625105   0.00948656
5830.00   0.27611700   0.00952931
5832.00   0.28471103   0.00961628
5834.00   0.28957927   0.00964476
5836.00   0.28964815   0.00964396
5838.00   0.28437573   0.00964659
5840.00   0.28489441   0.00966328
5842.00   0.29000631   0.00970681
5844.00   0.29187179   0.00975794
5846.00   0.29577124   0.00980362
5848.00   0.29889715   0.00983073
5850.00   0.28964904   0.00979790
5852.00   0.28431174   0.00979190
5854.00   0.28963223   0.00983919
5856.00   0.29204181   0.00990380
5858.00   0.28811476   0.00993197
5860.00   0.28007194   0.00993160
5862.00   0.28277549   0.01002253
5864.00   0.29600316   0.01015887
5866.00   0.30160040   0.01024246
5868.00   0.30198348   0.01030265
5870.00   0.29601601   0.01027315
5872.00   0.28959057   0.01022564
5874.00   0.29161641   0.01023754
5876.00   0.29759526   0.01033285
5878.00   0.30733812   0.01057657
5880.00   0.29297826   0.01099838
5882.00   0.29547933   0.01194223
5884.00   0.30180550   0.01350388
5886.00   0.30603310   0.01551006
5888.00   0.30812779   0.01742329
5890.00   0.31776825   0.01879301
5892.00   0.31620720   0.01961413
5894.00   0.30595008   0.01981296
5896.00   0.30525807   0.01899230
5898.00   0.30569646   0.01722225
5900.00   0.30236998   0.01534254
5902.00   0.30195749   0.01352085
5904.00   0.30913916   0.01172748
5906.00   0.30803362   0.01041360
5908.00   0.31264201   0.01004419
5910.00   0.31430098   0.01008703
5912.00   0.30721331   0.01009829
5914.00   0.30748102   0.01013054
5916.00   0.31631505   0.01018944
5918.00   0.32101864   0.01020465
5920.00   0.32133469   0.01019895
5922.00   0.31464764   0.01016151
5924.00   0.31356254   0.01015625
5926.00   0.30956435   0.01016931
5928.00   0.31089807   0.01020768
5930.00   0.31846175   0.01025854
5932.00   0.31451944   0.01025440
5934.00   0.31251249   0.01021413
5936.00   0.30713496   0.01011841
5938.00   0.30603370   0.01004755
5940.00   0.30802649   0.00996072
5942.00   0.30672470   0.00986548
5944.00   0.29546633   0.00976712
5946.00   0.29428813   0.00972666
5948.00   0.30704021   0.00976932
5950.00   0.30460373   0.00976242
5952.00   0.29563212   0.00975868
5954.00   0.30103752   0.00976967
5956.00   0.30316803   0.00972299
5958.00   0.29568741   0.00965249
5960.00   0.30118003   0.00962824
5962.00   0.30717111   0.00960212
5964.00   0.30509114   0.00956289
5966.00   0.30054244   0.00953155
5968.00   0.29904366   0.00952600
5970.00   0.30085608   0.00954166
5972.00   0.30072391   0.00953074
5974.00   0.29353595   0.00948071
5976.00   0.29171181   0.00946356
5978.00   0.29268256   0.00944789
5980.00   0.29328969   0.00940301
5982.00   0.29205886   0.00936252
5984.00   0.29033825   0.00931578
5986.00   0.28936234   0.00928242
5988.00   0.29140726   0.00924851
5990.00   0.29449025   0.00922657
5992.00   0.29793426   0.00920765
5994.00   0.29623663   0.00917888
5996.00   0.28899261   0.00911140
5998.00   0.28512561   0.00907473
6000.00   0.28720161   0.00905958
6002.00   0.28331861   0.00901997
6004.00   0.27888376   0.00897863
6006.00   0.28227589   0.00897670
6008.00   0.28729036   0.00899386
6010.00   0.28358495   0.00894543
6012.00   0.28381035   0.00894624
6014.00   0.28827944   0.00894331
6016.00   0.28731748   0.00891590
6018.00   0.28648195   0.00888066
6020.00   0.28975371   0.00889612
6022.00   0.28711286   0.00889653
6024.00   0.27639389   0.00881518
6026.00   0.27055579   0.00877109
6028.00   0.27288553   0.00876178
6030.00   0.27844265   0.00876565
6032.00   0.27945840   0.00876522
6034.00   0.27097005   0.00871226
6036.00   0.27142033   0.00866845
6038.00   0.27492058   0.00866091
6040.00   0.27534077   0.00865765
6042.00   0.27612430   0.00865655
6044.00   0.27088073   0.00860772
6046.00   0.26274034   0.00854263
6048.00   0.25536600   0.00848042
6050.00   0.25724950   0.00846766
6052.00   0.25679860   0.00844155
6054.00   0.25519010   0.00842019
6056.00   0.25593898   0.00840246
6058.00   0.25783661   0.00839600
6060.00   0.24899535   0.00833262
6062.00   0.24598390   0.00829900
6064.00   0.24339616   0.00828111
6066.00   0.23942280   0.00826316
6068.00   0.23863101   0.00824908
6070.00   0.23928513   0.00821955
6072.00   0.23464115   0.00818209
6074.00   0.23059724   0.00816266
6076.00   0.22832648   0.00812994
6078.00   0.23098457   0.00814402
6080.00   0.22770393   0.00812693
6082.00   0.22300093   0.00809357
6084.00   0.22656254   0.00807535
6086.00   0.22701685   0.00805094
6088.00   0.22308195   0.00804321
6090.00   0.22194360   0.00806307
6092.00   0.21812177   0.00805275
6094.00   0.22080977   0.00808971
6096.00   0.22330372   0.00812199
6098.00   0.21909736   0.00814959
6100.00   0.21830110   0.00819558
6102.00   0.22171982   0.00829627
6104.00   0.22294849   0.00843292
6106.00   0.22149675   0.00856135
6108.00   0.21824837   0.00870841
6110.00   0.22120272   0.00891397
6112.00   0.22988419   0.00906200
6114.00   0.22884302   0.00908975
6116.00   0.22776465   0.00903163
6118.00   0.23055333   0.00889460
6120.00   0.22468972   0.00864247
6122.00   0.22737102   0.00847683
6124.00   0.23178263   0.00836721
6126.00   0.22737513   0.00824723
6128.00   0.22012889   0.00814897
6130.00   0.21887131   0.00811401
6132.00   0.23037581   0.00815443
6134.00   0.23971601   0.00819686
6136.00   0.23645602   0.00818113
6138.00   0.23114894   0.00816084
6140.00   0.22946773   0.00816803
6142.00   0.23279770   0.00818851
6144.00   0.22847712   0.00815315
6146.00   0.22113454   0.00810890
6148.00   0.22243857   0.00811859
6150.00   0.22673468   0.00818611
6152.00   0.23190981   0.00825109
6154.00   0.22701122   0.00827271
6156.00   0.21924751   0.00828884
6158.00   0.21580212   0.00834322
6160.00   0.21446912   0.00832333
6162.00   0.21439795   0.00824919
6164.00   0.21564709   0.00814824
6166.00   0.21612151   0.00802421
6168.00   0.21680363   0.00789291
6170.00   0.21265240   0.00776469
6172.00   0.21418171   0.00771157
6174.00   0.21235937   0.00763569
6176.00   0.21140778   0.00759238
6178.00   0.20765126   0.00754997
6180.00   0.20872058   0.00758424
6182.00   0.21017729   0.00766271
6184.00   0.21550183   0.00790413
6186.00   0.21440105   0.00832910
6188.00   0.21269424   0.00877096
6190.00   0.21573158   0.00862347
#6192.00   0.22613454   0.00847364
#6194.00   0.22182555   0.00833624
6196.00   0.21053165   0.00809088
6198.00   0.20536883   0.00769101
6200.00   0.20519145   0.00757587
6202.00   0.20344676   0.00748745
6204.00   0.20130533   0.00743773
6206.00   0.20018661   0.00744347
6208.00   0.19860388   0.00746390
6210.00   0.19649446   0.00742607
6212.00   0.19086127   0.00735551
6214.00   0.19166680   0.00733902
6216.00   0.18555738   0.00730939
6218.00   0.18276973   0.00727264
6220.00   0.18221855   0.00729621
6222.00   0.18026493   0.00740081
6224.00   0.17544653   0.00757696
6226.00   0.17628409   0.00772752
6228.00   0.17474289   0.00771034
6230.00   0.17309241   0.00759851
6232.00   0.16933639   0.00753755
6234.00   0.16711949   0.00762540
6236.00   0.16632301   0.00769309
6238.00   0.16365491   0.00766371
6240.00   0.15710658   0.00748514
6242.00   0.15297578   0.00725133
6244.00   0.15384036   0.00712282
6246.00   0.15524620   0.00703054
6248.00   0.15109991   0.00690959
6250.00   0.14600132   0.00683968
6252.00   0.14276578   0.00684657
6254.00   0.14262559   0.00694815
6256.00   0.14168201   0.00705570
6258.00   0.13601984   0.00706157
6260.00   0.13455607   0.00705679
6262.00   0.13402800   0.00703577
6264.00   0.13776988   0.00696774
6266.00   0.13730459   0.00684522
6268.00   0.13558236   0.00674706
6270.00   0.13264470   0.00668026
6272.00   0.13160527   0.00664274
6274.00   0.13416512   0.00665019
6276.00   0.13182479   0.00664574
6278.00   0.13070478   0.00666872
6280.00   0.13682850   0.00672323
6282.00   0.13320142   0.00671651
6284.00   0.12859412   0.00670052
6286.00   0.13464287   0.00676423
6288.00   0.13032116   0.00676606
6290.00   0.13001768   0.00679587
6292.00   0.13632947   0.00695650
6294.00   0.13865706   0.00722594
6296.00   0.13698041   0.00768074
6298.00   0.13992119   0.00820312
6300.00   0.14209151   0.00851732
6302.00   0.14473660   0.00860495
6304.00   0.14484541   0.00846420
6306.00   0.14080328   0.00803245
6308.00   0.15095524   0.00753106
6310.00   0.15401545   0.00716097
6312.00   0.16030914   0.00702765
6314.00   0.16653137   0.00692017
6316.00   0.16497739   0.00679928
6318.00   0.16028482   0.00673005
6320.00   0.15749381   0.00672160
6322.00   0.15999244   0.00675174
6324.00   0.16664976   0.00678928
6326.00   0.17703784   0.00688229
6328.00   0.18214852   0.00695441
6330.00   0.17636210   0.00692414
6332.00   0.17374460   0.00690432
6334.00   0.18145710   0.00690684
6336.00   0.18244909   0.00681207
6338.00   0.17870869   0.00668808
6340.00   0.17848583   0.00667158
6342.00   0.18142159   0.00669449
6344.00   0.18449682   0.00671017
6346.00   0.19080020   0.00675094
6348.00   0.19529562   0.00680423
6350.00   0.19732575   0.00684190
6352.00   0.19434996   0.00685967
6354.00   0.19249767   0.00688012
6356.00   0.19321649   0.00690941
6358.00   0.19473690   0.00701377
6360.00   0.19796784   0.00718703
6362.00   0.19733155   0.00725794
6364.00   0.19434161   0.00724174
6366.00   0.18767427   0.00714724
6368.00   0.18795925   0.00702446
6370.00   0.18580742   0.00682288
6372.00   0.18800004   0.00666249
6374.00   0.19530948   0.00664946
6376.00   0.20282066   0.00671178
6378.00   0.20100896   0.00671514
6380.00   0.19844796   0.00675014
6382.00   0.19970620   0.00679465
6384.00   0.20235594   0.00681851
6386.00   0.20459454   0.00680025
6388.00   0.20315568   0.00676645
6390.00   0.20275564   0.00672393
6392.00   0.20145722   0.00667001
6394.00   0.20262872   0.00664115
6396.00   0.20364670   0.00662990
6398.00   0.20847230   0.00667779
6400.00   0.21177326   0.00673723
6402.00   0.21101923   0.00675604
6404.00   0.20640595   0.00672017
6406.00   0.21133423   0.00672747
6408.00   0.21403944   0.00671870
6410.00   0.21787013   0.00672879
6412.00   0.21869077   0.00672649
6414.00   0.21755767   0.00674007
6416.00   0.21735919   0.00675898
6418.00   0.22338395   0.00677305
6420.00   0.22891295   0.00679509
6422.00   0.23072000   0.00677914
6424.00   0.23644292   0.00678764
6426.00   0.23174529   0.00674985
6428.00   0.23053955   0.00671696
6430.00   0.23178114   0.00669957
6432.00   0.22739385   0.00669525
6434.00   0.22566275   0.00671148
6436.00   0.22377713   0.00673921
6438.00   0.23542309   0.00692641
6440.00   0.24001427   0.00713649
6442.00   0.24631400   0.00724689
6444.00   0.24797721   0.00747293
6446.00   0.24181108   0.00763197
6448.00   0.25356612   0.00740241
6450.00   0.27045336   0.00753282
6452.00   0.26769832   0.00766652
6454.00   0.26121792   0.00757217
6456.00   0.26723799   0.00728861
6458.00   0.26697683   0.00724552
6460.00   0.26879248   0.00713063
6462.00   0.26620373   0.00708093
6464.00   0.26805833   0.00712471
6466.00   0.26953456   0.00717102
6468.00   0.26821533   0.00718067
6470.00   0.26940763   0.00716290
6472.00   0.27271262   0.00711796
6474.00   0.27343515   0.00704955
6476.00   0.27686629   0.00701536
6478.00   0.27759087   0.00697531
6480.00   0.27993545   0.00696308
6482.00   0.28582743   0.00697750
6484.00   0.29190302   0.00700175
6486.00   0.29506496   0.00701755
6488.00   0.29696155   0.00703097
6490.00   0.29621515   0.00704122
6492.00   0.29927158   0.00710673
6494.00   0.30231687   0.00719859
6496.00   0.30703560   0.00730776
6498.00   0.30939046   0.00738566
6500.00   0.31917003   0.00750373
6502.00   0.31792966   0.00751678
6504.00   0.32113537   0.00749420
6506.00   0.32299170   0.00743599
6508.00   0.32742655   0.00738425
6510.00   0.33257797   0.00737226
6512.00   0.33408061   0.00734305
6514.00   0.33392939   0.00729860
6516.00   0.33770537   0.00731496
6518.00   0.34419146   0.00737094
6520.00   0.34667325   0.00740938
6522.00   0.35116282   0.00742750
6524.00   0.35193601   0.00744661
6526.00   0.35393357   0.00744572
6528.00   0.36031345   0.00751649
6530.00   0.36846590   0.00761589
6532.00   0.36464527   0.00762125
6534.00   0.36814609   0.00763606
6536.00   0.37361583   0.00764605
6538.00   0.37371227   0.00762021
6540.00   0.37971890   0.00760073
6542.00   0.37873700   0.00756701
6544.00   0.37873840   0.00754920
6546.00   0.37865591   0.00756676
6548.00   0.37892544   0.00760766
6550.00   0.37999019   0.00765669
6552.00   0.37770164   0.00766962
6554.00   0.37635216   0.00765781
6556.00   0.37898183   0.00765555
6558.00   0.38329443   0.00765673
6560.00   0.38735723   0.00757835
6562.00   0.38403139   0.00751589
6564.00   0.37805834   0.00758600
6566.00   0.37898490   0.00775389
6568.00   0.38350400   0.00756932
6570.00   0.38902235   0.00754551
6572.00   0.38774884   0.00758771
6574.00   0.38979056   0.00766164
6576.00   0.39307356   0.00768998
6578.00   0.38924327   0.00765753
6580.00   0.39034176   0.00764388
6582.00   0.39401090   0.00763144
6584.00   0.39181444   0.00756558
6586.00   0.39313397   0.00751619
6588.00   0.39749551   0.00750997
6590.00   0.39882004   0.00752040
6592.00   0.39943346   0.00754037
6594.00   0.39621401   0.00753380
6596.00   0.39392197   0.00753586
6598.00   0.39433178   0.00754480
6600.00   0.39566365   0.00757025
6602.00   0.39475787   0.00757639
6604.00   0.39435863   0.00755749
6606.00   0.39670587   0.00753519
6608.00   0.39903852   0.00752732
6610.00   0.40169969   0.00749749
6612.00   0.40207192   0.00744788
6614.00   0.40590838   0.00744388
6616.00   0.40556547   0.00744955
6618.00   0.40447721   0.00744935
6620.00   0.40415189   0.00746121
6622.00   0.40458155   0.00748314
6624.00   0.40552855   0.00750463
6626.00   0.40878117   0.00753504
6628.00   0.40914783   0.00753375
6630.00   0.40919241   0.00753156
6632.00   0.40805116   0.00753553
6634.00   0.40729579   0.00754279
6636.00   0.40617204   0.00752836
6638.00   0.40371534   0.00749598
6640.00   0.40317091   0.00746699
6642.00   0.40621886   0.00747284
6644.00   0.41127697   0.00748230
6646.00   0.41254935   0.00747811
6648.00   0.40408000   0.00742569
6650.00   0.39775506   0.00739601
6652.00   0.39405993   0.00737557
6654.00   0.39825824   0.00739339
6656.00   0.40436909   0.00744216
6658.00   0.40653110   0.00745806
6660.00   0.40063572   0.00742053
6662.00   0.39959955   0.00740756
6664.00   0.40523759   0.00744441
6666.00   0.40642199   0.00744820
6668.00   0.40012097   0.00741547
6670.00   0.39906612   0.00739851
6672.00   0.40300062   0.00739022
6674.00   0.39884412   0.00734214
6676.00   0.39376295   0.00729412
6678.00   0.39618859   0.00729258
6680.00   0.39688781   0.00728504
6682.00   0.39416325   0.00726395
6684.00   0.39095092   0.00724455
6686.00   0.38920116   0.00723462
6688.00   0.39548525   0.00726330
6690.00   0.39437282   0.00725481
6692.00   0.38520598   0.00722290
6694.00   0.37787390   0.00720092
6696.00   0.37552869   0.00719087
6698.00   0.37918630   0.00720794
6700.00   0.37844577   0.00723433
6702.00   0.37797108   0.00727351
6704.00   0.37696347   0.00728482
6706.00   0.37451825   0.00727496
6708.00   0.37065306   0.00725344
6710.00   0.36963281   0.00723939
6712.00   0.36652443   0.00722325
6714.00   0.35909888   0.00715053
6716.00   0.36291710   0.00713164
6718.00   0.36560917   0.00711267
6720.00   0.36246267   0.00708607
6722.00   0.35093889   0.00702781
6724.00   0.35003915   0.00701111
6726.00   0.35032654   0.00700287
6728.00   0.34432444   0.00697553
6730.00   0.34209982   0.00695992
6732.00   0.33128947   0.00690287
6734.00   0.33084738   0.00690795
6736.00   0.33566317   0.00691668
6738.00   0.32661960   0.00686251
6740.00   0.32879347   0.00687208
6742.00   0.33126363   0.00686470
6744.00   0.32629085   0.00682940
6746.00   0.32164693   0.00679748
6748.00   0.31991991   0.00676442
6750.00   0.31540903   0.00672421
6752.00   0.30325279   0.00667097
6754.00   0.30394724   0.00668134
6756.00   0.30406567   0.00665345
6758.00   0.30455050   0.00663256
6760.00   0.29995480   0.00660283
6762.00   0.29996106   0.00656912
6764.00   0.29218736   0.00652711
6766.00   0.28523389   0.00648981
6768.00   0.28372309   0.00649439
6770.00   0.28107867   0.00647286
6772.00   0.27689463   0.00645315
6774.00   0.27200541   0.00641270
6776.00   0.27654472   0.00639866
6778.00   0.27568981   0.00638975
6780.00   0.26516917   0.00630782
6782.00   0.26083282   0.00627853
6784.00   0.26138172   0.00629516
6786.00   0.26229069   0.00629635
6788.00   0.25977936   0.00626404
6790.00   0.25885996   0.00624711
6792.00   0.25520611   0.00621838
6794.00   0.25459263   0.00619927
6796.00   0.25035313   0.00615988
6798.00   0.24609666   0.00613544
6800.00   0.24597983   0.00614763
6802.00   0.24368970   0.00613258
6804.00   0.24173385   0.00611641
6806.00   0.24279583   0.00610412
6808.00   0.24896140   0.00613272
6810.00   0.24749970   0.00612489
6812.00   0.24444692   0.00611007
6814.00   0.24254869   0.00610911
6816.00   0.23906219   0.00609071
6818.00   0.23764388   0.00607835
6820.00   0.23816657   0.00609652
6822.00   0.23837686   0.00618581
6824.00   0.23530547   0.00633551
6826.00   0.23428500   0.00652615
6828.00   0.23996072   0.00671611
6830.00   0.24303436   0.00688764
6832.00   0.24283268   0.00696799
6834.00   0.24048622   0.00688069
6836.00   0.23833549   0.00669361
6838.00   0.23490877   0.00653024
6840.00   0.23698620   0.00639603
6842.00   0.23996203   0.00627657
6844.00   0.24406986   0.00622825
6846.00   0.24729449   0.00623281
6848.00   0.24680652   0.00621071
6850.00   0.24528511   0.00617181
6852.00   0.24698472   0.00615288
6854.00   0.24603820   0.00614065
6856.00   0.24309242   0.00614781
6858.00   0.24132073   0.00627247
6860.00   0.24257720   0.00660466
6862.00   0.24129121   0.00692875
6864.00   0.24027479   0.00706921
6866.00   0.24063198   0.00721349
6868.00   0.24426307   0.00765542
6870.00   0.24754246   0.00791541
6872.00   0.24535340   0.00767745
6874.00   0.24292226   0.00729899
6876.00   0.24436378   0.00705514
6878.00   0.24530387   0.00684960
6880.00   0.24516569   0.00664080
6882.00   0.24303664   0.00650523
6884.00   0.23900306   0.00648482
6886.00   0.24093485   0.00661103
6888.00   0.24830358   0.00675726
6890.00   0.24832423   0.00677876
6892.00   0.24417198   0.00672547
6894.00   0.24448800   0.00669669
6896.00   0.24377644   0.00666626
6898.00   0.24365361   0.00663964
6900.00   0.24179809   0.00660470
6902.00   0.23993421   0.00656738
6904.00   0.23832016   0.00651244
6906.00   0.24376214   0.00651158
6908.00   0.24430197   0.00652491
6910.00   0.23915869   0.00650513
6912.00   0.23306410   0.00644533
6914.00   0.23494001   0.00641342
6916.00   0.23440790   0.00641303
6918.00   0.23213041   0.00644341
6920.00   0.22811258   0.00645998
6922.00   0.22830980   0.00647945
6924.00   0.22882767   0.00649363
6926.00   0.22697313   0.00645030
6928.00   0.22453268   0.00632590
6930.00   0.22512329   0.00617238
6932.00   0.22614829   0.00607415
6934.00   0.22525227   0.00607876
6936.00   0.22505693   0.00615340
6938.00   0.22324841   0.00619241
6940.00   0.22337906   0.00622516
6942.00   0.22221716   0.00627216
6944.00   0.22091806   0.00636480
6946.00   0.21992941   0.00642990
6948.00   0.21807684   0.00642578
6950.00   0.22056393   0.00643781
6952.00   0.22613145   0.00654208
6954.00   0.22607040   0.00669069
6956.00   0.22341077   0.00648332
6958.00   0.22564076   0.00621881
6960.00   0.22493263   0.00611987
6962.00   0.21931843   0.00624709
6964.00   0.22084282   0.00610495
6966.00   0.22482133   0.00601768
6968.00   0.22299212   0.00599720
6970.00   0.21820545   0.00602134
6972.00   0.21372874   0.00603817
6974.00   0.21682520   0.00614108
6976.00   0.21791565   0.00618477
6978.00   0.21326047   0.00613321
6980.00   0.21447422   0.00612250
6982.00   0.21462981   0.00611382
6984.00   0.21242531   0.00601627
6986.00   0.21202086   0.00591827
6988.00   0.21123917   0.00587086
6990.00   0.20712285   0.00585223
6992.00   0.21160311   0.00588537
6994.00   0.21986713   0.00593278
6996.00   0.21919854   0.00591538
6998.00   0.21395917   0.00589280
7000.00   0.21130629   0.00589641
7002.00   0.21052557   0.00589856
7004.00   0.20737612   0.00588668
7006.00   0.20844673   0.00593800
7008.00   0.21201436   0.00599447
7010.00   0.21499397   0.00599008
7012.00   0.21092404   0.00593957
7014.00   0.20803863   0.00591269
7016.00   0.20716536   0.00587177
7018.00   0.20968778   0.00582993
7020.00   0.21233989   0.00578821
7022.00   0.20862193   0.00574283
7024.00   0.20668197   0.00577387
7026.00   0.21201558   0.00582942
7028.00   0.21179640   0.00584628
7030.00   0.20642364   0.00580578
7032.00   0.20746760   0.00578968
7034.00   0.21310323   0.00582376
7036.00   0.21447174   0.00584715
7038.00   0.21345592   0.00586405
7040.00   0.21318007   0.00586978
7042.00   0.21189158   0.00587956
7044.00   0.20856716   0.00593222
7046.00   0.20817876   0.00599471
7048.00   0.21339576   0.00602343
7050.00   0.21958299   0.00605624
7052.00   0.22221215   0.00608022
7054.00   0.21593124   0.00599554
7056.00   0.21401429   0.00589152
7058.00   0.21218710   0.00582251
7060.00   0.21317281   0.00584444
7062.00   0.21191758   0.00588753
7064.00   0.21270283   0.00591911
7066.00   0.21838520   0.00594016
7068.00   0.21799213   0.00595360
7070.00   0.21288462   0.00593863
7072.00   0.21384382   0.00593659
7074.00   0.21677785   0.00592307
7076.00   0.21499442   0.00589758
7078.00   0.21583112   0.00591921
7080.00   0.21107717   0.00590291
7082.00   0.21136022   0.00589179
7084.00   0.21235538   0.00591193
7086.00   0.20882785   0.00592602
7088.00   0.21051294   0.00593833
7090.00   0.21465664   0.00595862
7092.00   0.21498878   0.00601964
7094.00   0.21091509   0.00599753
7096.00   0.20543329   0.00590386
7098.00   0.20955443   0.00583801
7100.00   0.21147309   0.00584704
7102.00   0.21196358   0.00585231
7104.00   0.21296448   0.00588753
7106.00   0.21601869   0.00592916
7108.00   0.21515004   0.00590859
7110.00   0.20940624   0.00578747
7112.00   0.20440984   0.00572437
7114.00   0.20642070   0.00572438
7116.00   0.20310085   0.00570462
7118.00   0.20485991   0.00573858
7120.00   0.21015143   0.00577893
7122.00   0.20316140   0.00573991
7124.00   0.19884984   0.00572622
7126.00   0.20298958   0.00575749
7128.00   0.20159788   0.00575852
7130.00   0.20103121   0.00575637
7132.00   0.20109671   0.00574720
7134.00   0.19720791   0.00570617
7136.00   0.19655974   0.00567609
7138.00   0.20020163   0.00568610
7140.00   0.19780679   0.00568923
7142.00   0.19285817   0.00567929
7144.00   0.19242187   0.00572298
7146.00   0.19127975   0.00575105
7148.00   0.19495356   0.00575806
7150.00   0.19168933   0.00567680
7152.00   0.18500654   0.00559208
7154.00   0.18802142   0.00558504
7156.00   0.18799497   0.00557944
7158.00   0.18439899   0.00557407
7160.00   0.18500073   0.00560131
7162.00   0.18660016   0.00562618
7164.00   0.18669434   0.00563659
7166.00   0.18626189   0.00566629
7168.00   0.18199156   0.00569857
7170.00   0.18062271   0.00575897
7172.00   0.18598144   0.00583478
7174.00   0.18038388   0.00583122
7176.00   0.17833190   0.00583212
7178.00   0.17729330   0.00580734
7180.00   0.17867176   0.00576553
7182.00   0.17720632   0.00572518
7184.00   0.17979829   0.00578244
7186.00   0.18240134   0.00585329
7188.00   0.18087403   0.00580678
7190.00   0.17537625   0.00569326
7192.00   0.17829768   0.00567368
7194.00   0.17722936   0.00567424
7196.00   0.17650039   0.00567019
7198.00   0.17697132   0.00568082
7200.00   0.17483753   0.00569437
7202.00   0.17113690   0.00567380
7204.00   0.17339395   0.00567835
7206.00   0.17506807   0.00565514
7208.00   0.17668827   0.00561212
7210.00   0.17480391   0.00550686
7212.00   0.16918415   0.00537094
7214.00   0.16802399   0.00531008
7216.00   0.17104347   0.00533149
7218.00   0.17253844   0.00535665
7220.00   0.16973047   0.00535957
7222.00   0.16870634   0.00537933
7224.00   0.16946852   0.00542366
7226.00   0.16827087   0.00542330
7228.00   0.16685557   0.00541446
7230.00   0.17026456   0.00547603
7232.00   0.16895132   0.00564599
7234.00   0.16754663   0.00602704
7236.00   0.16517888   0.00651639
7238.00   0.16789563   0.00696263
7240.00   0.16554214   0.00737375
7242.00   0.16141830   0.00776547
7244.00   0.16617809   0.00783803
7246.00   0.16772997   0.00747228
7248.00   0.16508277   0.00697528
7250.00   0.15930827   0.00657501
7252.00   0.16270564   0.00622821
7254.00   0.16080241   0.00597771
7256.00   0.16257334   0.00584637
7258.00   0.16956373   0.00574316
7260.00   0.17577253   0.00565241
7262.00   0.17575204   0.00559368
7264.00   0.17469262   0.00562353
7266.00   0.17120768   0.00564531
7268.00   0.17395627   0.00569238
7270.00   0.17446257   0.00592262
7272.00   0.17060892   0.00650756
7274.00   0.17027293   0.00706069
7276.00   0.17089845   0.00732528
7278.00   0.17252457   0.00739808
7280.00   0.17451967   0.00732121
7282.00   0.18120618   0.00695828
7284.00   0.18105309   0.00646439
7286.00   0.18604659   0.00628283
7288.00   0.19039683   0.00631419
7290.00   0.19179820   0.00624741
7292.00   0.19380762   0.00610037
7294.00   0.19262214   0.00596099
7296.00   0.19026534   0.00588589
7298.00   0.19282240   0.00592905
7300.00   0.19157720   0.00606477
7302.00   0.19020872   0.00614693
7304.00   0.19644900   0.00620783
7306.00   0.19493748   0.00614778
#7308.00   0.18774259   0.00605193
#7310.00   0.18034042   0.00611304
#7312.00   0.18994217   0.00647094
7314.00   0.19560866   0.00678730
7316.00   0.19640957   0.00690837
7318.00   0.19806004   0.00690409
7320.00   0.19751598   0.00670959
7322.00   0.20329480   0.00636278
7324.00   0.20639424   0.00608878
7326.00   0.20526592   0.00608636
7328.00   0.20387007   0.00618019
7330.00   0.20663776   0.00624818
7332.00   0.20383763   0.00624319
7334.00   0.20395041   0.00627733
7336.00   0.20427193   0.00649208
7338.00   0.20403099   0.00681896
7340.00   0.20663504   0.00700588
7342.00   0.20162053   0.00700601
7344.00   0.20223610   0.00693753
7346.00   0.20508385   0.00664461
7348.00   0.20516932   0.00612847
7350.00   0.20348947   0.00577450
7352.00   0.20263018   0.00576281
7354.00   0.20473534   0.00596670
7356.00   0.20452644   0.00626370
7358.00   0.20605747   0.00640668
7360.00   0.21260536   0.00647529
7362.00   0.20387125   0.00649935
7364.00   0.19467258   0.00688802
7366.00   0.20329912   0.00702045
7368.00   0.20306124   0.00712063
7370.00   0.19676594   0.00729463
7372.00   0.19172041   0.00728587
7374.00   0.19725578   0.00670385
7376.00   0.19805980   0.00616132
7378.00   0.19375825   0.00589719
7380.00   0.19433534   0.00581676
7382.00   0.20020628   0.00575850
7384.00   0.19775699   0.00571201
7386.00   0.19294994   0.00571901
7388.00   0.19270121   0.00584099
7390.00   0.19277650   0.00597015
7392.00   0.19341445   0.00600341
7394.00   0.19467337   0.00602270
7396.00   0.19412969   0.00614967
7398.00   0.19362102   0.00631469
7400.00   0.19367760   0.00638647
7402.00   0.19473742   0.00638735
7404.00   0.19330913   0.00636176
7406.00   0.19775498   0.00626857
7408.00   0.20045668   0.00599289
7410.00   0.19688976   0.00568045
7412.00   0.19329453   0.00554651
7414.00   0.19498877   0.00556125
7416.00   0.19896269   0.00559431
7418.00   0.19709365   0.00557015
7420.00   0.19306926   0.00552222
7422.00   0.19270487   0.00552630
7424.00   0.19349270   0.00559310
7426.00   0.19432026   0.00570577
7428.00   0.19682014   0.00579891
7430.00   0.19645481   0.00581961
7432.00   0.19916390   0.00589169
7434.00   0.19721818   0.00601196
7436.00   0.19334392   0.00606239
7438.00   0.19473773   0.00604837
7440.00   0.20075683   0.00604693
7442.00   0.20364843   0.00601345
7444.00   0.20100547   0.00585412
7446.00   0.19605207   0.00564082
7448.00   0.19672017   0.00554976
7450.00   0.20129807   0.00555633
7452.00   0.19857132   0.00555455
7454.00   0.20010613   0.00558087
7456.00   0.20607255   0.00564520
7458.00   0.20562996   0.00567465
7460.00   0.20348494   0.00569109
7462.00   0.20526595   0.00575662
7464.00   0.20531577   0.00582352
7466.00   0.20858155   0.00602591
#7468.00   0.19537993   0.00588723
#7470.00   0.15998369   0.00453998
#7472.00   0.14371617   0.00415332
#7474.00   0.14620584   0.00412250
#7476.00   0.14808351   0.00416314
#7478.00   0.14701404   0.00420677
#7480.00   0.14889954   0.00420723
#7482.00   0.15348075   0.00421166
#7484.00   0.15437788   0.00415660
#7486.00   0.15018792   0.00407524
#7488.00   0.15167229   0.00439060
#7490.00   0.18785237   0.00522479
#7492.00   0.21774854   0.00594836
7494.00   0.22610350   0.00600272
7496.00   0.22610395   0.00592503
7498.00   0.23023708   0.00604989
7500.00   0.23235960   0.00610546
7502.00   0.23323102   0.00626835
7504.00   0.23108380   0.00644769
7506.00   0.23445256   0.00643217
7508.00   0.23666988   0.00605665
7510.00   0.24451244   0.00585911
7512.00   0.24248986   0.00599688
7514.00   0.24061273   0.00607708
7516.00   0.24063492   0.00605266
7518.00   0.24608226   0.00616453
7520.00   0.24893393   0.00646992
7522.00   0.25213712   0.00666545
7524.00   0.25287899   0.00670314
7526.00   0.25245801   0.00671974
7528.00   0.25016540   0.00667169
7530.00   0.25081524   0.00646803
7532.00   0.25678781   0.00626643
7534.00   0.25919190   0.00617585
7536.00   0.26001766   0.00614630
7538.00   0.25755167   0.00608911
7540.00   0.25613058   0.00605666
7542.00   0.25766823   0.00605420
7544.00   0.26047042   0.00605371
7546.00   0.25885335   0.00601825
7548.00   0.25880179   0.00599731
7550.00   0.25959229   0.00601563
7552.00   0.26017794   0.00606613
7554.00   0.26111636   0.00611164
7556.00   0.26276359   0.00613698
7558.00   0.26048866   0.00613856
7560.00   0.26079437   0.00615490
7562.00   0.26115641   0.00613913
7564.00   0.25704691   0.00610200
7566.00   0.25465339   0.00619332
7568.00   0.25566745   0.00640852
7570.00   0.25626996   0.00654822
7572.00   0.25456062   0.00654678
7574.00   0.25379643   0.00651963
7576.00   0.25666139   0.00647889
7578.00   0.25949553   0.00633800
7580.00   0.25567910   0.00614820
7582.00   0.25065818   0.00609540
7584.00   0.24955022   0.00617056
7586.00   0.24670088   0.00619596
7588.00   0.24066989   0.00614004
7590.00   0.23288639   0.00607899
7592.00   0.23135097   0.00627212
7594.00   0.24168575   0.00702311
7596.00   0.24580483   0.00838393
7598.00   0.23460162   0.00994768
7600.00   0.22132385   0.01140147
7602.00   0.20891899   0.01262347
7604.00   0.21090998   0.01339682
7606.00   0.21743970   0.01320523
7608.00   0.20587261   0.01225115
7610.00   0.19985883   0.01121089
7612.00   0.20326036   0.00962581
#7614.00   0.15332691   0.00854286
#7616.00   0.23556662   0.01060885
7618.00   0.18506354   0.00685402
7620.00   0.17193139   0.00654647
7622.00   0.16929168   0.00697034
7624.00   0.17294300   0.00778031
7626.00   0.17292669   0.00835188
7628.00   0.17490067   0.00855835
7630.00   0.17328058   0.00851231
#7632.00   0.06501690   0.00688741
7634.00   0.16106750   0.00760081
7636.00   0.15645288   0.00753900
7638.00   0.15148626   0.00723221
7640.00   0.14867236   0.00705356
7642.00   0.14378886   0.00685632
7644.00   0.13815655   0.00664225
7646.00   0.13712840   0.00648510
7648.00   0.13927542   0.00640125
7650.00   0.13538043   0.00632797
7652.00   0.13363580   0.00619038
7654.00   0.13177906   0.00604364
7656.00   0.13353895   0.00600596
7658.00   0.12928855   0.00594810
7660.00   0.13129558   0.00594502
7662.00   0.13739154   0.00593467
7664.00   0.13387620   0.00582722
7666.00   0.12854306   0.00567863
7668.00   0.12995648   0.00553833
7670.00   0.13499908   0.00545000
7672.00   0.13363414   0.00534867
7674.00   0.13331521   0.00528907
7676.00   0.13527168   0.00527766
7678.00   0.13685387   0.00529980
7680.00   0.14106147   0.00533626
7682.00   0.13949753   0.00531622
7684.00   0.14115129   0.00539710
7686.00   0.14254509   0.00564785
7688.00   0.14115214   0.00609499
#7690.00   0.15076603   0.00629867
#7692.00   0.17128535   0.00653372
#7694.00   0.16948164   0.00636395
7696.00   0.14938276   0.00581717
7698.00   0.15484099   0.00574712
7700.00   0.16186471   0.00572375
7702.00   0.16048987   0.00565774
7704.00   0.16246830   0.00563640
7706.00   0.16821162   0.00580488
7708.00   0.17327724   0.00629347
7710.00   0.18115251   0.00700033
7712.00   0.18416731   0.00767149
7714.00   0.17788942   0.00812569
7716.00   0.18197747   0.00822657
7718.00   0.18712388   0.00795377
7720.00   0.19279681   0.00755717
7722.00   0.19652243   0.00710250
7724.00   0.19636001   0.00658935
7726.00   0.19949074   0.00626901
7728.00   0.20504667   0.00623066
7730.00   0.20960231   0.00618524
7732.00   0.21271308   0.00605606
7734.00   0.21499087   0.00595017
7736.00   0.21758443   0.00595422
7738.00   0.22493279   0.00601978
7740.00   0.22122096   0.00595034
7742.00   0.21888268   0.00593729
7744.00   0.22836773   0.00630726
7746.00   0.23546271   0.00705412
7748.00   0.23087065   0.00762634
7750.00   0.23234145   0.00782295
7752.00   0.24003035   0.00785711
7754.00   0.24137338   0.00779066
7756.00   0.23924844   0.00750610
7758.00   0.24731253   0.00705006
7760.00   0.24931125   0.00677922
7762.00   0.25333869   0.00674913
7764.00   0.25328174   0.00665475
7766.00   0.25573456   0.00643305
7768.00   0.26170292   0.00632960
7770.00   0.26271459   0.00637036
7772.00   0.26160529   0.00640570
7774.00   0.26611379   0.00651124
7776.00   0.26952919   0.00669154
7778.00   0.26612857   0.00673196
7780.00   0.26356468   0.00662788
7782.00   0.26785085   0.00661487
7784.00   0.26808748   0.00662386
7786.00   0.26830843   0.00657083
7788.00   0.27385759   0.00670624
7790.00   0.27544439   0.00712848
7792.00   0.27681133   0.00747564
7794.00   0.28120387   0.00757957
7796.00   0.27796742   0.00750989
7798.00   0.27838507   0.00731125
7800.00   0.28428888   0.00687505
7802.00   0.28676233   0.00654536
7804.00   0.27986029   0.00658222
7806.00   0.27786592   0.00679023
7808.00   0.27780899   0.00687497
7810.00   0.27866998   0.00689800
7812.00   0.28305697   0.00689513
7814.00   0.28282228   0.00685203
7816.00   0.28078964   0.00710797
7818.00   0.28502837   0.00762777
7820.00   0.28456616   0.00794354
7822.00   0.28366372   0.00797023
7824.00   0.28148666   0.00786449
7826.00   0.27614200   0.00750335
7828.00   0.27779803   0.00691329
7830.00   0.28484941   0.00648809
7832.00   0.28787529   0.00638768
7834.00   0.28910545   0.00646724
7836.00   0.29337233   0.00666429
7838.00   0.29465032   0.00688640
7840.00   0.29002836   0.00697495
7842.00   0.28556213   0.00696327
7844.00   0.28755882   0.00699670
7846.00   0.28775033   0.00710181
7848.00   0.28818429   0.00746038
7850.00   0.28958169   0.00795778
7852.00   0.28924161   0.00829540
7854.00   0.28544340   0.00840745
7856.00   0.28358072   0.00846729
7858.00   0.28126216   0.00821229
7860.00   0.28129378   0.00764461
7862.00   0.28481376   0.00720857
7864.00   0.28315187   0.00719500
#7866.00   0.27883410   0.00734644
#7868.00   0.26843295   0.00742916
#7870.00   0.26439562   0.00735888
#7872.00   0.26939556   0.00727393
7874.00   0.28129849   0.00727370
7876.00   0.28310236   0.00724872
7878.00   0.27935669   0.00716986
7880.00   0.27992260   0.00715180
7882.00   0.28250363   0.00720702
7884.00   0.28312838   0.00730366
7886.00   0.28188914   0.00744613
7888.00   0.27883253   0.00750952
7890.00   0.27421665   0.00746397
7892.00   0.27298364   0.00743242
7894.00   0.27809116   0.00730744
7896.00   0.27741429   0.00690503
7898.00   0.27041841   0.00647005
7900.00   0.27026942   0.00632047
7902.00   0.27239445   0.00632581
7904.00   0.27390268   0.00635448
7906.00   0.27486810   0.00651658
7908.00   0.27331620   0.00701337
7910.00   0.27000111   0.00769613
7912.00   0.27187142   0.00809378
7914.00   0.26343688   0.00816758
7916.00   0.25398344   0.00828869
7918.00   0.25492656   0.00826221
7920.00   0.26296863   0.00784477
7922.00   0.26758647   0.00736483
7924.00   0.26582798   0.00720901
7926.00   0.26252174   0.00718702
7928.00   0.26012504   0.00713756
7930.00   0.26191744   0.00706513
7932.00   0.26101372   0.00700837
7934.00   0.25361690   0.00689056
7936.00   0.25172046   0.00668988
7938.00   0.25250342   0.00639898
7940.00   0.25243536   0.00620068
7942.00   0.25183880   0.00622447
7944.00   0.24832588   0.00635908
7946.00   0.24473381   0.00649928
7948.00   0.24644709   0.00657577
7950.00   0.24518138   0.00655629
7952.00   0.24051984   0.00647033
7954.00   0.23586087   0.00629039
7956.00   0.23652948   0.00614800
7958.00   0.23744547   0.00625827
7960.00   0.23870975   0.00676139
7962.00   0.23919857   0.00726011
7964.00   0.23799574   0.00744304
7966.00   0.23598905   0.00745793
7968.00   0.23612207   0.00734389
7970.00   0.23732126   0.00697980
7972.00   0.23018546   0.00653926
7974.00   0.22590810   0.00644653
7976.00   0.23350115   0.00665048
7978.00   0.23644745   0.00679767
7980.00   0.23323779   0.00680609
7982.00   0.22931950   0.00670116
7984.00   0.22928016   0.00650781
7986.00   0.23234539   0.00637758
7988.00   0.23330283   0.00667740
7990.00   0.22375853   0.00717352
7992.00   0.21951950   0.00746156
7994.00   0.22071123   0.00753391
7996.00   0.22435117   0.00746568
7998.00   0.22602300   0.00713660
8000.00   0.22483905   0.00652053
8002.00   0.22459258   0.00609057
8004.00   0.22223276   0.00594754
8006.00   0.21470742   0.00592121
8008.00   0.21439980   0.00602002
8010.00   0.21486624   0.00619772
8012.00   0.21536030   0.00632802
8014.00   0.21861349   0.00643818
8016.00   0.21374188   0.00647037
8018.00   0.21143757   0.00646497
8020.00   0.21445625   0.00661608
8022.00   0.21984035   0.00695724
8024.00   0.21789831   0.00717347
8026.00   0.21292424   0.00720032
8028.00   0.20469429   0.00713212
8030.00   0.20342255   0.00689593
8032.00   0.20610254   0.00644716
8034.00   0.20502412   0.00599658
8036.00   0.20320891   0.00579133
8038.00   0.19982313   0.00573124
8040.00   0.19930784   0.00570829
8042.00   0.19973402   0.00571081
8044.00   0.19911422   0.00573070
8046.00   0.19942051   0.00580894
8048.00   0.20144062   0.00594371
8050.00   0.20223217   0.00605004
8052.00   0.20105666   0.00606080
8054.00   0.20085596   0.00606261
8056.00   0.19820841   0.00613173
8058.00   0.19289680   0.00624488
8060.00   0.19053893   0.00631791
8062.00   0.19347231   0.00635613
8064.00   0.19574301   0.00637043
8066.00   0.19645888   0.00627062
8068.00   0.19690199   0.00601393
8070.00   0.19614641   0.00575043
8072.00   0.19427748   0.00563852
8074.00   0.19320981   0.00564352
8076.00   0.18979459   0.00563809
8078.00   0.18716235   0.00561240
8080.00   0.18577039   0.00560996
8082.00   0.18698211   0.00565795
8084.00   0.18592854   0.00566909
8086.00   0.18756330   0.00568515
8088.00   0.18444051   0.00570346
8090.00   0.18517441   0.00575198
8092.00   0.18885703   0.00575593
8094.00   0.18909228   0.00575132
8096.00   0.18637134   0.00580882
8098.00   0.18667786   0.00590942
8100.00   0.19071124   0.00601290
8102.00   0.18790554   0.00600247
8104.00   0.18098074   0.00592235
8106.00   0.17918897   0.00588198
8108.00   0.18545872   0.00583526
8110.00   0.18920298   0.00575097
8112.00   0.18424670   0.00566238
8114.00   0.17856507   0.00562297
8116.00   0.18064053   0.00561615
8118.00   0.18302305   0.00560766
8120.00   0.18115698   0.00559020
8122.00   0.17814095   0.00558852
8124.00   0.18243694   0.00560838
8126.00   0.18533568   0.00561965
8128.00   0.18526189   0.00564905
8130.00   0.18361111   0.00566994
8132.00   0.18081717   0.00572843
8134.00   0.18250304   0.00584033
8136.00   0.17766660   0.00583469
8138.00   0.17324130   0.00579140
8140.00   0.17834491   0.00586163
8142.00   0.18141657   0.00594403
8144.00   0.17762642   0.00592065
8146.00   0.17465436   0.00586933
8148.00   0.17485686   0.00590004
8150.00   0.17637424   0.00592153
8152.00   0.17901927   0.00589205
8154.00   0.17966665   0.00585780
8156.00   0.17615415   0.00579064
8158.00   0.17012538   0.00571008
8160.00   0.17063935   0.00576080
8162.00   0.17649274   0.00593671
8164.00   0.18071131   0.00602407
8166.00   0.17791474   0.00591589
8168.00   0.17435811   0.00583625
8170.00   0.17769392   0.00587636
8172.00   0.17629768   0.00584638
8174.00   0.17027275   0.00581021
8176.00   0.17206685   0.00606913
8178.00   0.17241342   0.00649379
8180.00   0.17187272   0.00679971
8182.00   0.17048545   0.00686585
8184.00   0.16923691   0.00685889
8186.00   0.16581680   0.00689069
8188.00   0.16776921   0.00697164
8190.00   0.17227970   0.00710364
8192.00   0.17236556   0.00720528
8194.00   0.16415130   0.00719318
8196.00   0.16230620   0.00716915
8198.00   0.16374017   0.00713978
8200.00   0.16462465   0.00694459
8202.00   0.15986164   0.00649828
8204.00   0.15869020   0.00607738
8206.00   0.16589339   0.00593004
8208.00   0.17367959   0.00591206
8210.00   0.17069066   0.00585881
8212.00   0.16782689   0.00579224
8214.00   0.16579254   0.00572084
8216.00   0.16103925   0.00563553
8218.00   0.15608501   0.00557990
8220.00   0.16025159   0.00561047
8222.00   0.16247141   0.00562516
8224.00   0.15745528   0.00561758
8226.00   0.15293273   0.00576087
8228.00   0.15781569   0.00605144
8230.00   0.16273274   0.00616232
8232.00   0.16089155   0.00595031
8234.00   0.15947156   0.00569150
8236.00   0.16086650   0.00556414
8238.00   0.15716997   0.00549265
8240.00   0.15378624   0.00547166
8242.00   0.15321325   0.00552277
8244.00   0.15453567   0.00558200
8246.00   0.15562691   0.00556201
8248.00   0.16000889   0.00551430
8250.00   0.16133402   0.00548563
8252.00   0.15823619   0.00546298
8254.00   0.15188801   0.00543744
8256.00   0.15240583   0.00546914
8258.00   0.15633327   0.00551283
8260.00   0.15920092   0.00550778
8262.00   0.15372115   0.00541234
8264.00   0.15252563   0.00534990
8266.00   0.15445669   0.00533327
8268.00   0.15152071   0.00530494
8270.00   0.14791946   0.00531252
8272.00   0.15060182   0.00552888
8274.00   0.14955537   0.00598623
8276.00   0.14818960   0.00658597
8278.00   0.14797427   0.00707900
8280.00   0.14815722   0.00737994
8282.00   0.14514582   0.00763437
8284.00   0.13761038   0.00787801
8286.00   0.13233654   0.00792799
8288.00   0.14104539   0.00776134
8290.00   0.14005511   0.00755607
8292.00   0.13523149   0.00753246
8294.00   0.13356841   0.00761188
8296.00   0.13039108   0.00759018
8298.00   0.12631255   0.00747713
8300.00   0.12476948   0.00740090
8302.00   0.12491697   0.00716625
8304.00   0.12068286   0.00666471
8306.00   0.11786795   0.00611620
8308.00   0.12404308   0.00588863
8310.00   0.12213030   0.00581202
8312.00   0.11854172   0.00577399
8314.00   0.11651593   0.00571949
8316.00   0.11559373   0.00554473
8318.00   0.11053165   0.00531360
8320.00   0.10733187   0.00519244
8322.00   0.10860747   0.00516430
8324.00   0.10450079   0.00504368
8326.00   0.10001641   0.00490436
8328.00   0.10118821   0.00486793
8330.00   0.10089946   0.00486052
8332.00   0.09864614   0.00484891
8334.00   0.09488263   0.00482533
8336.00   0.08978292   0.00498488
8338.00   0.08461896   0.00582965
8340.00   0.08608296   0.00732897
8342.00   0.08822163   0.00838674
8344.00   0.08214846   0.00860883
8346.00   0.07954232   0.00863494
8348.00   0.07785824   0.00857995
8350.00   0.07448103   0.00790955
8352.00   0.07211629   0.00683151
8354.00   0.07024341   0.00624688
8356.00   0.07017485   0.00606410
8358.00   0.06674479   0.00573568
8360.00   0.06612686   0.00537506
8362.00   0.06566751   0.00529736
8364.00   0.06719065   0.00534251
8366.00   0.06766271   0.00531814
8368.00   0.06389875   0.00515689
8370.00   0.06072550   0.00487416
8372.00   0.05985782   0.00458785
8374.00   0.05842535   0.00450360
#8376.00   0.05055478   0.00476450
#8378.00   0.03780381   0.00518938
#8380.00   0.03849767   0.00555273
#8382.00   0.04389757   0.00560956
#8384.00   0.04592919   0.00558823
#8386.00   0.04877495   0.00547356
8388.00   0.05194741   0.00512560
8390.00   0.05087936   0.00465159
8392.00   0.05097861   0.00482433
8394.00   0.05381853   0.00589724
8396.00   0.05404279   0.00695381
8398.00   0.04892614   0.00736034
8400.00   0.04710042   0.00734793
8402.00   0.05125313   0.00722942
8404.00   0.05602485   0.00651929
8406.00   0.05581166   0.00539364
8408.00   0.05624179   0.00482488
8410.00   0.05947926   0.00527315
8412.00   0.06058266   0.00572205
8414.00   0.05569474   0.00583808
8416.00   0.05310813   0.00583124
8418.00   0.05506286   0.00583096
8420.00   0.05539533   0.00548080
8422.00   0.05709520   0.00510585
8424.00   0.05516107   0.00552794
8426.00   0.05655339   0.00676453
8428.00   0.05562631   0.00769536
8430.00   0.05588270   0.00786594
8432.00   0.05664894   0.00775712
8434.00   0.06279172   0.00729917
8436.00   0.06458487   0.00623650
8438.00   0.06735992   0.00499712
8440.00   0.06803898   0.00442454
8442.00   0.06849661   0.00438079
8444.00   0.07013885   0.00445426
8446.00   0.07144523   0.00476047
8448.00   0.07039035   0.00527630
8450.00   0.07213528   0.00569224
8452.00   0.07108977   0.00579761
8454.00   0.07087562   0.00576415
8456.00   0.07298654   0.00561360
8458.00   0.07438896   0.00544864
8460.00   0.07630973   0.00581654
8462.00   0.07800745   0.00669931
8464.00   0.08248115   0.00717874
8466.00   0.08238014   0.00722156
8468.00   0.07973977   0.00705537
8470.00   0.08085012   0.00651376
8472.00   0.08411944   0.00552801
8474.00   0.08318081   0.00475425
8476.00   0.08078214   0.00456491
8478.00   0.08047067   0.00456606
8480.00   0.08171491   0.00453084
8482.00   0.08423514   0.00453638
8484.00   0.08077729   0.00457929
8486.00   0.08363178   0.00463816
8488.00   0.08047663   0.00491711
8490.00   0.08194509   0.00528491
8492.00   0.08583370   0.00546335
8494.00   0.08634082   0.00550787
8496.00   0.08123457   0.00548000
8498.00   0.08024264   0.00552430
8500.00   0.08802771   0.00583450
8502.00   0.08873118   0.00617812
8504.00   0.08232030   0.00628888
8506.00   0.08263711   0.00627637
8508.00   0.08340100   0.00612437
8510.00   0.08163244   0.00560192
8512.00   0.08143518   0.00490648
8514.00   0.08682407   0.00456189
8516.00   0.08876494   0.00454746
8518.00   0.08872969   0.00459345
8520.00   0.08842945   0.00458337
8522.00   0.08817982   0.00456615
8524.00   0.08727264   0.00458466
8526.00   0.09035204   0.00459112
8528.00   0.09197889   0.00457166
8530.00   0.09250965   0.00455975
8532.00   0.09070814   0.00461027
8534.00   0.09154121   0.00479982
8536.00   0.09534207   0.00499103
8538.00   0.09524287   0.00505365
8540.00   0.09269891   0.00505359
8542.00   0.09380347   0.00516016
8544.00   0.09497132   0.00533082
8546.00   0.09705319   0.00546876
8548.00   0.09893888   0.00552303
8550.00   0.09782218   0.00553505
8552.00   0.09735999   0.00546231
8554.00   0.09997246   0.00520058
8556.00   0.10023049   0.00484298
8558.00   0.10153744   0.00465476
8560.00   0.10569528   0.00466089
8562.00   0.10662473   0.00467987
8564.00   0.10549808   0.00466836
8566.00   0.10735015   0.00468878
8568.00   0.11050989   0.00473550
8570.00   0.11108190   0.00476137
8572.00   0.11056104   0.00478369
8574.00   0.10814980   0.00480263
8576.00   0.10997466   0.00482611
8578.00   0.11371330   0.00483006
8580.00   0.11440599   0.00481749
8582.00   0.11612394   0.00485629
8584.00   0.11911210   0.00495785
8586.00   0.11765382   0.00503497
8588.00   0.11392816   0.00504666
8590.00   0.11642895   0.00509635
8592.00   0.12165108   0.00520047
8594.00   0.12808843   0.00529498
8596.00   0.13205963   0.00528433
8598.00   0.13176936   0.00526634
8600.00   0.13163564   0.00527100
8602.00   0.13259530   0.00519715
8604.00   0.13525772   0.00511424
8606.00   0.13885085   0.00515322
8608.00   0.14223996   0.00528707
8610.00   0.14607252   0.00547983
8612.00   0.14673169   0.00573184
8614.00   0.14697455   0.00602992
8616.00   0.15003356   0.00638817
8618.00   0.14772744   0.00674306
8620.00   0.15096729   0.00710585
8622.00   0.15506017   0.00744752
8624.00   0.16045514   0.00774886
8626.00   0.16304061   0.00795958
8628.00   0.16389538   0.00808831
8630.00   0.17005090   0.00811018
8632.00   0.16795851   0.00799479
8634.00   0.16751404   0.00778262
8636.00   0.16384749   0.00747991
8638.00   0.16363223   0.00710816
8640.00   0.17082261   0.00674166
8642.00   0.17473476   0.00645146
8644.00   0.17983283   0.00640716
8646.00   0.18270256   0.00657020
8648.00   0.18880315   0.00686818
8650.00   0.18710333   0.00724102
8652.00   0.18823957   0.00760776
8654.00   0.19321947   0.00789173
8656.00   0.19573556   0.00804385
8658.00   0.19116090   0.00807231
8660.00   0.19299388   0.00808909
8662.00   0.20480542   0.00808476
8664.00   0.20966275   0.00802443
8666.00   0.21239740   0.00793820
8668.00   0.21063916   0.00780845
8670.00   0.21758990   0.00767237
8672.00   0.22539054   0.00752915
8674.00   0.22639583   0.00736387
8676.00   0.22402664   0.00717179
8678.00   0.22203922   0.00698853
8680.00   0.22204395   0.00680561
8682.00   0.22340079   0.00664283
8684.00   0.22565560   0.00650505
8686.00   0.22802050   0.00637574
8688.00   0.22955960   0.00624944
8690.00   0.23216225   0.00615370
8692.00   0.23680790   0.00607152
8694.00   0.24019898   0.00600964
8696.00   0.23930091   0.00597918
8698.00   0.23817687   0.00595451
8700.00   0.24004143   0.00592447
8702.00   0.24390392   0.00595119
8704.00   0.24465102   0.00598055
8706.00   0.24587393   0.00596841
8708.00   0.24533975   0.00593057
8710.00   0.24489303   0.00591244
8712.00   0.24689706   0.00589518
8714.00   0.25090706   0.00585173
8716.00   0.25034979   0.00581166
8718.00   0.24445398   0.00575921
8720.00   0.24555875   0.00577962
8722.00   0.25393978   0.00587323
8724.00   0.25646088   0.00601059
8726.00   0.25076106   0.00604892
8728.00   0.25579235   0.00621935
8730.00   0.25673196   0.00643349
8732.00   0.25450233   0.00655307
8734.00   0.25542665   0.00620111
8736.00   0.25553489   0.00616291
8738.00   0.25827500   0.00620631
8740.00   0.25849119   0.00620954
8742.00   0.25636411   0.00614219
8744.00   0.26069403   0.00595075
8746.00   0.26252455   0.00591944
8748.00   0.25857571   0.00589972
8750.00   0.25654510   0.00590031
8752.00   0.25981057   0.00602185
8754.00   0.25512522   0.00644936
8756.00   0.25487807   0.00729108
8758.00   0.25517729   0.00810410
8760.00   0.25722232   0.00864481
8762.00   0.26062587   0.00921801
8764.00   0.25367621   0.00973128
8766.00   0.25109413   0.00964129
8768.00   0.25329235   0.00909253
8770.00   0.25210607   0.00875066
8772.00   0.26146558   0.00881599
8774.00   0.26261166   0.00886730
8776.00   0.25552130   0.00881077
8778.00   0.25658551   0.00877599
8780.00   0.26271465   0.00863061
8782.00   0.26782206   0.00811622
8784.00   0.26458922   0.00722769
8786.00   0.26101720   0.00670330
8788.00   0.26103806   0.00676819
8790.00   0.25842574   0.00688581
8792.00   0.25439608   0.00688987
8794.00   0.26095501   0.00684778
8796.00   0.26465032   0.00658787
8798.00   0.26075661   0.00616391
8800.00   0.26129302   0.00593084
8802.00   0.27057990   0.00598026
8804.00   0.27153277   0.00605870
8806.00   0.26843509   0.00606512
8808.00   0.26239261   0.00602523
8810.00   0.26028046   0.00599551
8812.00   0.26312473   0.00600909
8814.00   0.26443014   0.00597677
8816.00   0.26132977   0.00588074
8818.00   0.26031384   0.00592752
8820.00   0.26297441   0.00673384
8822.00   0.26155880   0.00835430
8824.00   0.25565541   0.00983474
8826.00   0.25735289   0.01048503
8828.00   0.25809929   0.01059709
8830.00   0.25192514   0.01054053
8832.00   0.25260979   0.01003448
8834.00   0.26197636   0.00910441
8836.00   0.26364437   0.00832538
8838.00   0.25873706   0.00801989
8840.00   0.25713038   0.00769719
8842.00   0.25823417   0.00706738
8844.00   0.26290336   0.00656926
8846.00   0.26887187   0.00656544
8848.00   0.26679948   0.00674751
8850.00   0.26632714   0.00678416
8852.00   0.26726204   0.00672105
8854.00   0.26519242   0.00654968
8856.00   0.26284027   0.00632296
8858.00   0.26859298   0.00622795
8860.00   0.27024364   0.00637726
8862.00   0.26716441   0.00678863
8864.00   0.26333949   0.00734317
8866.00   0.26416171   0.00762887
8868.00   0.26524815   0.00756439
8870.00   0.26103890   0.00737178
8872.00   0.26093897   0.00703799
8874.00   0.26700333   0.00647980
8876.00   0.26605678   0.00601084
8878.00   0.26033607   0.00612521
8880.00   0.25692222   0.00705993
8882.00   0.25829986   0.00839897
8884.00   0.26172295   0.00917689
8886.00   0.26675630   0.00937349
8888.00   0.26401162   0.00925926
8890.00   0.26229149   0.00870865
8892.00   0.26587465   0.00754515
8894.00   0.26217589   0.00643829
8896.00   0.25814953   0.00621369
8898.00   0.26112476   0.00679760
8900.00   0.26171675   0.00748213
8902.00   0.25886858   0.00775509
8904.00   0.26240388   0.00779612
8906.00   0.26350242   0.00769718
8908.00   0.25885466   0.00726284
8910.00   0.26241580   0.00658764
8912.00   0.26301810   0.00646032
8914.00   0.26171315   0.00750804
8916.00   0.25848082   0.00895640
8918.00   0.25643501   0.00972555
8920.00   0.26369810   0.00989103
8922.00   0.26678029   0.00978682
8924.00   0.26499119   0.00912461
8926.00   0.26632169   0.00773398
8928.00   0.26647651   0.00653263
8930.00   0.26156673   0.00609426
8932.00   0.25972384   0.00606538
8934.00   0.26036844   0.00605412
8936.00   0.26142690   0.00618118
8938.00   0.26508126   0.00670173
8940.00   0.27310303   0.00730850
8942.00   0.27448729   0.00759890
8944.00   0.26829436   0.00761533
8946.00   0.26907226   0.00751351
8948.00   0.26778924   0.00717252
8950.00   0.27057168   0.00702302
#8952.00   0.26301351   0.00738208
#8954.00   0.24820356   0.00844735
#8956.00   0.25326073   0.00930679
#8958.00   0.27808484   0.00948008
#8960.00   0.28680640   0.00926227
#8962.00   0.27352035   0.00891213
#8964.00   0.27062663   0.00796979
8966.00   0.26825055   0.00672324
8968.00   0.26043284   0.00602327
8970.00   0.26081166   0.00601541
8972.00   0.26475516   0.00614411
8974.00   0.26289335   0.00615506
8976.00   0.25397256   0.00604699
8978.00   0.25222167   0.00600110
8980.00   0.25613865   0.00613240
8982.00   0.25502172   0.00639673
8984.00   0.24797313   0.00679748
8986.00   0.24862660   0.00737341
8988.00   0.25691733   0.00799252
8990.00   0.26463833   0.00831358
8992.00   0.26316550   0.00798434
8994.00   0.25633931   0.00731218
8996.00   0.25025800   0.00716477
8998.00   0.24757369   0.00781176
9000.00   0.25056434   0.00853679
9002.00   0.24919820   0.00887362
9004.00   0.25347251   0.00881244
9006.00   0.25481045   0.00819895
9008.00   0.24699418   0.00714511
9010.00   0.24769183   0.00638473
9012.00   0.25527719   0.00623887
9014.00   0.25403678   0.00623698
9016.00   0.25245535   0.00629362
9018.00   0.24869466   0.00627537
9020.00   0.24316049   0.00611801
9022.00   0.23756270   0.00600596
9024.00   0.24626893   0.00617750
9026.00   0.24805288   0.00624165
9028.00   0.24107553   0.00607837
9030.00   0.23670252   0.00598773
9032.00   0.23780338   0.00610431
9034.00   0.23908693   0.00632807
9036.00   0.23777944   0.00643185
9038.00   0.23082048   0.00639470
9040.00   0.23146783   0.00645052
9042.00   0.23333633   0.00653671
9044.00   0.23187095   0.00664214
9046.00   0.23049371   0.00684917
9048.00   0.22742917   0.00698096
9050.00   0.22399366   0.00702038
9052.00   0.22084956   0.00699852
9054.00   0.22100413   0.00673091
9056.00   0.21949540   0.00617607
9058.00   0.21611618   0.00576280
9060.00   0.21723951   0.00575263
9062.00   0.21959786   0.00588989
9064.00   0.21717657   0.00592104
9066.00   0.21029596   0.00586816
9068.00   0.20901982   0.00594167
9070.00   0.20872144   0.00606832
9072.00   0.21116851   0.00610750
9074.00   0.20786911   0.00593154
9076.00   0.19977029   0.00569153
9078.00   0.19454007   0.00563867
9080.00   0.19348477   0.00572335
9082.00   0.19491605   0.00575210
9084.00   0.19740410   0.00572464
9086.00   0.20029891   0.00584018
9088.00   0.19973944   0.00602814
9090.00   0.19117320   0.00607010
9092.00   0.18608530   0.00601606
9094.00   0.18548559   0.00598658
9096.00   0.18469982   0.00605286
9098.00   0.18243210   0.00623346
9100.00   0.18858349   0.00645646
9102.00   0.18787731   0.00645465
9104.00   0.17843710   0.00634318
9106.00   0.17232378   0.00626936
9108.00   0.17746584   0.00607898
9110.00   0.17788596   0.00564556
9112.00   0.17689611   0.00530231
9114.00   0.17267323   0.00523360
9116.00   0.16745012   0.00533019
9118.00   0.16953404   0.00550259
9120.00   0.17397200   0.00551845
9122.00   0.16884267   0.00531829
9124.00   0.16361301   0.00517062
9126.00   0.16325021   0.00524406
9128.00   0.16222085   0.00542969
9130.00   0.16473991   0.00557019
9132.00   0.16252691   0.00561531
9134.00   0.16289131   0.00566980
9136.00   0.16386871   0.00577555
9138.00   0.16579898   0.00573410
9140.00   0.16577704   0.00553236
9142.00   0.16507192   0.00535571
9144.00   0.16370718   0.00528004
9146.00   0.15888913   0.00524739
9148.00   0.15354335   0.00534507
9150.00   0.15607850   0.00560529
9152.00   0.15633668   0.00591562
9154.00   0.16078421   0.00624448
9156.00   0.16357456   0.00637981
9158.00   0.15794742   0.00616034
9160.00   0.15690286   0.00587220
9162.00   0.15800868   0.00572669
9164.00   0.16495718   0.00566283
9166.00   0.16651066   0.00551760
9168.00   0.16305928   0.00534667
9170.00   0.15888210   0.00528393
9172.00   0.15773565   0.00536904
9174.00   0.16162233   0.00557960
9176.00   0.16569105   0.00566683
9178.00   0.16455106   0.00547251
9180.00   0.15981971   0.00524323
9182.00   0.15986423   0.00519750
9184.00   0.16283791   0.00528601
9186.00   0.16463976   0.00531946
9188.00   0.16537090   0.00524454
9190.00   0.16192466   0.00514253
9192.00   0.16287936   0.00514518
9194.00   0.16306539   0.00524778
9196.00   0.16549261   0.00534094
9198.00   0.16743664   0.00530670
9200.00   0.16937219   0.00520620
9202.00   0.16493241   0.00513146
9204.00   0.16483511   0.00516936
9206.00   0.16989510   0.00528014
9208.00   0.17416251   0.00536251
9210.00   0.17725444   0.00545355
9212.00   0.17930831   0.00556331
9214.00   0.17731409   0.00566308
9216.00   0.17662854   0.00575880
9218.00   0.17968877   0.00586028
9220.00   0.18140055   0.00591768
9222.00   0.18232119   0.00595406
9224.00   0.18635947   0.00603388
9226.00   0.18734227   0.00608809
9228.00   0.18430543   0.00600305
9230.00   0.18117076   0.00580818
9232.00   0.18174975   0.00562424
9234.00   0.18137825   0.00550130
9236.00   0.17904313   0.00544550
9238.00   0.17431469   0.00541855
9240.00   0.17434502   0.00540181
9242.00   0.17522764   0.00541036
9244.00   0.17616047   0.00547540
9246.00   0.17615645   0.00554722
9248.00   0.17520426   0.00556920
9250.00   0.17628916   0.00558766
9252.00   0.17976189   0.00559969
9254.00   0.18232475   0.00555127
9256.00   0.17864461   0.00544612
9258.00   0.17589630   0.00541664
9260.00   0.17732923   0.00548529
9262.00   0.17596592   0.00549810
9264.00   0.17936631   0.00544828
9266.00   0.18060206   0.00537755
9268.00   0.17646004   0.00532340
9270.00   0.17283307   0.00532427
9272.00   0.17141312   0.00534906
9274.00   0.16915862   0.00534390
9276.00   0.17171097   0.00542335
9278.00   0.17202784   0.00556153
9280.00   0.17322509   0.00569098
9282.00   0.17656113   0.00579378
9284.00   0.17243044   0.00584540
9286.00   0.17609067   0.00598020
9288.00   0.17604040   0.00604653
9290.00   0.17345937   0.00602350
9292.00   0.17154969   0.00602638
9294.00   0.17162286   0.00611953
9296.00   0.16855659   0.00618160
9298.00   0.16837968   0.00642426
9300.00   0.17042683   0.00726717
9302.00   0.16440123   0.00872299
9304.00   0.16113956   0.01010573
9306.00   0.15465136   0.01151029
9308.00   0.15023474   0.01367250
9310.00   0.16129537   0.01535036
9312.00   0.14909050   0.01508311
9314.00   0.14196867   0.01463182
9316.00   0.15198724   0.01551475
9318.00   0.15783995   0.01556770
9320.00   0.16009559   0.01403978
9322.00   0.15877615   0.01306951
9324.00   0.16115916   0.01355414
9326.00   0.16045104   0.01353311
9328.00   0.15644853   0.01167738
9330.00   0.14727724   0.00907777
9332.00   0.15205151   0.00828797
9334.00   0.16407937   0.00935921
9336.00   0.16679204   0.01020841
9338.00   0.15139772   0.00999257
9340.00   0.14257686   0.00966591
9342.00   0.15463080   0.01024162
#9344.00   0.17852752   0.01091265
#9346.00   0.18523113   0.00982019
9348.00   0.16602308   0.00767530
9350.00   0.15110704   0.00660820
9352.00   0.15091483   0.00692598
9354.00   0.16188894   0.00795984
9356.00   0.16839130   0.00859406
9358.00   0.16827434   0.00829621
9360.00   0.15670693   0.00734220
9362.00   0.14568822   0.00657273
9364.00   0.14240973   0.00640479
9366.00   0.14099908   0.00709230
9368.00   0.14554183   0.00974213
9370.00   0.15349460   0.01470999
9372.00   0.15936917   0.01860268
9374.00   0.15308823   0.01900489
9376.00   0.14151864   0.01821578
9378.00   0.12985851   0.01898752
9380.00   0.13661481   0.01885136
9382.00   0.15107627   0.01475608
9384.00   0.15668228   0.00954973
9386.00   0.15453053   0.00713414
9388.00   0.15689705   0.00672229
9390.00   0.16000943   0.00625056
9392.00   0.15898356   0.00582972
9394.00   0.15795000   0.00583493
9396.00   0.15451588   0.00624032
9398.00   0.14814405   0.00704774
9400.00   0.15247405   0.00790387
9402.00   0.15861954   0.00814127
9404.00   0.15845126   0.00781957
9406.00   0.15207675   0.00731247
9408.00   0.15180564   0.00686574
9410.00   0.15512477   0.00657595
9412.00   0.15170705   0.00663488
9414.00   0.14963691   0.00723636
9416.00   0.15510376   0.00831798
9418.00   0.15613420   0.00918933
9420.00   0.15768607   0.00950853
9422.00   0.15290989   0.00928651
9424.00   0.13863093   0.00879523
9426.00   0.14094585   0.00838141
9428.00   0.15698463   0.00827694
9430.00   0.16611953   0.00807710
9432.00   0.15076591   0.00759410
9434.00   0.13915811   0.00827027
9436.00   0.14540122   0.01044701
9438.00   0.14807887   0.01344902
9440.00   0.14025526   0.01670392
9442.00   0.15585862   0.01775618
9444.00   0.14859001   0.01494841
9446.00   0.13770376   0.01020794
9448.00   0.14237417   0.00729959
9450.00   0.14380781   0.00664298
9452.00   0.14376211   0.00759418
9454.00   0.15049368   0.00975151
9456.00   0.14462914   0.01180098
9458.00   0.14007641   0.01278490
9460.00   0.14547071   0.01291148
9462.00   0.15935187   0.01188893
9464.00   0.15454985   0.00953517
9466.00   0.14604360   0.00735925
9468.00   0.14993644   0.00684587
9470.00   0.14514652   0.00799832
9472.00   0.13592668   0.00994814
9474.00   0.13191684   0.01168045
9476.00   0.13838015   0.01264221
9478.00   0.14019395   0.01321122
9480.00   0.14100742   0.01370661
9482.00   0.14502673   0.01253636
9484.00   0.14392899   0.00931723
9486.00   0.14105481   0.00667440
9488.00   0.13943867   0.00589654
9490.00   0.13892299   0.00586686
9492.00   0.13768683   0.00617592
9494.00   0.14361517   0.00697565
9496.00   0.14082707   0.00842977
9498.00   0.13115917   0.01053967
9500.00   0.13213009   0.01241580
9502.00   0.14899479   0.01244656
9504.00   0.14848734   0.01069301
9506.00   0.14294685   0.00895175
9508.00   0.14083838   0.00759509
9510.00   0.13975130   0.00650330
9512.00   0.14134055   0.00618091
9514.00   0.14673443   0.00706094
9516.00   0.15102032   0.00854428
9518.00   0.14561595   0.00970524
9520.00   0.14525579   0.01017926
9522.00   0.14426398   0.00995060
9524.00   0.13940750   0.00898976
9526.00   0.13852523   0.00772573
9528.00   0.14449091   0.00700036
9530.00   0.14922445   0.00681618
9532.00   0.15315677   0.00675720
9534.00   0.14982727   0.00671767
9536.00   0.15233992   0.00684445
9538.00   0.15213980   0.00690003
9540.00   0.15485184   0.00692754
9542.00   0.15590841   0.00705910
9544.00   0.15618812   0.00742317
9546.00   0.15612073   0.00792693
9548.00   0.15245396   0.00838184
9550.00   0.14043063   0.00875005
9552.00   0.14036174   0.00932427
9554.00   0.15304862   0.01011708
9556.00   0.15842330   0.01017681
9558.00   0.15184714   0.00905474
9560.00   0.14069235   0.00796394
9562.00   0.14364897   0.00894867
9564.00   0.15624784   0.01124751
9566.00   0.16082290   0.01280012
9568.00   0.15236224   0.01271187
9570.00   0.15125464   0.01145458
9572.00   0.15308999   0.00969439
9574.00   0.14824748   0.00766391
9576.00   0.15192354   0.00635812
9578.00   0.15515773   0.00617548
9580.00   0.16447413   0.00655996
9582.00   0.16290598   0.00660208
9584.00   0.14834934   0.00613832
9586.00   0.14128375   0.00594141
9588.00   0.14223541   0.00632849
9590.00   0.15495485   0.00694122
9592.00   0.15677503   0.00704650
9594.00   0.15735924   0.00672614
9596.00   0.15764023   0.00639319
9598.00   0.16302520   0.00627852
9600.00   0.16064057   0.00630494
9602.00   0.15832266   0.00669186
9604.00   0.16091037   0.00742049
9606.00   0.16340159   0.00802514
9608.00   0.16253109   0.00809991
9610.00   0.15999906   0.00774952
9612.00   0.16248982   0.00735302
9614.00   0.16589247   0.00720548
9616.00   0.16727562   0.00751793
9618.00   0.16643868   0.00810231
9620.00   0.16773523   0.00861086
9622.00   0.16714378   0.00889094
9624.00   0.16417350   0.00873354
9626.00   0.16862345   0.00811261
9628.00   0.17293538   0.00725909
9630.00   0.17050564   0.00658069
9632.00   0.16499420   0.00622400
9634.00   0.16269176   0.00621180
9636.00   0.16202927   0.00646504
9638.00   0.16873585   0.00673639
9640.00   0.17044346   0.00663147
9642.00   0.16175871   0.00637094
9644.00   0.16112487   0.00639604
9646.00   0.17045647   0.00663985
9648.00   0.17154478   0.00664562
9650.00   0.16451238   0.00646459
9652.00   0.16172193   0.00641366
9654.00   0.16108714   0.00651175
9656.00   0.16311230   0.00661233
9658.00   0.16159409   0.00667157
9660.00   0.15802105   0.00688061
9662.00   0.16069268   0.00736265
9664.00   0.16709308   0.00796709
9666.00   0.17172700   0.00830822
9668.00   0.17278500   0.00831477
9670.00   0.16754256   0.00824390
9672.00   0.16699524   0.00805356
9674.00   0.16473056   0.00771178
9676.00   0.16201417   0.00772248
9678.00   0.15646113   0.00822380
9680.00   0.16550125   0.00881514
9682.00   0.17185374   0.00895048
9684.00   0.16855621   0.00864652
9686.00   0.16188687   0.00805249
9688.00   0.16224918   0.00744839
9690.00   0.16646056   0.00712997
9692.00   0.16960056   0.00725780
9694.00   0.16811921   0.00769535
9696.00   0.16044562   0.00809672
9698.00   0.15805905   0.00830117
9700.00   0.16200915   0.00844825
9702.00   0.16802992   0.00844450
9704.00   0.16591589   0.00796280
9706.00   0.15723038   0.00726189
9708.00   0.15954055   0.00703222
9710.00   0.16086434   0.00714146
9712.00   0.15949626   0.00743426
9714.00   0.15922560   0.00808157
9716.00   0.15725087   0.00874525
9718.00   0.15354244   0.00891910
9720.00   0.15939808   0.00885245
9722.00   0.16015266   0.00883536
9724.00   0.15792550   0.00862292
9726.00   0.15079969   0.00782667
9728.00   0.15271427   0.00709793
9730.00   0.15390421   0.00697279
9732.00   0.15018474   0.00728316
9734.00   0.15139060   0.00776566
9736.00   0.15237568   0.00813617
9738.00   0.14785346   0.00822728
9740.00   0.13956700   0.00811477
9742.00   0.13829148   0.00799783
9744.00   0.14901339   0.00784926
9746.00   0.15033716   0.00756644
9748.00   0.14163752   0.00733598
9750.00   0.13809223   0.00715500
9752.00   0.14918964   0.00692536
9754.00   0.15176971   0.00664817
9756.00   0.14645104   0.00651766
9758.00   0.14203943   0.00648946
9760.00   0.14328837   0.00644930
9762.00   0.14330254   0.00638206
9764.00   0.13891231   0.00629364
9766.00   0.13698600   0.00617367
9768.00   0.13585462   0.00604566
9770.00   0.13676760   0.00598001
9772.00   0.13313927   0.00596847
9774.00   0.13239305   0.00601665
9776.00   0.13395704   0.00608522
9778.00   0.13510783   0.00618230
9780.00   0.13431297   0.00636039
9782.00   0.13407524   0.00669718
9784.00   0.13351597   0.00743276
9786.00   0.13053058   0.00858105
9788.00   0.12929912   0.00974663
9790.00   0.12995972   0.01060018
9792.00   0.13240105   0.01109119
9794.00   0.13387631   0.01103151
9796.00   0.12980746   0.01035422
9798.00   0.12566814   0.00943269
9800.00   0.12878700   0.00882248
9802.00   0.12497864   0.00838859
9804.00   0.12739950   0.00811354
9806.00   0.13157046   0.00776123
9808.00   0.12099144   0.00747195
9810.00   0.12002206   0.00756655
9812.00   0.12653454   0.00771399
9814.00   0.12966040   0.00772127
9816.00   0.12543385   0.00753943
9818.00   0.12384247   0.00726617
9820.00   0.12384167   0.00698478
#9822.00   0.11313076   0.00694392
#9824.00   0.09947815   0.00668111
#9826.00   0.08790136   0.00596787
#9828.00   0.08643759   0.00496124
#9830.00   0.09286419   0.00672311
#9832.00   0.09662753   0.00680168
#9834.00   0.10904280   0.00659683
9836.00   0.12105381   0.00640483
9838.00   0.11942586   0.00631320
9840.00   0.12145764   0.00644264
9842.00   0.12154729   0.00684420
9844.00   0.12149022   0.00750948
9846.00   0.12399980   0.00807073
9848.00   0.12413339   0.00827983
9850.00   0.12215541   0.00826753
9852.00   0.12391025   0.00803082
9854.00   0.12769590   0.00749096
9856.00   0.12872815   0.00684768
9858.00   0.12886639   0.00657183
9860.00   0.12907815   0.00653832
9862.00   0.12779944   0.00661523
9864.00   0.12465205   0.00706893
9866.00   0.12762748   0.00832385
#9868.00   0.13803340   0.01004376
9870.00   0.13137089   0.01118842
#9872.00   0.11778674   0.01148735
#9874.00   0.11085528   0.01131825
#9876.00   0.12559363   0.01078226
9878.00   0.13484165   0.00945644
9880.00   0.13055642   0.00804015
9882.00   0.12824954   0.00737843
9884.00   0.13283189   0.00729257
9886.00   0.13590483   0.00744724
9888.00   0.13460624   0.00793822
9890.00   0.13434912   0.00875092
9892.00   0.13266018   0.00933740
9894.00   0.13382243   0.00961711
9896.00   0.13763262   0.00970480
9898.00   0.13747044   0.00952037
9900.00   0.13368906   0.00881384
9902.00   0.13018486   0.00787046
9904.00   0.12875433   0.00732734
9906.00   0.13254432   0.00759518
9908.00   0.14229399   0.00879520
9910.00   0.14319102   0.01049882
9912.00   0.13366391   0.01180246
9914.00   0.13568111   0.01241576
9916.00   0.14716212   0.01248812
9918.00   0.14754985   0.01195927
9920.00   0.13691719   0.01057310
9922.00   0.13336729   0.00891703
9924.00   0.13705944   0.00787139
9926.00   0.14243880   0.00763196
9928.00   0.14428338   0.00762224
9930.00   0.14683630   0.00765797
9932.00   0.14777415   0.00785734
9934.00   0.14545166   0.00855078
9936.00   0.14229520   0.01002913
9938.00   0.14598167   0.01215395
9940.00   0.14681935   0.01448897
#9942.00   0.13980539   0.01663058
#9944.00   0.13306423   0.01808627
#9946.00   0.12780525   0.01836619
#9948.00   0.12460010   0.01778890
#9950.00   0.13372783   0.01704422
9952.00   0.15455924   0.01652336
9954.00   0.16895361   0.01619775
9956.00   0.16340584   0.01624941
9958.00   0.15345252   0.01663214
9960.00   0.14678754   0.01653281
9962.00   0.14522755   0.01547064
9964.00   0.14684136   0.01389747
9966.00   0.16125514   0.01277272
9968.00   0.16701418   0.01198870
9970.00   0.16047461   0.01140052
9972.00   0.16247696   0.01123362
9974.00   0.15745799   0.01125739
9976.00   0.15583657   0.01105500
9978.00   0.15449888   0.01045808
9980.00   0.15511768   0.00976032
9982.00   0.16541027   0.00940028
9984.00   0.17409481   0.00914622
9986.00   0.16929442   0.00880600
9988.00   0.16387054   0.00861040
9990.00   0.16545010   0.00860180
9992.00   0.16636850   0.00876799
9994.00   0.16497615   0.00910344
9996.00   0.16997445   0.00961272
9998.00   0.17170608   0.01007297
10000.00   0.16624568   0.01027621
10002.00   0.16587830   0.01047627
10004.00   0.17694791   0.01122618
10006.00   0.17645591   0.01310497
10008.00   0.17316358   0.01602201
10010.00   0.17740773   0.01859806
10012.00   0.18015997   0.01987670
10014.00   0.16814964   0.02002252
10016.00   0.17193352   0.01924132
10018.00   0.17299600   0.01734111
10020.00   0.16321905   0.01523744
10022.00   0.16517432   0.01443681
10024.00   0.17039384   0.01437956
10026.00   0.17728984   0.01429058
10028.00   0.18147159   0.01387150
10030.00   0.17612886   0.01288157
10032.00   0.17639655   0.01151228
10034.00   0.17268892   0.01050849
10036.00   0.16638376   0.01025538
10038.00   0.17159951   0.01069065
10040.00   0.17737035   0.01123596
10042.00   0.18215449   0.01157815
10044.00   0.18846078   0.01170556
10046.00   0.19206767   0.01155344
10048.00   0.18449837   0.01105668
10050.00   0.18238659   0.01048052
10052.00   0.17872269   0.01028206
10054.00   0.17832398   0.01094233
10056.00   0.17874368   0.01214701
10058.00   0.18126738   0.01321553
10060.00   0.17640437   0.01386496
10062.00   0.18331246   0.01423381
10064.00   0.18521917   0.01423248
10066.00   0.18100227   0.01377242
10068.00   0.17605817   0.01318102
10070.00   0.18651979   0.01282789
10072.00   0.18839546   0.01264094
10074.00   0.18134630   0.01281973
10076.00   0.17290850   0.01398803
10078.00   0.18179733   0.01603418
10080.00   0.17777002   0.01772064
10082.00   0.17559250   0.01845736
10084.00   0.18228941   0.01847835
10086.00   0.18943007   0.01760693
10088.00   0.18596536   0.01556173
10090.00   0.18258221   0.01321482
10092.00   0.18538366   0.01185803
10094.00   0.18689524   0.01164113
10096.00   0.18557072   0.01210940
#10098.00   0.18033196   0.01370142
#10100.00   0.17400312   0.01421943
#10102.00   0.15024628   0.01287074
#10104.00   0.11385447   0.01583575
#10106.00   0.10799017   0.01557579
#10108.00   0.10645654   0.01471369
#10110.00   0.11475542   0.01340377
#10112.00   0.12189140   0.01234243
#10114.00   0.12169049   0.01221815
#10116.00   0.11988942   0.01351393
#10118.00   0.12633832   0.01644289
#10120.00   0.13970028   0.01982395
#10122.00   0.16783309   0.02198103
10124.00   0.19422972   0.02263059
10126.00   0.18998615   0.02244387
10128.00   0.20157294   0.02086697
10130.00   0.20664759   0.01815593
10132.00   0.18945642   0.01522048
10134.00   0.18557148   0.01379132
10136.00   0.18368764   0.01345479
10138.00   0.18309659   0.01347668
10140.00   0.17500532   0.01361989
10142.00   0.19082518   0.01421363
10144.00   0.20166910   0.01499377
10146.00   0.18842109   0.01591157
10148.00   0.16961278   0.01719756
10150.00   0.15765025   0.01838888
10152.00   0.17154770   0.01920103
10154.00   0.18684335   0.01955781
10156.00   0.19283779   0.01952394
10158.00   0.19086097   0.01877429
10160.00   0.18752904   0.01773907
10162.00   0.17498046   0.01738355
10164.00   0.17789300   0.01848554
10166.00   0.18350552   0.02110079
10168.00   0.20000528   0.02428503
10170.00   0.18384047   0.02613995
10172.00   0.17327572   0.02666015
10174.00   0.15388696   0.02618300
10176.00   0.14111240   0.02459044
10178.00   0.16413891   0.02181051
10180.00   0.17700005   0.01952627
10182.00   0.15859038   0.01890308
10184.00   0.16231640   0.02004680
10186.00   0.18816741   0.02164261
10188.00   0.16954775   0.02222510
10190.00   0.13900593   0.02221316
10192.00   0.16551058   0.02207211
10194.00   0.17729370   0.02113841
10196.00   0.17129548   0.01956166
10198.00   0.15719648   0.01880228
10200.00   0.15647857   0.01925500
10202.00   0.15865226   0.02067569
10204.00   0.16774790   0.02291115
10206.00   0.17863391   0.02555783
10208.00   0.17250778   0.02732195
10210.00   0.15551151   0.02767400
10212.00   0.13895880   0.02699346
10214.00   0.14548840   0.02560397
10216.00   0.17650490   0.02323326
10218.00   0.17131747   0.02092303
10220.00   0.17828126   0.02110795
10222.00   0.17098810   0.02299528
10224.00   0.14920737   0.02484357
10226.00   0.15812196   0.02621011
10228.00   0.17898552   0.02680430
10230.00   0.17693377   0.02595265
10232.00   0.17836194   0.02390232
10234.00   0.18652046   0.02177896
10236.00   0.18024834   0.01982883
10238.00   0.17716925   0.01831586
10240.00   0.16267161   0.01716010
10242.00   0.16736285   0.01689316
10244.00   0.16918875   0.01685665
10246.00   0.16343357   0.01678407
10248.00   0.16043808   0.01680642
10250.00   0.17209150   0.01710038
10252.00   0.16354018   0.01718302
10254.00   0.15949237   0.01721584
10256.00   0.15927930   0.01743616
10258.00   0.15693937   0.01773411
10260.00   0.16371292   0.01814959
10262.00   0.16040127   0.01857956
10264.00   0.15845434   0.01950763
10266.00   0.15567175   0.02073275
10268.00   0.15597260   0.02194764
10270.00   0.15011148   0.02276760
10272.00   0.15591593   0.02336914
10274.00   0.17355865   0.02362692
10276.00   0.17198198   0.02383596
10278.00   0.16801004   0.02580343
10280.00   0.14952229   0.03130878
10282.00   0.15246429   0.03910211
10284.00   0.15406495   0.04521769
10286.00   0.16718371   0.04818819
10288.00   0.14121580   0.04867925
10290.00   0.13738529   0.04744080
10292.00   0.13741420   0.04354143
10294.00   0.15187587   0.03862286
10296.00   0.14827460   0.03521642
10298.00   0.14755724   0.03373450
10300.00   0.16937442   0.03205580
10302.00   0.20239712   0.02979580
10304.00   0.19007097   0.02780051
10306.00   0.18115497   0.02749317
10308.00   0.18443878   0.02792313
10310.00   0.18053852   0.02759570
10312.00   0.16293271   0.02674689
10314.00   0.15846854   0.02589945
10316.00   0.16102113   0.02485360
10318.00   0.16485263   0.02404721
10320.00   0.15607978   0.02384486
10322.00   0.15232141   0.02404036
10324.00   0.16300623   0.02451178
10326.00   0.16032551   0.02491826
10328.00   0.14586432   0.02489942
10330.00   0.14785002   0.02508150
10332.00   0.15624152   0.02540579
10334.00   0.17209519   0.02597509
10336.00   0.15763631   0.02654206
10338.00   0.15194505   0.02771002
10340.00   0.15750286   0.02979698
10342.00   0.15559132   0.03240998
10344.00   0.16424453   0.03474571
10346.00   0.19249177   0.03656058
10348.00   0.19984710   0.03771978
10350.00   0.15374742   0.03733682
10352.00   0.09126786   0.03535739
10354.00   0.12644133   0.03358870
10356.00   0.14170711   0.03238240
10358.00   0.14706402   0.03143962
10360.00   0.14344805   0.03018688
10362.00   0.14441378   0.02972217
10364.00   0.14646272   0.03132008
10366.00   0.17638916   0.03683387
10368.00   0.15600061   0.04394217
10370.00   0.13008499   0.04965861
10372.00   0.12503394   0.05254190
10374.00   0.11570995   0.05295688
10376.00   0.09134283   0.05089195
10378.00   0.11064610   0.04533628
10380.00   0.13819511   0.03867409
10382.00   0.17518938   0.03477396
10384.00   0.16541602   0.03320559
10386.00   0.11690662   0.03233621
10388.00   0.14162417   0.03369531
10390.00   0.16151926   0.03726331
10392.00   0.17248619   0.04161497
10394.00   0.16386390   0.04442849
10396.00   0.10265801   0.04493866
10398.00   0.07857870   0.04498319
10400.00   0.11547804   0.04407521
10402.00   0.14384322   0.04143564
10404.00   0.14557829   0.03851641
10406.00   0.15279821   0.03680512
10408.00   0.15028088   0.03683667
10410.00   0.15377659   0.04084695
10412.00   0.12271311   0.04845541
10414.00   0.14386339   0.05788236
10416.00   0.15909082   0.06426623
10418.00   0.18880992   0.06712910
10420.00   0.22093196   0.06756780
10422.00   0.15577881   0.06324971
10424.00   0.12495044   0.05527659
10426.00   0.13876277   0.04783991
10428.00   0.15503715   0.04385644
10430.00   0.14387409   0.04171620
10432.00   0.14745438   0.04058066
10434.00   0.13038985   0.03902888
10436.00   0.14348149   0.03847907
10438.00   0.16085486   0.03913722
10440.00   0.14707468   0.03972703
10442.00   0.11630961   0.03987369
10444.00   0.09811995   0.04245146
10446.00   0.08875527   0.04615674
10448.00   0.12017950   0.04983860
10450.00   0.11201588   0.05110993
10452.00   0.08788376   0.05102459
10454.00   0.11176039   0.04973625
10456.00   0.11782181   0.04620498
10458.00   0.10598722   0.04297321
10460.00   0.07887955   0.04269014
10462.00   0.11016166   0.04822356
10464.00   0.07489801   0.05606361
10466.00   0.05395064   0.06294924
10468.00   0.09758660   0.06656777
10470.00   0.14710391   0.06731818
10472.00   0.16911449   0.06496567
10474.00   0.16061284   0.05865039
10476.00   0.15299894   0.05103278
10478.00   0.15804736   0.04579513
10480.00   0.17081775   0.04403802
10482.00   0.15680273   0.04351048
10484.00   0.11567950   0.04293098
10486.00   0.07519559   0.04230028
10488.00   0.07449651   0.04236641
10490.00   0.13672246   0.04312356
10492.00   0.16922057   0.04374428
10494.00   0.17375509   0.04434377
10496.00   0.16712336   0.04440619
10498.00   0.12627673   0.04426109
10500.00   0.08419716   0.04463418
10502.00   0.11256054   0.04714005
10504.00   0.17023945   0.05071951
10506.00   0.17040019   0.05356599
10508.00   0.14080913   0.05512792
10510.00   0.12256602   0.05556996
10512.00   0.11551744   0.05492934
10514.00   0.11942240   0.05318432
10516.00   0.12954843   0.05216656
10518.00   0.12762655   0.05379990
10520.00   0.11904462   0.05759871
10522.00   0.12701835   0.06126584
10524.00   0.10625968   0.06263977
10526.00   0.09356641   0.06283016
10528.00   0.12855716   0.06121426
10530.00   0.17110826   0.05714360
10532.00   0.17779393   0.05239744
10534.00   0.15132409   0.04972963
10536.00   0.14694642   0.04904865
10538.00   0.13700412   0.04849030
10540.00   0.14390145   0.04821204
10542.00   0.12713541   0.04802654
10544.00   0.13580900   0.04885909
10546.00   0.15849994   0.04932401
10548.00   0.16122921   0.04845135
10550.00   0.13460553   0.04794495
10552.00   0.12936687   0.04889028
10554.00   0.13666791   0.04986839
10556.00   0.12413791   0.04935576
10558.00   0.16079913   0.04984921
10560.00   0.19696891   0.05073239
10562.00   0.18042414   0.05100751
10564.00   0.13390000   0.05092302
10566.00   0.13689114   0.05242309
10568.00   0.14113265   0.05403467
10570.00   0.13612464   0.05549277
10572.00   0.13502485   0.05649108
10574.00   0.13798922   0.05715557
10576.00   0.14518459   0.05698364
10578.00   0.14281790   0.05725168
10580.00   0.15224385   0.05859395
10582.00   0.12339785   0.06088997
10584.00   0.12400220   0.06230900
10586.00   0.14505754   0.06311729
10588.00   0.14073259   0.06307974
10590.00   0.13437451   0.06082615
10592.00   0.14058603   0.05843220
10594.00   0.14393978   0.05731649
10596.00   0.12826739   0.05659093
10598.00   0.20253997   0.05763021
10600.00   0.20730688   0.05845339
10602.00   0.17432737   0.05846278
10604.00   0.14005701   0.05756140
10606.00   0.16275425   0.05769770
10608.00   0.14949425   0.05769098
10610.00   0.14578049   0.05825148
10612.00   0.17910129   0.05906751
10614.00   0.16376619   0.05980268
10616.00   0.16263135   0.05876908
10618.00   0.16910784   0.05835875
10620.00   0.22398497   0.06055808
10622.00   0.21150355   0.06103806
10624.00   0.18332636   0.06098190
10626.00   0.16990142   0.06089522
10628.00   0.17367299   0.06242868
10630.00   0.18193793   0.06306428
10632.00   0.23424618   0.06422690
10634.00   0.20302765   0.06421039
10636.00   0.18043046   0.06481120
10638.00   0.14012557   0.06573583
10640.00   0.06492267   0.06631413
10642.00   0.11612443   0.06607641
10644.00   0.19186725   0.06752697
10646.00   0.22025859   0.06921714
10648.00   0.19728024   0.06980475
10650.00   0.22509174   0.07114098
10652.00   0.15870957   0.07140023
10654.00   0.18158992   0.07336757
10656.00   0.17185070   0.07190017
10658.00   0.15240838   0.06974375
10660.00   0.10127670   0.06911817
10662.00   0.14371026   0.07138392
10664.00   0.18087699   0.07217006
10666.00   0.18490946   0.07216833
10668.00   0.11865308   0.07163528
10670.00   0.12597208   0.07231537
10672.00   0.16185884   0.07336712
10674.00   0.14141642   0.07355621
10676.00   0.11902288   0.07581637
10678.00   0.14033417   0.07793263
10680.00   0.09351730   0.07970592
10682.00   0.10903754   0.08538922
10684.00   0.13673130   0.09077869
10686.00   0.09075113   0.09371416
10688.00   0.05168998   0.09452248
10690.00   0.19580488   0.09763100
#10692.00   0.28701350   0.10161313
10694.00   0.21272904   0.10065293
10696.00   0.16712745   0.10005653
10698.00   0.20484357   0.10448665
10700.00   0.16287260   0.10594486
10702.00   0.11071540   0.10418383
10704.00   0.18075329   0.10833111
10706.00   0.18316148   0.11304215
