# File created by shivutils (I.Shivvers)
# wl(A)   flm    er(optional)
3632.00   7.15711260   0.15309641
3634.00   7.11548281   0.15183921
3636.00   7.19245672   0.15134077
3638.00   7.27933502   0.15145814
3640.00   7.15027714   0.15114102
3642.00   7.29690266   0.15208365
3644.00   6.88471317   0.14981906
3646.00   6.87930012   0.14944264
3648.00   7.60958004   0.16496126
3650.00   7.19516516   0.16463155
3652.00   7.27823925   0.16153941
3654.00   7.09721565   0.15550774
3656.00   6.94349098   0.15144375
3658.00   7.02241993   0.14663126
3660.00   6.83194828   0.14478104
3662.00   6.82895947   0.14819922
3664.00   7.00468397   0.14816308
3666.00   6.92815304   0.14228919
3668.00   7.04695082   0.14133085
3670.00   7.06992388   0.14012909
3672.00   6.91575289   0.13800378
3674.00   6.99895287   0.13937706
3676.00   6.61957502   0.13511813
3678.00   6.81888342   0.13570532
3680.00   6.72633076   0.13627936
3682.00   6.50316048   0.13377085
3684.00   6.66327572   0.13315438
3686.00   6.58250666   0.13089441
3688.00   6.55213690   0.13049975
3690.00   6.46961164   0.12929901
3692.00   6.37826347   0.12862751
3694.00   6.15694189   0.12652570
3696.00   6.36267900   0.12797405
3698.00   6.46751595   0.12916246
3700.00   6.30433750   0.12717545
3702.00   6.20882416   0.12603833
3704.00   6.38767958   0.12735510
3706.00   6.33082581   0.12627941
3708.00   6.30488682   0.12501040
3710.00   6.40480280   0.12528612
3712.00   6.23576975   0.12426312
3714.00   6.32619715   0.12458891
3716.00   6.51124907   0.12513289
3718.00   6.40461636   0.12497919
3720.00   6.45235395   0.12451947
3722.00   6.59276009   0.12433433
3724.00   6.56306553   0.12431498
3726.00   6.66798210   0.12512054
3728.00   6.64863873   0.12500936
3730.00   6.62301254   0.12477239
3732.00   6.43143368   0.12254319
3734.00   6.26924419   0.12092747
3736.00   6.28165531   0.11995741
3738.00   6.19863939   0.11957122
3740.00   6.10597420   0.11933712
3742.00   6.20585108   0.11963823
3744.00   5.83024263   0.11568203
3746.00   5.80261517   0.11486539
3748.00   5.49511147   0.11175349
3750.00   5.65552902   0.11238247
3752.00   5.49146414   0.11114148
3754.00   5.47329855   0.11118700
3756.00   5.41274118   0.11008679
3758.00   5.58732367   0.11094949
3760.00   5.68336201   0.11110617
3762.00   5.66421795   0.11055864
3764.00   5.53071880   0.10880422
3766.00   5.66640377   0.10927776
3768.00   5.70813036   0.11046541
3770.00   5.85317755   0.11209748
3772.00   5.99353409   0.11261783
3774.00   5.95597601   0.11119189
3776.00   5.61323166   0.10746064
3778.00   5.71899080   0.10769882
3780.00   5.77206278   0.10774338
3782.00   5.97969627   0.10929109
3784.00   5.76175833   0.10741689
3786.00   5.87104797   0.10808694
3788.00   6.08030891   0.10904908
3790.00   5.92786026   0.10801546
3792.00   5.99156809   0.10798596
3794.00   5.99302626   0.10704811
3796.00   5.99974155   0.10665104
3798.00   5.76607370   0.10485923
3800.00   5.86356211   0.10546120
3802.00   5.73788500   0.10482039
3804.00   5.66081429   0.10377476
3806.00   5.81469011   0.10390399
3808.00   5.65113354   0.10210003
3810.00   5.23796129   0.09905642
3812.00   5.36216068   0.09960297
3814.00   5.15149307   0.09767208
3816.00   5.27503014   0.09796789
3818.00   4.95157719   0.09614242
3820.00   4.77233410   0.09411881
3822.00   4.98718882   0.09576102
3824.00   4.71434593   0.09368630
3826.00   4.52685976   0.09203243
3828.00   4.66200495   0.09355491
3830.00   4.65231180   0.09320110
3832.00   4.60495901   0.09189945
3834.00   4.47760916   0.09020030
3836.00   4.50180721   0.09021275
3838.00   4.64679527   0.09069303
3840.00   4.41877747   0.08861289
3842.00   4.41839457   0.08848931
3844.00   4.29250097   0.08755655
3846.00   4.29644108   0.08699570
3848.00   4.21167612   0.08674694
3850.00   4.27806854   0.08668604
3852.00   4.38841724   0.08744781
3854.00   4.32190037   0.08707454
3856.00   4.42349577   0.08667064
3858.00   4.20931292   0.08491287
3860.00   4.36119413   0.08571381
3862.00   4.26619530   0.08507086
3864.00   4.34784937   0.08592867
3866.00   4.22191000   0.08412299
3868.00   4.24446774   0.08411296
3870.00   4.28275108   0.08440144
3872.00   4.48087788   0.08570721
3874.00   4.55759001   0.08642574
3876.00   4.56436968   0.08559056
3878.00   4.64511633   0.08542401
3880.00   4.86798477   0.08708500
3882.00   4.99126101   0.08757897
3884.00   5.12327909   0.08841533
3886.00   5.21364641   0.08944017
3888.00   5.37881422   0.09059945
3890.00   5.65694904   0.09185971
3892.00   5.83913755   0.09292740
3894.00   5.83619213   0.09362524
3896.00   5.90362787   0.09371901
3898.00   6.02803278   0.09423893
3900.00   6.25056648   0.09532811
3902.00   6.04456186   0.09448195
3904.00   6.11384964   0.09508180
3906.00   6.34757853   0.09826433
3908.00   6.49978638   0.10008757
3910.00   6.51437330   0.10099266
3912.00   6.65237761   0.10226888
3914.00   6.66804171   0.10089508
3916.00   6.68453979   0.09845833
3918.00   6.47565222   0.09553938
3920.00   6.60620213   0.09559631
3922.00   6.63386631   0.09529637
3924.00   6.58431530   0.09442130
3926.00   6.68245745   0.09457704
3928.00   6.48794317   0.09323675
3930.00   6.31863785   0.09116664
3932.00   5.68573952   0.08782253
3934.00   5.70237112   0.08784521
3936.00   6.34322786   0.09119990
3938.00   6.56314039   0.09227812
3940.00   6.72140741   0.09322140
3942.00   6.78934097   0.09442830
3944.00   6.71529579   0.09477542
3946.00   6.56925249   0.09362368
3948.00   6.73623037   0.09334586
3950.00   6.79448271   0.09318105
3952.00   6.80587912   0.09328247
3954.00   6.84894085   0.09309305
3956.00   6.98260260   0.09371794
3958.00   6.85396290   0.09273733
3960.00   6.91819572   0.09395569
3962.00   7.15531969   0.09541491
3964.00   7.07541943   0.09328217
3966.00   6.65537357   0.09009864
3968.00   6.70278263   0.08973964
3970.00   7.02097750   0.09159539
3972.00   7.43317413   0.09408307
3974.00   7.47303391   0.09372877
3976.00   7.57218552   0.09359337
3978.00   7.19802237   0.09123323
3980.00   6.75182581   0.08902851
3982.00   6.78782701   0.08916123
3984.00   7.29840660   0.09177943
3986.00   7.72811937   0.09391186
3988.00   7.47305489   0.09270091
3990.00   7.50019693   0.09302391
3992.00   7.35036755   0.09223667
3994.00   7.41900635   0.09294119
3996.00   7.57815838   0.09401856
3998.00   7.25843191   0.09216265
4000.00   7.34322357   0.09155882
4002.00   7.32850695   0.09114505
4004.00   7.26292133   0.09050254
4006.00   7.20205116   0.09010040
4008.00   7.16109943   0.08977732
4010.00   7.11741161   0.08901917
4012.00   6.87025404   0.08741351
4014.00   6.57748508   0.08561658
4016.00   6.48573780   0.08493239
4018.00   6.54403973   0.08676783
4020.00   6.74497318   0.08978070
4022.00   6.83589983   0.09122088
4024.00   6.98360157   0.09121229
4026.00   6.94911003   0.08995124
4028.00   6.90417957   0.08868031
4030.00   7.06850004   0.08963756
4032.00   6.92270136   0.08832354
4034.00   7.03995180   0.08848352
4036.00   6.99677324   0.08792505
4038.00   7.04691982   0.08799466
4040.00   7.12819481   0.08814378
4042.00   7.09780788   0.08816662
4044.00   7.31648540   0.09650549
4046.00   7.21038914   0.10514269
4048.00   7.44105434   0.10311139
4050.00   7.32447720   0.09187566
4052.00   7.42999506   0.08999250
4054.00   7.37128830   0.09005866
4056.00   7.37642336   0.08931283
4058.00   7.50235605   0.08899742
4060.00   7.54475784   0.08854795
4062.00   7.54877853   0.08839890
4064.00   7.54220676   0.08829061
4066.00   7.87318373   0.08979916
4068.00   7.80620050   0.08930118
4070.00   7.77678442   0.08898559
4072.00   7.84584045   0.08872606
4074.00   7.79633045   0.08873132
4076.00   7.74272346   0.08968607
4078.00   7.60674572   0.08985633
4080.00   7.79464245   0.08999182
4082.00   7.92115974   0.08981469
4084.00   7.79185247   0.08914532
4086.00   7.79511070   0.08898868
4088.00   7.98708582   0.08899093
4090.00   7.89689827   0.08743840
4092.00   7.86053181   0.08690304
4094.00   7.95435190   0.08715573
4096.00   7.72596788   0.08623535
4098.00   7.77388763   0.08625963
4100.00   7.85467148   0.08638988
4102.00   7.91924858   0.08636642
4104.00   7.80744219   0.08553682
4106.00   7.67543650   0.08506634
4108.00   7.61599159   0.08446047
4110.00   7.69428635   0.08486979
4112.00   7.77981806   0.08484741
4114.00   7.62053871   0.08443771
4116.00   7.83792257   0.08500153
4118.00   7.65125132   0.08396559
4120.00   7.55482054   0.08301674
4122.00   7.48546505   0.08240358
4124.00   7.43138123   0.08244108
4126.00   7.34081364   0.08183149
4128.00   7.25656939   0.08152451
4130.00   7.26021767   0.08154862
4132.00   7.25041533   0.08217435
4134.00   7.12063789   0.08150285
4136.00   7.08563089   0.08061209
4138.00   7.12387276   0.08071359
4140.00   7.35271358   0.08172913
4142.00   7.13725901   0.08041879
4144.00   6.94124365   0.07859597
4146.00   6.83645105   0.07794782
4148.00   6.89627743   0.07816194
4150.00   6.84535837   0.07823359
4152.00   6.83146477   0.07867075
4154.00   6.87304926   0.07820454
4156.00   6.86029530   0.07761556
4158.00   6.70504761   0.07677647
4160.00   6.85004854   0.07751749
4162.00   6.64573431   0.07724620
4164.00   6.64940643   0.07800504
4166.00   6.79746151   0.07856105
4168.00   6.41847372   0.07602807
4170.00   6.73367548   0.07673372
4172.00   6.70529842   0.07633460
4174.00   6.71756411   0.07617407
4176.00   6.72150278   0.07615197
4178.00   6.79151821   0.07647874
4180.00   6.84210587   0.07631828
4182.00   6.89288187   0.07611907
4184.00   6.90341282   0.07628673
4186.00   6.98654461   0.07655229
4188.00   7.02765322   0.07653036
4190.00   7.00873137   0.07661007
4192.00   7.17291641   0.07698157
4194.00   7.21322918   0.07710986
4196.00   7.29509497   0.07711402
4198.00   7.33209229   0.07728156
4200.00   7.12440300   0.07620788
4202.00   7.17503691   0.07631957
4204.00   7.09027719   0.07591400
4206.00   7.29440928   0.07695004
4208.00   7.19946051   0.07691407
4210.00   7.15645027   0.07647000
4212.00   7.20964861   0.07680038
4214.00   7.13244963   0.07603025
4216.00   7.02341127   0.07561105
4218.00   7.05470085   0.07540213
4220.00   6.83059502   0.07415445
4222.00   6.77703905   0.07339208
4224.00   6.78665495   0.07367402
4226.00   6.64504051   0.07281411
4228.00   6.72495365   0.07327726
4230.00   6.70234728   0.07337246
4232.00   6.55067253   0.07268569
4234.00   6.55202198   0.07282481
4236.00   6.53003120   0.07273965
4238.00   6.49418020   0.07269855
4240.00   6.45389986   0.07163317
4242.00   6.22945738   0.07067879
4244.00   6.33446836   0.07189360
4246.00   6.19842958   0.07309240
4248.00   6.24804688   0.07296624
4250.00   6.04506350   0.07019330
4252.00   6.14810848   0.06991677
4254.00   6.12157059   0.06976560
4256.00   6.18476295   0.07016085
4258.00   5.90978432   0.06872822
4260.00   5.86323261   0.06857832
4262.00   5.84170771   0.06815485
4264.00   5.93323040   0.06836215
4266.00   5.83505201   0.06769958
4268.00   5.66035223   0.06707022
4270.00   5.79416704   0.06762673
4272.00   5.62742901   0.06680064
4274.00   5.61497402   0.06670541
4276.00   5.60968399   0.06642924
4278.00   5.54497766   0.06618620
4280.00   5.49796963   0.06599750
4282.00   5.43106842   0.06571762
4284.00   5.38542175   0.06536905
4286.00   5.40550804   0.06523218
4288.00   5.31181479   0.06459816
4290.00   5.34582138   0.06459099
4292.00   5.29762459   0.06467840
4294.00   5.35036898   0.06464663
4296.00   5.09295559   0.06358568
4298.00   5.14276934   0.06356890
4300.00   5.11085510   0.06330127
4302.00   4.89371729   0.06211676
4304.00   4.87960911   0.06207697
4306.00   4.93528271   0.06243353
4308.00   4.81372261   0.06200170
4310.00   4.89610815   0.06219726
4312.00   4.81210566   0.06301266
4314.00   4.75512457   0.06341685
4316.00   4.71602011   0.06243665
4318.00   4.71174955   0.06194774
4320.00   4.72439909   0.06220755
4322.00   4.66003466   0.06203022
4324.00   4.74306822   0.06184865
4326.00   4.80657911   0.06180472
4328.00   4.66822338   0.06079050
4330.00   4.80049944   0.06089289
4332.00   4.68445396   0.06051480
4334.00   4.69878292   0.06066722
4336.00   4.61801291   0.06035602
4338.00   4.70985460   0.06089843
4340.00   4.72837305   0.06106299
4342.00   4.83481073   0.06120069
4344.00   4.79176760   0.06149646
4346.00   4.75637197   0.06165015
4348.00   4.65183401   0.06130940
4350.00   4.79059839   0.06123254
4352.00   4.75397444   0.06074859
4354.00   4.85669756   0.06246627
4356.00   4.93567848   0.07545777
4358.00   4.90681553   0.08545008
4360.00   4.86030245   0.08065480
4362.00   5.10279131   0.06815250
4364.00   4.98111916   0.06311402
4366.00   5.00455856   0.06261744
4368.00   5.08793640   0.06282479
4370.00   5.07165051   0.06238946
4372.00   5.07272577   0.06290901
4374.00   5.13964224   0.06321521
4376.00   5.15013599   0.06291264
4378.00   5.13337803   0.06212667
4380.00   5.27760601   0.06238988
4382.00   5.28470421   0.06236489
4384.00   5.30687380   0.06209914
4386.00   5.16468668   0.06153515
4388.00   5.18516779   0.06152262
4390.00   5.30246925   0.06211040
4392.00   5.26473713   0.06173977
4394.00   5.40942860   0.06221042
4396.00   5.51413631   0.06236513
4398.00   5.50715256   0.06299412
4400.00   5.58684349   0.06363431
4402.00   5.50573158   0.06324730
4404.00   5.57447767   0.06292170
4406.00   5.65848589   0.06331270
4408.00   5.71242905   0.06352100
4410.00   5.67868519   0.06358708
4412.00   5.79140472   0.06396940
4414.00   5.90016603   0.06473132
4416.00   5.93300962   0.06498723
4418.00   6.02784729   0.06474816
4420.00   5.96606588   0.06439073
4422.00   5.87124348   0.06388852
4424.00   5.82155275   0.06370209
4426.00   6.01705265   0.06431109
4428.00   5.96668434   0.06396803
4430.00   6.15439463   0.06466804
4432.00   5.96676636   0.06380640
4434.00   6.07244158   0.06402068
4436.00   5.98700190   0.06349616
4438.00   5.98796225   0.06363315
4440.00   6.10908699   0.06411217
4442.00   6.22096443   0.06452376
4444.00   6.17757702   0.06438585
4446.00   6.20977879   0.06451301
4448.00   6.19676590   0.06428178
4450.00   6.25122643   0.06410445
4452.00   6.33335876   0.06454068
4454.00   6.22792482   0.06423280
4456.00   6.34878969   0.06464381
4458.00   6.32186079   0.06459622
4460.00   6.35408115   0.06460493
4462.00   6.36575127   0.06460480
4464.00   6.41903543   0.06472281
4466.00   6.34359217   0.06441887
4468.00   6.36998987   0.06429674
4470.00   6.30584288   0.06405383
4472.00   6.28736448   0.06410522
4474.00   6.35571337   0.06408545
4476.00   6.36765623   0.06412072
4478.00   6.28696251   0.06400914
4480.00   6.34916544   0.06409667
4482.00   6.41990328   0.06430329
4484.00   6.52224350   0.06454479
4486.00   6.48911619   0.06432535
4488.00   6.47553301   0.06419241
4490.00   6.59003019   0.06450460
4492.00   6.60602665   0.06481823
4494.00   6.57189846   0.06463364
4496.00   6.69755697   0.06500220
4498.00   6.72231817   0.06515658
4500.00   6.74820518   0.06512827
4502.00   6.72021389   0.06482905
4504.00   6.77766418   0.06500449
4506.00   6.64940596   0.06456970
4508.00   6.78098965   0.06472626
4510.00   6.78390789   0.06468477
4512.00   6.81054831   0.06467301
4514.00   6.80816031   0.06449372
4516.00   6.82650185   0.06444111
4518.00   6.72178793   0.06416140
4520.00   6.82371807   0.06446623
4522.00   6.84626913   0.06447656
4524.00   6.79023790   0.06426678
4526.00   6.77891254   0.06420109
4528.00   6.86144352   0.06444957
4530.00   6.87131310   0.06438982
4532.00   6.77276564   0.06401151
4534.00   6.72167492   0.06378460
4536.00   6.79502106   0.06387579
4538.00   6.81492186   0.06387015
4540.00   6.71367645   0.06361786
4542.00   6.72123623   0.06359605
4544.00   6.78062534   0.06388924
4546.00   6.69402266   0.06329109
4548.00   6.74259138   0.06320868
4550.00   6.78803730   0.06330466
4552.00   6.66584587   0.06278163
4554.00   6.66430569   0.06301364
4556.00   6.61661530   0.06307374
4558.00   6.60605812   0.06278814
4560.00   6.67974043   0.06273472
4562.00   6.69401169   0.06274930
4564.00   6.60601711   0.06231465
4566.00   6.55719376   0.06219063
4568.00   6.62771082   0.06212205
4570.00   6.53189993   0.06183042
4572.00   6.55434656   0.06193347
4574.00   6.33342695   0.06131390
4576.00   6.36426210   0.06122180
4578.00   6.32426214   0.06080453
4580.00   6.37462091   0.06066468
4582.00   6.29353952   0.06039048
4584.00   6.31070948   0.06022013
4586.00   6.34073353   0.06028833
4588.00   6.21101904   0.05998762
4590.00   6.34486198   0.06036749
4592.00   6.42798042   0.06076068
4594.00   6.40509653   0.06083838
4596.00   6.31543875   0.06054484
4598.00   6.35229301   0.06065453
4600.00   6.41820431   0.06056768
4602.00   6.48201084   0.06055343
4604.00   6.36397457   0.06020466
4606.00   6.47596788   0.06057267
4608.00   6.46898079   0.06051691
4610.00   6.44249487   0.06041662
4612.00   6.72720623   0.06130269
4614.00   6.69711542   0.06128447
4616.00   6.73765373   0.06138784
4618.00   6.61791658   0.06098229
4620.00   6.77652168   0.06139664
4622.00   6.88883209   0.06177003
4624.00   6.80338812   0.06155057
4626.00   6.81577158   0.06160469
4628.00   6.87445116   0.06176942
4630.00   6.90901327   0.06194237
4632.00   6.78320360   0.06134013
4634.00   6.91128492   0.06177671
4636.00   6.82400799   0.06148116
4638.00   6.82295227   0.06144591
4640.00   6.89573908   0.06167955
4642.00   6.99098349   0.06193233
4644.00   6.90305853   0.06177346
4646.00   6.84645319   0.06159616
4648.00   6.87761593   0.06148895
4650.00   6.92801571   0.06185465
4652.00   6.91560507   0.06185871
4654.00   6.96397495   0.06201366
4656.00   6.94579172   0.06181939
4658.00   6.92692423   0.06202385
4660.00   6.95300150   0.06226744
4662.00   6.82149267   0.06182331
4664.00   6.87040043   0.06218685
4666.00   6.86542988   0.06250408
4668.00   6.95042086   0.06267030
4670.00   6.79080868   0.06222246
4672.00   6.72919464   0.06192765
4674.00   6.84924364   0.06218129
4676.00   6.70760822   0.06144030
4678.00   6.63818645   0.06117463
4680.00   6.59872675   0.06108081
4682.00   6.45120907   0.06032689
4684.00   6.35878229   0.05997762
4686.00   6.41264296   0.05993593
4688.00   6.39128208   0.06005815
4690.00   6.44114637   0.06021245
4692.00   6.32640266   0.05969786
4694.00   6.20993423   0.05935123
4696.00   6.23253584   0.05917046
4698.00   6.26308537   0.05913782
4700.00   6.15592527   0.05865450
4702.00   6.13314342   0.05871127
4704.00   6.10527992   0.05874219
4706.00   6.08727741   0.05875333
4708.00   6.04972553   0.05885551
4710.00   6.00370121   0.05848030
4712.00   6.08511972   0.05881041
4714.00   6.06446409   0.05874762
4716.00   6.13137102   0.05872266
4718.00   5.91741085   0.05785976
4720.00   5.94082403   0.05788621
4722.00   5.93508530   0.05782148
4724.00   5.80340576   0.05747826
4726.00   5.85012293   0.05786811
4728.00   5.94325209   0.05877694
4730.00   5.81177950   0.05863998
4732.00   5.95040417   0.05895182
4734.00   5.99640417   0.05926117
4736.00   5.94149733   0.05937101
4738.00   5.94494963   0.05949898
4740.00   5.93216944   0.05991775
4742.00   5.90198994   0.06005806
4744.00   5.85058689   0.05964551
4746.00   5.93173504   0.05889564
4748.00   5.93443108   0.05809728
4750.00   5.87415409   0.05787355
4752.00   5.74940300   0.05743388
4754.00   5.84233284   0.05760232
4756.00   5.81828403   0.05705094
4758.00   5.74082708   0.05685146
4760.00   5.76261663   0.05662483
4762.00   5.81998110   0.05661803
4764.00   5.71762180   0.05639988
4766.00   5.79322529   0.05649865
4768.00   5.70986605   0.05624888
4770.00   5.69393301   0.05623230
4772.00   5.65812492   0.05603677
4774.00   5.55574465   0.05586929
4776.00   5.58412027   0.05590899
4778.00   5.51323795   0.05615467
4780.00   5.51860762   0.05609792
4782.00   5.46978807   0.05538000
4784.00   5.37069273   0.05478585
4786.00   5.34053850   0.05474841
4788.00   5.28925276   0.05453847
4790.00   5.27807999   0.05443497
4792.00   5.22638702   0.05430690
4794.00   5.23325872   0.05418914
4796.00   5.21732616   0.05405271
4798.00   5.33159685   0.05450631
4800.00   5.16198254   0.05397102
4802.00   5.25786543   0.05418065
4804.00   5.38062620   0.05462583
4806.00   5.40587187   0.05484253
4808.00   5.24345732   0.05418039
4810.00   5.36663675   0.05440678
4812.00   5.34489012   0.05433707
4814.00   5.39212942   0.05458865
4816.00   5.38042736   0.05452128
4818.00   5.43113327   0.05472703
4820.00   5.39651918   0.05482772
4822.00   5.38793468   0.05479395
4824.00   5.39558363   0.05479486
4826.00   5.39967918   0.05502781
4828.00   5.44560480   0.05509328
4830.00   5.40938187   0.05494845
4832.00   5.43129063   0.05520731
4834.00   5.43942213   0.05513994
4836.00   5.47782230   0.05531073
4838.00   5.45581150   0.05519229
4840.00   5.38809967   0.05512101
4842.00   5.40524626   0.05505652
4844.00   5.35646725   0.05457042
4846.00   5.35968828   0.05463334
4848.00   5.33546114   0.05467654
4850.00   5.30471277   0.05439425
4852.00   5.35237932   0.05458224
4854.00   5.31088638   0.05427623
4856.00   5.25511503   0.05391714
4858.00   5.19904137   0.05383255
4860.00   5.26561117   0.05431635
4862.00   5.23885870   0.05406269
4864.00   5.20127106   0.05388274
4866.00   5.27245235   0.05402954
4868.00   5.09875679   0.05335696
4870.00   5.21179247   0.05371682
4872.00   5.07141256   0.05315699
4874.00   5.11330891   0.05333840
4876.00   5.01425028   0.05305870
4878.00   4.98753262   0.05292628
4880.00   4.88204813   0.05268703
4882.00   4.94658613   0.05264818
4884.00   4.80292797   0.05193461
4886.00   4.92709875   0.05217618
4888.00   4.90369606   0.05198487
4890.00   4.75305796   0.05157441
4892.00   4.69672060   0.05139143
4894.00   4.71325684   0.05154963
4896.00   4.71694469   0.05153148
4898.00   4.68474007   0.05121237
4900.00   4.72144175   0.05133256
4902.00   4.72034836   0.05136025
4904.00   4.74595022   0.05142540
4906.00   4.72390079   0.05117587
4908.00   4.68770361   0.05113458
4910.00   4.75146246   0.05134919
4912.00   4.78688097   0.05150044
4914.00   4.74543571   0.05175654
4916.00   4.78860569   0.05190969
4918.00   4.94112206   0.05210120
4920.00   4.87307405   0.05195744
4922.00   4.91399002   0.05170134
4924.00   4.84646845   0.05155485
4926.00   4.82373762   0.05155911
4928.00   4.77164745   0.05135186
4930.00   4.86203718   0.05148493
4932.00   4.94486237   0.05198660
4934.00   4.89657974   0.05188464
4936.00   4.87666416   0.05197444
4938.00   4.88515663   0.05172936
4940.00   4.82505846   0.05167046
4942.00   4.72607613   0.05121841
4944.00   4.73691940   0.05109509
4946.00   4.72610807   0.05105729
4948.00   4.70549345   0.05084005
4950.00   4.74683332   0.05108625
4952.00   4.62573862   0.05102274
4954.00   4.61680984   0.05100839
4956.00   4.65820885   0.05099580
4958.00   4.57163334   0.05074522
4960.00   4.70219469   0.05102475
4962.00   4.55478668   0.05041707
4964.00   4.58975935   0.05070724
4966.00   4.47988415   0.05009260
4968.00   4.43038368   0.04990552
4970.00   4.50508547   0.05025529
4972.00   4.42747307   0.05031329
4974.00   4.47540617   0.05069049
4976.00   4.45796108   0.05061280
4978.00   4.37404060   0.05072711
4980.00   4.40796614   0.05110098
4982.00   4.28302622   0.05108622
4984.00   4.37018156   0.05136955
4986.00   4.32662582   0.05095867
4988.00   4.36565542   0.05058699
4990.00   4.24471331   0.04997088
4992.00   4.22798204   0.04964900
4994.00   4.16518927   0.04925987
4996.00   4.11562109   0.04866456
4998.00   4.10670233   0.04844584
5000.00   4.12626791   0.04853258
5002.00   4.14945602   0.04852537
5004.00   4.06554890   0.04821295
5006.00   4.01593018   0.04795206
5008.00   3.99494100   0.04769802
5010.00   3.98179483   0.04778906
5012.00   3.94419098   0.04754037
5014.00   4.04229116   0.04763154
5016.00   3.99688148   0.04766443
5018.00   4.02633810   0.04800218
5020.00   3.93415308   0.04764713
5022.00   3.93292475   0.04755978
5024.00   3.90817475   0.04711718
5026.00   3.77915239   0.04670579
5028.00   3.83375168   0.04698978
5030.00   3.86165118   0.04724543
5032.00   3.83700633   0.04710932
5034.00   3.87772155   0.04713533
5036.00   3.88339376   0.04686645
5038.00   3.82885075   0.04676570
5040.00   3.90827179   0.04703035
5042.00   3.92039013   0.04688283
5044.00   3.92675304   0.04704924
5046.00   3.98880410   0.04747510
5048.00   4.03462172   0.04755074
5050.00   4.03278828   0.04750571
5052.00   3.99322057   0.04740094
5054.00   4.14158964   0.04789539
5056.00   4.12051678   0.04787885
5058.00   3.97805166   0.04735864
5060.00   4.05182934   0.04780868
5062.00   4.11220646   0.04812958
5064.00   4.16191578   0.04854089
5066.00   4.28336620   0.04939187
5068.00   4.25576210   0.04943888
5070.00   4.21337843   0.04914116
5072.00   4.18106270   0.04899855
5074.00   4.21759605   0.04871307
5076.00   4.21189213   0.04853782
5078.00   4.26536655   0.04887760
5080.00   4.30678558   0.05032561
5082.00   4.28578854   0.05146061
5084.00   4.26002026   0.05190711
5086.00   4.44336128   0.05264115
5088.00   4.62888813   0.05252951
5090.00   4.57772923   0.05132571
5092.00   4.59471846   0.05069101
5094.00   4.54817724   0.05016052
5096.00   4.46804333   0.04999466
5098.00   4.54450178   0.05058504
5100.00   4.79300117   0.05143768
5102.00   4.74620533   0.05110246
5104.00   4.73418283   0.05052087
5106.00   4.83355379   0.05080970
5108.00   4.80674553   0.05066770
5110.00   4.90066767   0.05114597
5112.00   4.95464087   0.05140643
5114.00   4.99717426   0.05163776
5116.00   5.14071655   0.05213794
5118.00   5.12955141   0.05214208
5120.00   5.17670488   0.05208526
5122.00   5.11224937   0.05180271
5124.00   5.13433790   0.05185758
5126.00   5.26447773   0.05205089
5128.00   5.21744394   0.05197997
5130.00   5.29091501   0.05230771
5132.00   5.24841118   0.05222782
5134.00   5.27811575   0.05224336
5136.00   5.35599756   0.05236303
5138.00   5.41482306   0.05256323
5140.00   5.37383938   0.05244375
5142.00   5.37300634   0.05246167
5144.00   5.42825794   0.05271524
5146.00   5.50408745   0.05305991
5148.00   5.48094654   0.05329017
5150.00   5.60348129   0.05372728
5152.00   5.61405802   0.05399058
5154.00   5.60708570   0.05395385
5156.00   5.55782938   0.05371017
5158.00   5.48996735   0.05332296
5160.00   5.60052681   0.05368680
5162.00   5.61233282   0.05349585
5164.00   5.62425756   0.05336515
5166.00   5.62844324   0.05340477
5168.00   5.55225086   0.05319148
5170.00   5.62083864   0.05320677
5172.00   5.61145926   0.05324287
5174.00   5.54316330   0.05325732
5176.00   5.69425344   0.05375168
5178.00   5.57487583   0.05340830
5180.00   5.54886436   0.05306188
5182.00   5.56654453   0.05307515
5184.00   5.47050047   0.05269044
5186.00   5.59824371   0.05311568
5188.00   5.46863270   0.05278439
5190.00   5.49411058   0.05269048
5192.00   5.44470215   0.05259992
5194.00   5.51075220   0.05297719
5196.00   5.41069126   0.05300123
5198.00   5.48713636   0.05344706
5200.00   5.44380188   0.05314758
5202.00   5.38338757   0.05273058
5204.00   5.42671347   0.05261484
5206.00   5.55167103   0.05296773
5208.00   5.48776293   0.05283311
5210.00   5.48285151   0.05299154
5212.00   5.43523741   0.05265083
5214.00   5.50414705   0.05288177
5216.00   5.55064583   0.05309083
5218.00   5.48403263   0.05287924
5220.00   5.58935928   0.05333484
5222.00   5.54785395   0.05294978
5224.00   5.55966377   0.05282469
5226.00   5.51299524   0.05234601
5228.00   5.44950247   0.05213699
5230.00   5.50095034   0.05232377
5232.00   5.40237188   0.05197731
5234.00   5.36851072   0.05180911
5236.00   5.42271852   0.05208351
5238.00   5.39117622   0.05213144
5240.00   5.47087955   0.05246294
5242.00   5.48450184   0.05244161
5244.00   5.40153074   0.05196020
5246.00   5.43593979   0.05214486
5248.00   5.40107918   0.05207476
5250.00   5.45989847   0.05223595
5252.00   5.43576193   0.05210065
5254.00   5.32264090   0.05179484
5256.00   5.41164923   0.05221924
5258.00   5.48792505   0.05265732
5260.00   5.47370148   0.05248801
5262.00   5.38114071   0.05207970
5264.00   5.37721014   0.05184200
5266.00   5.23765755   0.05134524
5268.00   5.29362011   0.05153992
5270.00   5.27060890   0.05117948
5272.00   5.25705051   0.05130996
5274.00   5.18009710   0.05098808
5276.00   5.09401941   0.05076262
5278.00   5.06354046   0.05069942
5280.00   5.07137871   0.05064502
5282.00   4.94653225   0.05012670
5284.00   4.87024689   0.04986696
5286.00   4.84230185   0.04978020
5288.00   4.75534821   0.04948825
5290.00   4.74831486   0.04920166
5292.00   4.66327667   0.04906388
5294.00   4.71731520   0.04905503
5296.00   4.61214352   0.04863852
5298.00   4.52793646   0.04856404
5300.00   4.47312927   0.04841877
5302.00   4.39575958   0.04824075
5304.00   4.51680994   0.04837546
5306.00   4.46366072   0.04814905
5308.00   4.39945173   0.04768948
5310.00   4.39788532   0.04783779
5312.00   4.39589834   0.04772711
5314.00   4.32727146   0.04759092
5316.00   4.31582069   0.04727140
5318.00   4.29624701   0.04735013
5320.00   4.30006123   0.04726433
5322.00   4.28377485   0.04720764
5324.00   4.21757174   0.04687537
5326.00   4.18572712   0.04671897
5328.00   4.16525888   0.04659852
5330.00   4.19592953   0.04680186
5332.00   4.27579403   0.04690100
5334.00   4.26875448   0.04689936
5336.00   4.26356459   0.04699102
5338.00   4.21317768   0.04695785
5340.00   4.26824903   0.04751525
5342.00   4.25834227   0.04749970
5344.00   4.23641682   0.04735711
5346.00   4.19405127   0.04729294
5348.00   4.22266245   0.04775448
5350.00   4.18684530   0.04781428
5352.00   4.29745054   0.04805837
5354.00   4.19554996   0.04774602
5356.00   4.11093950   0.04770976
5358.00   4.04680395   0.04718382
5360.00   4.05200052   0.04691124
5362.00   3.94850802   0.04628427
5364.00   4.07858086   0.04663896
5366.00   4.02726793   0.04618320
5368.00   3.95215845   0.04622066
5370.00   4.04996634   0.04635486
5372.00   4.18566418   0.04726924
5374.00   4.16493750   0.04747148
5376.00   4.09551573   0.04715133
5378.00   4.08833027   0.04712374
5380.00   4.16989326   0.04736407
5382.00   4.17588949   0.04741572
5384.00   4.25454235   0.04758359
5386.00   4.17432499   0.04727138
5388.00   4.17691803   0.04735703
5390.00   4.22125196   0.04799387
5392.00   4.14754820   0.04789865
5394.00   4.19856310   0.04818873
5396.00   4.20012760   0.04823518
5398.00   4.27005720   0.04878653
5400.00   4.31517982   0.04877380
5402.00   4.32708740   0.04894082
5404.00   4.30325270   0.04889612
5406.00   4.35030794   0.04937975
5408.00   4.34710264   0.04938084
5410.00   4.33167553   0.04967047
5412.00   4.36325073   0.05032129
5414.00   4.33952475   0.05051154
5416.00   4.25750685   0.05096472
5418.00   4.33808994   0.05160028
5420.00   4.33381271   0.05183550
5422.00   4.41753054   0.05231085
5424.00   4.35543966   0.05247336
5426.00   4.32018089   0.05274252
5428.00   4.45448303   0.05330155
5430.00   4.51243162   0.05369017
5432.00   4.44896221   0.05396522
5434.00   4.43889809   0.05422043
5436.00   4.42027092   0.05439421
5438.00   4.46007347   0.05490104
5440.00   4.47200727   0.05545941
5442.00   4.54734039   0.05619557
5444.00   4.53234577   0.05649846
5446.00   4.45393658   0.05654309
5448.00   4.57156277   0.05720436
5450.00   4.41995764   0.05672748
5452.00   4.44671869   0.05709569
5454.00   4.56647062   0.05775561
5456.00   4.50707197   0.05828311
5458.00   4.45425081   0.06328244
5460.00   4.34022474   0.06781774
5462.00   4.41982079   0.06787120
5464.00   4.31696367   0.06467319
5466.00   4.28685617   0.06241877
5468.00   4.41704845   0.06122945
5470.00   4.41104841   0.05983318
5472.00   4.21326351   0.05828942
5474.00   4.24839211   0.05838852
5476.00   4.20619202   0.05810540
5478.00   4.25972605   0.05857292
5480.00   4.27048683   0.05932821
5482.00   4.35200834   0.06011289
5484.00   4.14741707   0.05959348
5486.00   4.09431648   0.05951895
5488.00   4.00338507   0.05876542
5490.00   4.02780342   0.05846345
5492.00   3.95413804   0.05807953
5494.00   4.00876474   0.05830780
5496.00   3.93556619   0.05790052
5498.00   4.06466675   0.05865471
5500.00   4.02341270   0.05857281
5502.00   3.91862345   0.05829687
5504.00   4.06783247   0.05904717
5506.00   3.98791170   0.05890383
5508.00   3.90164971   0.05846357
5510.00   3.98073697   0.05882368
5512.00   3.99263978   0.05943188
5514.00   4.02613020   0.06026555
5516.00   4.07011080   0.06034369
5518.00   4.21920967   0.06151687
5520.00   4.09719372   0.06100096
5522.00   4.09294128   0.06115707
5524.00   4.09699583   0.06110954
5526.00   4.04050350   0.06109334
5528.00   4.30074835   0.06192465
5530.00   4.30362082   0.06223702
5532.00   4.39688826   0.06261658
5534.00   4.27199268   0.06188868
5536.00   4.36607695   0.06255239
5538.00   4.39747095   0.06294252
5540.00   4.32815361   0.06256594
5542.00   4.40457296   0.06275330
5544.00   4.46931934   0.06339598
5546.00   4.61651802   0.06408437
5548.00   4.50163460   0.06355702
5550.00   4.54663754   0.06412028
5552.00   4.53242588   0.06390527
5554.00   4.55043030   0.06420287
5556.00   4.55394173   0.06445486
5558.00   4.68112421   0.06503280
5560.00   4.53316927   0.06436261
5562.00   4.54483509   0.06488534
5564.00   4.41465616   0.10944884
5566.00   4.43802452   0.10974640
5568.00   4.40767860   0.10968673
5570.00   4.34343576   0.10974213
5572.00   4.46071815   0.11173245
5574.00   4.44927359   0.11385892
5576.00   4.40914202   0.11502966
5578.00   4.38868189   0.11444242
5580.00   4.34599686   0.11164085
5582.00   4.46293020   0.10881833
5584.00   4.53689241   0.10435623
5586.00   4.54238653   0.09960303
5588.00   4.52556276   0.09618650
5590.00   4.58164644   0.09516275
5592.00   4.54376173   0.09417395
5594.00   4.48444128   0.09312574
5596.00   4.48414373   0.09242857
5598.00   4.57236814   0.09223634
5600.00   4.60404587   0.09177902
5602.00   4.58972311   0.09113514
5604.00   4.65509033   0.09089152
5606.00   4.67960310   0.09051935
5608.00   4.63138628   0.08975488
5610.00   4.62119532   0.08902546
5612.00   4.67431116   0.08858681
5614.00   4.77481031   0.08854711
5616.00   4.81126833   0.08822260
5618.00   4.74799871   0.08727638
5620.00   4.74710989   0.08674691
5622.00   4.75311565   0.08616101
5624.00   4.72933531   0.08545449
5626.00   4.73987627   0.08498353
5628.00   4.76025009   0.08455694
5630.00   4.67952013   0.08363724
5632.00   4.67519951   0.08301133
5634.00   4.73117971   0.08281723
5636.00   4.79234171   0.08288733
5638.00   4.79711914   0.08259424
5640.00   4.77666140   0.08203305
5642.00   4.75979280   0.08140336
5644.00   4.77559328   0.08105191
5646.00   4.78948975   0.08076268
5648.00   4.75754833   0.08018631
5650.00   4.67989302   0.07946741
5652.00   4.62966681   0.07893837
5654.00   4.65164804   0.07882326
5656.00   4.72935724   0.07903294
5658.00   4.81842041   0.07923609
5660.00   4.85963964   0.07948613
5662.00   4.92256927   0.07984588
5664.00   4.96410036   0.08011416
5666.00   4.95829439   0.08020215
5668.00   4.97712708   0.08029386
5670.00   5.04066706   0.08083773
5672.00   5.00518942   0.08079132
5674.00   4.95995903   0.08051738
5676.00   4.97919703   0.08059268
5678.00   5.04841471   0.08077311
5680.00   5.01843691   0.08074594
5682.00   4.98125267   0.08079072
5684.00   4.98051405   0.08098565
5686.00   4.99920797   0.08109129
5688.00   4.97166777   0.08064699
5690.00   4.96238947   0.07983723
5692.00   4.93848562   0.07871369
5694.00   4.86719751   0.07734244
5696.00   4.79350328   0.07593723
5698.00   4.78792477   0.07497866
5700.00   4.76418543   0.07413428
5702.00   4.70651674   0.07321944
5704.00   4.64176989   0.07225495
5706.00   4.66606569   0.07181120
5708.00   4.68538952   0.07163134
5710.00   4.69410086   0.07151902
5712.00   4.66258001   0.07115852
5714.00   4.56366444   0.07034479
5716.00   4.52265978   0.06973362
5718.00   4.53095579   0.06921315
5720.00   4.48828077   0.06868593
5722.00   4.42792606   0.06814066
5724.00   4.47984505   0.06801008
5726.00   4.47338295   0.06773514
5728.00   4.46667719   0.06741796
5730.00   4.46643829   0.06716851
5732.00   4.47047234   0.06706098
5734.00   4.43352842   0.06673130
5736.00   4.42084312   0.06642926
5738.00   4.41322374   0.06614140
5740.00   4.40461254   0.06589520
5742.00   4.40908003   0.06580672
5744.00   4.42147398   0.06583317
5746.00   4.43823862   0.06587196
5748.00   4.43211985   0.06567476
5750.00   4.44949484   0.06560398
5752.00   4.47343349   0.06564898
5754.00   4.43315268   0.06543192
5756.00   4.38979959   0.06535085
5758.00   4.37524176   0.06533775
5760.00   4.36929178   0.06539680
5762.00   4.36925793   0.06559078
5764.00   4.34598684   0.06566257
5766.00   4.33597898   0.06576809
5768.00   4.36500883   0.06608459
5770.00   4.37708712   0.06609949
5772.00   4.37922382   0.06568467
5774.00   4.31484365   0.06508827
5776.00   4.29566050   0.06454941
5778.00   4.31140089   0.06421866
5780.00   4.30305672   0.06396738
5782.00   4.24830389   0.06367745
5784.00   4.24567461   0.06380904
5786.00   4.27213383   0.06418557
5788.00   4.27777863   0.06448113
5790.00   4.26985359   0.06464099
5792.00   4.27362013   0.06457341
5794.00   4.26818275   0.06424806
5796.00   4.27741671   0.06382954
5798.00   4.29527950   0.06339550
5800.00   4.27887297   0.06285638
5802.00   4.26813698   0.06258429
5804.00   4.28157282   0.06252278
5806.00   4.28323507   0.06248562
5808.00   4.27255583   0.06232095
5810.00   4.25838232   0.06207917
5812.00   4.26818943   0.06206522
5814.00   4.24440241   0.06194191
5816.00   4.23455477   0.06180270
5818.00   4.24758720   0.06174083
5820.00   4.25105715   0.06167345
5822.00   4.28227091   0.06189790
5824.00   4.30585527   0.06192914
5826.00   4.31981325   0.06191396
5828.00   4.31853104   0.06185911
5830.00   4.25649118   0.06149713
5832.00   4.22856331   0.06138898
5834.00   4.23556805   0.06150104
5836.00   4.25112963   0.06161176
5838.00   4.25175571   0.06151596
5840.00   4.28359270   0.06157973
5842.00   4.30839157   0.06172161
5844.00   4.32502174   0.06179114
5846.00   4.32055712   0.06170010
5848.00   4.29698563   0.06153695
5850.00   4.27081633   0.06140549
5852.00   4.28024673   0.06149862
5854.00   4.32022715   0.06168425
5856.00   4.34030771   0.06180663
5858.00   4.30930662   0.06170194
5860.00   4.31724358   0.06183030
5862.00   4.32670450   0.06197356
5864.00   4.34075546   0.06204961
5866.00   4.35416174   0.06208492
5868.00   4.32783651   0.06205954
5870.00   4.35251236   0.06222832
5872.00   4.37695265   0.06242948
5874.00   4.35005903   0.06238115
5876.00   4.29118347   0.06227730
5878.00   4.28938341   0.06278076
5880.00   4.30409622   0.06373426
5882.00   4.22990751   0.06463809
5884.00   4.15866470   0.06631458
5886.00   4.12264633   0.06895278
5888.00   4.05177355   0.07174700
5890.00   4.00141859   0.07348844
5892.00   3.97587967   0.07467815
5894.00   3.94510007   0.07488207
5896.00   3.95215511   0.07365309
5898.00   4.04520845   0.07087168
5900.00   4.09200048   0.06813758
5902.00   4.16069221   0.06565776
5904.00   4.20416069   0.06333433
5906.00   4.20647955   0.06148161
5908.00   4.26386404   0.06134256
5910.00   4.26200438   0.06143143
5912.00   4.24657106   0.06137555
5914.00   4.25235224   0.06127962
5916.00   4.20264006   0.06099204
5918.00   4.18372393   0.06083870
5920.00   4.19615316   0.06078153
5922.00   4.20773268   0.06077067
5924.00   4.20071888   0.06077047
5926.00   4.20471907   0.06084412
5928.00   4.22898197   0.06105144
5930.00   4.22511005   0.06104403
5932.00   4.22816038   0.06103195
5934.00   4.23875952   0.06103615
5936.00   4.26914167   0.06098264
5938.00   4.30728769   0.06093762
5940.00   4.30955744   0.06082525
5942.00   4.29114389   0.06066590
5944.00   4.28966236   0.06048426
5946.00   4.26392937   0.06027491
5948.00   4.25205612   0.06016315
5950.00   4.26869726   0.06008853
5952.00   4.27468252   0.05997431
5954.00   4.20980215   0.05967924
5956.00   4.10581207   0.05903609
5958.00   3.98577690   0.05826396
5960.00   3.87190557   0.05753858
5962.00   3.79125524   0.05704612
5964.00   3.73049355   0.05678501
5966.00   3.76242828   0.05702282
5968.00   3.88501048   0.05776568
5970.00   4.00933599   0.05843878
5972.00   4.08008718   0.05883652
5974.00   4.17544413   0.05933870
5976.00   4.22891855   0.05962366
5978.00   4.27534437   0.05972290
5980.00   4.29297447   0.05972020
5982.00   4.29289198   0.05971882
5984.00   4.32849073   0.05981408
5986.00   4.31743479   0.05968112
5988.00   4.34840584   0.05970535
5990.00   4.35378885   0.05968650
5992.00   4.29191542   0.05948548
5994.00   4.31485128   0.05962057
5996.00   4.33663845   0.05960736
5998.00   4.32950354   0.05952671
6000.00   4.32332468   0.05949360
6002.00   4.35224915   0.05955795
6004.00   4.32002401   0.05933377
6006.00   4.29948950   0.05920417
6008.00   4.28566408   0.05911000
6010.00   4.28957129   0.05911097
6012.00   4.31665993   0.05919829
6014.00   4.32155561   0.05908838
6016.00   4.30414581   0.05892317
6018.00   4.29457426   0.05882690
6020.00   4.30486631   0.05882354
6022.00   4.28910255   0.05878464
6024.00   4.30957127   0.05888158
6026.00   4.35351992   0.05906610
6028.00   4.36110640   0.05905144
6030.00   4.31866360   0.05877425
6032.00   4.33204651   0.05881167
6034.00   4.39022398   0.05907097
6036.00   4.38132572   0.05889963
6038.00   4.33400202   0.05861278
6040.00   4.31246042   0.05861627
6042.00   4.29523897   0.05834804
6044.00   4.30097818   0.05837047
6046.00   4.30851126   0.05835895
6048.00   4.30891991   0.05827400
6050.00   4.32795095   0.05838679
6052.00   4.36093950   0.05843337
6054.00   4.32796907   0.05834820
6056.00   4.28699255   0.05818128
6058.00   4.30405760   0.05822212
6060.00   4.28981018   0.05807496
6062.00   4.30134201   0.05805509
6064.00   4.29941797   0.05804667
6066.00   4.30223608   0.05812961
6068.00   4.30768299   0.05825242
6070.00   4.32683516   0.05823107
6072.00   4.29290247   0.05799780
6074.00   4.25248766   0.05783690
6076.00   4.23478937   0.05775764
6078.00   4.24735260   0.05770079
6080.00   4.22238874   0.05754666
6082.00   4.23143148   0.05743113
6084.00   4.24308348   0.05748113
6086.00   4.23970079   0.05753735
6088.00   4.18388128   0.05727808
6090.00   4.19707537   0.05737171
6092.00   4.22557688   0.05754932
6094.00   4.20366335   0.05744976
6096.00   4.15822077   0.05721712
6098.00   4.14676142   0.05728714
6100.00   4.16144371   0.05750299
6102.00   4.15821886   0.05757969
6104.00   4.12265015   0.05754590
6106.00   4.08361101   0.05759728
6108.00   4.09918261   0.05789778
6110.00   4.11153412   0.05818922
6112.00   4.09722662   0.05824817
6114.00   4.05751657   0.05809481
6116.00   3.99527454   0.05771595
6118.00   3.96341062   0.05737363
6120.00   3.94679618   0.05689082
6122.00   3.93148875   0.05647672
6124.00   3.90271187   0.05606302
6126.00   3.85211301   0.05568430
6128.00   3.80340886   0.05528517
6130.00   3.76443481   0.05501969
6132.00   3.76052856   0.05488987
6134.00   3.75546336   0.05475222
6136.00   3.69813371   0.05446529
6138.00   3.63203740   0.05426457
6140.00   3.61416030   0.05465794
6142.00   3.56964111   0.05457510
6144.00   3.51921391   0.05398373
6146.00   3.49170375   0.05331486
6148.00   3.47719407   0.05316088
6150.00   3.43772316   0.05292782
6152.00   3.36791992   0.05266446
6154.00   3.29383159   0.05236049
6156.00   3.24993682   0.05205953
6158.00   3.19982362   0.05182017
6160.00   3.14758420   0.05158854
6162.00   3.09443784   0.05117781
6164.00   3.04806519   0.05065621
6166.00   3.03430939   0.05034858
6168.00   2.97624421   0.04981098
6170.00   2.91742539   0.04926563
6172.00   2.86003113   0.04880096
6174.00   2.81195903   0.04841417
6176.00   2.78826976   0.04803957
6178.00   2.77074718   0.04781917
6180.00   2.74745250   0.04771179
6182.00   2.71212411   0.04760731
6184.00   2.66527009   0.04735293
6186.00   2.63070107   0.04707506
6188.00   2.62553930   0.04696465
6190.00   2.62395024   0.04695771
6192.00   2.61153674   0.04686901
6194.00   2.57735038   0.04661153
6196.00   2.59211349   0.04659423
6198.00   2.59388614   0.04652273
6200.00   2.57865930   0.04640987
6202.00   2.56810117   0.04642747
6204.00   2.56382251   0.04653795
6206.00   2.55624509   0.04651119
6208.00   2.55338764   0.04647164
6210.00   2.57510805   0.04659421
6212.00   2.63143563   0.04688663
6214.00   2.66421437   0.04687848
6216.00   2.67301345   0.04685478
6218.00   2.68222332   0.04695376
6220.00   2.69652081   0.04706425
6222.00   2.72134590   0.04705632
6224.00   2.73632050   0.04703838
6226.00   2.74848914   0.04715202
6228.00   2.75122476   0.04714531
6230.00   2.76301026   0.04716529
6232.00   2.80152512   0.04752976
6234.00   2.85010600   0.04799045
6236.00   2.85027027   0.04807749
6238.00   2.85835266   0.04821341
6240.00   2.88014317   0.04838290
6242.00   2.89463258   0.04830746
6244.00   2.92922497   0.04826546
6246.00   2.95626998   0.04833482
6248.00   3.00967193   0.04858285
6250.00   3.04784203   0.04873348
6252.00   3.07000446   0.04886698
6254.00   3.09948802   0.04924433
6256.00   3.13106251   0.04960629
6258.00   3.14671135   0.04971382
6260.00   3.15478134   0.04966377
6262.00   3.18246198   0.04973561
6264.00   3.21685791   0.04972445
6266.00   3.20580268   0.04960567
6268.00   3.18278670   0.04949972
6270.00   3.19303417   0.04953251
6272.00   3.25531673   0.04975981
6274.00   3.27176666   0.04995450
6276.00   3.26704717   0.05009549
6278.00   3.26583743   0.05028381
6280.00   3.28945661   0.05058947
6282.00   3.31148148   0.05077530
6284.00   3.29227233   0.05054155
6286.00   3.30092883   0.05042966
6288.00   3.34238744   0.05063485
6290.00   3.38520455   0.05109648
6292.00   3.38208389   0.05165153
6294.00   3.40790963   0.05339770
6296.00   3.40603805   0.05564813
6298.00   3.39490438   0.05750646
6300.00   3.40131855   0.05829353
6302.00   3.40632224   0.05821116
6304.00   3.41706920   0.05717557
6306.00   3.43260455   0.05530463
6308.00   3.44833064   0.05309558
6310.00   3.44070840   0.05135150
6312.00   3.43060684   0.05061398
6314.00   3.48439193   0.05056509
6316.00   3.53831935   0.05066422
6318.00   3.53548074   0.05062640
6320.00   3.52707887   0.05055093
6322.00   3.48764515   0.05019251
6324.00   3.50963759   0.05024688
6326.00   3.56239247   0.05049768
6328.00   3.54518795   0.05028211
6330.00   3.51172090   0.05021366
6332.00   3.52180600   0.05030319
6334.00   3.51778007   0.05023206
6336.00   3.51137447   0.05006592
6338.00   3.51894307   0.05002117
6340.00   3.50393987   0.05005911
6342.00   3.50426602   0.05012763
6344.00   3.51411533   0.05016972
6346.00   3.51330495   0.05009517
6348.00   3.51466060   0.05006139
6350.00   3.51694465   0.05008623
6352.00   3.51506543   0.04994540
6354.00   3.51117396   0.04986657
6356.00   3.49233246   0.04996576
6358.00   3.43975377   0.05013193
6360.00   3.48027515   0.05126455
6362.00   3.50235868   0.05204193
6364.00   3.49832463   0.05217450
6366.00   3.49378610   0.05185719
6368.00   3.50157523   0.05144436
6370.00   3.49548602   0.05058637
6372.00   3.48354459   0.04978539
6374.00   3.49403095   0.04941272
6376.00   3.51033378   0.04944926
6378.00   3.48565674   0.04932852
6380.00   3.43875980   0.04916454
6382.00   3.42628884   0.04910010
6384.00   3.45444489   0.04914476
6386.00   3.47274518   0.04912124
6388.00   3.46661186   0.04900433
6390.00   3.42058253   0.04866478
6392.00   3.40450168   0.04847108
6394.00   3.41935515   0.04849527
6396.00   3.42597461   0.04851669
6398.00   3.40947437   0.04851701
6400.00   3.42092204   0.04868960
6402.00   3.43780732   0.04881461
6404.00   3.42965770   0.04867274
6406.00   3.40890217   0.04846907
6408.00   3.36891389   0.04826157
6410.00   3.34639740   0.04812754
6412.00   3.33821321   0.04802332
6414.00   3.33682632   0.04799698
6416.00   3.34406662   0.04802714
6418.00   3.31701589   0.04788791
6420.00   3.30458140   0.04775700
6422.00   3.31556225   0.04773733
6424.00   3.31889844   0.04774765
6426.00   3.32182026   0.04761058
6428.00   3.32149053   0.04753824
6430.00   3.31812024   0.04750924
6432.00   3.27620816   0.04735237
6434.00   3.24202228   0.04722680
6436.00   3.27932358   0.04725195
6438.00   3.29720688   0.04726224
6440.00   3.27631760   0.04714028
6442.00   3.23141980   0.04691904
6444.00   3.26078224   0.04712569
6446.00   3.26185536   0.04704747
6448.00   3.26561046   0.04711612
6450.00   3.25127387   0.04711451
6452.00   3.23126698   0.04697460
6454.00   3.23268342   0.04695344
6456.00   3.23182797   0.04696600
6458.00   3.21682811   0.04690422
6460.00   3.18599916   0.04675551
6462.00   3.15826130   0.04663051
6464.00   3.15911102   0.04673092
6466.00   3.18745971   0.04678424
6468.00   3.18297768   0.04679245
6470.00   3.16317868   0.04669622
6472.00   3.12810254   0.04635830
6474.00   3.15082741   0.04629976
6476.00   3.11533546   0.04610559
6478.00   3.10187435   0.04591439
6480.00   3.11124253   0.04578765
6482.00   3.09559989   0.04566159
6484.00   3.10807323   0.04567696
6486.00   3.10693741   0.04564190
6488.00   3.12050605   0.04569708
6490.00   3.12639832   0.04576777
6492.00   3.10671258   0.04572922
6494.00   3.11541057   0.04586974
6496.00   3.12838078   0.04611647
6498.00   3.14623284   0.04634236
6500.00   3.14147592   0.04635884
6502.00   3.11761761   0.04626293
6504.00   3.11511326   0.04629261
6506.00   3.13845539   0.04627302
6508.00   3.13676929   0.04606713
6510.00   3.10877109   0.04578276
6512.00   3.09854531   0.04559264
6514.00   3.07977843   0.04530059
6516.00   3.06736588   0.04517213
6518.00   3.06642842   0.04526157
6520.00   3.04844785   0.04528341
6522.00   3.04427791   0.04524275
6524.00   3.03816819   0.04523544
6526.00   3.04755211   0.04533872
6528.00   3.06853366   0.04548321
6530.00   3.07335973   0.04548121
6532.00   3.07736015   0.04549513
6534.00   3.08537602   0.04555845
6536.00   3.09171700   0.04561983
6538.00   3.08153129   0.04554078
6540.00   3.06032491   0.04533855
6542.00   3.05189514   0.04524530
6544.00   3.04659534   0.04528780
6546.00   3.05784392   0.04534239
6548.00   3.06732941   0.04526572
6550.00   3.02737021   0.04509030
6552.00   2.99189305   0.04493639
6554.00   2.99821401   0.04496442
6556.00   3.00906634   0.04513473
6558.00   2.98519683   0.04526802
6560.00   2.99617696   0.04532240
6562.00   3.02344131   0.04536399
6564.00   3.00878930   0.04521383
6566.00   2.97857594   0.04493519
6568.00   2.98415446   0.04474664
6570.00   2.96389461   0.04455310
6572.00   2.93581200   0.04436798
6574.00   2.93420029   0.04428117
6576.00   2.94437981   0.04430330
6578.00   2.95120120   0.04468478
6580.00   2.98105240   0.04506629
6582.00   2.99630570   0.04522784
6584.00   2.98899198   0.04510305
6586.00   2.97311759   0.04490480
6588.00   2.99958396   0.04498385
6590.00   2.98002124   0.04488215
6592.00   2.96323085   0.04480052
6594.00   2.97512317   0.04484576
6596.00   2.98620105   0.04490873
6598.00   2.99454665   0.04497994
6600.00   2.95158601   0.04471409
6602.00   2.93303657   0.04460795
6604.00   2.94271922   0.04469747
6606.00   2.95735383   0.04474505
6608.00   2.91465282   0.04442747
6610.00   2.94836307   0.04449559
6612.00   2.97612786   0.04488830
6614.00   2.94853473   0.04495850
6616.00   2.88603520   0.04467538
6618.00   2.91951394   0.04501600
6620.00   2.93623424   0.04514903
6622.00   2.95115972   0.04524209
6624.00   2.95675850   0.04534413
6626.00   2.96098161   0.04545888
6628.00   2.93713117   0.04532270
6630.00   2.83091617   0.04530205
6632.00   2.74012852   0.04565876
6634.00   2.74152374   0.04642907
6636.00   2.91306758   0.04769870
6638.00   3.01494575   0.04851261
6640.00   3.12114120   0.04891893
6642.00   3.21001172   0.04866241
6644.00   3.19857621   0.04764616
6646.00   2.99131870   0.04615957
6648.00   2.83419704   0.04493558
6650.00   2.79625893   0.04440970
6652.00   2.82906604   0.04451023
6654.00   2.88133264   0.04498858
6656.00   2.94607997   0.04551398
6658.00   2.97858739   0.04598072
6660.00   2.98806572   0.04641754
6662.00   3.00517273   0.04663616
6664.00   3.03799748   0.04637647
6666.00   3.02301335   0.04598084
6668.00   2.93385506   0.04531405
6670.00   2.85213089   0.04466252
6672.00   2.82164693   0.04427021
6674.00   2.84110570   0.04429299
6676.00   2.79483795   0.04400919
6678.00   2.76648068   0.04382546
6680.00   2.77922940   0.04386408
6682.00   2.81777382   0.04403047
6684.00   2.80582738   0.04397729
6686.00   2.79790139   0.04398435
6688.00   2.78678632   0.04388899
6690.00   2.78037286   0.04377308
6692.00   2.77650642   0.04372990
6694.00   2.76811528   0.04377874
6696.00   2.73946309   0.04361467
6698.00   2.73086572   0.04359453
6700.00   2.73410630   0.04361511
6702.00   2.73153186   0.04356308
6704.00   2.73965168   0.04367283
6706.00   2.75596046   0.04386423
6708.00   2.74690914   0.04388985
6710.00   2.73233795   0.04383068
6712.00   2.73796844   0.04381515
6714.00   2.75142097   0.04381918
6716.00   2.74748707   0.04366411
6718.00   2.73522949   0.04348736
6720.00   2.73340249   0.04343049
6722.00   2.75184989   0.04351961
6724.00   2.75741577   0.04347914
6726.00   2.75225616   0.04340248
6728.00   2.73849297   0.04331638
6730.00   2.71213746   0.04316944
6732.00   2.73715472   0.04331429
6734.00   2.76298237   0.04339781
6736.00   2.74990845   0.04329808
6738.00   2.70884633   0.04306586
6740.00   2.69389629   0.04299132
6742.00   2.69678426   0.04295540
6744.00   2.69235873   0.04286895
6746.00   2.66408634   0.04272168
6748.00   2.67160678   0.04277682
6750.00   2.72110176   0.04298718
6752.00   2.70221639   0.04285945
6754.00   2.66531968   0.04267509
6756.00   2.64718723   0.04260893
6758.00   2.63473630   0.04255657
6760.00   2.61485553   0.04238121
6762.00   2.63514495   0.04237847
6764.00   2.63137531   0.04238003
6766.00   2.63151932   0.04239640
6768.00   2.63596058   0.04234968
6770.00   2.61669564   0.04219604
6772.00   2.59777999   0.04217680
6774.00   2.58412933   0.04210392
6776.00   2.57271647   0.04203959
6778.00   2.56573486   0.04204999
6780.00   2.59541059   0.04205801
6782.00   2.60852337   0.04206537
6784.00   2.57337737   0.04188159
6786.00   2.54175735   0.04184747
6788.00   2.56456971   0.04209320
6790.00   2.56519151   0.04214501
6792.00   2.60163260   0.04237432
6794.00   2.59228110   0.04235262
6796.00   2.58131313   0.04225225
6798.00   2.58770275   0.04212235
6800.00   2.56840897   0.04196025
6802.00   2.54727530   0.04192005
6804.00   2.53564048   0.04187753
6806.00   2.52830529   0.04183880
6808.00   2.51379275   0.04181456
6810.00   2.50557637   0.04170461
6812.00   2.52495313   0.04174529
6814.00   2.52875924   0.04170322
6816.00   2.52190185   0.04158358
6818.00   2.52704167   0.04155472
6820.00   2.51658654   0.04139982
6822.00   2.50054693   0.04133240
6824.00   2.48936367   0.04142406
6826.00   2.47369099   0.04152839
6828.00   2.47761273   0.04170601
6830.00   2.47219014   0.04198587
6832.00   2.46374035   0.04207482
6834.00   2.44884706   0.04189534
6836.00   2.45407701   0.04164405
6838.00   2.47094250   0.04173189
6840.00   2.45446754   0.04144189
6842.00   2.41994572   0.04100506
6844.00   2.41230679   0.04077159
6846.00   2.46070766   0.04088964
6848.00   2.43533134   0.04082383
6850.00   2.48559237   0.04102408
6852.00   2.47912312   0.04096540
6854.00   2.43992734   0.04082052
6856.00   2.45732498   0.04095744
6858.00   2.41617131   0.04098461
6860.00   2.42611909   0.04158595
6862.00   2.43349552   0.04231746
6864.00   2.43773556   0.04317291
6866.00   2.45903397   0.04438127
6868.00   2.42984462   0.04520342
6870.00   2.37553382   0.04605668
6872.00   2.35188460   0.04688466
6874.00   2.37071490   0.04713634
6876.00   2.37420797   0.04588372
6878.00   2.40112758   0.04471885
6880.00   2.39056039   0.04376437
6882.00   2.38091540   0.04299994
6884.00   2.39087224   0.04235328
6886.00   2.39645886   0.04222268
6888.00   2.35357404   0.04223770
6890.00   2.34282970   0.04233621
6892.00   2.36393857   0.04247094
6894.00   2.37367535   0.04242030
6896.00   2.33501124   0.04213972
6898.00   2.34696198   0.04200816
6900.00   2.35523796   0.04181334
6902.00   2.34893727   0.04161647
6904.00   2.32440782   0.04140010
6906.00   2.31144834   0.04117669
6908.00   2.30459595   0.04096034
6910.00   2.31046557   0.04087060
6912.00   2.32014108   0.04083517
6914.00   2.30296731   0.04055846
6916.00   2.27229571   0.04025983
6918.00   2.25721574   0.04009401
6920.00   2.27202034   0.04012469
6922.00   2.29380298   0.04017604
6924.00   2.29434323   0.04000584
6926.00   2.25552106   0.03978949
6928.00   2.24939203   0.03964551
6930.00   2.24646187   0.03938070
6932.00   2.23701215   0.03899882
6934.00   2.18140912   0.03855595
6936.00   2.16287160   0.03822855
6938.00   2.17590117   0.03830680
6940.00   2.18500328   0.03844929
6942.00   2.15078950   0.03828786
6944.00   2.14056754   0.03847642
6946.00   2.15294337   0.03865481
6948.00   2.14852810   0.03863179
6950.00   2.14645672   0.03854952
6952.00   2.17319369   0.03862387
6954.00   2.20232487   0.03860148
6956.00   2.17920995   0.03833740
6958.00   2.15470314   0.03805480
6960.00   2.14679050   0.03791043
6962.00   2.14639926   0.03792878
6964.00   2.14941406   0.03803951
6966.00   2.17300534   0.03820385
6968.00   2.19277501   0.03830698
6970.00   2.19747567   0.03830513
6972.00   2.18638444   0.03822050
6974.00   2.19258285   0.03831201
6976.00   2.22382331   0.03861980
6978.00   2.23435760   0.03874144
6980.00   2.18990922   0.03841488
6982.00   2.16143656   0.03811276
6984.00   2.15663409   0.03794579
6986.00   2.13485670   0.03781107
6988.00   2.11238265   0.03775316
6990.00   2.10053039   0.03773289
6992.00   2.09063125   0.03751042
6994.00   2.08179164   0.03738676
6996.00   2.07882571   0.03733596
6998.00   2.08912730   0.03736855
7000.00   2.09564710   0.03741372
7002.00   2.10816956   0.03756882
7004.00   2.11412597   0.03754111
7006.00   2.10892487   0.03745105
7008.00   2.09088254   0.03739058
7010.00   2.08893132   0.03745759
7012.00   2.09588361   0.03743624
7014.00   2.07318926   0.03724405
7016.00   2.06133604   0.03716679
7018.00   2.07818174   0.03730594
7020.00   2.09870243   0.03737094
7022.00   2.08960032   0.03731271
7024.00   2.05254269   0.03704536
7026.00   2.02685547   0.03684529
7028.00   2.05303454   0.03695351
7030.00   2.09479332   0.03726604
7032.00   2.09297395   0.03729460
7034.00   2.10610914   0.03736947
7036.00   2.09704590   0.03731826
7038.00   2.03172946   0.03702946
7040.00   2.01744962   0.03693812
7042.00   2.03831315   0.03703842
7044.00   2.04692078   0.03710105
7046.00   2.03706098   0.03704710
7048.00   2.05114484   0.03704244
7050.00   2.04393029   0.03697045
7052.00   2.03727841   0.03697813
7054.00   2.01726913   0.03683256
7056.00   2.00411439   0.03664680
7058.00   2.01015210   0.03661741
7060.00   2.02251363   0.03681201
7062.00   2.00552988   0.03677094
7064.00   1.99212408   0.03667388
7066.00   1.99958575   0.03669697
7068.00   2.00361156   0.03678546
7070.00   2.02113605   0.03685359
7072.00   2.01177096   0.03671904
7074.00   2.00323892   0.03656222
7076.00   2.00671649   0.03655728
7078.00   2.01613688   0.03662542
7080.00   2.00358844   0.03667387
7082.00   1.99837911   0.03677944
7084.00   1.98543632   0.03671378
7086.00   1.97691381   0.03649387
7088.00   1.98755503   0.03651571
7090.00   2.01649165   0.03678435
7092.00   1.99366570   0.03672585
7094.00   1.96824026   0.03654062
7096.00   2.00129914   0.03661648
7098.00   1.99895632   0.03650911
7100.00   1.97032928   0.03624734
7102.00   1.96232069   0.03613957
7104.00   1.96303129   0.03613816
7106.00   1.95565665   0.03619490
7108.00   1.96552908   0.03624736
7110.00   2.00049376   0.03638390
7112.00   1.99870074   0.03645832
#7114.00   1.93409789   0.03635381
#7116.00   1.86887932   0.03602539
#7118.00   1.83344781   0.03543008
7120.00   1.98518491   0.03889814
7122.00   2.01086950   0.03878171
7124.00   2.02164817   0.03683574
7126.00   2.00501966   0.03162485
7128.00   1.98610640   0.03641520
#7130.00   1.85849130   0.03729326
7132.00   1.94563866   0.03626792
7134.00   1.94875717   0.03652357
7136.00   1.97460079   0.03645721
7138.00   1.96454179   0.03621617
7140.00   1.94005489   0.03602649
7142.00   1.91971481   0.03600679
7144.00   1.88771474   0.03592245
7146.00   1.90808594   0.03606077
7148.00   1.93971539   0.03619882
7150.00   1.95759737   0.03624482
7152.00   1.94479227   0.03611115
7154.00   1.92119372   0.03598468
7156.00   1.90530813   0.03578680
7158.00   1.89840829   0.03563526
7160.00   1.89454269   0.03555603
7162.00   1.89632380   0.03557066
7164.00   1.91168344   0.03570526
7166.00   1.89036095   0.03569833
7168.00   1.85306585   0.03556765
7170.00   1.81819904   0.03533269
7172.00   1.78999233   0.03510058
7174.00   1.73328173   0.03490249
7176.00   1.75017416   0.03504781
7178.00   1.76273966   0.03527718
7180.00   1.75394762   0.03535363
7182.00   1.72871447   0.03522194
7184.00   1.71338642   0.03511273
7186.00   1.71423674   0.03521472
7188.00   1.71418846   0.03535363
7190.00   1.70574749   0.03535018
7192.00   1.70543957   0.03524308
7194.00   1.70570219   0.03506221
7196.00   1.71291542   0.03516376
7198.00   1.73310816   0.03529536
7200.00   1.73256588   0.03516508
7202.00   1.68841302   0.03478654
7204.00   1.70002806   0.03528639
7206.00   1.74436474   0.03628219
7208.00   1.78241110   0.03699353
7210.00   1.80063915   0.03688702
7212.00   1.83579934   0.03610964
7214.00   1.82367146   0.03638525
7216.00   1.82367122   0.03732909
7218.00   1.85080326   0.03804665
7220.00   1.87208617   0.03774944
7222.00   1.86603224   0.03732946
7224.00   1.85806990   0.03677149
7226.00   1.85606110   0.03634093
7228.00   1.84493732   0.03601008
7230.00   1.81775415   0.03550446
7232.00   1.78490722   0.03518750
7234.00   1.78890836   0.03576213
7236.00   1.78901196   0.03659400
7238.00   1.77915537   0.03726321
7240.00   1.75420618   0.03757501
7242.00   1.74465895   0.03797021
7244.00   1.74398863   0.03810856
7246.00   1.75852430   0.03787516
7248.00   1.77810419   0.03733595
7250.00   1.74208105   0.03643407
7252.00   1.73044312   0.03571353
7254.00   1.75208569   0.03554261
7256.00   1.77715433   0.03557894
7258.00   1.77637208   0.03543296
7260.00   1.77045190   0.03518408
7262.00   1.78510702   0.03517207
7264.00   1.77213633   0.03510967
7266.00   1.75805914   0.03508282
7268.00   1.77172816   0.03526184
7270.00   1.79542351   0.03578334
7272.00   1.79125464   0.03648066
7274.00   1.77558708   0.03698199
7276.00   1.74370241   0.03718607
7278.00   1.70434380   0.03725995
7280.00   1.74196100   0.03752789
7282.00   1.78587246   0.03732069
7284.00   1.81225073   0.03685216
7286.00   1.81557524   0.03633717
7288.00   1.77904189   0.03586736
7290.00   1.76922405   0.03555686
7292.00   1.74534976   0.03526781
7294.00   1.74131095   0.03510128
7296.00   1.75558841   0.03512209
7298.00   1.73353863   0.03520277
7300.00   1.74822462   0.03531994
7302.00   1.78288877   0.03550348
7304.00   1.80246305   0.03568546
7306.00   1.78159988   0.03567649
7308.00   1.76203692   0.03533943
7310.00   1.75232267   0.03541918
7312.00   1.74232519   0.03597868
7314.00   1.74976838   0.03659405
7316.00   1.77908766   0.03690143
7318.00   1.82459962   0.03727576
7320.00   1.82359922   0.03712221
7322.00   1.82356918   0.03651511
7324.00   1.83156621   0.03587205
7326.00   1.82676756   0.03572702
7328.00   1.81802690   0.03587214
7330.00   1.78723061   0.03559976
7332.00   1.75805771   0.03528169
7334.00   1.75393963   0.03539664
7336.00   1.77353609   0.03599241
7338.00   1.75354612   0.03638610
7340.00   1.76887453   0.03667819
7342.00   1.78615439   0.03688405
7344.00   1.78983784   0.03689566
7346.00   1.77639472   0.03637559
7348.00   1.78138959   0.03559374
7350.00   1.79817808   0.03517380
7352.00   1.79382908   0.03505614
7354.00   1.75924599   0.03503177
7356.00   1.73052275   0.03507429
7358.00   1.74583089   0.03516720
7360.00   1.74999249   0.03511252
7362.00   1.73779869   0.03511520
7364.00   1.74643278   0.03540947
7366.00   1.74441350   0.03574845
7368.00   1.73301375   0.03581506
7370.00   1.70894063   0.03569392
7372.00   1.70848656   0.03555606
7374.00   1.73906934   0.03542332
7376.00   1.72186756   0.03481325
7378.00   1.70481741   0.03428730
7380.00   1.69038785   0.03408477
7382.00   1.69549692   0.03418117
7384.00   1.72285748   0.03439574
7386.00   1.70002139   0.03425784
7388.00   1.69997215   0.03444963
7390.00   1.71815586   0.03476939
7392.00   1.74645185   0.03505508
7394.00   1.74073827   0.03505540
7396.00   1.68628168   0.03485738
7398.00   1.68356895   0.03498228
7400.00   1.70785391   0.03522970
7402.00   1.71756172   0.03533396
7404.00   1.68808401   0.03503671
7406.00   1.71100986   0.03513708
7408.00   1.70683968   0.03485905
7410.00   1.68400908   0.03432923
7412.00   1.68612850   0.03406331
7414.00   1.68918848   0.03404300
7416.00   1.66153562   0.03388445
7418.00   1.64834118   0.03386099
7420.00   1.65779269   0.03393492
7422.00   1.67096460   0.03397971
7424.00   1.66253531   0.03394650
7426.00   1.66077518   0.03407181
7428.00   1.67442906   0.03420455
7430.00   1.69154966   0.03428792
7432.00   1.68992960   0.03434158
7434.00   1.69387865   0.03448863
7436.00   1.68369067   0.03452421
7438.00   1.65809059   0.03438503
7440.00   1.61377895   0.03408174
7442.00   1.58353579   0.03388718
7444.00   1.59917653   0.03379142
7446.00   1.62767327   0.03374971
7448.00   1.62972510   0.03364589
7450.00   1.61210597   0.03357355
7452.00   1.60531437   0.03355242
7454.00   1.63157475   0.03374780
7456.00   1.65267050   0.03389543
7458.00   1.64651525   0.03389943
7460.00   1.61644161   0.03382865
7462.00   1.60929549   0.03397196
7464.00   1.62264204   0.03411287
7466.00   1.61878121   0.03417812
7468.00   1.59905720   0.03419743
7470.00   1.59463918   0.03431934
7472.00   1.62278032   0.03441572
7474.00   1.63172829   0.03445667
7476.00   1.61901820   0.03447797
7478.00   1.59943485   0.03454765
7480.00   1.57963908   0.03453021
7482.00   1.58202016   0.03449671
7484.00   1.60023069   0.03446884
7486.00   1.59749413   0.03432131
7488.00   1.57858932   0.03405878
7490.00   1.59242857   0.03384335
7492.00   1.60489321   0.03374517
7494.00   1.59177685   0.03364344
7496.00   1.56206608   0.03346513
7498.00   1.53844130   0.03324327
7500.00   1.53943396   0.03326777
7502.00   1.55680597   0.03330818
7504.00   1.56717205   0.03329374
7506.00   1.57010412   0.03326130
7508.00   1.56225443   0.03321281
7510.00   1.54087007   0.03310944
7512.00   1.53711081   0.03316149
7514.00   1.53348398   0.03316256
7516.00   1.53448379   0.03323479
7518.00   1.55023921   0.03372535
7520.00   1.54376888   0.03453639
7522.00   1.52716112   0.03496641
7524.00   1.52123797   0.03511305
7526.00   1.53188944   0.03519690
7528.00   1.52374983   0.03514954
7530.00   1.50539684   0.03445717
7532.00   1.49414158   0.03377064
7534.00   1.49105251   0.03339548
7536.00   1.50035095   0.03334102
7538.00   1.49411428   0.03316358
7540.00   1.51161253   0.03317166
7542.00   1.50166130   0.03304958
7544.00   1.47787893   0.03284817
7546.00   1.46228373   0.03264367
7548.00   1.48336124   0.03272340
7550.00   1.49383152   0.03282623
7552.00   1.48106825   0.03287734
7554.00   1.46223629   0.03289198
7556.00   1.46676922   0.03304391
7558.00   1.44152677   0.03321438
7560.00   1.45761931   0.03347564
7562.00   1.45724773   0.03335566
7564.00   1.45047891   0.03323339
7566.00   1.46381009   0.03354481
7568.00   1.48149359   0.03425635
7570.00   1.47707713   0.03461625
7572.00   1.45494509   0.03466527
7574.00   1.43590939   0.03451697
7576.00   1.43133163   0.03429886
7578.00   1.43221104   0.03366019
7580.00   1.43782723   0.03322307
7582.00   1.44289446   0.03320700
7584.00   1.45824826   0.03354297
7586.00   1.46264350   0.03375953
7588.00   1.49179494   0.03446799
7590.00   1.48044586   0.03535218
7592.00   1.47701871   0.03684586
7594.00   1.48241556   0.03920682
7596.00   1.45146573   0.04292896
7598.00   1.44109476   0.04935672
7600.00   1.43237877   0.05699250
7602.00   1.43732297   0.06362816
7604.00   1.42489052   0.06737701
7606.00   1.42561018   0.06744575
7608.00   1.41978514   0.06495133
7610.00   1.40412426   0.06008277
7612.00   1.40094888   0.05424426
7614.00   1.42943728   0.04957856
7616.00   1.45527124   0.04661136
7618.00   1.49649143   0.04354431
7620.00   1.48930180   0.04138826
7622.00   1.46676004   0.04128304
7624.00   1.47590387   0.04332637
7626.00   1.48530233   0.04659545
7628.00   1.46577263   0.04850711
7630.00   1.44604599   0.04867646
7632.00   1.43545675   0.04767892
7634.00   1.45084190   0.04693322
7636.00   1.43892443   0.04561894
7638.00   1.44940460   0.04482989
7640.00   1.44734728   0.04413180
7642.00   1.45531929   0.04336963
7644.00   1.49446428   0.04282625
7646.00   1.47948694   0.04185791
7648.00   1.46866858   0.04096471
7650.00   1.49003744   0.04040175
7652.00   1.49475729   0.03980925
7654.00   1.46981537   0.03907096
7656.00   1.45696831   0.03868268
7658.00   1.45189762   0.03839392
7660.00   1.44153273   0.03796818
7662.00   1.43869293   0.03752446
7664.00   1.46082211   0.03719983
7666.00   1.46031082   0.03674741
7668.00   1.44872761   0.03614875
7670.00   1.45469475   0.03557231
7672.00   1.46526539   0.03510714
7674.00   1.45467997   0.03472665
7676.00   1.45626318   0.03467992
7678.00   1.43922198   0.03454064
7680.00   1.41862285   0.03433585
7682.00   1.43712389   0.03432806
7684.00   1.43046379   0.03426704
7686.00   1.42661476   0.03430042
7688.00   1.43255293   0.03430863
7690.00   1.43564045   0.03420261
7692.00   1.43269539   0.03423921
7694.00   1.44432223   0.03421702
7696.00   1.44893491   0.03420114
7698.00   1.45036852   0.03419683
7700.00   1.43483865   0.03418654
7702.00   1.43889463   0.03419596
7704.00   1.43814790   0.03402180
7706.00   1.44092464   0.03408333
7708.00   1.44282186   0.03458882
7710.00   1.45788634   0.03552892
7712.00   1.46152055   0.03659470
7714.00   1.47649205   0.03765576
7716.00   1.47840440   0.03800068
7718.00   1.45735347   0.03744705
7720.00   1.45862198   0.03658756
7722.00   1.46668422   0.03590069
7724.00   1.46099532   0.03497103
7726.00   1.45962012   0.03430966
7728.00   1.46532309   0.03411042
7730.00   1.46496570   0.03402150
7732.00   1.45947266   0.03384155
7734.00   1.46993959   0.03367652
7736.00   1.47688997   0.03368631
7738.00   1.44898331   0.03370069
7740.00   1.45665014   0.03364824
7742.00   1.45311391   0.03354603
7744.00   1.45994198   0.03415045
7746.00   1.46590960   0.03519664
7748.00   1.45067871   0.03596416
7750.00   1.42399657   0.03603981
7752.00   1.43207502   0.03611780
7754.00   1.44137108   0.03606845
7756.00   1.44785547   0.03566759
7758.00   1.44998872   0.03474932
7760.00   1.48730028   0.03418456
7762.00   1.47627652   0.03386143
7764.00   1.46815836   0.03365283
7766.00   1.46711099   0.03335798
7768.00   1.45057380   0.03301759
7770.00   1.48406374   0.03332501
7772.00   1.51563203   0.03372213
7774.00   1.52186155   0.03398149
7776.00   1.52732551   0.03415463
7778.00   1.54134429   0.03427900
7780.00   1.51668882   0.03398721
7782.00   1.52745247   0.03395961
7784.00   1.53753626   0.03393450
7786.00   1.51324308   0.03371187
7788.00   1.50268078   0.03384743
7790.00   1.51469767   0.03477700
7792.00   1.49961483   0.03545727
7794.00   1.47187471   0.03562386
7796.00   1.47723901   0.03548525
7798.00   1.51297808   0.03519619
7800.00   1.55028212   0.03447869
7802.00   1.55814540   0.03391142
7804.00   1.54690111   0.03385644
7806.00   1.52807677   0.03401718
7808.00   1.55928457   0.03428733
7810.00   1.57890701   0.03454351
7812.00   1.57506561   0.03447641
7814.00   1.56271303   0.03424649
7816.00   1.56682742   0.03461458
7818.00   1.57702243   0.03556656
7820.00   1.57989120   0.03626091
7822.00   1.58709395   0.03655835
7824.00   1.59378767   0.03645937
7826.00   1.59820783   0.03594380
7828.00   1.59750402   0.03495799
7830.00   1.61265278   0.03423564
7832.00   1.62542284   0.03399669
7834.00   1.64153767   0.03416368
7836.00   1.62029982   0.03417062
7838.00   1.61194384   0.03436774
7840.00   1.60477352   0.03455606
7842.00   1.61198771   0.03473367
7844.00   1.62437809   0.03486641
7846.00   1.64923239   0.03515783
7848.00   1.63026869   0.03583953
7850.00   1.63531673   0.03681066
7852.00   1.66107333   0.03752697
7854.00   1.67230511   0.03764866
7856.00   1.65624809   0.03788266
7858.00   1.64471722   0.03749983
7860.00   1.64215815   0.03653853
7862.00   1.65023124   0.03565944
7864.00   1.66935873   0.03591033
7866.00   1.67448175   0.03641892
7868.00   1.67775810   0.03656081
7870.00   1.67733586   0.03647607
7872.00   1.67782354   0.03643306
7874.00   1.68488371   0.03656164
7876.00   1.68672454   0.03632440
7878.00   1.67166388   0.03591825
7880.00   1.65998042   0.03563936
7882.00   1.68639278   0.03576988
7884.00   1.71409833   0.03613220
7886.00   1.71113861   0.03633067
7888.00   1.70216191   0.03635428
7890.00   1.68508375   0.03629170
7892.00   1.67192829   0.03624660
7894.00   1.71981239   0.03605335
7896.00   1.70187187   0.03535551
7898.00   1.68167341   0.03481297
7900.00   1.69563544   0.03473154
7902.00   1.71483386   0.03493889
7904.00   1.68277204   0.03470470
7906.00   1.68927193   0.03512548
7908.00   1.71752930   0.03657920
7910.00   1.74077237   0.03852638
7912.00   1.70757854   0.03962000
7914.00   1.70296514   0.03987126
7916.00   1.72433722   0.04020286
7918.00   1.74794996   0.04001234
7920.00   1.76009524   0.03890337
7922.00   1.72922504   0.03757705
7924.00   1.73361528   0.03682374
7926.00   1.74411905   0.03644406
7928.00   1.73172748   0.03613685
7930.00   1.70795500   0.03597998
7932.00   1.72017860   0.03620758
7934.00   1.73777211   0.03624139
7936.00   1.74894607   0.03602299
7938.00   1.74605262   0.03562412
7940.00   1.76031482   0.03534778
7942.00   1.76908493   0.03534874
7944.00   1.76385510   0.03573878
7946.00   1.75345862   0.03612237
7948.00   1.73475158   0.03625952
7950.00   1.73487282   0.03619830
7952.00   1.77788734   0.03632876
7954.00   1.77344811   0.03604198
7956.00   1.73770905   0.03560932
7958.00   1.71000636   0.03568778
7960.00   1.71148288   0.03696576
7962.00   1.74232113   0.03819201
7964.00   1.74199355   0.03859383
7966.00   1.72919714   0.03854867
7968.00   1.74042082   0.03831016
7970.00   1.77101421   0.03725179
7972.00   1.75338650   0.03611241
7974.00   1.76654196   0.03600143
7976.00   1.79473734   0.03648953
7978.00   1.78497314   0.03674003
7980.00   1.72664273   0.03648077
7982.00   1.75190103   0.03658430
7984.00   1.76830006   0.03638773
7986.00   1.77349567   0.03623830
7988.00   1.80604947   0.03697223
7990.00   1.79683769   0.03842480
7992.00   1.78616560   0.03920976
7994.00   1.76464224   0.03917536
7996.00   1.75105989   0.03857166
7998.00   1.75742006   0.03779997
8000.00   1.74413824   0.03624134
8002.00   1.75082445   0.03544697
8004.00   1.75794411   0.03525585
8006.00   1.75411844   0.03530863
8008.00   1.74893844   0.03536527
8010.00   1.76433754   0.03565919
8012.00   1.75709903   0.03582438
8014.00   1.75182593   0.03597913
8016.00   1.76080072   0.03616807
8018.00   1.75506687   0.03611324
8020.00   1.75159693   0.03643853
8022.00   1.74567127   0.03705743
8024.00   1.74096298   0.03760250
8026.00   1.74400222   0.03781341
8028.00   1.75572300   0.03785461
8030.00   1.76087856   0.03735727
8032.00   1.74773824   0.03635189
8034.00   1.74193823   0.03545560
8036.00   1.75577295   0.03528895
8038.00   1.74685657   0.03525039
8040.00   1.73315704   0.03508502
8042.00   1.74181235   0.03509727
8044.00   1.75785208   0.03532461
8046.00   1.73150635   0.03545442
8048.00   1.73146975   0.03560883
8050.00   1.76153862   0.03586831
8052.00   1.78812230   0.03608502
8054.00   1.78989232   0.03618828
8056.00   1.76994705   0.03624338
8058.00   1.75485337   0.03638685
8060.00   1.75504529   0.03653817
8062.00   1.75986052   0.03666347
8064.00   1.75699985   0.03671356
8066.00   1.74251449   0.03651426
8068.00   1.73017657   0.03598091
8070.00   1.73967135   0.03562708
8072.00   1.74823344   0.03548978
8074.00   1.73431122   0.03536687
8076.00   1.74916780   0.03539211
8078.00   1.73987293   0.03540276
8080.00   1.70445335   0.03530436
8082.00   1.68067610   0.03516860
8084.00   1.70663607   0.03520814
8086.00   1.68666208   0.03494577
8088.00   1.69430244   0.03508918
8090.00   1.69826639   0.03532137
8092.00   1.71318567   0.03549731
8094.00   1.73344421   0.03554188
8096.00   1.69464576   0.03528910
8098.00   1.69259918   0.03540764
8100.00   1.70328224   0.03555486
8102.00   1.71266890   0.03562960
8104.00   1.69644320   0.03566424
8106.00   1.67377615   0.03552334
8108.00   1.64619839   0.03510195
8110.00   1.64755118   0.03488661
8112.00   1.68141019   0.03509523
8114.00   1.66908777   0.03501354
8116.00   1.65648270   0.03503400
8118.00   1.68200243   0.03515714
8120.00   1.68120205   0.03505537
8122.00   1.62810576   0.03478907
8124.00   1.62816417   0.03483824
8126.00   1.64209783   0.03489172
8128.00   1.63026810   0.03481364
8130.00   1.61436713   0.03477785
8132.00   1.60663950   0.03477708
8134.00   1.59377480   0.03483569
8136.00   1.58731568   0.03484348
8138.00   1.58605802   0.03484572
8140.00   1.59889090   0.03497301
8142.00   1.60532522   0.03526403
8144.00   1.58578527   0.03522933
8146.00   1.56016636   0.03491864
8148.00   1.54586124   0.03485417
8150.00   1.54232347   0.03501132
8152.00   1.52887595   0.03491680
8154.00   1.53866017   0.03483591
8156.00   1.55019569   0.03488365
8158.00   1.55518281   0.03501255
8160.00   1.55165160   0.03504146
8162.00   1.54039192   0.03504825
8164.00   1.50774765   0.03510369
8166.00   1.50266707   0.03516039
8168.00   1.54438066   0.03532098
8170.00   1.62363815   0.03563530
8172.00   1.64695895   0.03584113
8174.00   1.61798143   0.03580450
8176.00   1.59347808   0.03593412
8178.00   1.58046782   0.03635998
8180.00   1.57529402   0.03703445
8182.00   1.55655134   0.03718803
8184.00   1.61038840   0.03749857
8186.00   1.64760935   0.03765429
8188.00   1.63793278   0.03770840
8190.00   1.59880579   0.03772283
8192.00   1.59016049   0.03814019
8194.00   1.61245203   0.03843009
8196.00   1.64332879   0.03841767
8198.00   1.65187836   0.03803943
8200.00   1.61885250   0.03751006
8202.00   1.64635706   0.04345051
8204.00   1.66230989   0.03652849
8206.00   1.69790876   0.04315064
8208.00   1.72719896   0.03814488
8210.00   1.73120117   0.03655854
8212.00   1.71234000   0.03631621
8214.00   1.70641613   0.03623452
8216.00   1.69864213   0.03601019
8218.00   1.68448782   0.03598243
8220.00   1.70617628   0.03621409
8222.00   1.69969428   0.03660775
8224.00   1.63407040   0.03664159
8226.00   1.53561246   0.03634658
8228.00   1.45793974   0.03603221
8230.00   1.44810045   0.03614585
8232.00   1.48022068   0.03631410
8234.00   1.54076540   0.03638560
8236.00   1.60459149   0.03638075
8238.00   1.65540540   0.03643450
8240.00   1.65496910   0.03629253
8242.00   1.63910329   0.03605221
8244.00   1.63177550   0.03601007
8246.00   1.64099264   0.03614302
8248.00   1.66345203   0.03610815
8250.00   1.68555653   0.03615717
8252.00   1.69008934   0.03635120
8254.00   1.66192877   0.03640383
8256.00   1.62643397   0.03625317
8258.00   1.60366476   0.03614523
8260.00   1.60667038   0.03605908
8262.00   1.60322249   0.03598263
8264.00   1.60043657   0.03600191
8266.00   1.60361564   0.03607773
8268.00   1.60339689   0.03601894
8270.00   1.60302770   0.03606603
8272.00   1.57282531   0.03608537
8274.00   1.52504599   0.03622451
8276.00   1.49445903   0.03675469
8278.00   1.46965301   0.03740407
8280.00   1.44858229   0.03769432
8282.00   1.46865809   0.03838136
8284.00   1.49417341   0.03924007
8286.00   1.48154914   0.03931670
8288.00   1.47295821   0.03867587
8290.00   1.47973192   0.03848905
8292.00   1.45354068   0.03845726
8294.00   1.40514803   0.03836069
8296.00   1.39814270   0.03829919
8298.00   1.41329849   0.03828641
8300.00   1.42480516   0.03827947
8302.00   1.42989409   0.03783912
8304.00   1.43510354   0.03685564
8306.00   1.40709341   0.03563434
8308.00   1.39306164   0.03524305
8310.00   1.41979825   0.03542353
8312.00   1.45049036   0.03555963
8314.00   1.43925333   0.03529303
8316.00   1.38923228   0.03482008
8318.00   1.38478279   0.03465667
8320.00   1.39752960   0.03464403
8322.00   1.41022146   0.03465277
8324.00   1.42991769   0.03471599
8326.00   1.47593832   0.03504924
8328.00   1.50242174   0.03525974
8330.00   1.48421526   0.03512083
8332.00   1.46109354   0.03482291
8334.00   1.46360624   0.03469420
8336.00   1.46118271   0.03470286
8338.00   1.48843825   0.03658667
8340.00   1.49260485   0.03962438
8342.00   1.46875346   0.04205811
8344.00   1.48768437   0.04242175
8346.00   1.54319012   0.04298678
8348.00   1.55135453   0.04274229
8350.00   1.53610420   0.04105406
8352.00   1.54258025   0.03852288
8354.00   1.56802523   0.03753762
8356.00   1.55420935   0.03713089
8358.00   1.54049671   0.03653307
8360.00   1.54131353   0.03586626
8362.00   1.55728531   0.03566693
8364.00   1.59869039   0.03597685
8366.00   1.62039375   0.03606762
8368.00   1.62366521   0.03594336
8370.00   1.61477220   0.03555863
8372.00   1.59790897   0.03495872
8374.00   1.62793386   0.03498511
8376.00   1.61906040   0.03536260
8378.00   1.57447231   0.03579840
8380.00   1.55674553   0.03627793
8382.00   1.61140490   0.03687876
8384.00   1.62819064   0.03679519
8386.00   1.62155688   0.03630954
8388.00   1.61598217   0.03554017
8390.00   1.61251509   0.03485692
8392.00   1.60911500   0.03506053
8394.00   1.61153972   0.03705039
8396.00   1.59405863   0.03886433
8398.00   1.57996476   0.03980722
8400.00   1.58771670   0.03986778
8402.00   1.55872977   0.03928538
8404.00   1.54970920   0.03744150
8406.00   1.57806265   0.03554064
8408.00   1.60773432   0.03460679
8410.00   1.58469915   0.03488484
8412.00   1.57225752   0.03547018
8414.00   1.55644560   0.03563477
8416.00   1.53389704   0.03561922
8418.00   1.51677263   0.03546420
8420.00   1.52540350   0.03505703
8422.00   1.55029166   0.03452445
8424.00   1.57022774   0.03563854
8426.00   1.57237780   0.03770044
8428.00   1.56185758   0.03941961
8430.00   1.55872476   0.03969136
8432.00   1.53929651   0.03955191
8434.00   1.53470230   0.03842857
8436.00   1.53644407   0.03638477
8438.00   1.55067813   0.03431619
8440.00   1.56594694   0.03372029
8442.00   1.53812027   0.03364914
8444.00   1.53940618   0.03390424
8446.00   1.56049311   0.03441541
8448.00   1.58941829   0.03512130
8450.00   1.61245775   0.03582083
8452.00   1.59777510   0.03585811
8454.00   1.58436668   0.03562155
8456.00   1.59828281   0.03537469
8458.00   1.63537693   0.03535675
8460.00   1.63183439   0.03603103
8462.00   1.62885010   0.03746543
8464.00   1.63074744   0.03833227
8466.00   1.63295043   0.03842279
8468.00   1.65402031   0.03824539
8470.00   1.67781579   0.03734029
8472.00   1.68280065   0.03581068
8474.00   1.66710961   0.03466937
8476.00   1.65841293   0.03441915
8478.00   1.67376339   0.03463168
8480.00   1.68644392   0.03448046
8482.00   1.67633045   0.03431859
8484.00   1.65369093   0.03421113
8486.00   1.64580214   0.03424116
8488.00   1.66996050   0.03478171
8490.00   1.69552004   0.03527297
8492.00   1.72029197   0.03560658
8494.00   1.71702254   0.03570911
8496.00   1.69795072   0.03578816
8498.00   1.66751134   0.03562099
8500.00   1.68893588   0.03610459
8502.00   1.72410166   0.03669139
8504.00   1.73573983   0.03696756
8506.00   1.70339584   0.03675187
8508.00   1.69222975   0.03657405
8510.00   1.70063889   0.03590019
8512.00   1.71303618   0.03513088
8514.00   1.72694361   0.03476705
8516.00   1.74281824   0.03486876
8518.00   1.72256625   0.03477780
8520.00   1.71339810   0.03465317
8522.00   1.72639501   0.03477601
8524.00   1.72990954   0.03485621
8526.00   1.74022591   0.03476908
8528.00   1.72688913   0.03466417
8530.00   1.71537304   0.03455730
8532.00   1.70772779   0.03450103
8534.00   1.70072567   0.03459248
8536.00   1.69610834   0.03479227
8538.00   1.70050430   0.03490104
8540.00   1.71630228   0.03498768
8542.00   1.72808456   0.03510599
8544.00   1.73390043   0.03528761
8546.00   1.73447835   0.03542516
8548.00   1.73526001   0.03554447
8550.00   1.75109673   0.03564448
8552.00   1.76380670   0.03556165
8554.00   1.75527751   0.03521459
8556.00   1.75154495   0.03486041
8558.00   1.74750865   0.03459939
8560.00   1.75318110   0.03456089
8562.00   1.75469112   0.03460934
8564.00   1.72791541   0.03452329
8566.00   1.70450068   0.03436705
8568.00   1.73635769   0.03457567
8570.00   1.76191366   0.03474116
8572.00   1.75832069   0.03474405
8574.00   1.77039468   0.03479597
8576.00   1.77853298   0.03494620
8578.00   1.77497423   0.03489298
8580.00   1.76251996   0.03473162
8582.00   1.75829923   0.03465587
8584.00   1.76320493   0.03474875
8586.00   1.75741112   0.03481377
8588.00   1.75589037   0.03487955
8590.00   1.76130784   0.03488397
8592.00   1.75320065   0.03475277
8594.00   1.73158634   0.03459835
8596.00   1.70879614   0.03446912
8598.00   1.68577302   0.03436688
8600.00   1.69065630   0.03437534
8602.00   1.71126783   0.03433462
8604.00   1.72836161   0.03442722
8606.00   1.75315630   0.03453347
8608.00   1.76225126   0.03463608
8610.00   1.74080813   0.03468734
8612.00   1.74028730   0.03485121
8614.00   1.74509144   0.03509243
8616.00   1.74194527   0.03533944
8618.00   1.72587824   0.03558997
8620.00   1.71034896   0.03590945
8622.00   1.71965849   0.03635667
8624.00   1.72535038   0.03679797
8626.00   1.73276043   0.03772018
8628.00   1.73155785   0.03818035
8630.00   1.70820522   0.03737913
8632.00   1.74274743   0.03893463
8634.00   1.71929896   0.03754107
8636.00   1.69749260   0.03588454
8638.00   1.68238223   0.03525845
8640.00   1.62937212   0.03457707
8642.00   1.61070931   0.03401428
8644.00   1.62842762   0.03403270
8646.00   1.65139258   0.03439266
8648.00   1.66729438   0.03487885
8650.00   1.66408348   0.03534171
8652.00   1.65298641   0.03585112
8654.00   1.63940871   0.03627266
8656.00   1.65282571   0.03655230
8658.00   1.68690825   0.03674420
8660.00   1.71559715   0.03691955
8662.00   1.70861328   0.03692930
8664.00   1.70717239   0.03686333
8666.00   1.71012080   0.03667432
8668.00   1.70622385   0.03640241
8670.00   1.71782172   0.03623232
8672.00   1.74648511   0.03614340
8674.00   1.73271024   0.03579971
8676.00   1.70189989   0.03539789
8678.00   1.69338095   0.03516638
8680.00   1.70092618   0.03509377
8682.00   1.70547771   0.03492967
8684.00   1.69717658   0.03470026
8686.00   1.68111372   0.03451148
8688.00   1.66930151   0.03440331
8690.00   1.70393598   0.03451218
8692.00   1.70268047   0.03437901
8694.00   1.69252622   0.03425459
8696.00   1.67362404   0.03412282
8698.00   1.66506016   0.03409347
8700.00   1.65395606   0.03402551
8702.00   1.65543020   0.03409406
8704.00   1.67283618   0.03419312
8706.00   1.70655549   0.03430414
8708.00   1.71645987   0.03423903
8710.00   1.69129527   0.03407812
8712.00   1.67713785   0.03399064
8714.00   1.67871714   0.03393034
8716.00   1.68271387   0.03383077
8718.00   1.67500627   0.03373149
8720.00   1.66056108   0.03369503
8722.00   1.67000759   0.03374470
8724.00   1.68528903   0.03383532
8726.00   1.67296362   0.03382533
8728.00   1.66373432   0.03380098
8730.00   1.66557693   0.03385590
8732.00   1.68299866   0.03393331
8734.00   1.69582462   0.03398021
8736.00   1.68901443   0.03397816
8738.00   1.68070698   0.03390780
8740.00   1.71032989   0.03405685
8742.00   1.71560729   0.03414612
8744.00   1.68442619   0.03397462
8746.00   1.65601099   0.03370920
8748.00   1.66195929   0.03365523
8750.00   1.67327940   0.03365738
8752.00   1.66810548   0.03378187
8754.00   1.64432037   0.03419215
8756.00   1.62273884   0.03509165
8758.00   1.64320004   0.03647662
8760.00   1.64758432   0.03763030
8762.00   1.61757410   0.03881574
8764.00   1.58243096   0.03977972
8766.00   1.58370209   0.03961021
8768.00   1.59291470   0.03862169
8770.00   1.60508764   0.03835065
8772.00   1.60566807   0.03866126
8774.00   1.60776234   0.03903214
8776.00   1.60281718   0.03902711
8778.00   1.62894499   0.03923069
8780.00   1.63947916   0.03896332
8782.00   1.64648438   0.03799782
8784.00   1.68556261   0.03656069
8786.00   1.67240298   0.03543954
8788.00   1.65596759   0.03565356
8790.00   1.66409647   0.03611505
8792.00   1.65979338   0.03614507
8794.00   1.61541498   0.03576804
8796.00   1.62750912   0.03528680
8798.00   1.65276206   0.03506064
8800.00   1.67683446   0.03509743
8802.00   1.67827833   0.03508682
8804.00   1.65959489   0.03491034
8806.00   1.67074120   0.03483915
8808.00   1.65921938   0.03481432
8810.00   1.65424526   0.03482890
8812.00   1.66853774   0.03490488
8814.00   1.68688166   0.03497013
8816.00   1.67102730   0.03495346
8818.00   1.65369332   0.03509420
8820.00   1.65126097   0.03679170
8822.00   1.66387939   0.04032456
8824.00   1.65514600   0.04363394
8826.00   1.64392948   0.04474059
8828.00   1.63447952   0.04506685
8830.00   1.62724006   0.04474114
8832.00   1.62786090   0.04333233
8834.00   1.61486328   0.04054617
8836.00   1.61471748   0.03902199
8838.00   1.64429283   0.03859372
8840.00   1.67032111   0.03809123
8842.00   1.63801897   0.03638662
8844.00   1.59738529   0.03525552
8846.00   1.59790707   0.03528462
8848.00   1.62928593   0.03571817
8850.00   1.65568578   0.03594719
8852.00   1.65146911   0.03593506
8854.00   1.63472617   0.03569026
8856.00   1.63093555   0.03532485
8858.00   1.62149942   0.03504458
8860.00   1.60421598   0.03513074
8862.00   1.60178030   0.03578863
8864.00   1.61355245   0.03678090
8866.00   1.62858355   0.03722838
8868.00   1.63784659   0.03717509
8870.00   1.63501561   0.03682382
8872.00   1.64513838   0.03616571
8874.00   1.63316309   0.03484547
8876.00   1.60771358   0.03384985
8878.00   1.58782113   0.03403070
8880.00   1.59338057   0.03594966
8882.00   1.61040688   0.03931637
8884.00   1.61029518   0.04083918
8886.00   1.60872555   0.04122350
8888.00   1.60167885   0.04072131
8890.00   1.58279240   0.03919896
8892.00   1.60033309   0.03632353
8894.00   1.58594906   0.03424587
8896.00   1.56595790   0.03376132
8898.00   1.56116581   0.03464575
8900.00   1.57405436   0.03583328
8902.00   1.58831978   0.03600075
8904.00   1.57697546   0.03583448
8906.00   1.55677617   0.03548325
8908.00   1.54938829   0.03475083
8910.00   1.54525983   0.03347294
8912.00   1.51227319   0.03336961
8914.00   1.50795841   0.03572885
8916.00   1.53026617   0.03867841
8918.00   1.56233394   0.04036890
8920.00   1.59464645   0.04067976
8922.00   1.55489123   0.04040382
8924.00   1.54220009   0.03869333
8926.00   1.55168390   0.03591027
8928.00   1.53852332   0.03354414
8930.00   1.50651324   0.03282138
8932.00   1.47792685   0.03249101
8934.00   1.46932471   0.03242512
8936.00   1.48078096   0.03274759
8938.00   1.50468051   0.03358374
8940.00   1.48739862   0.03441894
8942.00   1.47422898   0.03490074
8944.00   1.46919489   0.03495105
8946.00   1.47225964   0.03460869
8948.00   1.45614016   0.03385442
8950.00   1.43871653   0.03307262
8952.00   1.44346631   0.03435900
8954.00   1.44536877   0.03651419
8956.00   1.43013144   0.03801409
8958.00   1.41441727   0.03808731
8960.00   1.37722647   0.03801638
8962.00   1.36670578   0.03708285
8964.00   1.35938609   0.03510761
8966.00   1.32714117   0.03265265
8968.00   1.28703988   0.03143409
8970.00   1.31501114   0.03137959
8972.00   1.33938837   0.03159356
8974.00   1.34092557   0.03166496
8976.00   1.33944750   0.03164157
8978.00   1.34913599   0.03161203
8980.00   1.33850765   0.03176465
8982.00   1.32904446   0.03219508
8984.00   1.32437491   0.03284655
8986.00   1.31137025   0.03358278
8988.00   1.25853634   0.03417615
8990.00   1.19396722   0.03404163
8992.00   1.18444932   0.03345809
8994.00   1.24645853   0.03315763
8996.00   1.32826674   0.03379486
8998.00   1.36465836   0.03510961
9000.00   1.35249364   0.03597208
9002.00   1.31769812   0.03636708
9004.00   1.29769707   0.03623185
9006.00   1.31613302   0.03518459
9008.00   1.32047570   0.03351499
9010.00   1.33145714   0.03272519
9012.00   1.35508835   0.03269909
9014.00   1.37406635   0.03278059
9016.00   1.33359814   0.03250377
9018.00   1.30846894   0.03215179
9020.00   1.30616534   0.03197458
9022.00   1.30748975   0.03205284
9024.00   1.30093300   0.03224053
9026.00   1.32677829   0.03186351
9028.00   1.32189381   0.03166085
9030.00   1.33880460   0.03200806
9032.00   1.36772060   0.03258162
9034.00   1.37388611   0.03279820
9036.00   1.37941408   0.03292149
9038.00   1.39246595   0.03245764
9040.00   1.40246105   0.03216393
9042.00   1.39997065   0.03246439
9044.00   1.37005806   0.03311998
9046.00   1.34016287   0.03339200
9048.00   1.31927884   0.03383050
9050.00   1.31609297   0.03412963
9052.00   1.33017159   0.03403586
9054.00   1.35211849   0.03361908
9056.00   1.32191253   0.03246795
9058.00   1.30154896   0.03192293
9060.00   1.31004190   0.03175217
9062.00   1.33964241   0.03156132
9064.00   1.31572819   0.03132652
9066.00   1.29843044   0.03128126
9068.00   1.28855038   0.03152504
9070.00   1.27242815   0.03172573
9072.00   1.25314724   0.03163193
9074.00   1.22287798   0.03118309
9076.00   1.24061108   0.03111102
9078.00   1.25698471   0.03110442
9080.00   1.26510203   0.03116618
9082.00   1.24755740   0.03124038
9084.00   1.21529722   0.03111373
9086.00   1.24876034   0.03138000
9088.00   1.27402246   0.03167619
9090.00   1.26009274   0.03172619
9092.00   1.24985254   0.03155397
9094.00   1.24793911   0.03137412
9096.00   1.23502076   0.03131320
9098.00   1.23273838   0.03153832
9100.00   1.23182678   0.03183853
9102.00   1.19813156   0.03168186
9104.00   1.19522715   0.03151481
9106.00   1.21942985   0.03145150
9108.00   1.23411143   0.03116311
9110.00   1.23494017   0.03059830
9112.00   1.24649417   0.03033662
9114.00   1.27619457   0.03067058
9116.00   1.29834163   0.03112500
9118.00   1.28097761   0.03116041
9120.00   1.21346772   0.03053915
9122.00   1.17686856   0.02990706
9124.00   1.20277131   0.02996054
9126.00   1.22148883   0.03030431
9128.00   1.20301163   0.03059820
9130.00   1.15807426   0.03059376
9132.00   1.11120105   0.03049063
9134.00   1.09233963   0.03050798
9136.00   1.09809935   0.03059760
9138.00   1.12621498   0.03068627
9140.00   1.13807714   0.03045229
9142.00   1.18657458   0.03031285
9144.00   1.24545050   0.03041801
9146.00   1.26473904   0.03055027
9148.00   1.22752309   0.03064667
9150.00   1.18301153   0.03093568
9152.00   1.15703773   0.03122852
9154.00   1.12708640   0.03141018
9156.00   1.11701286   0.03146463
9158.00   1.14012444   0.03133352
9160.00   1.18026471   0.03111251
9162.00   1.20149004   0.03094632
9164.00   1.23585165   0.03099420
9166.00   1.25094211   0.03105337
9168.00   1.23204195   0.03103896
9170.00   1.19923961   0.03074334
9172.00   1.17953885   0.03085628
9174.00   1.15522635   0.03101241
9176.00   1.14044416   0.03104861
9178.00   1.15790308   0.03086943
9180.00   1.17038357   0.03046270
9182.00   1.19181144   0.03047483
9184.00   1.18995237   0.03050228
9186.00   1.19543505   0.03052034
9188.00   1.20359898   0.03052662
9190.00   1.22979200   0.03064242
9192.00   1.22996318   0.03061017
9194.00   1.21982658   0.03067105
9196.00   1.21922624   0.03088199
9198.00   1.19275045   0.03060211
9200.00   1.22781682   0.03057261
9202.00   1.26010203   0.03061493
9204.00   1.26020265   0.03058898
9206.00   1.25693166   0.03070317
9208.00   1.23771226   0.03093615
9210.00   1.23636723   0.03106088
9212.00   1.23816979   0.03112056
9214.00   1.23269141   0.03125576
9216.00   1.23254859   0.03150973
9218.00   1.23270845   0.03160848
9220.00   1.26101089   0.03193514
9222.00   1.28818762   0.03237342
9224.00   1.31458747   0.03271874
9226.00   1.31256878   0.03258711
9228.00   1.29874396   0.03213702
9230.00   1.26744139   0.03160370
9232.00   1.24011374   0.03116971
9234.00   1.21821678   0.03087830
9236.00   1.21200716   0.03074734
9238.00   1.19199264   0.03062779
9240.00   1.19189608   0.03058912
9242.00   1.19228828   0.03065761
9244.00   1.17323315   0.03077122
9246.00   1.15512538   0.03094733
9248.00   1.16904569   0.03102375
9250.00   1.16704309   0.03102844
9252.00   1.15218973   0.03106366
9254.00   1.15156555   0.03118899
9256.00   1.17598891   0.03128904
9258.00   1.19144499   0.03132951
9260.00   1.19071937   0.03131513
9262.00   1.18026996   0.03127673
9264.00   1.17392206   0.03121341
9266.00   1.17904902   0.03104702
9268.00   1.18341875   0.03095889
9270.00   1.17705536   0.03090655
9272.00   1.15256739   0.03080189
9274.00   1.13911688   0.03076343
9276.00   1.11507654   0.03081466
9278.00   1.09440005   0.03091828
9280.00   1.06523561   0.03094893
9282.00   1.03141439   0.03080111
9284.00   1.01929247   0.03064094
9286.00   1.02805603   0.03084921
9288.00   1.04390430   0.03098669
9290.00   1.04459321   0.03096258
9292.00   1.01237857   0.03082645
9294.00   1.01283491   0.03109542
9296.00   0.98360205   0.03111589
9298.00   0.97884148   0.03152424
9300.00   0.97716826   0.03260356
9302.00   0.95245916   0.03439635
9304.00   0.93514925   0.03644846
9306.00   0.94320256   0.03895745
9308.00   0.92379522   0.04222534
9310.00   0.90106344   0.04506325
9312.00   0.88532680   0.04589058
9314.00   0.91990757   0.04566979
9316.00   0.91832286   0.04582597
9318.00   0.85661411   0.04499201
9320.00   0.75527269   0.04277281
9322.00   0.72433740   0.04099294
9324.00   0.79031807   0.04153232
9326.00   0.80165941   0.04092850
9328.00   0.79020691   0.03819694
9330.00   0.78882027   0.03436098
9332.00   0.80203587   0.03285529
9334.00   0.74084431   0.03341894
9336.00   0.68205196   0.03345097
9338.00   0.62631088   0.03298146
9340.00   0.58570534   0.03308439
9342.00   0.63536340   0.03528666
9344.00   0.70072055   0.03608356
9346.00   0.74788731   0.03476882
9348.00   0.78216583   0.03255487
9350.00   0.81519014   0.03126794
9352.00   0.85952669   0.03209411
9354.00   0.87930107   0.03403472
9356.00   0.82152015   0.03418959
9358.00   0.73997921   0.03242023
9360.00   0.72940427   0.03045542
9362.00   0.75387591   0.02966348
9364.00   0.80886644   0.03018837
9366.00   0.82027555   0.03159230
9368.00   0.76877815   0.03544550
9370.00   0.68123811   0.04311174
9372.00   0.67662716   0.05106384
9374.00   0.67294794   0.05394316
9376.00   0.70417738   0.05494913
9378.00   0.76574618   0.05544768
9380.00   0.81261832   0.05328384
9382.00   0.77240372   0.04369795
9384.00   0.77528691   0.03502992
9386.00   0.83648515   0.03136984
9388.00   0.92710036   0.03184317
9390.00   0.97521156   0.03112149
9392.00   0.99412698   0.03024037
9394.00   1.00124311   0.03008808
9396.00   0.99773341   0.03078722
9398.00   0.98360473   0.03193316
9400.00   0.96815324   0.03293816
9402.00   0.91117841   0.03258255
9404.00   0.85474968   0.03161256
9406.00   0.84832114   0.03091901
9408.00   0.88370675   0.03088251
9410.00   0.89953178   0.03100782
9412.00   0.88739973   0.03103851
9414.00   0.88636070   0.03168878
9416.00   0.89120030   0.03296961
9418.00   0.90574652   0.03443150
9420.00   0.85857803   0.03445775
9422.00   0.84158403   0.03434420
9424.00   0.83559895   0.03425717
9426.00   0.83232927   0.03421494
9428.00   0.83251661   0.03396517
9430.00   0.82673836   0.03251985
9432.00   0.79494935   0.03123377
9434.00   0.80243635   0.03277481
9436.00   0.85865396   0.03768831
9438.00   0.89713383   0.04367068
9440.00   0.81499583   0.04780315
9442.00   0.75361323   0.04731137
9444.00   0.74004149   0.04223225
9446.00   0.76964778   0.03475362
9448.00   0.81395245   0.03103563
9450.00   0.87585789   0.03087958
9452.00   0.89346343   0.03266855
9454.00   0.86349255   0.03551769
9456.00   0.82450891   0.03881949
9458.00   0.77121514   0.03999068
9460.00   0.76349121   0.03942915
9462.00   0.77756453   0.03732330
9464.00   0.79455233   0.03412520
9466.00   0.79626006   0.03106681
9468.00   0.82991505   0.03103757
9470.00   0.81965756   0.03271624
9472.00   0.78372067   0.03524356
9474.00   0.76843405   0.03777777
9476.00   0.83003831   0.03982057
9478.00   0.82784826   0.04115496
9480.00   0.79928869   0.04113748
9482.00   0.76315528   0.03835720
9484.00   0.75255340   0.03304845
9486.00   0.79888648   0.02988807
9488.00   0.83931249   0.02911358
9490.00   0.86953562   0.02951860
9492.00   0.86706972   0.03039027
9494.00   0.81008458   0.03153994
9496.00   0.71042800   0.03323474
9498.00   0.65279359   0.03607074
9500.00   0.68022519   0.03798785
9502.00   0.74890763   0.03785591
9504.00   0.80482149   0.03564119
9506.00   0.83135748   0.03323769
9508.00   0.87664825   0.03129745
9510.00   0.90424943   0.03002609
9512.00   0.88946253   0.02961951
9514.00   0.82750612   0.03023745
9516.00   0.79282767   0.03164633
9518.00   0.76402014   0.03244419
9520.00   0.70954710   0.03223830
9522.00   0.65217805   0.03138985
9524.00   0.66581208   0.03085179
9526.00   0.73016119   0.03064348
9528.00   0.78975916   0.03074558
9530.00   0.82635117   0.03088454
9532.00   0.83359575   0.03081807
9534.00   0.84719300   0.03117105
9536.00   0.89052945   0.03218852
9538.00   0.90751028   0.03279372
9540.00   0.89149553   0.03297542
9542.00   0.87098914   0.03316065
9544.00   0.85984331   0.03325021
9546.00   0.83108109   0.03267126
9548.00   0.79987687   0.03247036
9550.00   0.79553223   0.03324461
9552.00   0.81938720   0.03466830
9554.00   0.80743694   0.03567958
9556.00   0.79229498   0.03500865
9558.00   0.75089002   0.03287766
9560.00   0.72754788   0.03145121
9562.00   0.77506047   0.03372375
9564.00   0.83999985   0.03769360
9566.00   0.84196782   0.03933740
9568.00   0.79911804   0.03867033
9570.00   0.77850562   0.03646894
9572.00   0.85023499   0.03416955
9574.00   0.85796863   0.03160340
9576.00   0.88362449   0.03070555
9578.00   0.90770692   0.03128611
9580.00   0.88210255   0.03186837
9582.00   0.79307413   0.03075713
9584.00   0.77655596   0.02969250
9586.00   0.78480047   0.02980323
9588.00   0.78523326   0.03075036
9590.00   0.76356333   0.03149271
9592.00   0.74234056   0.03109060
9594.00   0.73232788   0.03037233
9596.00   0.74942929   0.02989224
9598.00   0.78485435   0.02986336
9600.00   0.82546598   0.03032672
9602.00   0.82249379   0.03074565
9604.00   0.82276225   0.03172771
9606.00   0.82362491   0.03233002
9608.00   0.82032901   0.03210923
9610.00   0.81421298   0.03142402
9612.00   0.85405427   0.03136599
9614.00   0.89384049   0.03177474
9616.00   0.87788898   0.03238298
9618.00   0.81847000   0.03293324
9620.00   0.81953639   0.03343873
9622.00   0.78723788   0.03331343
9624.00   0.76043445   0.03267577
9626.00   0.76732183   0.03172053
9628.00   0.80018091   0.03076664
9630.00   0.82197565   0.03030218
9632.00   0.86223650   0.03064086
9634.00   0.88196653   0.03130926
9636.00   0.88057131   0.03190279
9638.00   0.87257153   0.03210093
9640.00   0.82067472   0.03121324
9642.00   0.81899858   0.03083765
9644.00   0.84191293   0.03130622
9646.00   0.84889507   0.03180961
9648.00   0.80403996   0.03123779
9650.00   0.82178515   0.03079403
9652.00   0.84031677   0.03079463
9654.00   0.84546447   0.03084907
9656.00   0.83754772   0.03087234
9658.00   0.85867149   0.03128384
9660.00   0.83999962   0.03166344
9662.00   0.80075717   0.03204482
9664.00   0.77017856   0.03240273
9666.00   0.79218292   0.03292182
9668.00   0.84235168   0.03352269
9670.00   0.88563585   0.03417303
9672.00   0.89373082   0.03396195
9674.00   0.90497631   0.03356473
9676.00   0.92709178   0.03396088
9678.00   0.94837952   0.03571581
9680.00   0.95050031   0.03682731
9682.00   0.94320971   0.03682451
9684.00   0.91373825   0.03596123
9686.00   0.89473373   0.03500399
9688.00   0.88067859   0.03388689
9690.00   0.88967139   0.03343610
9692.00   0.90186077   0.03411600
9694.00   0.91075140   0.03594891
9696.00   0.91157717   0.03833615
9698.00   0.94713658   0.03983861
9700.00   0.94682026   0.03984468
9702.00   0.91903520   0.03885405
9704.00   0.89945626   0.03734161
9706.00   0.92665297   0.03567889
9708.00   0.93792337   0.03566644
9710.00   0.92659253   0.03599408
9712.00   0.91295594   0.03691993
9714.00   0.92325574   0.03892522
9716.00   0.95430738   0.04155464
9718.00   0.91515332   0.04183109
9720.00   0.88864928   0.04164453
9722.00   0.89255935   0.04130388
9724.00   0.92341381   0.04022198
9726.00   0.93656749   0.03712430
9728.00   0.88141060   0.03469152
9730.00   0.88290197   0.03412490
9732.00   0.90879756   0.03504592
9734.00   0.87873363   0.03643455
9736.00   0.84866935   0.03729245
9738.00   0.86265802   0.03730519
9740.00   0.85351676   0.03671104
9742.00   0.84502059   0.03607974
9744.00   0.89209753   0.03581398
9746.00   0.91264081   0.03518939
9748.00   0.90189916   0.03465998
9750.00   0.87148881   0.03430443
9752.00   0.85718483   0.03411959
9754.00   0.85487217   0.03385076
9756.00   0.84784490   0.03415022
9758.00   0.83341122   0.03382798
9760.00   0.83180720   0.03337177
9762.00   0.85573655   0.03345782
9764.00   0.86591941   0.03378508
9766.00   0.86887026   0.03322745
9768.00   0.87193984   0.03287902
9770.00   0.88352805   0.03292608
9772.00   0.89198685   0.03309813
9774.00   0.89112765   0.03317549
9776.00   0.89284945   0.03348212
9778.00   0.87521082   0.03360449
9780.00   0.85826445   0.03380997
9782.00   0.85603046   0.03456432
9784.00   0.84960890   0.03648591
9786.00   0.82661420   0.03984900
9788.00   0.84911138   0.04319705
9790.00   0.89519805   0.04518988
9792.00   0.88891822   0.04538815
9794.00   0.86409998   0.04473144
9796.00   0.86605859   0.04264545
9798.00   0.86133188   0.04010083
9800.00   0.83469182   0.03829331
9802.00   0.85073376   0.03789375
9804.00   0.88788062   0.03716825
9806.00   0.89501184   0.03634256
9808.00   0.89670390   0.03597533
9810.00   0.91478652   0.03624864
9812.00   0.93034142   0.03658285
9814.00   0.90909749   0.03657706
9816.00   0.89266306   0.03599714
9818.00   0.87729460   0.03500067
9820.00   0.88698125   0.03439670
9822.00   0.87811059   0.03441764
9824.00   0.84510058   0.03447875
9826.00   0.83801490   0.03444644
9828.00   0.85436195   0.03434744
9830.00   0.87319088   0.03432998
9832.00   0.90409189   0.03466408
9834.00   0.90446538   0.03460926
9836.00   0.89350986   0.03422804
9838.00   0.88499409   0.03399297
9840.00   0.87677497   0.03438887
9842.00   0.89584297   0.03602348
9844.00   0.89514709   0.03783344
9846.00   0.89335412   0.03928208
9848.00   0.90060288   0.04011681
9850.00   0.90777510   0.04008085
9852.00   0.93510360   0.03895896
9854.00   0.91159248   0.03695723
9856.00   0.86910391   0.03522899
9858.00   0.86246413   0.03485842
9860.00   0.86941308   0.03511148
9862.00   0.88113540   0.03574550
9864.00   0.88193303   0.03772891
9866.00   0.88447505   0.04195315
9868.00   0.88479233   0.04750916
9870.00   0.90726715   0.05158275
9872.00   0.90278310   0.05273153
9874.00   0.87765670   0.05176144
9876.00   0.85819983   0.04864250
9878.00   0.87085515   0.04336296
9880.00   0.86453992   0.03870847
9882.00   0.88783342   0.03697647
9884.00   0.90802878   0.03690105
9886.00   0.93053752   0.03738711
9888.00   0.91877860   0.03830969
9890.00   0.92680866   0.04089298
9892.00   0.89315563   0.04235727
9894.00   0.85671991   0.04293162
9896.00   0.84972167   0.04298443
9898.00   0.85794306   0.04222279
9900.00   0.86259151   0.04009505
9902.00   0.87249017   0.03821050
9904.00   0.87189752   0.03736715
9906.00   0.87047666   0.03860432
9908.00   0.86645573   0.04263945
9910.00   0.84714532   0.04854923
9912.00   0.86958510   0.05294377
9914.00   0.87784290   0.05480006
9916.00   0.84465414   0.05417378
9918.00   0.85124749   0.05211059
9920.00   0.90095311   0.04716148
9922.00   0.92404336   0.04197820
9924.00   0.90802079   0.03867533
9926.00   0.86503237   0.03779996
9928.00   0.87685698   0.03782051
9930.00   0.89820671   0.03797553
9932.00   0.91201323   0.03831329
9934.00   0.91567487   0.03940906
9936.00   0.89733815   0.04177824
9938.00   0.86853033   0.04539437
9940.00   0.86926240   0.04988466
9942.00   0.90707463   0.05430024
9944.00   0.93113321   0.05718367
9946.00   0.88515204   0.05714222
9948.00   0.85244513   0.05573583
9950.00   0.85943741   0.05429847
9952.00   0.86494201   0.05318567
9954.00   0.84014815   0.05289997
9956.00   0.81452101   0.05464220
9958.00   0.81319016   0.05725647
9960.00   0.83894235   0.05792737
9962.00   0.86676401   0.05629389
9964.00   0.88565731   0.05328780
9966.00   0.88942641   0.05045796
9968.00   0.88760537   0.04731451
9970.00   0.88557488   0.04495719
9972.00   0.89087707   0.04405579
9974.00   0.88001746   0.04413021
9976.00   0.89478469   0.04398878
9978.00   0.88964504   0.04303065
9980.00   0.86636418   0.04186147
9982.00   0.85858440   0.04110547
9984.00   0.87082833   0.04085731
9986.00   0.86211675   0.04044485
9988.00   0.87165856   0.04052819
9990.00   0.88038939   0.04073393
9992.00   0.85594684   0.04091483
9994.00   0.85767192   0.04190069
9996.00   0.83916372   0.04297014
9998.00   0.84862137   0.04391588
10000.00   0.86561269   0.04462050
10002.00   0.87097102   0.04519521
10004.00   0.86060649   0.04633983
10006.00   0.88408202   0.05050637
10008.00   0.86910748   0.05681765
10010.00   0.84066564   0.06232649
10012.00   0.84903687   0.06516850
10014.00   0.82231975   0.06508959
10016.00   0.80169010   0.06287601
10018.00   0.83174086   0.05842822
10020.00   0.87695289   0.05375180
10022.00   0.82610267   0.05141883
10024.00   0.82721370   0.05137144
10026.00   0.82859522   0.05118866
10028.00   0.82686943   0.05028429
10030.00   0.84250718   0.04854180
10032.00   0.87198210   0.04612886
10034.00   0.85659510   0.04455559
10036.00   0.81490928   0.04419454
10038.00   0.82133096   0.04495371
10040.00   0.85346991   0.04602234
10042.00   0.83439064   0.04655590
10044.00   0.84049386   0.04667800
10046.00   0.83935159   0.04634865
10048.00   0.83401251   0.04576057
10050.00   0.83024818   0.04552022
10052.00   0.83127975   0.04591359
10054.00   0.83660907   0.04717353
10056.00   0.82460809   0.04896611
10058.00   0.82702923   0.05077085
10060.00   0.85280651   0.05189358
10062.00   0.86093193   0.05273851
10064.00   0.83576661   0.05267465
10066.00   0.83090657   0.05203473
10068.00   0.84915400   0.05126655
10070.00   0.88961965   0.05104713
10072.00   0.87796879   0.05106258
10074.00   0.83641511   0.05167891
10076.00   0.80933166   0.05441460
10078.00   0.79706794   0.05855994
10080.00   0.75676960   0.06172186
10082.00   0.81496072   0.06339916
10084.00   0.84643537   0.06331456
10086.00   0.83983439   0.06096240
10088.00   0.82025075   0.05679445
10090.00   0.86548895   0.05287373
10092.00   0.86957264   0.05090442
10094.00   0.81721860   0.05000949
10096.00   0.78598732   0.05083772
10098.00   0.81598693   0.05316784
10100.00   0.84125113   0.05567122
10102.00   0.79872829   0.05659416
10104.00   0.78511554   0.05708522
10106.00   0.81145000   0.05689318
10108.00   0.83664340   0.05549279
10110.00   0.82743907   0.05332134
10112.00   0.81437701   0.05220792
10114.00   0.81530952   0.05272673
10116.00   0.82112342   0.05564821
10118.00   0.82408470   0.06134534
10120.00   0.80094332   0.06785049
10122.00   0.79925424   0.07167847
10124.00   0.77983624   0.07330928
10126.00   0.74225903   0.07277929
10128.00   0.73270732   0.06987741
10130.00   0.81629342   0.06440323
10132.00   0.85294157   0.05968469
10134.00   0.84029514   0.05720674
10136.00   0.81182462   0.05719829
10138.00   0.81710845   0.05767909
10140.00   0.79844540   0.05779071
10142.00   0.78058481   0.05815430
10144.00   0.79252362   0.05933842
10146.00   0.83121347   0.06141610
10148.00   0.82199389   0.06367398
10150.00   0.82896805   0.06586280
10152.00   0.80127716   0.06698108
10154.00   0.74853593   0.06738657
10156.00   0.76322681   0.06778594
10158.00   0.79971248   0.06737272
10160.00   0.80992055   0.06585377
10162.00   0.82196063   0.06613576
10164.00   0.81950670   0.06886704
10166.00   0.82651967   0.07368261
10168.00   0.79679483   0.08031941
10170.00   0.73320395   0.08415163
10172.00   0.73523062   0.08566194
10174.00   0.77285486   0.08492506
10176.00   0.73732966   0.08153469
10178.00   0.75927544   0.07573430
10180.00   0.76627129   0.07210101
10182.00   0.77169633   0.07278523
10184.00   0.77830309   0.07703245
10186.00   0.79421622   0.08227619
10188.00   0.80993885   0.08442069
10190.00   0.78575301   0.08489067
10192.00   0.75539112   0.08353622
10194.00   0.74178702   0.08058768
10196.00   0.82036561   0.07666299
10198.00   0.81984901   0.07535613
10200.00   0.80930060   0.07676438
10202.00   0.79426986   0.08014723
10204.00   0.78197259   0.08548202
10206.00   0.75191957   0.09343392
10208.00   0.72396940   0.09798785
10210.00   0.74533200   0.09883031
10212.00   0.78249115   0.09720066
10214.00   0.70917273   0.09322250
10216.00   0.77091783   0.08688971
10218.00   0.76865363   0.08070477
10220.00   0.72340637   0.07889880
10222.00   0.71628571   0.08149829
10224.00   0.86202478   0.08492465
10226.00   0.87992954   0.08809110
10228.00   0.80128819   0.08902848
10230.00   0.77193022   0.08783563
10232.00   0.77784562   0.08492433
10234.00   0.73311561   0.08119766
10236.00   0.77346510   0.07829631
10238.00   0.81026149   0.07566155
10240.00   0.76271325   0.07326947
10242.00   0.71921301   0.07258452
10244.00   0.80620289   0.07405394
10246.00   0.77754402   0.07374138
10248.00   0.77236706   0.07404446
10250.00   0.80464840   0.07494253
10252.00   0.84109569   0.07573145
10254.00   0.83533639   0.07604723
10256.00   0.83820766   0.07691190
10258.00   0.81605750   0.07794338
10260.00   0.78787041   0.07900000
10262.00   0.79455262   0.07984256
10264.00   0.78663343   0.08107688
10266.00   0.71750301   0.08198011
10268.00   0.67480111   0.08328177
10270.00   0.69472724   0.08493305
10272.00   0.75859064   0.08685682
10274.00   0.74926710   0.08727642
10276.00   0.76826829   0.09027087
10278.00   0.75197428   0.09966423
10280.00   0.65401614   0.11684751
10282.00   0.63368255   0.14006488
10284.00   0.74663991   0.15701723
10286.00   0.85865945   0.16501534
10288.00   0.86470753   0.16625270
10290.00   0.77339572   0.16199096
10292.00   0.69732380   0.14856172
10294.00   0.76069802   0.13536389
10296.00   0.79219228   0.12706967
10298.00   0.74250633   0.12196857
10300.00   0.71366841   0.11614683
10302.00   0.81373459   0.10967156
10304.00   0.78551036   0.10527235
10306.00   0.70636886   0.10352824
10308.00   0.68764329   0.10374469
10310.00   0.66698146   0.10434005
10312.00   0.75549716   0.10413068
10314.00   0.73714948   0.10190108
10316.00   0.69916338   0.09846839
10318.00   0.66795570   0.09603876
10320.00   0.63155305   0.09635987
10322.00   0.68274945   0.09851518
10324.00   0.70120090   0.09998288
10326.00   0.70771915   0.10105822
10328.00   0.71787935   0.10184038
10330.00   0.73631334   0.10228876
10332.00   0.72317886   0.10285709
10334.00   0.73586589   0.10402322
10336.00   0.73114634   0.10528681
10338.00   0.70629519   0.10743900
10340.00   0.64098227   0.11130929
10342.00   0.64151084   0.11841831
10344.00   0.64599276   0.12500192
10346.00   0.65659767   0.12993084
10348.00   0.61327142   0.13192008
10350.00   0.53348821   0.13016847
10352.00   0.67590731   0.12813067
10354.00   0.79737473   0.12410024
10356.00   0.78514820   0.12068415
10358.00   0.76792377   0.12454779
10360.00   0.70194215   0.11998545
10362.00   0.90045559   0.12665449
10364.00   0.84870678   0.13192315
10366.00   0.73161036   0.14954071
10368.00   0.79034817   0.17308070
10370.00   0.74404621   0.18573098
10372.00   0.71387863   0.19236095
10374.00   0.74017447   0.19406243
10376.00   0.69755530   0.18834098
10378.00   0.71429157   0.17028745
10380.00   0.81442350   0.15142488
10382.00   0.87197679   0.14225549
10384.00   0.84574437   0.13960932
10386.00   0.82076758   0.13898967
10388.00   0.86737251   0.14443929
10390.00   0.90909547   0.15917583
10392.00   0.87145424   0.15952282
10394.00   0.70522618   0.17333440
10396.00   0.86224717   0.17593656
10398.00   0.86569422   0.16925341
10400.00   0.74074137   0.16607669
10402.00   0.71786761   0.16147327
10404.00   0.69013572   0.16242227
10406.00   0.80448461   0.15612592
10408.00   0.85606885   0.16548115
10410.00   0.75818062   0.17232233
10412.00   0.77837723   0.19193216
10414.00   0.79960167   0.21619566
10416.00   0.98508102   0.23743361
10418.00   0.52401310   0.24213247
10420.00   0.66211087   0.23777594
10422.00   0.64000863   0.22887893
10424.00   0.93563968   0.20676190
10426.00   0.86822480   0.18930082
10428.00   0.82713526   0.17654149
10430.00   0.78218836   0.17477310
10432.00   0.74979240   0.17452359
10434.00   0.76801306   0.16927439
10436.00   0.77505094   0.16936402
10438.00   0.70308095   0.17099275
10440.00   0.60368109   0.17104931
10442.00   0.55168319   0.17336088
10444.00   0.60011315   0.18242253
10446.00   0.53079641   0.19310294
10448.00   0.72271037   0.19732822
10450.00   0.67647958   0.20243646
10452.00   0.60796010   0.20704038
10454.00   0.80334705   0.20644923
10456.00   0.70507520   0.19278049
10458.00   0.73310411   0.18664020
10460.00   0.59551805   0.19064929
10462.00   0.58333403   0.20398013
10464.00   0.64658755   0.21677411
10466.00   0.81113887   0.23006696
10468.00   0.76789933   0.24784541
10470.00   0.84198731   0.24971838
10472.00   0.85925263   0.24432559
10474.00   0.69176650   0.22621393
10476.00   0.78442281   0.21165806
10478.00   0.87962967   0.20112066
10480.00   0.87366754   0.19483764
10482.00   0.73138160   0.19311893
10484.00   0.72588158   0.19348301
10486.00   0.76275760   0.19641249
10488.00   0.75070077   0.19716810
10490.00   0.60735059   0.19527291
10492.00   0.73125631   0.19488311
10494.00   0.68315142   0.19665970
10496.00   0.57093400   0.19357120
10498.00   0.55549437   0.19361643
10500.00   0.65719986   0.19891195
10502.00   0.66015023   0.20308606
10504.00   0.79333091   0.21170889
10506.00   0.82197827   0.21614440
10508.00   0.82810926   0.21953584
10510.00   0.94479620   0.22264244
10512.00   0.95392209   0.22646637
10514.00   0.78805101   0.22195137
10516.00   0.77734810   0.21778958
10518.00   0.71329111   0.22213216
10520.00   0.78469658   0.23372789
10522.00   0.96236753   0.24177517
10524.00   0.93505651   0.24583711
10526.00   1.03359044   0.24871419
10528.00   1.01983237   0.24556442
10530.00   0.78516114   0.23476513
10532.00   0.86076307   0.22502708
10534.00   0.75717783   0.22063015
10536.00   0.75305831   0.21645452
10538.00   0.59357291   0.21734552
10540.00   0.85821211   0.22848289
10542.00   0.92003214   0.22808141
10544.00   0.60390407   0.22179770
10546.00   0.52332580   0.22077584
10548.00   0.61356843   0.22427288
10550.00   0.62933588   0.22619087
10552.00   0.61740822   0.22682530
10554.00   0.42499793   0.22479710
10556.00   0.46931863   0.22012709
10558.00   0.53189504   0.21809149
10560.00   0.62852079   0.22309758
10562.00   0.71636295   0.22801054
10564.00   0.78605849   0.23208575
10566.00   0.85599685   0.23704906
10568.00   0.92667443   0.24358074
10570.00   1.07401085   0.24698126
10572.00   0.82963306   0.24427043
10574.00   0.61934590   0.23586316
10576.00   0.70208955   0.23436378
10578.00   0.99459863   0.24254899
10580.00   0.87020129   0.24843204
10582.00   0.94195133   0.25085074
10584.00   0.82349753   0.25519770
10586.00   0.73732156   0.25759545
10588.00   0.86593610   0.25321838
10590.00   0.88544750   0.24974656
10592.00   0.62752438   0.24593019
10594.00   0.51128811   0.24599034
10596.00   0.82214928   0.24767143
10598.00   0.90630376   0.24662423
10600.00   0.88958466   0.25447536
10602.00   1.02343655   0.25605026
10604.00   1.05549419   0.25259364
10606.00   0.75924075   0.25004745
10608.00   0.57258391   0.24360132
10610.00   0.60152215   0.24357867
10612.00   0.73766595   0.24926560
10614.00   0.83530587   0.25230095
10616.00   0.75101137   0.24743335
10618.00   0.64387852   0.24738641
10620.00   0.70073384   0.25254133
10622.00   0.68117315   0.25270095
10624.00   0.68005919   0.25369415
10626.00   0.92819732   0.26042736
10628.00   0.72826546   0.25793710
10630.00   0.61361212   0.26093778
10632.00   0.76551855   0.26100376
10634.00   0.74687290   0.25953647
10636.00   0.91709632   0.26278213
10638.00   0.69053096   0.25892776
10640.00   0.89243555   0.26168630
10642.00   0.80512422   0.26724842
10644.00   0.69474900   0.27207115
10646.00   1.04356253   0.27865866
10648.00   1.10189664   0.28078234
10650.00   0.81634760   0.27791670
10652.00   0.74508423   0.27319050
10654.00   0.73758775   0.27051830
10656.00   0.77842140   0.27554247
10658.00   0.72821963   0.27751899
10660.00   0.71530157   0.27666983
