# File created by shivutils (I.Shivvers)
# wl(A)   flm    er(optional)
3622.00   3.58073378   0.12551707
3624.00   3.51023316   0.12379099
3626.00   3.38711762   0.12238068
3628.00   3.43526196   0.12253724
3630.00   3.51402545   0.12389784
3632.00   3.56908345   0.12420013
3634.00   3.60867691   0.12462534
3636.00   3.65802097   0.12470381
3638.00   3.55135393   0.12297555
3640.00   3.64761448   0.12403057
3642.00   3.49555659   0.12255511
3644.00   3.70009899   0.12257525
3646.00   3.64113379   0.12333245
3648.00   3.75412560   0.12889743
3650.00   3.98950624   0.13744757
3652.00   3.72086525   0.13218750
3654.00   3.44946241   0.12490378
3656.00   3.70575404   0.12448784
3658.00   3.78871226   0.12123363
3660.00   3.73431706   0.12166059
3662.00   3.38253450   0.11893483
3664.00   3.44772935   0.12010949
3666.00   3.54391289   0.11658265
3668.00   3.27621484   0.11090945
3670.00   3.19329667   0.10875247
3672.00   3.30931091   0.10964056
3674.00   3.31993055   0.10819540
3676.00   3.06721616   0.10484773
3678.00   2.92670345   0.10260205
3680.00   2.85156512   0.10100672
3682.00   2.96417165   0.10017907
3684.00   2.67424560   0.09765524
3686.00   2.64034724   0.09693175
3688.00   2.46996760   0.09496054
3690.00   2.28682470   0.09326568
3692.00   2.26213193   0.09367232
3694.00   2.30011153   0.09241588
3696.00   2.22946286   0.09184540
3698.00   2.11307240   0.09169944
3700.00   2.04926324   0.09116132
3702.00   1.91982532   0.08931575
3704.00   1.68791997   0.08691008
3706.00   1.91744399   0.08719353
3708.00   1.68269467   0.08357227
3710.00   1.84106433   0.08572197
3712.00   1.50636315   0.08152106
3714.00   1.46006000   0.08099297
3716.00   1.39406824   0.07891867
3718.00   1.46306372   0.07740664
3720.00   1.53453970   0.07735822
3722.00   1.50112641   0.07720463
3724.00   1.33728933   0.07555988
3726.00   1.54531169   0.07837543
3728.00   1.60428846   0.08148608
3730.00   1.55198860   0.08031090
3732.00   1.45428765   0.07846508
3734.00   1.20325577   0.07519615
3736.00   1.24892092   0.07469423
3738.00   1.33672428   0.07778648
3740.00   1.27343798   0.07813337
3742.00   1.31265879   0.07749092
3744.00   1.33900857   0.07603139
3746.00   1.33186185   0.07453302
3748.00   1.40943134   0.07462564
3750.00   1.38238311   0.07387127
3752.00   1.33263326   0.07312208
3754.00   1.34927595   0.07312025
3756.00   1.35953760   0.07198877
3758.00   1.36858284   0.07250240
3760.00   1.45719922   0.07181818
3762.00   1.40974748   0.07276231
3764.00   1.53011858   0.07198951
3766.00   1.42729616   0.07026643
3768.00   1.47155261   0.07045723
3770.00   1.48250949   0.07106146
3772.00   1.59937167   0.07299945
3774.00   1.60716534   0.07289571
3776.00   1.55963540   0.07186979
3778.00   1.55542374   0.07249398
3780.00   1.51446569   0.07141781
3782.00   1.69656491   0.07303644
3784.00   1.76826000   0.07342198
3786.00   1.78905511   0.07323062
3788.00   1.93467021   0.07497721
3790.00   1.95085514   0.07516775
3792.00   1.80631948   0.07311241
3794.00   1.96264458   0.07432293
3796.00   1.89483500   0.07301684
3798.00   1.81414402   0.07100096
3800.00   1.97953534   0.07286651
3802.00   2.08319807   0.07388340
3804.00   2.01414728   0.07305939
3806.00   2.19809961   0.07440020
3808.00   1.94678473   0.07085966
3810.00   2.06121540   0.07232711
3812.00   2.13450861   0.07402740
3814.00   2.19221354   0.07487449
3816.00   2.24110079   0.07509024
3818.00   2.35711932   0.07525915
3820.00   2.37150931   0.07522657
3822.00   2.34390688   0.07411143
3824.00   2.41485476   0.07471647
3826.00   2.43145847   0.07471630
3828.00   2.52918816   0.07621998
3830.00   2.57577801   0.07752369
3832.00   2.63427901   0.07782321
3834.00   2.66474104   0.07754412
3836.00   2.67265558   0.07688762
3838.00   2.79657292   0.07746386
3840.00   2.78016472   0.07653499
3842.00   2.95838308   0.07832722
3844.00   3.08711886   0.07912904
3846.00   2.96718860   0.07806578
3848.00   3.01972556   0.07760497
3850.00   3.10126972   0.07757167
3852.00   3.12133908   0.07760646
3854.00   3.14193630   0.07751106
3856.00   3.31570196   0.07815964
3858.00   3.24328017   0.07729418
3860.00   3.31768417   0.07749677
3862.00   3.44340539   0.07876799
3864.00   3.50763726   0.07916710
3866.00   3.45639467   0.07819774
3868.00   3.56642294   0.07869099
3870.00   3.47738171   0.07713710
3872.00   3.60033417   0.07890952
3874.00   3.60026455   0.07937587
3876.00   3.76620865   0.08024878
3878.00   3.88318419   0.08011793
3880.00   3.89412475   0.07918841
3882.00   3.82947922   0.07864345
3884.00   3.89227605   0.07869018
3886.00   3.81726408   0.07853142
3888.00   3.84533978   0.07857116
3890.00   3.93805313   0.07907198
3892.00   4.01984835   0.07996641
3894.00   4.13378143   0.08017962
3896.00   4.09464169   0.08016116
3898.00   4.22206593   0.08058178
3900.00   4.18265867   0.08042090
3902.00   4.17132807   0.08089878
3904.00   4.28795767   0.08218657
3906.00   4.21755028   0.08342766
3908.00   4.36992598   0.08506224
3910.00   4.21168375   0.08387806
3912.00   4.38884640   0.08489826
3914.00   4.47580051   0.08487333
3916.00   4.31207418   0.08168514
3918.00   4.32290983   0.08145640
3920.00   4.43953323   0.08149686
3922.00   4.45277929   0.08065476
3924.00   4.49042845   0.08062578
3926.00   4.49931097   0.08023882
3928.00   4.61195946   0.08068319
3930.00   4.38383484   0.07868484
3932.00   4.23008919   0.07830381
3934.00   4.52412128   0.07982822
3936.00   4.51664162   0.07914580
3938.00   4.62202024   0.07986972
3940.00   4.56394625   0.08066461
3942.00   4.61204147   0.08153746
3944.00   4.60356092   0.08097546
3946.00   4.73427296   0.08109805
3948.00   4.73450899   0.08063705
3950.00   4.65274143   0.07980558
3952.00   4.78213549   0.08024056
3954.00   4.88775635   0.08080242
3956.00   4.84097290   0.08032905
3958.00   4.82405519   0.08017240
3960.00   4.93657398   0.08090025
3962.00   4.69533253   0.07923333
3964.00   4.88255692   0.07920296
3966.00   4.72219086   0.07767843
3968.00   4.77112246   0.07717073
3970.00   4.86800098   0.07809016
3972.00   4.98467016   0.07885222
3974.00   4.96889639   0.07897695
3976.00   4.99573517   0.07937907
3978.00   4.81038952   0.07851734
3980.00   4.91192865   0.07902700
3982.00   4.87943363   0.07838610
3984.00   5.02746296   0.07910725
3986.00   5.04613018   0.07877524
3988.00   4.94005346   0.07810262
3990.00   4.95713329   0.07813442
3992.00   4.82758188   0.07709869
3994.00   4.86416674   0.07751521
3996.00   4.95184088   0.07827443
3998.00   4.90680075   0.07764161
4000.00   4.91988802   0.07709060
4002.00   5.00649405   0.07762650
4004.00   4.92505932   0.07682729
4006.00   4.99166441   0.07704697
4008.00   5.00557280   0.07773667
4010.00   4.88763762   0.07728577
4012.00   5.00176477   0.07764535
4014.00   4.90010500   0.07685291
4016.00   4.91422892   0.07706206
4018.00   4.79570055   0.07649447
4020.00   4.89440393   0.07808174
4022.00   4.86236525   0.07815306
4024.00   4.89041090   0.07755851
4026.00   4.90854311   0.07695708
4028.00   4.93774366   0.07630823
4030.00   4.83903980   0.07555100
4032.00   4.79628277   0.07454231
4034.00   4.75893497   0.07415583
4036.00   4.92107534   0.07511503
4038.00   4.78071880   0.07396750
4040.00   4.61073494   0.07323031
4042.00   4.69280005   0.07447453
4044.00   4.78012371   0.08099895
4046.00   4.88744736   0.08726255
4048.00   4.78073740   0.08549239
4050.00   4.69464970   0.07762510
4052.00   4.76094007   0.07451350
4054.00   4.73551226   0.07378028
4056.00   4.65107203   0.07293414
4058.00   4.77166557   0.07266597
4060.00   4.74585009   0.07241286
4062.00   4.65848398   0.07188331
4064.00   4.68349838   0.07240851
4066.00   4.80892420   0.07294209
4068.00   4.81827164   0.07277589
4070.00   4.82013798   0.07223492
4072.00   4.79689360   0.07182112
4074.00   4.66209316   0.07132354
4076.00   4.75245571   0.07280727
4078.00   4.87982082   0.07387270
4080.00   4.80514431   0.07328644
4082.00   4.76821899   0.07264360
4084.00   4.87951803   0.07230382
4086.00   4.81341076   0.07178289
4088.00   4.89370012   0.07170171
4090.00   4.78224850   0.07049184
4092.00   4.79236555   0.07031029
4094.00   4.87083244   0.07032676
4096.00   4.87076187   0.07007013
4098.00   4.90309572   0.06973443
4100.00   4.86932659   0.06979509
4102.00   4.91109991   0.06996527
4104.00   4.91324091   0.06979150
4106.00   4.80162096   0.06891176
4108.00   4.92797899   0.06957389
4110.00   4.92505550   0.06968188
4112.00   4.90125179   0.06915408
4114.00   5.09148264   0.07004323
4116.00   4.89958525   0.06897999
4118.00   5.01525211   0.06952210
4120.00   5.04533339   0.06943640
4122.00   4.98215389   0.06917240
4124.00   5.03523445   0.06944150
4126.00   5.02286243   0.06912642
4128.00   4.99261284   0.06916542
4130.00   4.87161303   0.06873967
4132.00   4.89786577   0.06884176
4134.00   4.88483858   0.06855302
4136.00   4.89714956   0.06822964
4138.00   4.93429422   0.06845944
4140.00   4.83915138   0.06811275
4142.00   4.87206221   0.06748159
4144.00   4.80080700   0.06689215
4146.00   4.92805481   0.06745384
4148.00   4.82470942   0.06685242
4150.00   4.68212080   0.06619615
4152.00   4.93388557   0.06777737
4154.00   4.87916040   0.06715512
4156.00   4.82343054   0.06659920
4158.00   4.70258379   0.06612168
4160.00   4.71111727   0.06584228
4162.00   4.67283821   0.06601691
4164.00   4.68565464   0.06657967
4166.00   4.52715588   0.06602971
4168.00   4.60534954   0.06555283
4170.00   4.55378294   0.06499542
4172.00   4.41756105   0.06392797
4174.00   4.33433676   0.06294907
4176.00   4.42417002   0.06319702
4178.00   4.41657209   0.06311168
4180.00   4.46590042   0.06326187
4182.00   4.31176472   0.06208156
4184.00   4.27318764   0.06164968
4186.00   4.28954506   0.06167547
4188.00   4.32616854   0.06168156
4190.00   4.22900248   0.06123481
4192.00   4.24088192   0.06116454
4194.00   4.29045868   0.06124531
4196.00   4.19099045   0.06029534
4198.00   4.23523378   0.06034893
4200.00   4.25016975   0.06044159
4202.00   4.17205715   0.05989793
4204.00   4.12995720   0.05951520
4206.00   4.06109905   0.05945455
4208.00   4.12037325   0.05982142
4210.00   4.08714104   0.05967795
4212.00   4.08285379   0.05955072
4214.00   4.12476158   0.05942737
4216.00   4.13363218   0.05947172
4218.00   4.03758240   0.05875200
4220.00   4.09031200   0.05879962
4222.00   4.14183140   0.05907038
4224.00   4.06622219   0.05833711
4226.00   4.11911964   0.05842970
4228.00   3.98071337   0.05782587
4230.00   3.97765279   0.05792753
4232.00   3.95695758   0.05777840
4234.00   3.90523434   0.05772774
4236.00   3.91662240   0.05743486
4238.00   3.87321877   0.05733869
4240.00   3.80319023   0.05669676
4242.00   3.75207591   0.05612744
4244.00   3.84431577   0.05712071
4246.00   3.81952977   0.05791002
4248.00   3.66907239   0.05691866
4250.00   3.65484166   0.05609397
4252.00   3.70263720   0.05586464
4254.00   3.66887951   0.05538547
4256.00   3.64118147   0.05498460
4258.00   3.48001528   0.05435193
4260.00   3.47889042   0.05398800
4262.00   3.47439480   0.05404404
4264.00   3.50642800   0.05375621
4266.00   3.48619962   0.05369074
4268.00   3.46402049   0.05348197
4270.00   3.44918275   0.05322708
4272.00   3.40602946   0.05293319
4274.00   3.35140038   0.05269478
4276.00   3.29909611   0.05267930
4278.00   3.38244343   0.05279766
4280.00   3.16477561   0.05151743
4282.00   3.19615698   0.05179511
4284.00   3.20632792   0.05181765
4286.00   3.28619862   0.05196699
4288.00   3.20787907   0.05132889
4290.00   3.16928816   0.05097530
4292.00   3.17677021   0.05098061
4294.00   2.99803877   0.05018061
4296.00   3.03762722   0.05008295
4298.00   3.00207090   0.04985750
4300.00   3.04377842   0.04995048
4302.00   2.98009276   0.04940782
4304.00   2.95222497   0.04921401
4306.00   2.97499800   0.04946585
4308.00   2.97300363   0.04952229
4310.00   2.83254743   0.04887037
4312.00   2.86587763   0.04951672
4314.00   2.97674274   0.05055143
4316.00   2.93881273   0.05039861
4318.00   2.86714435   0.04991511
4320.00   2.78297615   0.04959204
4322.00   2.73638272   0.04902202
4324.00   2.76744747   0.04857022
4326.00   2.80331254   0.04865941
4328.00   2.86374211   0.04884897
4330.00   2.74099088   0.04789285
4332.00   2.71716595   0.04766510
4334.00   2.79385185   0.04805885
4336.00   2.64204359   0.04738044
4338.00   2.69526076   0.04759641
4340.00   2.65956807   0.04747123
4342.00   2.69985485   0.04786982
4344.00   2.64889407   0.04768473
4346.00   2.68988872   0.04835411
4348.00   2.75772381   0.04886125
4350.00   2.75269365   0.04845086
4352.00   2.73278451   0.04808766
4354.00   2.71282935   0.04972285
4356.00   2.54302812   0.05898182
4358.00   2.81280661   0.06705473
4360.00   2.73292446   0.06407298
4362.00   2.69718289   0.05638351
4364.00   2.68127775   0.05058122
4366.00   2.63428760   0.04832266
4368.00   2.68644691   0.04803533
4370.00   2.68454099   0.04772660
4372.00   2.66393399   0.04753191
4374.00   2.72083378   0.04830305
4376.00   2.68502283   0.04792807
4378.00   2.69610071   0.04767762
4380.00   2.69826245   0.04717447
4382.00   2.70611644   0.04695638
4384.00   2.71346593   0.04673828
4386.00   2.69705272   0.04661658
4388.00   2.70099521   0.04666575
4390.00   2.82269764   0.04735703
4392.00   2.79723287   0.04706670
4394.00   2.78724027   0.04690755
4396.00   2.88820004   0.04722001
4398.00   2.90228772   0.04794621
4400.00   2.80957127   0.04754550
4402.00   3.00896716   0.04852499
4404.00   2.99981380   0.04824822
4406.00   2.94556189   0.04794157
4408.00   2.96800280   0.04830786
4410.00   3.04340148   0.04854191
4412.00   3.07975817   0.04873686
4414.00   3.06587243   0.04892763
4416.00   3.02908564   0.04852584
4418.00   3.04374003   0.04858145
4420.00   3.02884865   0.04808633
4422.00   3.13809013   0.04860286
4424.00   3.06440353   0.04803241
4426.00   3.06463718   0.04801578
4428.00   3.03791809   0.04801609
4430.00   3.06895494   0.04780572
4432.00   3.08305097   0.04809529
4434.00   3.05836773   0.04782763
4436.00   2.99815035   0.04763830
4438.00   3.13299513   0.04822293
4440.00   3.17511249   0.04833836
4442.00   3.16124558   0.04827765
4444.00   3.13790226   0.04821246
4446.00   3.25817943   0.04875802
4448.00   3.17323208   0.04806583
4450.00   3.12163448   0.04807341
4452.00   3.10866690   0.04776670
4454.00   3.16416574   0.04770172
4456.00   3.14046979   0.04757326
4458.00   3.20728755   0.04772874
4460.00   3.18872833   0.04753521
4462.00   3.08109689   0.04711620
4464.00   3.04082441   0.04703011
4466.00   3.15082526   0.04727089
4468.00   3.09442019   0.04695060
4470.00   3.13999295   0.04712011
4472.00   3.04359221   0.04676030
4474.00   3.02108622   0.04666711
4476.00   3.08720613   0.04693401
4478.00   3.00573158   0.04648098
4480.00   3.00725007   0.04649396
4482.00   3.04274797   0.04654163
4484.00   3.08857155   0.04668961
4486.00   3.06563401   0.04671149
4488.00   3.11160421   0.04664341
4490.00   3.03792882   0.04650160
4492.00   2.94173074   0.04606187
4494.00   3.02957153   0.04639861
4496.00   3.13439560   0.04673803
4498.00   3.05318999   0.04663386
4500.00   3.04937243   0.04633565
4502.00   3.11499548   0.04644755
4504.00   3.21158171   0.04698702
4506.00   3.14605784   0.04661507
4508.00   3.17255712   0.04677821
4510.00   3.21265531   0.04669860
4512.00   3.22653890   0.04670628
4514.00   3.26498365   0.04697627
4516.00   3.17283201   0.04631089
4518.00   3.28295350   0.04674456
4520.00   3.24127483   0.04646517
4522.00   3.35905457   0.04702558
4524.00   3.38533831   0.04685716
4526.00   3.38868904   0.04712113
4528.00   3.40234280   0.04750160
4530.00   3.34665298   0.04684108
4532.00   3.36657333   0.04698697
4534.00   3.43749547   0.04719854
4536.00   3.45216179   0.04719592
4538.00   3.55836034   0.04761896
4540.00   3.51144099   0.04732234
4542.00   3.42622852   0.04698155
4544.00   3.48416352   0.04722868
4546.00   3.51073551   0.04726097
4548.00   3.45611000   0.04691969
4550.00   3.46581006   0.04678102
4552.00   3.44760251   0.04661183
4554.00   3.43573666   0.04651581
4556.00   3.47108221   0.04665609
4558.00   3.45976019   0.04646589
4560.00   3.42134690   0.04636894
4562.00   3.42674637   0.04612477
4564.00   3.31220770   0.04537879
4566.00   3.33533072   0.04534802
4568.00   3.35930037   0.04561472
4570.00   3.28938460   0.04507283
4572.00   3.42801714   0.04558982
4574.00   3.37026572   0.04548344
4576.00   3.37530184   0.04549436
4578.00   3.34617352   0.04537421
4580.00   3.32791376   0.04500254
4582.00   3.28344846   0.04486385
4584.00   3.33972430   0.04508892
4586.00   3.22473598   0.04421253
4588.00   3.23726487   0.04436890
4590.00   3.30927634   0.04451610
4592.00   3.29603052   0.04456984
4594.00   3.19315290   0.04382356
4596.00   3.21731329   0.04389643
4598.00   3.33595014   0.04450897
4600.00   3.26131797   0.04412626
4602.00   3.25129437   0.04383950
4604.00   3.17888522   0.04342090
4606.00   3.30713367   0.04397768
4608.00   3.24509358   0.04384445
4610.00   3.25752449   0.04390513
4612.00   3.29137754   0.04391618
4614.00   3.22176957   0.04349209
4616.00   3.32990003   0.04390916
4618.00   3.27638531   0.04375292
4620.00   3.27993083   0.04356095
4622.00   3.27694893   0.04364281
4624.00   3.23583698   0.04325003
4626.00   3.16953683   0.04293539
4628.00   3.24781895   0.04327502
4630.00   3.22526026   0.04317709
4632.00   3.21482229   0.04305478
4634.00   3.14240789   0.04261814
4636.00   3.22184372   0.04291852
4638.00   3.22804713   0.04300474
4640.00   3.20024943   0.04275125
4642.00   3.20232725   0.04282302
4644.00   3.20446205   0.04271535
4646.00   3.29438162   0.04301366
4648.00   3.25531769   0.04277920
4650.00   3.23442125   0.04266120
4652.00   3.24373746   0.04270000
4654.00   3.18464518   0.04246724
4656.00   3.24389482   0.04289771
4658.00   3.22175884   0.04292335
4660.00   3.20464754   0.04288387
4662.00   3.19281054   0.04292722
4664.00   3.14850378   0.04264480
4666.00   3.11068559   0.04249888
4668.00   3.10592103   0.04262892
4670.00   3.15021348   0.04291039
4672.00   3.12186360   0.04277701
4674.00   3.13066626   0.04276256
4676.00   3.15938425   0.04273537
4678.00   3.12225676   0.04236912
4680.00   3.12506962   0.04226406
4682.00   3.08403587   0.04195415
4684.00   3.14689660   0.04226510
4686.00   3.18942380   0.04222799
4688.00   3.27788663   0.04272643
4690.00   3.24306655   0.04236351
4692.00   3.15282655   0.04196991
4694.00   3.19093132   0.04219776
4696.00   3.15262914   0.04176610
4698.00   3.12784028   0.04166105
4700.00   3.09598231   0.04146586
4702.00   3.09302616   0.04146050
4704.00   3.09991407   0.04141568
4706.00   3.01443791   0.04111664
4708.00   2.96554613   0.04078981
4710.00   2.97128844   0.04098336
4712.00   2.97873759   0.04099035
4714.00   2.97180557   0.04102470
4716.00   2.98765826   0.04123466
4718.00   2.85367203   0.04021989
4720.00   2.93547893   0.04053980
4722.00   2.87977982   0.04030355
4724.00   2.90206647   0.04043050
4726.00   2.91211057   0.04057147
4728.00   2.91703629   0.04098612
4730.00   2.84574223   0.04065491
4732.00   2.84434152   0.04064927
4734.00   2.79862857   0.04041208
4736.00   2.82791638   0.04073844
4738.00   2.85321808   0.04098049
4740.00   2.87330961   0.04148804
4742.00   2.76967406   0.04119782
4744.00   2.79550958   0.04105750
4746.00   2.77355814   0.04042739
4748.00   2.68039989   0.03932925
4750.00   2.72788811   0.03934462
4752.00   2.68093300   0.03927902
4754.00   2.61802959   0.03890000
4756.00   2.60636926   0.03840414
4758.00   2.66986513   0.03860710
4760.00   2.59307790   0.03820665
4762.00   2.66562653   0.03844229
4764.00   2.64079285   0.03817071
4766.00   2.56780672   0.03774648
4768.00   2.66928196   0.03833326
4770.00   2.60543656   0.03792416
4772.00   2.56517291   0.03759862
4774.00   2.57559133   0.03781208
4776.00   2.57443500   0.03800015
4778.00   2.58851719   0.03820963
4780.00   2.60534906   0.03816662
4782.00   2.57519126   0.03788833
4784.00   2.55636883   0.03771596
4786.00   2.58451486   0.03805501
4788.00   2.58353806   0.03993016
4790.00   2.59803081   0.03772125
4792.00   2.61574674   0.03793601
4794.00   2.62698960   0.03811712
4796.00   2.57811785   0.03783269
4798.00   2.57395720   0.03766495
4800.00   2.61911631   0.03799174
4802.00   2.52628517   0.03733265
4804.00   2.57858253   0.03769554
4806.00   2.61477327   0.03773646
4808.00   2.64046359   0.03783083
4810.00   2.64797831   0.03783401
4812.00   2.60157061   0.03780616
4814.00   2.64363074   0.03804062
4816.00   2.57869697   0.03792751
4818.00   2.57160306   0.03783914
4820.00   2.59344411   0.03790575
4822.00   2.56052709   0.03782045
4824.00   2.59356022   0.03792935
4826.00   2.61277914   0.03815296
4828.00   2.54952669   0.03774076
4830.00   2.60872006   0.03819298
4832.00   2.60931921   0.03815143
4834.00   2.65419602   0.03824678
4836.00   2.62654805   0.03864143
4838.00   2.62712979   0.03834183
4840.00   2.62005973   0.03821192
4842.00   2.64276505   0.03829102
4844.00   2.63827944   0.03798675
4846.00   2.62462735   0.03793972
4848.00   2.62899327   0.03792615
4850.00   2.70758367   0.03823231
4852.00   2.71574116   0.03819968
4854.00   2.69508910   0.03800199
4856.00   2.62550592   0.03756809
4858.00   2.57662606   0.03734872
4860.00   2.58065701   0.03784541
4862.00   2.58576417   0.03773734
4864.00   2.54099965   0.03744186
4866.00   2.58802223   0.03747413
4868.00   2.59070706   0.03742603
4870.00   2.59067965   0.03729741
4872.00   2.54823875   0.03702149
4874.00   2.53914213   0.03688892
4876.00   2.56421399   0.03711366
4878.00   2.48600626   0.03680355
4880.00   2.57431126   0.03710359
4882.00   2.51822495   0.03694544
4884.00   2.40363526   0.03622782
4886.00   2.41215801   0.03626771
4888.00   2.45926666   0.03647042
4890.00   2.40720630   0.03603896
4892.00   2.34178638   0.03570446
4894.00   2.39199829   0.03604461
4896.00   2.38192868   0.03592826
4898.00   2.38056660   0.03595989
4900.00   2.37164164   0.03579060
4902.00   2.31919169   0.03546391
4904.00   2.37250447   0.03569079
4906.00   2.34634018   0.03567639
4908.00   2.37708759   0.03569669
4910.00   2.39567828   0.03567704
4912.00   2.36015821   0.03568294
4914.00   2.28999877   0.03525004
4916.00   2.28085804   0.03511861
4918.00   2.29221821   0.03514955
4920.00   2.30244446   0.03513696
4922.00   2.28530049   0.03509417
4924.00   2.16886353   0.03451079
4926.00   2.29271221   0.03501357
4928.00   2.27990603   0.03501813
4930.00   2.25054789   0.03478772
4932.00   2.20458388   0.03440078
4934.00   2.23837900   0.03460182
4936.00   2.26522827   0.03478139
4938.00   2.15483332   0.03431910
4940.00   2.23203945   0.03455931
4942.00   2.27171803   0.03460071
4944.00   2.19990873   0.03425933
4946.00   2.22688532   0.03447187
4948.00   2.24729395   0.03433999
4950.00   2.15496063   0.03411087
4952.00   2.16780877   0.03440999
4954.00   2.23873043   0.03463288
4956.00   2.22020149   0.03447061
4958.00   2.20592046   0.03422594
4960.00   2.23278832   0.03443509
4962.00   2.14225054   0.03413218
4964.00   2.16586757   0.03423689
4966.00   2.09031749   0.03394030
4968.00   2.16173291   0.03441514
4970.00   2.21697998   0.03469530
4972.00   2.12856340   0.03453732
4974.00   2.18078876   0.03486335
4976.00   2.16631317   0.03492148
4978.00   2.09482884   0.03523364
4980.00   2.11089349   0.03565965
4982.00   2.17551494   0.03593129
4984.00   2.16511130   0.03598176
4986.00   2.15221691   0.03582089
4988.00   2.15176082   0.03565104
4990.00   2.20757389   0.03563668
4992.00   2.16313553   0.03520878
4994.00   2.21005964   0.03505960
4996.00   2.21248150   0.03486029
4998.00   2.13593173   0.03413314
5000.00   2.14964938   0.03421012
5002.00   2.15630126   0.03402578
5004.00   2.18162632   0.03412317
5006.00   2.23256969   0.03425688
5008.00   2.23386955   0.03452942
5010.00   2.19954586   0.03422634
5012.00   2.25169325   0.03423498
5014.00   2.21312499   0.03415428
5016.00   2.24494219   0.03413414
5018.00   2.16029882   0.03393824
5020.00   2.25111794   0.03435791
5022.00   2.24544668   0.03444790
5024.00   2.25711608   0.03437054
5026.00   2.18047118   0.03404198
5028.00   2.16433287   0.03400942
5030.00   2.16420865   0.03396267
5032.00   2.18939638   0.03422263
5034.00   2.17103243   0.03394403
5036.00   2.17445827   0.03397161
5038.00   2.19260764   0.03397420
5040.00   2.15568042   0.03373834
5042.00   2.26335692   0.03421341
5044.00   2.20159531   0.03398516
5046.00   2.25863528   0.03427997
5048.00   2.18325925   0.03390099
5050.00   2.23350120   0.03424432
5052.00   2.23965597   0.03419953
5054.00   2.25832319   0.03423230
5056.00   2.16248035   0.03381750
5058.00   2.20364189   0.03408901
5060.00   2.26276350   0.03430749
5062.00   2.27519822   0.03454966
5064.00   2.25135183   0.03449233
5066.00   2.27291560   0.03478242
5068.00   2.28813553   0.03510057
5070.00   2.30119014   0.03530220
5072.00   2.32956767   0.03522251
5074.00   2.36776114   0.03534170
5076.00   2.40757179   0.03540966
5078.00   2.35522318   0.03531816
5080.00   2.38085055   0.03613341
5082.00   2.33175039   0.03667413
5084.00   2.34032011   0.03716205
5086.00   2.31029654   0.03710981
5088.00   2.43055034   0.03711348
5090.00   2.44496775   0.03669636
5092.00   2.37618017   0.03599292
5094.00   2.41751480   0.03590287
5096.00   2.45644474   0.03597067
5098.00   2.39427495   0.03566966
5100.00   2.39434934   0.03567003
5102.00   2.39719892   0.03560914
5104.00   2.43256116   0.03549364
5106.00   2.40023541   0.03532087
5108.00   2.47045970   0.03532790
5110.00   2.44567037   0.03540348
5112.00   2.50779080   0.03558464
5114.00   2.50023913   0.03565730
5116.00   2.52649403   0.03572177
5118.00   2.48262358   0.03550573
5120.00   2.45332003   0.03528151
5122.00   2.56613851   0.03572056
5124.00   2.56539917   0.03552211
5126.00   2.54129744   0.03559899
5128.00   2.57258153   0.03567467
5130.00   2.55860782   0.03563779
5132.00   2.59327340   0.03586482
5134.00   2.56879449   0.03577561
5136.00   2.59837937   0.03586015
5138.00   2.65787625   0.03625486
5140.00   2.60579038   0.03595870
5142.00   2.58347511   0.03574469
5144.00   2.59902620   0.03597936
5146.00   2.58523583   0.03605553
5148.00   2.60771585   0.03614969
5150.00   2.56810451   0.03616612
5152.00   2.66783595   0.03679980
5154.00   2.60753179   0.03648641
5156.00   2.65998936   0.03670917
5158.00   2.59632516   0.03626009
5160.00   2.57742405   0.03592635
5162.00   2.65722895   0.03629620
5164.00   2.61393023   0.03596253
5166.00   2.72765303   0.03637787
5168.00   2.66420341   0.03609105
5170.00   2.57540393   0.03552613
5172.00   2.62939024   0.03575322
5174.00   2.60489726   0.03558434
5176.00   2.67979455   0.03603677
5178.00   2.65416884   0.03601373
5180.00   2.64226556   0.03585557
5182.00   2.63263726   0.03572403
5184.00   2.67783761   0.03601028
5186.00   2.60433078   0.03578531
5188.00   2.72280502   0.03620470
5190.00   2.67013931   0.03609343
5192.00   2.61641574   0.03575931
5194.00   2.69092536   0.03605661
5196.00   2.67179275   0.03601491
5198.00   2.72504139   0.03646802
5200.00   2.69446564   0.03637632
5202.00   2.67740154   0.03622544
5204.00   2.61900377   0.03600637
5206.00   2.63719177   0.03590029
5208.00   2.64997864   0.03607620
5210.00   2.64151192   0.03597033
5212.00   2.61350608   0.03564682
5214.00   2.65617561   0.03590534
5216.00   2.62792349   0.03575839
5218.00   2.60228586   0.03564752
5220.00   2.59902692   0.03567412
5222.00   2.59761286   0.03561735
5224.00   2.60433388   0.03552470
5226.00   2.72595477   0.03603910
5228.00   2.66000247   0.03580483
5230.00   2.57843328   0.03541508
5232.00   2.61638021   0.03547715
5234.00   2.60891628   0.03544514
5236.00   2.61653996   0.03551383
5238.00   2.59348655   0.03535210
5240.00   2.56976819   0.03535046
5242.00   2.65873551   0.03569510
5244.00   2.61779904   0.03537812
5246.00   2.65060806   0.03554724
5248.00   2.58635807   0.03514634
5250.00   2.58494687   0.03505700
5252.00   2.58542871   0.03508507
5254.00   2.62640905   0.03552270
5256.00   2.60832548   0.03545278
5258.00   2.60229707   0.03548751
5260.00   2.60172653   0.03527143
5262.00   2.62726736   0.03521971
5264.00   2.53665948   0.03464048
5266.00   2.57604122   0.03486298
5268.00   2.62131810   0.03509145
5270.00   2.57700658   0.03477278
5272.00   2.59549379   0.03489120
5274.00   2.53694987   0.03474642
5276.00   2.50968909   0.03473375
5278.00   2.49839854   0.03450819
5280.00   2.52024460   0.03456730
5282.00   2.54862905   0.03474205
5284.00   2.46284199   0.03427499
5286.00   2.46213222   0.03435256
5288.00   2.44072223   0.03426191
5290.00   2.45202637   0.03424089
5292.00   2.44040751   0.03420226
5294.00   2.45422912   0.03406141
5296.00   2.49620795   0.03436806
5298.00   2.43283772   0.03420238
5300.00   2.45586991   0.03422827
5302.00   2.36018729   0.03389604
5304.00   2.33539248   0.03371144
5306.00   2.40021038   0.03395343
5308.00   2.36978364   0.03392059
5310.00   2.37821126   0.03376822
5312.00   2.36980319   0.03387462
5314.00   2.38271260   0.03386210
5316.00   2.38226938   0.03394793
5318.00   2.31528783   0.03362602
5320.00   2.32576084   0.03356185
5322.00   2.31263137   0.03361205
5324.00   2.31202888   0.03345953
5326.00   2.27821445   0.03345563
5328.00   2.32989645   0.03357999
5330.00   2.32405853   0.03370559
5332.00   2.34568071   0.03374976
5334.00   2.32523227   0.03368923
5336.00   2.27340651   0.03361429
5338.00   2.24384451   0.03347791
5340.00   2.24237204   0.03355055
5342.00   2.30465961   0.03374893
5344.00   2.26886082   0.03372143
5346.00   2.25092697   0.03364890
5348.00   2.23817039   0.03374879
5350.00   2.25071979   0.03384679
5352.00   2.20835328   0.03373266
5354.00   2.24278092   0.03398037
5356.00   2.25898600   0.03411676
5358.00   2.20811415   0.03373168
5360.00   2.16900015   0.03332023
5362.00   2.20507503   0.03340073
5364.00   2.24547195   0.03343248
5366.00   2.17563248   0.03316190
5368.00   2.17725229   0.03318129
5370.00   2.19319510   0.03314617
5372.00   2.15993452   0.03310537
5374.00   2.10099983   0.03308025
5376.00   2.07846594   0.03299106
5378.00   2.09476829   0.03312004
5380.00   2.12134504   0.03323453
5382.00   2.06826735   0.03296298
5384.00   2.11948633   0.03338330
5386.00   2.07462502   0.03317842
5388.00   2.07027149   0.03325113
5390.00   2.09983087   0.03354452
5392.00   2.11899781   0.03389904
5394.00   2.14387655   0.03397398
5396.00   2.03027058   0.03349173
5398.00   2.09912276   0.03407311
5400.00   2.12520528   0.03428135
5402.00   2.08681273   0.03419070
5404.00   2.07746363   0.03428248
5406.00   2.10279322   0.03453458
5408.00   2.05716658   0.03466770
5410.00   2.04690003   0.03476495
5412.00   2.11093783   0.03541178
5414.00   2.07172465   0.03552521
5416.00   2.06211543   0.03572350
5418.00   2.13782525   0.03646958
5420.00   2.12390900   0.03654993
5422.00   2.00604248   0.03603560
5424.00   2.05665541   0.03645121
5426.00   2.01665092   0.03649401
5428.00   2.09282708   0.03695058
5430.00   2.02857304   0.03667767
5432.00   2.01515245   0.03671351
5434.00   2.15366673   0.03756549
5436.00   2.06876445   0.03737955
5438.00   2.04789901   0.03750410
5440.00   2.10638332   0.03796839
5442.00   2.06942701   0.03802246
5444.00   2.07559419   0.03821311
5446.00   2.08618665   0.03874366
5448.00   2.04522467   0.03841995
5450.00   2.03111482   0.03871956
5452.00   2.02187490   0.03876946
5454.00   1.98404491   0.03886380
5456.00   2.04215097   0.04082610
5458.00   2.00846457   0.04491939
5460.00   2.00998020   0.04748532
5462.00   1.97003043   0.04693399
5464.00   2.02642536   0.04576053
5466.00   1.98168194   0.04433424
5468.00   1.95940018   0.04299415
5470.00   1.88513470   0.04150919
5472.00   1.97722948   0.04106584
5474.00   2.00684309   0.04032070
5476.00   1.92477155   0.03972051
5478.00   1.95748138   0.04000260
5480.00   1.98974895   0.04051078
5482.00   1.92432714   0.04036718
5484.00   1.90110946   0.04032728
5486.00   1.97213042   0.04067189
5488.00   1.97091746   0.04043309
5490.00   1.97515690   0.04030941
5492.00   1.96292067   0.04033511
5494.00   1.92756510   0.04003553
5496.00   1.93847406   0.04001448
5498.00   1.91752887   0.03995963
5500.00   1.93767595   0.04017568
5502.00   1.91677535   0.04015499
5504.00   1.86920941   0.03980993
5506.00   1.90992129   0.04026523
5508.00   1.89446509   0.03999336
5510.00   1.95494950   0.04058640
5512.00   2.00025582   0.04120125
5514.00   1.95248759   0.04098190
5516.00   1.88275278   0.04053183
5518.00   1.95053792   0.04103494
5520.00   1.91498983   0.04099860
5522.00   1.95210099   0.04126432
5524.00   1.87741065   0.04067896
5526.00   1.82112396   0.04069262
5528.00   1.81445384   0.04043412
5530.00   1.91390252   0.04079918
5532.00   1.86193979   0.04049182
5534.00   1.86996400   0.04050173
5536.00   1.81997871   0.04019916
5538.00   1.92724323   0.04076749
5540.00   1.83766723   0.04061862
5542.00   1.90609443   0.04133874
5544.00   1.76666903   0.04019454
5546.00   1.86553299   0.04109252
5548.00   1.88791716   0.04121845
5550.00   1.86192822   0.04120923
5552.00   1.96810007   0.04189711
5554.00   1.90966415   0.04143921
5556.00   1.88101113   0.04173731
5558.00   1.88959765   0.04167460
5560.00   1.97213876   0.04244043
5562.00   1.95592833   0.04253389
5564.00   1.81529284   0.04179870
5566.00   1.89354992   0.04248906
5568.00   1.84186268   0.04210447
5570.00   1.87375200   0.04266641
5572.00   1.93831694   0.04849562
5574.00   1.92944169   0.06664292
5576.00   2.09154320   0.07888552
5578.00   1.91178763   0.07613877
5580.00   1.78910232   0.06922052
5582.00   1.93909883   0.06551743
5584.00   1.89750206   0.06002638
5586.00   1.87251306   0.05561876
5588.00   1.91197848   0.05102830
5590.00   2.01037073   0.04721460
5592.00   1.90038252   0.04421150
5594.00   1.83902895   0.05375031
5596.00   1.88377094   0.05362540
5598.00   1.90393603   0.05332568
5600.00   1.90120637   0.05303165
5602.00   1.86384141   0.05249448
5604.00   1.84100854   0.05202029
5606.00   1.84735107   0.05166204
5608.00   1.85523701   0.05130777
5610.00   1.79911613   0.05050250
5612.00   1.79898655   0.05014447
5614.00   1.82291734   0.04999177
5616.00   1.83175087   0.04976289
5618.00   1.80839634   0.04942000
5620.00   1.82381666   0.04932222
5622.00   1.84370100   0.04934119
5624.00   1.78886282   0.04859391
5626.00   1.76851094   0.04798718
5628.00   1.80827820   0.04812068
5630.00   1.77661455   0.04860426
5632.00   1.80452728   0.04796944
5634.00   1.81328762   0.04729346
5636.00   1.79588318   0.04696189
5638.00   1.77315676   0.04699138
5640.00   1.79923809   0.04716837
5642.00   1.78713524   0.04646354
5644.00   1.78035414   0.04608688
5646.00   1.79604113   0.04606515
5648.00   1.81796682   0.04611951
5650.00   1.82150686   0.04608450
5652.00   1.83265364   0.04590635
5654.00   1.81703913   0.04557385
5656.00   1.79013145   0.04530798
5658.00   1.81018865   0.04549992
5660.00   1.80166912   0.04527611
5662.00   1.82001245   0.04540479
5664.00   1.87186491   0.04575723
5666.00   1.88927805   0.04584914
5668.00   1.82505476   0.04559461
5670.00   1.81365311   0.04566757
5672.00   1.80299091   0.04602009
5674.00   1.79195070   0.04625018
5676.00   1.77976835   0.04601462
5678.00   1.84060752   0.04641015
5680.00   1.84338343   0.04714276
5682.00   1.82873154   0.04761251
5684.00   1.83636379   0.04776095
5686.00   1.87260151   0.04829218
5688.00   1.83148289   0.04809053
5690.00   1.79700708   0.04758060
5692.00   1.80504668   0.04691005
5694.00   1.84306347   0.04619248
5696.00   1.83700454   0.04523132
5698.00   1.83130848   0.04449746
5700.00   1.85245740   0.04398428
5702.00   1.86579192   0.04350356
5704.00   1.86749697   0.04314576
5706.00   1.85962689   0.04292991
5708.00   1.85558259   0.04258528
5710.00   1.86043978   0.04241833
5712.00   1.87327135   0.04240604
5714.00   1.88354075   0.04240880
5716.00   1.90639222   0.04242409
5718.00   1.88603842   0.04198748
5720.00   1.86639941   0.04171746
5722.00   1.85495758   0.04159245
5724.00   1.84962940   0.04126997
5726.00   1.85213697   0.04104663
5728.00   1.85211849   0.04100626
5730.00   1.87418973   0.04105831
5732.00   1.87136316   0.04069757
5734.00   1.84234655   0.04026677
5736.00   1.84052241   0.04014389
5738.00   1.87693655   0.04032680
5740.00   1.87781000   0.04024783
5742.00   1.84522402   0.03994330
5744.00   1.80801809   0.03963963
5746.00   1.84976864   0.03983466
5748.00   1.86663854   0.03983917
5750.00   1.86717379   0.03982728
5752.00   1.86222637   0.03983525
5754.00   1.82639182   0.03962047
5756.00   1.85931313   0.03980905
5758.00   1.85074425   0.03985818
5760.00   1.83944798   0.03998424
5762.00   1.83004284   0.04016781
5764.00   1.82096469   0.04040463
5766.00   1.81533730   0.04073231
5768.00   1.81452715   0.04103182
5770.00   1.81709194   0.04109370
5772.00   1.80851400   0.04081601
5774.00   1.77867258   0.04028437
5776.00   1.75768912   0.03975064
5778.00   1.77910483   0.03934372
5780.00   1.79540670   0.03902009
5782.00   1.77458763   0.03887867
5784.00   1.76060927   0.03908825
5786.00   1.77895796   0.03963099
5788.00   1.79040182   0.04004724
5790.00   1.77800977   0.04012060
5792.00   1.77041972   0.03992542
5794.00   1.80689490   0.03998124
5796.00   1.79784679   0.03962518
5798.00   1.77454436   0.03901718
5800.00   1.78895700   0.03861985
5802.00   1.76820862   0.03825616
5804.00   1.78854907   0.03826820
5806.00   1.78819084   0.03829492
5808.00   1.76557350   0.03830693
5810.00   1.74573743   0.03827757
5812.00   1.73920333   0.03825419
5814.00   1.72420704   0.03788875
5816.00   1.74473000   0.03775438
5818.00   1.77615643   0.03786499
5820.00   1.76434457   0.03788276
5822.00   1.75203979   0.03781221
5824.00   1.73841953   0.03776744
5826.00   1.72595584   0.03771787
5828.00   1.70681679   0.03759548
5830.00   1.70507061   0.03757180
5832.00   1.71010542   0.03761258
5834.00   1.74280977   0.03783063
5836.00   1.74384296   0.03787240
5838.00   1.71278536   0.03770473
5840.00   1.69546831   0.03757510
5842.00   1.72810900   0.03788950
5844.00   1.72497833   0.03787358
5846.00   1.72190249   0.03776846
5848.00   1.74084520   0.03779015
5850.00   1.76416445   0.03794189
5852.00   1.73708379   0.03787553
5854.00   1.72172439   0.03787679
5856.00   1.73268950   0.03800936
5858.00   1.76587903   0.03830576
5860.00   1.74344599   0.03844098
5862.00   1.72037697   0.03840905
5864.00   1.71094501   0.03866014
5866.00   1.73415625   0.03912310
5868.00   1.75388944   0.03930589
5870.00   1.71424329   0.03900528
5872.00   1.70144045   0.03889613
5874.00   1.71979678   0.03884484
5876.00   1.73819780   0.03894432
5878.00   1.73763239   0.03947829
5880.00   1.74146330   0.04058839
5882.00   1.74430370   0.04263353
5884.00   1.68605042   0.04594724
5886.00   1.62452269   0.05048012
5888.00   1.61656618   0.05534898
5890.00   1.63472235   0.05865609
5892.00   1.62877429   0.06060826
5894.00   1.63789177   0.06090496
5896.00   1.65186167   0.05884283
5898.00   1.64017713   0.05410929
5900.00   1.68561125   0.04963498
5902.00   1.69104004   0.04548953
5904.00   1.67779887   0.04175477
5906.00   1.68049848   0.03905849
5908.00   1.70597076   0.03837666
5910.00   1.71449411   0.03838509
5912.00   1.69649029   0.03844859
5914.00   1.68284190   0.03853117
5916.00   1.69968796   0.03867456
5918.00   1.69647157   0.03856180
5920.00   1.72701204   0.03868138
5922.00   1.73534071   0.03868204
5924.00   1.70560205   0.03849416
5926.00   1.66569090   0.03826744
5928.00   1.68296731   0.03852986
5930.00   1.70041180   0.03881292
5932.00   1.71495593   0.03893147
5934.00   1.70233595   0.03872295
5936.00   1.69636202   0.03849262
5938.00   1.74142277   0.03841890
5940.00   1.74657059   0.03821223
5942.00   1.71199083   0.03786311
5944.00   1.68428075   0.03762536
5946.00   1.67136574   0.03757244
5948.00   1.71350777   0.03779497
5950.00   1.71506500   0.03789536
5952.00   1.70653355   0.03791653
5954.00   1.71292698   0.03784998
5956.00   1.72994220   0.03779617
5958.00   1.71358097   0.03761626
5960.00   1.70006180   0.03741506
5962.00   1.69231355   0.03719374
5964.00   1.68553293   0.03697651
5966.00   1.71998835   0.03705559
5968.00   1.70840549   0.03700756
5970.00   1.70064449   0.03700770
5972.00   1.70592725   0.03707847
5974.00   1.69664800   0.03708725
5976.00   1.70159578   0.03708747
5978.00   1.69549847   0.03699127
5980.00   1.68540990   0.03682112
5982.00   1.68650723   0.03669840
5984.00   1.70363081   0.03662483
5986.00   1.70163047   0.03648065
5988.00   1.71758282   0.03642975
5990.00   1.68936503   0.03614677
5992.00   1.63237715   0.03599224
5994.00   1.62171745   0.03679324
5996.00   1.62375104   0.03697828
5998.00   1.63342988   0.03699677
6000.00   1.61134684   0.03768608
6002.00   1.58266020   0.03846524
6004.00   1.58884144   0.03595026
6006.00   1.61646688   0.03527011
6008.00   1.61329842   0.03531573
6010.00   1.56977272   0.03564372
6012.00   1.52754676   0.03602758
6014.00   1.57285404   0.03621323
6016.00   1.57458150   0.03512774
6018.00   1.57341564   0.03449421
6020.00   1.56030560   0.03442921
6022.00   1.55413342   0.03441722
6024.00   1.56717813   0.03443518
6026.00   1.55488360   0.03429662
6028.00   1.53380585   0.03410644
6030.00   1.53297472   0.03406445
6032.00   1.56173766   0.03422809
6034.00   1.54398739   0.03399269
6036.00   1.49741828   0.03368047
6038.00   1.47856843   0.03351408
6040.00   1.48779643   0.03344749
6042.00   1.46171725   0.03318347
6044.00   1.44661379   0.03301423
6046.00   1.43690979   0.03287682
6048.00   1.42790639   0.03280437
6050.00   1.41234195   0.03272436
6052.00   1.41650665   0.03263149
6054.00   1.40332091   0.03243252
6056.00   1.39989316   0.03240814
6058.00   1.38883555   0.03237503
6060.00   1.37343931   0.03222480
6062.00   1.35859966   0.03210357
6064.00   1.35564566   0.03200964
6066.00   1.35628116   0.03194838
6068.00   1.33981836   0.03178947
6070.00   1.32899797   0.03167580
6072.00   1.28993070   0.03139019
6074.00   1.30280316   0.03143739
6076.00   1.29990768   0.03138508
6078.00   1.27003014   0.03112731
6080.00   1.24085176   0.03091057
6082.00   1.24374211   0.03086503
6084.00   1.24650180   0.03081078
6086.00   1.24050987   0.03080598
6088.00   1.23218918   0.03082547
6090.00   1.25638616   0.03089720
6092.00   1.26074338   0.03083500
6094.00   1.24570847   0.03086899
6096.00   1.22682726   0.03086067
6098.00   1.22331715   0.03085903
6100.00   1.25318038   0.03116808
6102.00   1.22034168   0.03110768
6104.00   1.20811069   0.03118605
6106.00   1.20940888   0.03141120
6108.00   1.20837247   0.03171508
6110.00   1.16308284   0.03170873
6112.00   1.16237390   0.03191149
6114.00   1.17363703   0.03207417
6116.00   1.17143834   0.03193960
6118.00   1.15452838   0.03149232
6120.00   1.16444933   0.03114285
6122.00   1.15774000   0.03075573
6124.00   1.15892661   0.03047753
6126.00   1.17012918   0.03033835
6128.00   1.17644322   0.03028744
6130.00   1.15575826   0.03006439
6132.00   1.15229356   0.02999896
6134.00   1.16759431   0.03011470
6136.00   1.18920636   0.03028963
6138.00   1.18264413   0.03027345
6140.00   1.16403532   0.03021987
6142.00   1.15818012   0.03019380
6144.00   1.18173277   0.03028762
6146.00   1.20830095   0.03045247
6148.00   1.18621242   0.03035132
6150.00   1.17247736   0.03026561
6152.00   1.16369641   0.03020059
6154.00   1.16219580   0.03027320
6156.00   1.18016100   0.03057743
6158.00   1.18733275   0.03076855
6160.00   1.19997668   0.03081524
6162.00   1.19830728   0.03063922
6164.00   1.19983852   0.03042614
6166.00   1.20087147   0.03023270
6168.00   1.18518484   0.03004881
6170.00   1.18028939   0.02988815
6172.00   1.16081131   0.02961189
6174.00   1.15624416   0.02945425
6176.00   1.20686233   0.02967963
6178.00   1.19617701   0.02952875
6180.00   1.20299089   0.02944812
6182.00   1.20900881   0.02942442
6184.00   1.21306193   0.02946484
6186.00   1.20969629   0.02944393
6188.00   1.23340499   0.02959867
6190.00   1.24180603   0.02964557
6192.00   1.23572028   0.02958724
6194.00   1.22932398   0.02958873
6196.00   1.20569372   0.02941372
6198.00   1.25700152   0.02967480
6200.00   1.27506220   0.02995489
6202.00   1.23333514   0.03024265
6204.00   1.18632638   0.03074716
6206.00   1.20614588   0.03093681
6208.00   1.23026931   0.03107341
6210.00   1.23257458   0.03059023
6212.00   1.22549975   0.02984655
6214.00   1.25226569   0.02970208
6216.00   1.26997578   0.02980379
6218.00   1.27934098   0.02982411
6220.00   1.28220713   0.02979868
6222.00   1.28373480   0.02976046
6224.00   1.27729499   0.02964627
6226.00   1.26847613   0.02960750
6228.00   1.26523054   0.02973414
6230.00   1.25990999   0.03001951
6232.00   1.26927817   0.03054830
6234.00   1.29839897   0.03123228
6236.00   1.28727257   0.03146103
6238.00   1.27360356   0.03153421
6240.00   1.26698542   0.03138555
6242.00   1.27012444   0.03096018
6244.00   1.28944063   0.03051499
6246.00   1.29999495   0.03018804
6248.00   1.29584348   0.02989483
6250.00   1.31784999   0.02996381
6252.00   1.36316645   0.03051539
6254.00   1.36373937   0.03108708
6256.00   1.34670246   0.03137258
6258.00   1.34649932   0.03160078
6260.00   1.37791383   0.03191639
6262.00   1.38617933   0.03198459
6264.00   1.36000443   0.03143070
6266.00   1.36927950   0.03091427
6268.00   1.39348662   0.03069890
6270.00   1.38884032   0.03059257
6272.00   1.37621391   0.03049596
6274.00   1.37555373   0.03058598
6276.00   1.39486372   0.03068741
6278.00   1.40480840   0.03079300
6280.00   1.39257336   0.03089464
6282.00   1.37244940   0.03094389
6284.00   1.37766254   0.03118765
6286.00   1.38433611   0.03140412
6288.00   1.40271246   0.03150211
6290.00   1.42824924   0.03147870
6292.00   1.40722144   0.03166231
6294.00   1.43492377   0.03280595
6296.00   1.46084988   0.03464260
6298.00   1.47259045   0.03636436
6300.00   1.45598257   0.03720834
6302.00   1.42506063   0.03715416
6304.00   1.43066597   0.03673644
6306.00   1.45639288   0.03547727
6308.00   1.48809862   0.03373386
6310.00   1.48704183   0.03229337
6312.00   1.49392378   0.03167303
6314.00   1.51471472   0.03127174
6316.00   1.52866268   0.03103681
6318.00   1.54516411   0.03110716
6320.00   1.56451714   0.03136043
6322.00   1.53785980   0.03117412
6324.00   1.53158092   0.03125855
6326.00   1.55412769   0.03169765
6328.00   1.57084167   0.03205805
6330.00   1.54060841   0.03174590
6332.00   1.56027234   0.03163876
6334.00   1.57328403   0.03145781
6336.00   1.55602205   0.03110730
6338.00   1.54180276   0.03081807
6340.00   1.56626368   0.03079557
6342.00   1.57427180   0.03076308
6344.00   1.57672536   0.03079594
6346.00   1.57565928   0.03087886
6348.00   1.56507933   0.03090890
6350.00   1.59270477   0.03110416
6352.00   1.60011137   0.03129824
6354.00   1.58665383   0.03129246
6356.00   1.58008540   0.03134535
6358.00   1.59937656   0.03183774
6360.00   1.60265923   0.03239637
6362.00   1.60390723   0.03261813
6364.00   1.59759343   0.03250844
6366.00   1.57504237   0.03215332
6368.00   1.54198730   0.03155122
6370.00   1.55311072   0.03089378
6372.00   1.57200468   0.03043927
6374.00   1.57001984   0.03018112
6376.00   1.54922009   0.03004741
6378.00   1.54227018   0.03005944
6380.00   1.54852521   0.03017037
6382.00   1.54473448   0.03021496
6384.00   1.53710842   0.03017786
6386.00   1.53488743   0.03009611
6388.00   1.51764143   0.02988966
6390.00   1.53216934   0.02983189
6392.00   1.52864313   0.02968392
6394.00   1.50763142   0.02944819
6396.00   1.49186134   0.02921809
6398.00   1.46790600   0.02907320
6400.00   1.49307346   0.02918568
6402.00   1.49380875   0.02917042
6404.00   1.46271169   0.02895860
6406.00   1.44192207   0.02874524
6408.00   1.43708885   0.02872213
6410.00   1.44097340   0.02875314
6412.00   1.45070267   0.02878557
6414.00   1.44466925   0.02873307
6416.00   1.42698634   0.02864270
6418.00   1.38888991   0.02839817
6420.00   1.39991188   0.02846102
6422.00   1.41957426   0.02854136
6424.00   1.42422485   0.02845978
6426.00   1.41631162   0.02829723
6428.00   1.39574146   0.02811884
6430.00   1.38553751   0.02803091
6432.00   1.38883650   0.02801249
6434.00   1.39767396   0.02802544
6436.00   1.38999224   0.02793732
6438.00   1.39713383   0.02794670
6440.00   1.40444660   0.02796405
6442.00   1.40767825   0.02798855
6444.00   1.40252078   0.02797571
6446.00   1.39513338   0.02792356
6448.00   1.39322031   0.02793802
6450.00   1.40082371   0.02802996
6452.00   1.43017709   0.02827252
6454.00   1.46380699   0.02852656
6456.00   1.46076238   0.02845970
6458.00   1.44880068   0.02852014
6460.00   1.44815171   0.02882647
6462.00   1.45788670   0.02917744
6464.00   1.47219503   0.02933822
6466.00   1.50537062   0.02965055
6468.00   1.52456129   0.02989424
6470.00   1.52016604   0.02985769
6472.00   1.50203717   0.02953533
6474.00   1.49164450   0.02918041
6476.00   1.49226952   0.02892986
6478.00   1.48539007   0.02865755
6480.00   1.49507856   0.02852199
6482.00   1.52177608   0.02856458
6484.00   1.49510252   0.02831486
6486.00   1.51182926   0.02839893
6488.00   1.52302551   0.02843449
6490.00   1.51966524   0.02841269
6492.00   1.52072465   0.02853312
6494.00   1.52805078   0.02900746
6496.00   1.54096603   0.02954810
6498.00   1.55100214   0.02994757
6500.00   1.54944193   0.03014620
6502.00   1.53969991   0.03022240
6504.00   1.55234396   0.03000081
6506.00   1.53845632   0.02943919
6508.00   1.53494442   0.02906139
6510.00   1.54638863   0.02891530
6512.00   1.53144681   0.02863185
6514.00   1.52167952   0.02838387
6516.00   1.52528226   0.02838800
6518.00   1.53636920   0.02852968
6520.00   1.54289973   0.02865571
6522.00   1.54468679   0.02871961
6524.00   1.57483387   0.02893277
6526.00   1.56546497   0.02900958
6528.00   1.54295099   0.02908544
6530.00   1.55828154   0.02940059
6532.00   1.56237185   0.02952195
6534.00   1.53038657   0.02936328
6536.00   1.53263533   0.02932792
6538.00   1.56092453   0.02936557
6540.00   1.58227694   0.02925807
6542.00   1.58474493   0.02913896
6544.00   1.56406546   0.02896958
6546.00   1.56006491   0.02903771
6548.00   1.55309069   0.02924973
6550.00   1.51626623   0.02931043
6552.00   1.55225766   0.02960567
6554.00   1.57077467   0.02974247
6556.00   1.57635880   0.02987530
6558.00   1.57455730   0.03007970
6560.00   1.57331049   0.03025833
6562.00   1.55650365   0.03020745
6564.00   1.55828512   0.03023163
6566.00   1.56725979   0.03017008
6568.00   1.57062590   0.02983292
6570.00   1.53870571   0.02904011
6572.00   1.54277802   0.02887683
6574.00   1.54087162   0.02903505
6576.00   1.53499794   0.02913350
6578.00   1.52560997   0.02901550
6580.00   1.54898298   0.02921540
6582.00   1.53476369   0.02899421
6584.00   1.52029288   0.02863209
6586.00   1.52551973   0.02839775
6588.00   1.55838728   0.02843749
6590.00   1.54496002   0.02822585
6592.00   1.52741241   0.02801734
6594.00   1.52679908   0.02802348
6596.00   1.53595006   0.02815997
6598.00   1.52896965   0.02813669
6600.00   1.50805533   0.02809393
6602.00   1.49014246   0.02810070
6604.00   1.49316132   0.02811947
6606.00   1.50940764   0.02811106
6608.00   1.49762380   0.02793709
6610.00   1.48809302   0.02772330
6612.00   1.49249554   0.02756322
6614.00   1.49620295   0.02747298
6616.00   1.49025977   0.02740177
6618.00   1.50115359   0.02742790
6620.00   1.51794875   0.02752047
6622.00   1.50910187   0.02751324
6624.00   1.49022186   0.02742787
6626.00   1.48308504   0.02738403
6628.00   1.47863722   0.02740471
6630.00   1.46346700   0.02736244
6632.00   1.46032953   0.02737630
6634.00   1.46917200   0.02742575
6636.00   1.47721159   0.02742947
6638.00   1.48081255   0.02738927
6640.00   1.46750355   0.02723554
6642.00   1.45687497   0.02704906
6644.00   1.44834936   0.02688678
6646.00   1.43756044   0.02681484
6648.00   1.43810701   0.02684407
6650.00   1.44360924   0.02685036
6652.00   1.44565964   0.02686972
6654.00   1.44686937   0.02690939
6656.00   1.44567907   0.02689041
6658.00   1.45386469   0.02693742
6660.00   1.45698452   0.02700811
6662.00   1.45155632   0.02706283
6664.00   1.43626153   0.02704526
6666.00   1.43226528   0.02711041
6668.00   1.41625059   0.02707391
6670.00   1.42903101   0.02712952
6672.00   1.45191038   0.02711164
6674.00   1.46506917   0.02692983
6676.00   1.43082964   0.02660387
6678.00   1.43671954   0.02662930
6680.00   1.45862305   0.02681578
6682.00   1.46886694   0.02690513
6684.00   1.43224561   0.02664099
6686.00   1.40823555   0.02647354
6688.00   1.41758001   0.02655585
6690.00   1.43499410   0.02667987
6692.00   1.42459059   0.02658606
6694.00   1.40691221   0.02640490
6696.00   1.38040352   0.02622373
6698.00   1.37890434   0.02619087
6700.00   1.37995732   0.02623237
6702.00   1.38509238   0.02635426
6704.00   1.38875008   0.02649725
6706.00   1.37871552   0.02635272
6708.00   1.38788164   0.02644659
6710.00   1.39406621   0.02654350
6712.00   1.38800240   0.02654005
6714.00   1.39318264   0.02661324
6716.00   1.38201845   0.02650937
6718.00   1.36780131   0.02634614
6720.00   1.36943543   0.02626427
6722.00   1.40637577   0.02638480
6724.00   1.36011755   0.02591250
6726.00   1.33566439   0.02578260
6728.00   1.35125601   0.02593439
6730.00   1.37740803   0.02614943
6732.00   1.37923956   0.02623203
6734.00   1.35721624   0.02605212
6736.00   1.33917272   0.02588700
6738.00   1.33817327   0.02577216
6740.00   1.34112740   0.02571566
6742.00   1.32763708   0.02566700
6744.00   1.33510399   0.02568051
6746.00   1.33288801   0.02563401
6748.00   1.33389664   0.02562608
6750.00   1.33859050   0.02562390
6752.00   1.33524477   0.02552899
6754.00   1.33068407   0.02549067
6756.00   1.32356465   0.02540905
6758.00   1.31849515   0.02536545
6760.00   1.31249106   0.02534585
6762.00   1.32701397   0.02537518
6764.00   1.32941544   0.02535045
6766.00   1.32332289   0.02530625
6768.00   1.31505263   0.02525165
6770.00   1.30363691   0.02518578
6772.00   1.33162451   0.02534484
6774.00   1.31559455   0.02515564
6776.00   1.29383314   0.02499308
6778.00   1.28503251   0.02496445
6780.00   1.29115474   0.02500466
6782.00   1.31023669   0.02514575
6784.00   1.31700754   0.02521578
6786.00   1.30629647   0.02516074
6788.00   1.29091942   0.02506977
6790.00   1.28978050   0.02508105
6792.00   1.29750144   0.02509377
6794.00   1.29286563   0.02504921
6796.00   1.28156507   0.02492390
6798.00   1.28106582   0.02484735
6800.00   1.29207408   0.02491957
6802.00   1.28494751   0.02492141
6804.00   1.28336585   0.02489568
6806.00   1.28518271   0.02487328
6808.00   1.27553177   0.02476980
6810.00   1.26335621   0.02463339
6812.00   1.27007687   0.02468241
6814.00   1.26996315   0.02472867
6816.00   1.26777136   0.02473797
6818.00   1.27120733   0.02476616
6820.00   1.26821232   0.02486432
6822.00   1.28161871   0.02525961
6824.00   1.27511668   0.02585842
6826.00   1.26022232   0.02660621
6828.00   1.24658549   0.02732134
6830.00   1.24935579   0.02799619
6832.00   1.26319504   0.02842990
6834.00   1.27733433   0.02829897
6836.00   1.26488125   0.02759641
6838.00   1.23266470   0.02675887
6840.00   1.23712409   0.02615887
6842.00   1.24989855   0.02562249
6844.00   1.26412368   0.02534557
6846.00   1.26862395   0.02527173
6848.00   1.26067102   0.02501629
6850.00   1.25675154   0.02475358
6852.00   1.24949539   0.02460629
6854.00   1.23947942   0.02456735
6856.00   1.23280811   0.02473545
6858.00   1.23890388   0.02545728
6860.00   1.22782362   0.02671755
6862.00   1.21635485   0.02794479
6864.00   1.21912992   0.02908721
6866.00   1.22698629   0.03013663
6868.00   1.21988392   0.03105406
6870.00   1.20537221   0.03099915
6872.00   1.21194303   0.03041871
6874.00   1.22566450   0.02958716
6876.00   1.23388577   0.02871229
6878.00   1.24930990   0.02794616
6880.00   1.25257123   0.02721417
6882.00   1.24306095   0.02667045
6884.00   1.22301280   0.02643527
6886.00   1.19271696   0.02648682
6888.00   1.18271148   0.02677726
6890.00   1.20305729   0.02709868
6892.00   1.21948600   0.02717010
6894.00   1.22396958   0.02702733
6896.00   1.21696913   0.02683408
6898.00   1.22079659   0.02677141
6900.00   1.22492921   0.02665671
6902.00   1.21749353   0.02643221
6904.00   1.19880259   0.02613652
6906.00   1.20380986   0.02604254
6908.00   1.18855810   0.02597343
6910.00   1.16988218   0.02595344
6912.00   1.16338527   0.02593057
6914.00   1.17248356   0.02587198
6916.00   1.19287491   0.02596703
6918.00   1.19381988   0.02611173
6920.00   1.18157828   0.02624769
6922.00   1.16598952   0.02631301
6924.00   1.17181969   0.02639172
6926.00   1.19955170   0.02642117
6928.00   1.19565833   0.02588735
6930.00   1.19288099   0.02516701
6932.00   1.19799614   0.02471252
6934.00   1.19044840   0.02472389
6936.00   1.17809820   0.02502720
6938.00   1.16492712   0.02517659
6940.00   1.15428746   0.02518414
6942.00   1.15538037   0.02534181
6944.00   1.16400063   0.02586552
6946.00   1.16221941   0.02625895
6948.00   1.15732396   0.02633357
6950.00   1.15752900   0.02634674
6952.00   1.17022312   0.02633334
6954.00   1.15031195   0.02574777
6956.00   1.15454376   0.02493925
6958.00   1.17718279   0.02451089
6960.00   1.17597663   0.02424469
6962.00   1.13761735   0.02390158
6964.00   1.12951100   0.02398926
6966.00   1.13286901   0.02421806
6968.00   1.15003574   0.02438414
6970.00   1.16269588   0.02445420
6972.00   1.15917385   0.02460933
6974.00   1.16521394   0.02513543
6976.00   1.16513252   0.02543373
6978.00   1.15886486   0.02537105
6980.00   1.14397943   0.02507317
6982.00   1.11627662   0.02478617
6984.00   1.13654304   0.02468828
6986.00   1.13941312   0.02419984
6988.00   1.13370323   0.02379112
6990.00   1.13484120   0.02379122
6992.00   1.14341509   0.02398134
6994.00   1.14412618   0.02397303
6996.00   1.13558209   0.02390233
6998.00   1.13175857   0.02388943
7000.00   1.12806559   0.02392776
7002.00   1.12267900   0.02403039
7004.00   1.12511408   0.02404333
7006.00   1.14556909   0.02427181
7008.00   1.14801204   0.02448641
7010.00   1.11043632   0.02439967
7012.00   1.11808944   0.02423533
7014.00   1.12642300   0.02415240
7016.00   1.11923730   0.02391103
7018.00   1.11027539   0.02360329
7020.00   1.11843717   0.02344840
7022.00   1.10823858   0.02330256
7024.00   1.10174787   0.02326562
7026.00   1.09151363   0.02325969
7028.00   1.08462298   0.02327257
7030.00   1.08912814   0.02329373
7032.00   1.08545363   0.02320688
7034.00   1.09802818   0.02326585
7036.00   1.08945525   0.02324543
7038.00   1.06283414   0.02315929
7040.00   1.08361685   0.02343781
7042.00   1.07285869   0.02343275
7044.00   1.05635417   0.02352579
7046.00   1.05276465   0.02370765
7048.00   1.05841625   0.02381828
7050.00   1.05044401   0.02374994
7052.00   1.07073009   0.02390058
7054.00   1.07221293   0.02379286
7056.00   1.03878546   0.02331013
7058.00   1.00891960   0.02280973
7060.00   1.01847982   0.02282472
7062.00   1.01348162   0.02287768
7064.00   1.02050412   0.02299803
7066.00   1.02550602   0.02304277
7068.00   0.99414128   0.02283531
7070.00   0.98072702   0.02265967
7072.00   0.97800905   0.02260525
7074.00   0.98544103   0.02271242
7076.00   0.98477727   0.02278383
7078.00   0.98845059   0.02283458
7080.00   1.01563227   0.02295152
7082.00   1.02265632   0.02296798
7084.00   1.01439488   0.02292977
7086.00   1.01350534   0.02292280
7088.00   1.02416849   0.02300532
7090.00   1.00149453   0.02280195
7092.00   1.01204407   0.02281677
7094.00   1.04079962   0.02292855
7096.00   1.04515779   0.02283250
7098.00   1.01098406   0.02244362
7100.00   1.00535452   0.02235298
7102.00   1.01400399   0.02243067
7104.00   1.02279365   0.02250192
7106.00   1.02928364   0.02249199
7108.00   1.02145994   0.02239546
7110.00   1.01565552   0.02240226
7112.00   1.01410925   0.02239746
7114.00   1.02415943   0.02245730
7116.00   1.03643084   0.02252540
7118.00   1.04099572   0.02254117
7120.00   1.06172049   0.02274954
7122.00   1.05682611   0.02276243
7124.00   1.03174829   0.02260174
7126.00   1.03198230   0.02264008
7128.00   1.04163647   0.02278432
7130.00   1.02327037   0.02270160
7132.00   1.00298917   0.02248134
7134.00   1.00784671   0.02239045
7136.00   1.02735567   0.02255468
7138.00   1.03714764   0.02271105
7140.00   1.04070795   0.02280438
7142.00   1.03790343   0.02293598
7144.00   1.03700030   0.02313680
7146.00   1.04754066   0.02326246
7148.00   1.03745699   0.02314678
7150.00   1.03633642   0.02301564
7152.00   1.04739654   0.02292671
7154.00   1.05914676   0.02284408
7156.00   1.05136597   0.02281366
7158.00   1.04456103   0.02276916
7160.00   1.04458261   0.02282902
7162.00   1.05569649   0.02303908
7164.00   1.05428016   0.02319545
7166.00   1.05499482   0.02339604
7168.00   1.03153217   0.02330992
7170.00   1.02760494   0.02343649
7172.00   1.04713261   0.02377822
7174.00   1.04531920   0.02384276
7176.00   1.03827059   0.02377461
7178.00   1.03136396   0.02380735
7180.00   1.03286481   0.02388871
7182.00   1.03561640   0.02387954
7184.00   1.04403126   0.02395812
7186.00   1.04579008   0.02431844
7188.00   1.04868317   0.02424959
7190.00   1.05496037   0.02415795
7192.00   1.06502116   0.02398399
7194.00   1.08230197   0.02397683
7196.00   1.08751237   0.02403969
7198.00   1.08015406   0.02397108
7200.00   1.05902016   0.02376902
7202.00   1.03135812   0.02359462
7204.00   1.06429136   0.02394645
7206.00   1.06063998   0.02377857
7208.00   1.05577171   0.02343455
7210.00   1.05471134   0.02313173
7212.00   1.05790997   0.02295103
7214.00   1.04531097   0.02269915
7216.00   1.04453671   0.02269982
7218.00   1.04098022   0.02268924
7220.00   1.03614438   0.02266620
7222.00   1.03893793   0.02263705
7224.00   1.04071915   0.02278292
7226.00   1.03870976   0.02294356
7228.00   1.04269338   0.02314760
7230.00   1.05766284   0.02343997
7232.00   1.05046535   0.02374528
7234.00   1.05335855   0.02509654
7236.00   1.05233872   0.02746315
7238.00   1.05841529   0.02975969
7240.00   1.05939007   0.03128746
7242.00   1.05141699   0.03253384
7244.00   1.06488431   0.03284396
7246.00   1.05741465   0.03173092
7248.00   1.04388249   0.02999186
7250.00   1.06424987   0.02859814
7252.00   1.03890598   0.02663635
7254.00   1.03667533   0.02534743
7256.00   1.04595613   0.02487052
7258.00   1.05336583   0.02464755
7260.00   1.03077173   0.02401865
7262.00   1.04179525   0.02366962
7264.00   1.05142176   0.02368730
7266.00   1.05602551   0.02384641
7268.00   1.05516243   0.02421989
7270.00   1.04999053   0.02536530
7272.00   1.03340042   0.02805970
7274.00   1.03931272   0.03018279
7276.00   1.05784273   0.03129559
7278.00   1.06991863   0.03168609
7280.00   1.05928493   0.03164255
7282.00   1.05947971   0.02989410
7284.00   1.06237221   0.02785655
7286.00   1.05352259   0.02653487
7288.00   1.04738712   0.02632686
7290.00   1.04865456   0.02606159
7292.00   1.05687296   0.02516525
7294.00   1.05640280   0.02460642
7296.00   1.03804600   0.02432716
7298.00   1.01899397   0.02434899
7300.00   1.01892841   0.02493387
7302.00   1.04120004   0.02527957
7304.00   1.04707932   0.02533995
7306.00   1.04821980   0.02530940
7308.00   1.05137455   0.02517820
7310.00   1.01550055   0.02494914
7312.00   0.99665564   0.02640300
7314.00   0.98798615   0.02796140
7316.00   0.98392683   0.02859621
7318.00   0.99615401   0.02832305
7320.00   1.00042784   0.02767969
7322.00   1.00621021   0.02605792
7324.00   1.00667334   0.02465029
7326.00   1.00315166   0.02444446
7328.00   1.01359022   0.02506900
7330.00   1.01100647   0.02526088
7332.00   0.99791855   0.02502223
7334.00   0.99149060   0.02504170
7336.00   1.00302315   0.02607969
7338.00   1.00872815   0.02805895
7340.00   0.99344450   0.02872921
7342.00   0.98946494   0.02886510
7344.00   0.97789383   0.02836973
7346.00   0.97371024   0.02700197
7348.00   0.99161959   0.02454664
7350.00   1.00515985   0.02316821
7352.00   0.99762172   0.02295921
7354.00   0.97665697   0.02353402
7356.00   0.99017018   0.02454188
7358.00   0.99843556   0.02474159
7360.00   1.00852430   0.02483124
7362.00   0.99756765   0.02496037
7364.00   0.98173571   0.02548470
7366.00   0.98922700   0.02658978
7368.00   0.95959759   0.02701475
7370.00   0.96675873   0.02731530
7372.00   0.98566818   0.02728372
7374.00   0.99288893   0.02644374
7376.00   0.99309230   0.02433619
7378.00   1.00090063   0.02294403
7380.00   0.98893768   0.02228735
7382.00   0.98316360   0.02217562
7384.00   0.99402618   0.02234317
7386.00   0.99924612   0.02273744
7388.00   0.97750837   0.02321289
7390.00   0.96984369   0.02366154
7392.00   0.98188972   0.02396744
7394.00   0.99109346   0.02411296
7396.00   0.98284787   0.02457287
7398.00   0.98836517   0.02532806
7400.00   0.99760723   0.02567328
7402.00   0.99405986   0.02555984
7404.00   0.97511500   0.02525710
7406.00   0.96888798   0.02487770
7408.00   0.97008699   0.02377328
7410.00   0.97406918   0.02266820
7412.00   0.98093671   0.02215419
7414.00   0.97255486   0.02211651
7416.00   0.97188354   0.02213378
7418.00   0.97596425   0.02212075
7420.00   0.97503585   0.02204826
7422.00   0.97019237   0.02200199
7424.00   0.94405079   0.02203126
7426.00   0.94410872   0.02238197
7428.00   0.94107467   0.02263110
7430.00   0.93615705   0.02274749
7432.00   0.94761562   0.02297982
7434.00   0.95826250   0.02362703
7436.00   0.95116824   0.02382318
7438.00   0.93788648   0.02369548
7440.00   0.93686181   0.02357452
7442.00   0.95883465   0.02356342
7444.00   0.95718020   0.02295544
7446.00   0.95576668   0.02223478
7448.00   0.94967717   0.02178536
7450.00   0.94280148   0.02167928
7452.00   0.95419198   0.02178870
7454.00   0.95430088   0.02178802
7456.00   0.94648749   0.02183533
7458.00   0.92789310   0.02185453
7460.00   0.91991901   0.02199713
7462.00   0.94103891   0.02239597
7464.00   0.92974520   0.02255802
7466.00   0.91657877   0.02285358
7468.00   0.92250758   0.02332673
7470.00   0.93759781   0.02373256
7472.00   0.94392514   0.02382163
7474.00   0.95211512   0.02404983
7476.00   0.94882721   0.02428835
7478.00   0.93620330   0.02441125
7480.00   0.91464454   0.02435316
7482.00   0.90585357   0.02418870
7484.00   0.92088574   0.02396316
7486.00   0.92092085   0.02348767
7488.00   0.90639001   0.02284556
7490.00   0.90139371   0.02232473
7492.00   0.90690595   0.02209249
7494.00   0.91244191   0.02200451
7496.00   0.89948517   0.02187153
7498.00   0.88104582   0.02165484
7500.00   0.88047725   0.02148627
7502.00   0.88513583   0.02137918
7504.00   0.89925200   0.02141597
7506.00   0.90215164   0.02138988
7508.00   0.88670403   0.02125834
7510.00   0.87977082   0.02126772
7512.00   0.90213805   0.02155544
7514.00   0.89333957   0.02161711
7516.00   0.87912351   0.02183202
7518.00   0.88566786   0.02275903
7520.00   0.88932210   0.02437541
7522.00   0.89224559   0.02540493
7524.00   0.89189011   0.02577383
7526.00   0.89365679   0.02585609
7528.00   0.89189225   0.02563419
7530.00   0.87391371   0.02428057
7532.00   0.86152220   0.02293626
7534.00   0.86661959   0.02235151
7536.00   0.87658286   0.02221522
7538.00   0.87013358   0.02185257
7540.00   0.87647480   0.02164667
7542.00   0.88892478   0.02158830
7544.00   0.88799047   0.02188858
7546.00   0.87852621   0.02212851
7548.00   0.88065797   0.02181289
7550.00   0.86945516   0.02207617
7552.00   0.85235673   0.02331094
7554.00   0.84600902   0.02362394
7556.00   0.84673959   0.02265205
7558.00   0.83636236   0.02176210
7560.00   0.83237666   0.02149815
7562.00   0.84818691   0.02228206
7564.00   0.86875218   0.02355032
7566.00   0.87919968   0.02471304
7568.00   0.85963678   0.02512434
7570.00   0.85217094   0.02530960
7572.00   0.86597377   0.02502477
7574.00   0.87818986   0.02469222
7576.00   0.87025422   0.02433614
7578.00   0.84796160   0.02287915
7580.00   0.83624583   0.02179183
7582.00   0.84142286   0.02165595
7584.00   0.84637755   0.02197844
7586.00   0.84612513   0.02214955
7588.00   0.83337170   0.02233803
7590.00   0.81686050   0.02264750
7592.00   0.80389905   0.02364643
7594.00   0.81645328   0.02641224
7596.00   0.86227304   0.03161852
7598.00   0.86752534   0.03807839
7600.00   0.81999332   0.04458716
7602.00   0.78495312   0.04900999
7604.00   0.79593372   0.05073270
7606.00   0.82194644   0.04936362
7608.00   0.83693033   0.04640560
7610.00   0.82675225   0.04184721
7612.00   0.82891160   0.03724427
7614.00   0.85480231   0.03367208
7616.00   0.87285495   0.03115994
7618.00   0.84762049   0.02881353
7620.00   0.83598262   0.02776144
7622.00   0.81379175   0.02814140
7624.00   0.77871418   0.02990340
7626.00   0.78234309   0.03260098
7628.00   0.84779453   0.03422286
7630.00   0.87220830   0.03445332
7632.00   0.84840322   0.03364210
7634.00   0.82105231   0.03206937
7636.00   0.82883054   0.03030354
7638.00   0.84159309   0.02945152
7640.00   0.83465272   0.02878205
7642.00   0.81027430   0.02784617
7644.00   0.81723839   0.02723921
7646.00   0.81198055   0.02661045
7648.00   0.81989717   0.02630771
7650.00   0.81893140   0.02601456
7652.00   0.81418937   0.02553089
7654.00   0.82506055   0.02502142
7656.00   0.83474827   0.02490087
7658.00   0.84701329   0.02498035
7660.00   0.84968382   0.02491142
7662.00   0.83727914   0.02451705
7664.00   0.83696985   0.02416504
7666.00   0.84073561   0.02380868
7668.00   0.82540148   0.02308999
7670.00   0.81430143   0.02231398
7672.00   0.83531761   0.02195541
7674.00   0.82260817   0.02169679
7676.00   0.80500466   0.02144464
7678.00   0.81616026   0.02149237
7680.00   0.83030587   0.02162478
7682.00   0.81437606   0.02161171
7684.00   0.82547492   0.02174211
7686.00   0.83231360   0.02188904
7688.00   0.82379764   0.02184805
7690.00   0.81041986   0.02172180
7692.00   0.80082178   0.02171763
7694.00   0.80758047   0.02194218
7696.00   0.82012612   0.02230048
7698.00   0.83190012   0.02252396
7700.00   0.83556813   0.02243000
7702.00   0.82740313   0.02233509
7704.00   0.80757755   0.02205241
7706.00   0.80194205   0.02261295
7708.00   0.80598944   0.02456905
7710.00   0.81738037   0.02760030
7712.00   0.84523249   0.03057506
7714.00   0.83904284   0.03251972
7716.00   0.82518262   0.03291488
7718.00   0.82133168   0.03186619
7720.00   0.79790378   0.02972256
7722.00   0.81124097   0.02771255
7724.00   0.80907172   0.02536687
7726.00   0.82130927   0.02400309
7728.00   0.83746797   0.02358079
7730.00   0.84314090   0.02325824
7732.00   0.85058695   0.02264371
7734.00   0.83555818   0.02206089
7736.00   0.83359450   0.02186947
7738.00   0.84345436   0.02194349
7740.00   0.82612246   0.02174802
7742.00   0.83377314   0.02179993
7744.00   0.87383085   0.02363428
7746.00   0.88269383   0.02694944
7748.00   0.85705060   0.02995389
7750.00   0.85691363   0.03090684
7752.00   0.80851889   0.03071684
7754.00   0.81999999   0.03051111
7756.00   0.84802264   0.02927314
7758.00   0.84963387   0.02680600
7760.00   0.84136444   0.02530609
7762.00   0.83214682   0.02488668
7764.00   0.84771329   0.02441653
7766.00   0.86814588   0.02350370
7768.00   0.85939479   0.02246999
7770.00   0.84010333   0.02248529
7772.00   0.86013937   0.02286483
7774.00   0.86284381   0.02349262
7776.00   0.86352080   0.02428954
7778.00   0.87877083   0.02478307
7780.00   0.86856538   0.02441312
7782.00   0.84416866   0.02396208
7784.00   0.84813023   0.02372373
7786.00   0.86671573   0.02374329
7788.00   0.86186600   0.02437193
7790.00   0.84886080   0.02672674
7792.00   0.85523611   0.02847791
7794.00   0.85643005   0.02903024
7796.00   0.84307760   0.02861952
7798.00   0.83102828   0.02771414
7800.00   0.85153979   0.02521358
7802.00   0.84337360   0.02336535
7804.00   0.83166313   0.02327570
7806.00   0.83758825   0.02433857
7808.00   0.85169387   0.02492302
7810.00   0.84795046   0.02501867
7812.00   0.85724765   0.02471627
7814.00   0.86998361   0.02463681
7816.00   0.87329656   0.02579696
7818.00   0.87239027   0.02842265
7820.00   0.87449867   0.03001246
7822.00   0.86174107   0.03038060
7824.00   0.84930724   0.02983152
7826.00   0.85928059   0.02843379
7828.00   0.86998385   0.02524973
7830.00   0.87245876   0.02273542
7832.00   0.86814088   0.02169467
7834.00   0.87009287   0.02205049
7836.00   0.88813132   0.02310546
7838.00   0.91170424   0.02431178
7840.00   0.91830510   0.02483263
7842.00   0.91193891   0.02490894
7844.00   0.89148998   0.02486171
7846.00   0.85887694   0.02504173
7848.00   0.86273974   0.02691075
7850.00   0.86977595   0.02938266
7852.00   0.87887377   0.03110989
7854.00   0.88886589   0.03175915
7856.00   0.89834410   0.03226867
7858.00   0.87938577   0.03111675
7860.00   0.88453633   0.02881882
7862.00   0.90157539   0.02695867
7864.00   0.89896125   0.02680781
7866.00   0.88340378   0.02718448
7868.00   0.87527579   0.02715565
7870.00   0.86924535   0.02702039
7872.00   0.86701566   0.02694776
7874.00   0.87480354   0.02694950
7876.00   0.90257186   0.02675323
7878.00   0.89449567   0.02619328
7880.00   0.88673323   0.02590084
7882.00   0.88549060   0.02610781
7884.00   0.88146216   0.02662756
7886.00   0.86715871   0.02735894
7888.00   0.87702560   0.02776263
7890.00   0.89021111   0.02782863
7892.00   0.89381427   0.02758445
7894.00   0.89515764   0.02688683
7896.00   0.89232522   0.02506975
7898.00   0.87117416   0.02328317
7900.00   0.86590052   0.02237717
7902.00   0.89144117   0.02243367
7904.00   0.85849762   0.02217362
7906.00   0.85305303   0.02304054
7908.00   0.86017227   0.02608182
7910.00   0.87301546   0.02986427
7912.00   0.88805407   0.03251493
7914.00   0.89183980   0.03299906
7916.00   0.86074418   0.03354493
7918.00   0.86408979   0.03304681
7920.00   0.88057351   0.03090265
7922.00   0.84437305   0.02771272
7924.00   0.86063766   0.02711827
7926.00   0.85594624   0.02672861
7928.00   0.85935754   0.02628470
7930.00   0.86884660   0.02587497
7932.00   0.85173798   0.02553343
7934.00   0.83554786   0.02509069
7936.00   0.83566600   0.02429857
7938.00   0.83737969   0.02303232
7940.00   0.83575058   0.02196123
7942.00   0.83102316   0.02213571
7944.00   0.82916754   0.02295271
7946.00   0.81354189   0.02368210
7948.00   0.79728585   0.02400103
7950.00   0.79878932   0.02398094
7952.00   0.77969837   0.02358469
7954.00   0.80159539   0.02293002
7956.00   0.81278473   0.02212542
7958.00   0.80587292   0.02273543
7960.00   0.78539640   0.02548068
7962.00   0.78030968   0.02837529
7964.00   0.79264450   0.02947650
7966.00   0.81411457   0.02961671
7968.00   0.81338495   0.02889780
7970.00   0.77634913   0.02692948
7972.00   0.79823112   0.02460680
7974.00   0.81598330   0.02419820
7976.00   0.80056924   0.02488722
7978.00   0.76904774   0.02542570
7980.00   0.76465511   0.02524967
7982.00   0.75988889   0.02484974
7984.00   0.75956351   0.02398125
7986.00   0.75359225   0.02348577
7988.00   0.74562997   0.02474327
7990.00   0.74800444   0.02810498
7992.00   0.74996787   0.02974401
7994.00   0.73417139   0.03000978
7996.00   0.71750784   0.02965880
7998.00   0.70377350   0.02856275
8000.00   0.72700387   0.02522559
8002.00   0.74040371   0.02264867
8004.00   0.73562884   0.02150075
8006.00   0.72026348   0.02137602
8008.00   0.70826596   0.02156156
8010.00   0.70705628   0.02237266
8012.00   0.68360597   0.02292887
8014.00   0.67719936   0.02334916
8016.00   0.67948800   0.02352836
8018.00   0.67760140   0.02341120
8020.00   0.67244738   0.02405494
8022.00   0.65575010   0.02556415
8024.00   0.64853293   0.02681237
8026.00   0.64597040   0.02728176
8028.00   0.62264591   0.02701440
8030.00   0.61315638   0.02584614
8032.00   0.61923999   0.02350574
8034.00   0.62603319   0.02116219
8036.00   0.62324762   0.01986644
8038.00   0.62746626   0.01973401
8040.00   0.63216627   0.01971754
8042.00   0.62416786   0.01960248
8044.00   0.60579449   0.01953707
8046.00   0.59064603   0.01981301
8048.00   0.57994634   0.02038696
8050.00   0.56546944   0.02072150
8052.00   0.56510788   0.02085300
8054.00   0.57298082   0.02097319
8056.00   0.57399380   0.02130181
8058.00   0.57273519   0.02209311
8060.00   0.56529236   0.02265076
8062.00   0.55595773   0.02273064
8064.00   0.55809015   0.02253439
8066.00   0.57327420   0.02216897
8068.00   0.57037240   0.02078385
8070.00   0.56635445   0.01929183
8072.00   0.55572087   0.01860209
8074.00   0.54883271   0.01875662
8076.00   0.55418962   0.01897445
8078.00   0.55237526   0.01897390
8080.00   0.56413442   0.01916056
8082.00   0.57512277   0.01936171
8084.00   0.57642573   0.01941530
8086.00   0.56854665   0.01926897
8088.00   0.56639957   0.01938411
8090.00   0.55962008   0.01958690
8092.00   0.55355185   0.01963607
8094.00   0.55452985   0.01957639
8096.00   0.56477737   0.01997914
8098.00   0.55459917   0.02059335
8100.00   0.54660606   0.02080710
8102.00   0.54317784   0.02068154
8104.00   0.52447069   0.02040451
8106.00   0.52848172   0.02032700
8108.00   0.53708649   0.01991267
8110.00   0.54878926   0.01940487
8112.00   0.54708391   0.01898090
8114.00   0.54113609   0.01887685
8116.00   0.52987671   0.01883118
8118.00   0.53111404   0.01883247
8120.00   0.54575461   0.01890613
8122.00   0.55589670   0.01892001
8124.00   0.54703480   0.01883521
8126.00   0.53982335   0.01887257
8128.00   0.53632069   0.01901753
8130.00   0.54359955   0.01924498
8132.00   0.54566544   0.01943739
8134.00   0.55547339   0.01982441
8136.00   0.57778269   0.02032364
8138.00   0.55654836   0.02022546
8140.00   0.53200072   0.02007287
8142.00   0.53636330   0.02033182
8144.00   0.55217963   0.02062042
8146.00   0.54968953   0.02054833
8148.00   0.55320626   0.02049514
8150.00   0.55214524   0.02041993
8152.00   0.53451616   0.02006310
8154.00   0.52974725   0.01961471
8156.00   0.54237980   0.01965753
8158.00   0.54323310   0.01981101
8160.00   0.51912075   0.01971027
8162.00   0.51484126   0.01975635
8164.00   0.52767038   0.02003281
8166.00   0.53320694   0.02005219
8168.00   0.54064459   0.01990923
8170.00   0.55089098   0.01981849
8172.00   0.56033188   0.01999927
8174.00   0.54803318   0.02008747
8176.00   0.52602208   0.02029084
8178.00   0.52643555   0.02107509
8180.00   0.54986829   0.02230806
8182.00   0.56259781   0.02318799
8184.00   0.54399890   0.02316559
8186.00   0.53297424   0.02305245
8188.00   0.53285187   0.02308711
8190.00   0.53858668   0.02335240
8192.00   0.54950541   0.02393688
8194.00   0.53909987   0.02392603
8196.00   0.52457553   0.02363735
8198.00   0.52102309   0.02320164
8200.00   0.52783495   0.02253993
8202.00   0.54004663   0.02156721
8204.00   0.55487329   0.02081701
8206.00   0.55823416   0.02032916
8208.00   0.55700421   0.02009919
8210.00   0.56103683   0.02010638
8212.00   0.56218332   0.01999838
8214.00   0.55857211   0.01975799
8216.00   0.55674320   0.01954691
8218.00   0.56541449   0.01955868
8220.00   0.59063900   0.01991163
8222.00   0.58655214   0.02012712
8224.00   0.58077258   0.02041537
8226.00   0.57934618   0.02083688
8228.00   0.58031225   0.02128286
8230.00   0.57509899   0.02138486
8232.00   0.59400970   0.02110397
8234.00   0.59765404   0.02047029
8236.00   0.59367114   0.01990411
8238.00   0.59957582   0.01975759
8240.00   0.60688305   0.01978636
8242.00   0.60230207   0.01976425
8244.00   0.60257196   0.01990223
8246.00   0.61117446   0.02009042
8248.00   0.61561173   0.02003488
8250.00   0.62544709   0.01991525
8252.00   0.61734450   0.01985836
8254.00   0.61216044   0.01992463
8256.00   0.61588854   0.02003904
8258.00   0.61981946   0.02006221
8260.00   0.61627465   0.01990291
8262.00   0.60846442   0.01967537
8264.00   0.61272579   0.01958765
8266.00   0.62201065   0.01960586
8268.00   0.62867904   0.01966674
8270.00   0.60572988   0.01964179
8272.00   0.60077149   0.02030828
8274.00   0.61077482   0.02219668
8276.00   0.62394363   0.02498622
8278.00   0.63820368   0.02764391
8280.00   0.61473888   0.02873003
8282.00   0.60920328   0.03011509
8284.00   0.62304109   0.03170689
8286.00   0.63329589   0.03237669
8288.00   0.61013407   0.03098750
8290.00   0.65796643   0.03049130
8292.00   0.67153454   0.03078365
8294.00   0.65494430   0.03123833
8296.00   0.64439315   0.03151464
8298.00   0.62984496   0.03146041
8300.00   0.65903324   0.03126680
8302.00   0.65932280   0.02992188
8304.00   0.63399738   0.02724511
8306.00   0.64612013   0.02450245
8308.00   0.64198583   0.02370030
8310.00   0.66232210   0.02367630
8312.00   0.66011816   0.02365055
8314.00   0.64095348   0.02327538
8316.00   0.65814883   0.02255144
8318.00   0.64314336   0.02124739
8320.00   0.64745140   0.02071095
8322.00   0.65585685   0.02061773
8324.00   0.65456831   0.02044926
8326.00   0.66693503   0.02017565
8328.00   0.66942745   0.01991646
8330.00   0.67178583   0.01991967
8332.00   0.66442096   0.02000050
8334.00   0.65735042   0.02018920
8336.00   0.66005945   0.02086888
8338.00   0.66951489   0.02511187
8340.00   0.67292708   0.03184344
8342.00   0.65870327   0.03692057
8344.00   0.65056723   0.03842770
8346.00   0.65994686   0.03865203
8348.00   0.69040853   0.03872425
8350.00   0.67557973   0.03569359
8352.00   0.65988868   0.03065190
8354.00   0.69367188   0.02799986
8356.00   0.69682217   0.02733203
8358.00   0.67323464   0.02559152
8360.00   0.64394194   0.02375031
8362.00   0.63971895   0.02308363
8364.00   0.67042750   0.02343073
8366.00   0.66529107   0.02334903
8368.00   0.66088676   0.02283963
8370.00   0.67241400   0.02188241
8372.00   0.68871766   0.02074488
8374.00   0.68406790   0.02027086
8376.00   0.68797630   0.02158979
8378.00   0.68631917   0.02358562
8380.00   0.67783207   0.02504656
8382.00   0.66227400   0.02544394
8384.00   0.67636579   0.02544710
8386.00   0.68924832   0.02477263
8388.00   0.68920690   0.02300913
8390.00   0.68006688   0.02121142
8392.00   0.68132234   0.02178459
8394.00   0.69337225   0.02670210
8396.00   0.71341532   0.03170723
8398.00   0.72492141   0.03393079
8400.00   0.71750873   0.03392850
8402.00   0.69223118   0.03335527
8404.00   0.68361187   0.03012280
8406.00   0.68520910   0.02487050
8408.00   0.69262886   0.02146162
8410.00   0.69544148   0.02235881
8412.00   0.70646882   0.02506400
8414.00   0.71616316   0.02611355
8416.00   0.71932036   0.02629842
8418.00   0.70474797   0.02574000
8420.00   0.68498975   0.02439238
8422.00   0.68824643   0.02261632
8424.00   0.70242554   0.02476922
8426.00   0.69030881   0.03021570
8428.00   0.66529435   0.03428090
8430.00   0.65848154   0.03506346
8432.00   0.67265874   0.03485237
8434.00   0.70680934   0.03310950
8436.00   0.72638059   0.02856762
8438.00   0.73221368   0.02295219
8440.00   0.72544652   0.02020399
8442.00   0.71695089   0.01983751
8444.00   0.71605915   0.01999538
8446.00   0.71486503   0.02115560
8448.00   0.72072822   0.02319366
8450.00   0.73096919   0.02512064
8452.00   0.73923612   0.02555962
8454.00   0.72525162   0.02529985
8456.00   0.71255714   0.02459199
8458.00   0.70324486   0.02407986
8460.00   0.69739467   0.02521288
8462.00   0.73556548   0.02933862
8464.00   0.72341520   0.03104723
8466.00   0.68612546   0.03112536
8468.00   0.68528795   0.03064080
8470.00   0.71712559   0.02881858
8472.00   0.71452665   0.02429718
8474.00   0.71083593   0.02101670
8476.00   0.71526241   0.02005404
8478.00   0.72983742   0.02017573
8480.00   0.73324394   0.02007047
8482.00   0.72780865   0.01988162
8484.00   0.73199683   0.01988196
8486.00   0.73524839   0.02029011
8488.00   0.72604603   0.02121361
8490.00   0.72011918   0.02266954
8492.00   0.72536188   0.02353022
8494.00   0.72724575   0.02381782
8496.00   0.72725773   0.02379492
8498.00   0.73495215   0.02392298
8500.00   0.74500656   0.02511714
8502.00   0.74724436   0.02640285
8504.00   0.73969239   0.02698782
8506.00   0.74115580   0.02695162
8508.00   0.76015949   0.02669469
8510.00   0.74167031   0.02453688
8512.00   0.74652535   0.02231608
8514.00   0.75406456   0.02067259
8516.00   0.74358672   0.02000331
8518.00   0.73615092   0.01996369
8520.00   0.74820089   0.02052491
8522.00   0.75736922   0.02062655
8524.00   0.76623446   0.02059931
8526.00   0.77985907   0.02054764
8528.00   0.79640943   0.02064410
8530.00   0.78877383   0.02062066
8532.00   0.77252513   0.02072124
8534.00   0.76302963   0.02106313
8536.00   0.76075214   0.02150936
8538.00   0.77535963   0.02180485
8540.00   0.79230195   0.02197538
8542.00   0.78857112   0.02229069
8544.00   0.77174950   0.02282689
8546.00   0.77066517   0.02345121
8548.00   0.76996636   0.02357190
8550.00   0.75872356   0.02348961
8552.00   0.75638717   0.02313878
8554.00   0.76424313   0.02230280
8556.00   0.76424676   0.02091967
8558.00   0.76539135   0.02012838
8560.00   0.77214342   0.01997297
8562.00   0.76916772   0.01995926
8564.00   0.76017767   0.01991690
8566.00   0.77358276   0.02011855
8568.00   0.78395981   0.02024859
8570.00   0.78352028   0.02033657
8572.00   0.77416116   0.02037384
8574.00   0.76835555   0.02042559
8576.00   0.77635700   0.02047700
8578.00   0.77795249   0.02043101
8580.00   0.77784133   0.02036632
8582.00   0.78043979   0.02044862
8584.00   0.76789194   0.02059886
8586.00   0.75556135   0.02088520
8588.00   0.75242281   0.02097179
8590.00   0.75120687   0.02113145
8592.00   0.75230145   0.02142872
8594.00   0.77125269   0.02174434
8596.00   0.77356386   0.02163250
8598.00   0.77330595   0.02160186
8600.00   0.77497262   0.02152542
8602.00   0.76987213   0.02118634
8604.00   0.75214195   0.02050221
8606.00   0.75039554   0.02037320
8608.00   0.75618929   0.02065977
8610.00   0.76671219   0.02123309
8612.00   0.77021527   0.02193458
8614.00   0.76165360   0.02275736
8616.00   0.77401382   0.02396341
8618.00   0.77605456   0.02520588
8620.00   0.76909715   0.02644448
8622.00   0.76447469   0.02766945
8624.00   0.77027828   0.02892283
8626.00   0.77806634   0.02984539
8628.00   0.77419710   0.03036203
8630.00   0.75037217   0.03043843
8632.00   0.73945421   0.03023571
8634.00   0.76350766   0.02969480
8636.00   0.76302356   0.02861609
8638.00   0.74816149   0.02719773
8640.00   0.74858665   0.02578481
8642.00   0.76068354   0.02468146
8644.00   0.75252748   0.02428054
8646.00   0.75156003   0.02477717
8648.00   0.76861960   0.02591812
8650.00   0.79721069   0.02743573
8652.00   0.80705374   0.02887742
8654.00   0.79510909   0.02984569
8656.00   0.77882910   0.03016371
8658.00   0.76950693   0.03018830
8660.00   0.76711768   0.03015786
8662.00   0.75582618   0.02986127
8664.00   0.76204175   0.02944768
8666.00   0.76980752   0.02891769
8668.00   0.77738601   0.02832477
8670.00   0.78644627   0.02768400
8672.00   0.77448910   0.02692887
8674.00   0.75350523   0.02601808
8676.00   0.75056618   0.02521818
8678.00   0.76472259   0.02458470
8680.00   0.77670449   0.02397948
8682.00   0.76914483   0.02325397
8684.00   0.74602026   0.02254456
8686.00   0.74070734   0.02205425
8688.00   0.75891995   0.02175773
8690.00   0.77733469   0.02151071
8692.00   0.76086551   0.02104659
8694.00   0.75884658   0.02083198
8696.00   0.77136844   0.02086631
8698.00   0.77622700   0.02087358
8700.00   0.75619674   0.02058881
8702.00   0.76224166   0.02069711
8704.00   0.77104092   0.02081259
8706.00   0.77074701   0.02068815
8708.00   0.77148485   0.02044259
8710.00   0.76809597   0.02027869
8712.00   0.75686592   0.02004505
8714.00   0.75040030   0.01974745
8716.00   0.74712902   0.01950161
8718.00   0.74399489   0.01945367
8720.00   0.73483878   0.01938479
8722.00   0.74929446   0.01951740
8724.00   0.76042771   0.01964309
8726.00   0.75277376   0.01959983
8728.00   0.74739569   0.01954234
8730.00   0.75653172   0.01960575
8732.00   0.75901556   0.01957023
8734.00   0.76229095   0.01964311
8736.00   0.75651675   0.01992030
8738.00   0.74818116   0.02046770
8740.00   0.71876246   0.01992846
8742.00   0.70924568   0.01975683
8744.00   0.73989558   0.02036775
8746.00   0.76916426   0.02087670
8748.00   0.73095816   0.01962557
8750.00   0.73200232   0.01941554
8752.00   0.73836619   0.02005940
8754.00   0.74055386   0.02243687
8756.00   0.74029249   0.02623348
8758.00   0.76661539   0.02968629
8760.00   0.75874138   0.03215806
8762.00   0.75167459   0.03474095
8764.00   0.73100632   0.03676217
8766.00   0.70609897   0.03696964
8768.00   0.71478015   0.03475687
8770.00   0.73007268   0.03362514
8772.00   0.72618294   0.03362701
8774.00   0.72533005   0.03406158
8776.00   0.71683770   0.03406462
8778.00   0.75786942   0.03413085
8780.00   0.74485344   0.03341356
8782.00   0.70455521   0.03077106
8784.00   0.68534136   0.02662420
8786.00   0.70368403   0.02355696
8788.00   0.70973665   0.02358300
8790.00   0.71669769   0.02423487
8792.00   0.72148579   0.02457052
8794.00   0.72364092   0.02425640
8796.00   0.73296690   0.02300947
8798.00   0.74835730   0.02101557
8800.00   0.75348693   0.01976241
8802.00   0.74402952   0.01947370
8804.00   0.73116899   0.01970522
8806.00   0.73591232   0.01996112
8808.00   0.73001820   0.02004459
8810.00   0.72536832   0.01999272
8812.00   0.72498196   0.01990694
8814.00   0.73218375   0.01986011
8816.00   0.72163790   0.01953375
8818.00   0.72920591   0.01973136
8820.00   0.73051792   0.02400970
8822.00   0.72163033   0.03181420
8824.00   0.70062143   0.03973800
8826.00   0.68892890   0.04271436
8828.00   0.68177104   0.04347946
8830.00   0.69775230   0.04315242
8832.00   0.72523814   0.04117405
8834.00   0.71000218   0.03640845
8836.00   0.71265382   0.03219528
8838.00   0.71531248   0.03058916
8840.00   0.71523219   0.02914813
8842.00   0.70046258   0.02615171
8844.00   0.71060675   0.02290883
8846.00   0.71464664   0.02268261
8848.00   0.71874768   0.02338201
8850.00   0.71662712   0.02372804
8852.00   0.71732539   0.02352706
8854.00   0.74215215   0.02316482
8856.00   0.73705316   0.02182018
8858.00   0.74057585   0.02086771
8860.00   0.73277920   0.02119743
8862.00   0.72075003   0.02316603
8864.00   0.72118860   0.02624944
8866.00   0.72808820   0.02759477
8868.00   0.73136878   0.02783582
8870.00   0.71173519   0.02718387
8872.00   0.68554455   0.02549011
8874.00   0.69866246   0.02229856
8876.00   0.70029593   0.01982190
8878.00   0.69147700   0.02017946
8880.00   0.68205810   0.02484511
8882.00   0.66606539   0.03227955
8884.00   0.65664721   0.03603248
8886.00   0.64858943   0.03718298
8888.00   0.64638847   0.03689387
8890.00   0.64469582   0.03468611
8892.00   0.65777105   0.02827022
8894.00   0.66871613   0.02228020
8896.00   0.66992283   0.02047107
8898.00   0.68222207   0.02313873
8900.00   0.70176822   0.02687141
8902.00   0.71459585   0.02841463
8904.00   0.71118855   0.02877278
8906.00   0.69441241   0.02825876
8908.00   0.68006116   0.02616538
8910.00   0.66625452   0.02239904
8912.00   0.66007376   0.02120920
8914.00   0.68065745   0.02713192
8916.00   0.69776946   0.03413497
8918.00   0.66962868   0.03886643
8920.00   0.63394088   0.03994463
8922.00   0.66546875   0.03970866
8924.00   0.68832350   0.03599511
8926.00   0.69278973   0.02952627
8928.00   0.68680525   0.02261157
8930.00   0.67893523   0.02005090
8932.00   0.66865873   0.01996966
8934.00   0.67837924   0.01993267
8936.00   0.68851250   0.02058997
8938.00   0.69145697   0.02270197
8940.00   0.69124860   0.02569784
8942.00   0.67548758   0.02722402
8944.00   0.66105753   0.02756888
8946.00   0.66094661   0.02713553
8948.00   0.66871262   0.02581198
8950.00   0.66207772   0.02325311
8952.00   0.65514344   0.02500707
8954.00   0.65510345   0.03091993
8956.00   0.65754479   0.03586333
8958.00   0.66111523   0.03720934
8960.00   0.65445691   0.03730799
8962.00   0.65570492   0.03535348
8964.00   0.65547132   0.03030730
8966.00   0.65972799   0.02393769
8968.00   0.65244693   0.02054301
8970.00   0.64855725   0.02024740
8972.00   0.65786666   0.02028657
8974.00   0.66969270   0.02037339
8976.00   0.65942013   0.02030732
8978.00   0.64305085   0.02004578
8980.00   0.65250719   0.02039345
8982.00   0.68133348   0.02209537
8984.00   0.67382175   0.02464379
8986.00   0.62371153   0.02700716
8988.00   0.62475044   0.02860281
8990.00   0.65447479   0.02919008
8992.00   0.67222387   0.02786327
8994.00   0.67385656   0.02585568
8996.00   0.67228985   0.02572448
8998.00   0.65938312   0.02922939
9000.00   0.63893276   0.03159549
9002.00   0.66090411   0.03310285
9004.00   0.68584609   0.03312666
9006.00   0.68413687   0.03065564
9008.00   0.69185656   0.02524641
9010.00   0.68248028   0.02150253
9012.00   0.65970981   0.02001388
9014.00   0.64635730   0.01986444
9016.00   0.66571426   0.02006346
9018.00   0.66534311   0.02013624
9020.00   0.65051532   0.01996083
9022.00   0.63373333   0.01982308
9024.00   0.62751126   0.01986471
9026.00   0.63810951   0.01999556
9028.00   0.62562841   0.01959536
9030.00   0.61809260   0.01927430
9032.00   0.62671673   0.01979158
9034.00   0.64566654   0.02101070
9036.00   0.63862765   0.02180518
9038.00   0.63247150   0.02198949
9040.00   0.63795727   0.02201653
9042.00   0.64318305   0.02210242
9044.00   0.63956064   0.02258072
9046.00   0.63501745   0.02391309
9048.00   0.64353240   0.02462251
9050.00   0.64796454   0.02536204
9052.00   0.64455765   0.02550271
9054.00   0.63681692   0.02425243
9056.00   0.62609130   0.02202903
9058.00   0.62082070   0.02087049
9060.00   0.62218827   0.02001140
9062.00   0.61396837   0.01990622
9064.00   0.59485489   0.02131643
9066.00   0.58509082   0.02128707
9068.00   0.58635783   0.02003918
9070.00   0.58882576   0.01987184
9072.00   0.59700447   0.02101023
9074.00   0.60166502   0.02128029
9076.00   0.58648777   0.02015819
9078.00   0.58118820   0.01951376
9080.00   0.59130698   0.01969438
9082.00   0.60774744   0.02018716
9084.00   0.61122960   0.01992814
9086.00   0.62605733   0.01967118
9088.00   0.63431150   0.02066071
9090.00   0.62638193   0.02185073
9092.00   0.60758185   0.02209353
9094.00   0.61596566   0.02124675
9096.00   0.61489326   0.02162136
9098.00   0.61523032   0.02224097
9100.00   0.62672299   0.02280975
9102.00   0.64862877   0.02329189
9104.00   0.61687618   0.02298767
9106.00   0.61479884   0.02250079
9108.00   0.61601764   0.02135844
9110.00   0.61948335   0.01986510
9112.00   0.62707728   0.01880968
9114.00   0.61796433   0.01858653
9116.00   0.60214943   0.01864553
9118.00   0.60771960   0.01886322
9120.00   0.62302238   0.01898140
9122.00   0.61611539   0.01873992
9124.00   0.61274332   0.01858463
9126.00   0.60173112   0.01862396
9128.00   0.59199649   0.01888753
9130.00   0.58827215   0.01934412
9132.00   0.59334362   0.01982830
9134.00   0.58566999   0.01981196
9136.00   0.59554601   0.01976739
9138.00   0.61639291   0.01968759
9140.00   0.62467915   0.01925856
9142.00   0.58671880   0.01827070
9144.00   0.59615737   0.01839574
9146.00   0.60019308   0.01892535
9148.00   0.58501399   0.01962239
9150.00   0.58629417   0.02065835
9152.00   0.58005756   0.02165418
9154.00   0.58741611   0.02282442
9156.00   0.59710330   0.02335405
9158.00   0.60385662   0.02278466
9160.00   0.59694159   0.02191600
9162.00   0.59968412   0.02104334
9164.00   0.59399790   0.02030928
9166.00   0.59274602   0.01967512
9168.00   0.59006256   0.01909330
9170.00   0.58921736   0.01895021
9172.00   0.58794159   0.01915213
9174.00   0.59594464   0.01954571
9176.00   0.60303706   0.01974344
9178.00   0.60967654   0.01959839
9180.00   0.60738242   0.01889724
9182.00   0.60326010   0.01858999
9184.00   0.60085964   0.01853952
9186.00   0.60022497   0.01848703
9188.00   0.59880614   0.01827949
9190.00   0.58585566   0.01809644
9192.00   0.59225398   0.01824207
9194.00   0.59858936   0.01842172
9196.00   0.59740382   0.01844294
9198.00   0.59192747   0.01826495
9200.00   0.60645467   0.01818355
9202.00   0.59784347   0.01799223
9204.00   0.58961636   0.01798277
9206.00   0.58889836   0.01817545
9208.00   0.59047866   0.01842367
9210.00   0.56860340   0.01847889
9212.00   0.56432718   0.01895184
9214.00   0.57707697   0.01961131
9216.00   0.59722662   0.02012721
9218.00   0.60802263   0.02040962
9220.00   0.60959387   0.02078803
9222.00   0.61682671   0.02118071
9224.00   0.63192552   0.02142760
9226.00   0.63858408   0.02139136
9228.00   0.62302065   0.02088418
9230.00   0.61699325   0.02022565
9232.00   0.61317879   0.01946681
9234.00   0.60138845   0.01880430
9236.00   0.58479124   0.01843211
9238.00   0.58515948   0.01848800
9240.00   0.59327012   0.01860245
9242.00   0.58670717   0.01856725
9244.00   0.57823688   0.01861613
9246.00   0.58465761   0.01898343
9248.00   0.59738070   0.01923117
9250.00   0.60588646   0.01931340
9252.00   0.60801852   0.01924201
9254.00   0.60098886   0.01905594
9256.00   0.57296914   0.01862743
9258.00   0.57598639   0.01849004
9260.00   0.59056801   0.01856578
9262.00   0.61373723   0.01883788
9264.00   0.63227123   0.01905421
9266.00   0.60735446   0.01872295
9268.00   0.61954576   0.01857231
9270.00   0.62316352   0.01867737
9272.00   0.61018699   0.01866973
9274.00   0.59248769   0.01852036
9276.00   0.57841712   0.01871574
9278.00   0.59423429   0.02005258
9280.00   0.60099858   0.02031256
9282.00   0.59042990   0.02017500
9284.00   0.59053749   0.02089596
9286.00   0.61272973   0.02241917
9288.00   0.61594194   0.02232918
9290.00   0.60414785   0.02233793
9292.00   0.60199666   0.02247986
9294.00   0.61576194   0.02228515
9296.00   0.60967302   0.02227893
9298.00   0.59532732   0.02280643
9300.00   0.61570382   0.02619669
9302.00   0.64806849   0.03257665
9304.00   0.63525110   0.03998355
9306.00   0.62166864   0.04541561
9308.00   0.63148886   0.05316177
9310.00   0.59077471   0.06043957
9312.00   0.53442150   0.06421201
9314.00   0.54666597   0.06217380
9316.00   0.64217776   0.06181091
9318.00   0.69063711   0.06224177
9320.00   0.67828244   0.06133665
9322.00   0.64113408   0.05824393
9324.00   0.66295660   0.05648204
9326.00   0.67937082   0.05540995
9328.00   0.65067524   0.04986769
9330.00   0.60722542   0.04078635
9332.00   0.58982849   0.03411553
9334.00   0.58768225   0.03608812
9336.00   0.60131979   0.04021448
9338.00   0.62525052   0.04240720
9340.00   0.62610996   0.04306415
9342.00   0.59857845   0.04270096
9344.00   0.63360351   0.03864875
9346.00   0.66734695   0.03315581
9348.00   0.65502369   0.02923108
9350.00   0.60787284   0.02753503
9352.00   0.57599729   0.02758475
9354.00   0.58281028   0.02957815
9356.00   0.59775132   0.03014362
9358.00   0.61346048   0.02890706
9360.00   0.61100793   0.02675180
9362.00   0.58885372   0.02513944
9364.00   0.59011298   0.02527280
9366.00   0.56616837   0.02781760
9368.00   0.57064158   0.03813847
9370.00   0.64595491   0.05552481
9372.00   0.72958970   0.07574771
9374.00   0.64769572   0.08360068
9376.00   0.56563056   0.08535918
9378.00   0.55284721   0.08515912
9380.00   0.62173879   0.08235380
9382.00   0.62236059   0.06375802
9384.00   0.58496451   0.04181348
9386.00   0.58304358   0.02712192
9388.00   0.60109109   0.02465077
9390.00   0.62030143   0.02307090
9392.00   0.57636100   0.02114319
9394.00   0.55102950   0.02098856
9396.00   0.55627126   0.02332122
9398.00   0.57466418   0.02702201
9400.00   0.56522495   0.03010919
9402.00   0.56588256   0.03096732
9404.00   0.56344503   0.03065737
9406.00   0.56324261   0.02947935
9408.00   0.56321877   0.02709471
9410.00   0.57186955   0.02387948
9412.00   0.58778512   0.02365823
9414.00   0.58288413   0.02728499
9416.00   0.56877017   0.03203522
9418.00   0.57848185   0.03569630
9420.00   0.62663478   0.03724308
9422.00   0.57835656   0.03847431
9424.00   0.55543655   0.03870724
9426.00   0.55401689   0.03605437
9428.00   0.57322210   0.03059243
9430.00   0.62075466   0.02679825
9432.00   0.63602775   0.02741219
9434.00   0.60113639   0.03492420
9436.00   0.55208606   0.04697433
9438.00   0.51722449   0.06035494
9440.00   0.51880246   0.07276160
9442.00   0.61425853   0.07393578
9444.00   0.67079991   0.06294901
9446.00   0.63601512   0.04358739
9448.00   0.58448845   0.02999711
9450.00   0.57392293   0.02575854
9452.00   0.56062973   0.02953954
9454.00   0.54290932   0.03828007
9456.00   0.53374243   0.04723698
9458.00   0.56180716   0.05196032
9460.00   0.55846888   0.05066387
9462.00   0.55088329   0.04597230
9464.00   0.55324185   0.03850986
9466.00   0.57304054   0.02947591
9468.00   0.57397771   0.02510229
9470.00   0.56788081   0.02953978
9472.00   0.54382968   0.03911711
9474.00   0.53537434   0.04846659
9476.00   0.54726768   0.05529408
9478.00   0.52357745   0.05875935
9480.00   0.50672364   0.05759755
9482.00   0.53677750   0.04965455
9484.00   0.56799519   0.03707778
9486.00   0.54897934   0.02527701
9488.00   0.55130225   0.02242024
9490.00   0.55302233   0.02237461
9492.00   0.55842257   0.02356429
9494.00   0.57636797   0.02660018
9496.00   0.57665503   0.03258155
9498.00   0.55541539   0.04140719
9500.00   0.57572144   0.04671365
9502.00   0.60068995   0.04611521
9504.00   0.60274082   0.04072008
9506.00   0.58171147   0.03464334
9508.00   0.55248380   0.02971234
9510.00   0.54205590   0.02512084
9512.00   0.54497766   0.02343501
9514.00   0.54877895   0.02709517
9516.00   0.51970357   0.03455489
9518.00   0.54275602   0.04086166
9520.00   0.56872034   0.04256193
9522.00   0.55782312   0.04084245
9524.00   0.52149254   0.03679618
9526.00   0.50111884   0.03030439
9528.00   0.53821522   0.02599856
9530.00   0.56856197   0.02459017
9532.00   0.55795926   0.02461660
9534.00   0.54377979   0.02478148
9536.00   0.56693119   0.02531243
9538.00   0.56928962   0.02571416
9540.00   0.58032560   0.02606534
9542.00   0.58817536   0.02604271
9544.00   0.58086610   0.02588976
9546.00   0.58911127   0.02710074
9548.00   0.57260334   0.03024374
9550.00   0.56018704   0.03362484
9552.00   0.56798536   0.03642031
9554.00   0.53963536   0.03828926
9556.00   0.54159516   0.03756478
9558.00   0.54991692   0.03361689
9560.00   0.55001879   0.03083974
9562.00   0.53701138   0.03435833
9564.00   0.49847421   0.04287573
9566.00   0.51781076   0.04807564
9568.00   0.52362984   0.04756936
9570.00   0.52915794   0.04308438
9572.00   0.54602152   0.03707846
9574.00   0.56018299   0.02962765
9576.00   0.51612854   0.02411009
9578.00   0.50320590   0.02202385
9580.00   0.52844173   0.02234929
9582.00   0.56380457   0.02271018
9584.00   0.53907418   0.02194379
9586.00   0.50686717   0.02165672
9588.00   0.50346112   0.02259573
9590.00   0.52888852   0.02400313
9592.00   0.54398203   0.02440043
9594.00   0.52673215   0.02319037
9596.00   0.52929616   0.02152208
9598.00   0.50216120   0.02333503
#9600.00   0.45282698   0.00930222
#9602.00   0.46262231   0.01013654
#9604.00   3.49058533   0.01125363
#9606.00   -15.01873779   0.01792857
#9608.00   0.32542819   0.01812351
#9610.00   0.33131981   0.01768740
#9612.00   0.33387873   0.01684623
#9614.00   0.34455675   0.01641336
#9616.00   0.35280269   0.01726482
#9618.00   0.34690353   0.01894040
#9620.00   0.33953211   0.02026834
#9622.00   -18.71791267   0.02067152
#9624.00   -0.64821094   0.26960495
#9626.00   1.88546097   0.01229864
#9628.00   0.39063263   0.02605179
#9630.00   0.46812668   0.02318012
9632.00   0.50829661   0.02169338
9634.00   0.51126081   0.02158058
9636.00   0.51166183   0.02188496
9638.00   0.51656812   0.02203271
9640.00   0.52261764   0.02194152
9642.00   0.48374376   0.02104186
9644.00   0.48421979   0.02077385
9646.00   0.50376558   0.02109389
9648.00   0.50954515   0.02143248
9650.00   0.48715210   0.02121045
9652.00   0.48030654   0.02122829
9654.00   0.49276438   0.02162335
9656.00   0.50689954   0.02235475
9658.00   0.50884295   0.02308112
9660.00   0.50515383   0.02375857
9662.00   0.49577478   0.02524933
9664.00   0.48614049   0.02717341
9666.00   0.48643002   0.02851395
9668.00   0.49584746   0.02863102
9670.00   0.48964897   0.02830613
9672.00   0.48056006   0.02739610
9674.00   0.47973752   0.02656879
9676.00   0.47459850   0.02697761
9678.00   0.46103811   0.02925394
9680.00   0.49816144   0.03183472
9682.00   0.50243497   0.03226248
9684.00   0.48866662   0.03129129
9686.00   0.48206887   0.02944112
9688.00   0.49155569   0.02713339
9690.00   0.50221634   0.02535069
9692.00   0.50450605   0.02543671
9694.00   0.50817913   0.02766438
9696.00   0.49514088   0.03052815
9698.00   0.44037971   0.03191449
9700.00   0.45377374   0.03224586
9702.00   0.48301458   0.03165377
9704.00   0.49392998   0.02963302
9706.00   0.48778686   0.02657085
9708.00   0.48362955   0.02540130
9710.00   0.47195926   0.02577797
9712.00   0.47359398   0.02723081
9714.00   0.49823070   0.03013691
9716.00   0.51468229   0.03382254
9718.00   0.48386267   0.03547252
9720.00   0.47996226   0.03556591
9722.00   0.48868856   0.03539357
9724.00   0.48644701   0.03397112
9726.00   0.47172174   0.02963328
9728.00   0.47419772   0.02521377
9730.00   0.48415613   0.02407620
9732.00   0.48698154   0.02574542
9734.00   0.48511711   0.02830661
9736.00   0.49266639   0.03021259
9738.00   0.49486041   0.03044984
9740.00   0.47514915   0.02988848
9742.00   0.46663034   0.02903246
9744.00   0.48005375   0.02797613
9746.00   0.48725930   0.02656859
9748.00   0.47979698   0.02543257
9750.00   0.46895871   0.02424609
9752.00   0.46654534   0.02302472
9754.00   0.47477570   0.02202770
9756.00   0.49718237   0.02169441
9758.00   0.50041747   0.02159736
9760.00   0.49054405   0.02148753
9762.00   0.48547795   0.02130478
9764.00   0.48381782   0.02098550
9766.00   0.45742920   0.02019144
9768.00   0.46163735   0.01985977
9770.00   0.48360911   0.01999802
9772.00   0.50154597   0.02032059
9774.00   0.48731637   0.02038938
9776.00   0.45587960   0.02037910
9778.00   0.45196542   0.02056577
9780.00   0.46481189   0.02112764
9782.00   0.47208700   0.02281369
9784.00   0.45599747   0.02673592
9786.00   0.43206057   0.03361257
9788.00   0.44259945   0.04027759
9790.00   0.46899447   0.04451533
9792.00   0.47325704   0.04589744
9794.00   0.45131966   0.04541213
9796.00   0.45851818   0.04264629
9798.00   0.46409830   0.03806936
9800.00   0.47072545   0.03422226
9802.00   0.46784893   0.03270994
9804.00   0.47553882   0.03125540
9806.00   0.45712808   0.02893638
9808.00   0.46035838   0.02773173
9810.00   0.47491109   0.02783897
9812.00   0.49148688   0.02838481
9814.00   0.48661974   0.02850834
9816.00   0.49003401   0.02792847
9818.00   0.47974673   0.02658657
9820.00   0.45573911   0.02511472
9822.00   0.45058784   0.02434258
9824.00   0.47016227   0.02420326
9826.00   0.47410229   0.02402764
9828.00   0.47484890   0.02389520
9830.00   0.47453770   0.02368034
9832.00   0.46895447   0.02318216
9834.00   0.48540545   0.02271868
9836.00   0.47622228   0.02222305
9838.00   0.46278015   0.02194043
9840.00   0.45446071   0.02219585
9842.00   0.45310616   0.02391646
9844.00   0.46273533   0.02738586
9846.00   0.46018979   0.03031587
9848.00   0.45365942   0.03176409
9850.00   0.44792047   0.03162170
9852.00   0.46118876   0.03052396
9854.00   0.45971575   0.02784853
9856.00   0.45302749   0.02474388
9858.00   0.44935191   0.02250279
9860.00   0.46574759   0.02212201
9862.00   0.48147121   0.02268727
9864.00   0.46947241   0.02501559
9866.00   0.44757327   0.03133310
9868.00   0.45194733   0.03940533
9870.00   0.47951910   0.04596471
9872.00   0.47508344   0.04827866
9874.00   0.43014884   0.04809357
9876.00   0.41311023   0.04480370
9878.00   0.42513618   0.03834599
9880.00   0.43713272   0.03053094
9882.00   0.41914710   0.02615150
9884.00   0.42327967   0.02497093
9886.00   0.43516183   0.02563201
9888.00   0.45713028   0.02772656
9890.00   0.49716672   0.03171389
9892.00   0.49852297   0.03524907
9894.00   0.47705531   0.03669427
9896.00   0.47721124   0.03677456
9898.00   0.50039542   0.03595566
9900.00   0.48094389   0.03305714
9902.00   0.46306300   0.02863260
9904.00   0.44837698   0.02563927
9906.00   0.44470385   0.02638062
9908.00   0.45094761   0.03126616
9910.00   0.44194904   0.03958457
9912.00   0.42439100   0.04653539
9914.00   0.45037553   0.05029221
9916.00   0.47595832   0.05079754
9918.00   0.42887855   0.04833892
9920.00   0.42308006   0.04246436
9922.00   0.43658224   0.03431666
9924.00   0.45479116   0.02806247
9926.00   0.44714203   0.02594408
9928.00   0.43097582   0.02527617
9930.00   0.43966600   0.02519275
9932.00   0.46789870   0.02601270
9934.00   0.47034606   0.02847014
9936.00   0.45417809   0.03383566
9938.00   0.47196391   0.04250580
9940.00   0.44933304   0.05151543
9942.00   0.49980631   0.06044874
9944.00   0.52134436   0.06684271
9946.00   0.44123110   0.06894600
9948.00   0.47033271   0.06688997
9950.00   0.45263684   0.06386569
9952.00   0.40551957   0.06123504
9954.00   0.39459562   0.05992383
9956.00   0.42461452   0.06053125
9958.00   0.44849136   0.06329065
9960.00   0.42665014   0.06357078
9962.00   0.40949902   0.05994442
9964.00   0.41296414   0.05379659
9966.00   0.41021609   0.04843000
9968.00   0.40042880   0.04378708
9970.00   0.41545209   0.04079157
9972.00   0.45787945   0.03984550
9974.00   0.48960125   0.03980370
9976.00   0.50145745   0.03911884
9978.00   0.45030737   0.03631648
9980.00   0.42035964   0.03322304
9982.00   0.42076755   0.03089855
9984.00   0.43980753   0.02952600
9986.00   0.45227918   0.02835525
9988.00   0.43806031   0.02739104
9990.00   0.42292681   0.02703209
9992.00   0.42132556   0.02763448
9994.00   0.42977747   0.02929872
9996.00   0.43654665   0.03160065
9998.00   0.42320833   0.03330615
10000.00   0.41065192   0.03432839
10002.00   0.41523433   0.03533765
10004.00   0.42832783   0.03785614
10006.00   0.44814610   0.04537047
10008.00   0.39216542   0.05812849
10010.00   0.34105226   0.06913563
10012.00   0.32384977   0.07549667
10014.00   0.32705021   0.07663859
10016.00   0.37505427   0.07459028
10018.00   0.41258541   0.06690814
10020.00   0.40322518   0.05772771
10022.00   0.36232266   0.05242309
10024.00   0.36361742   0.05276849
10026.00   0.39659464   0.05288145
10028.00   0.41158995   0.05099035
10030.00   0.40511021   0.04667696
10032.00   0.39442143   0.04033785
10034.00   0.39475092   0.03474374
10036.00   0.41491094   0.03341850
10038.00   0.41110280   0.03474917
10040.00   0.41423193   0.03706149
10042.00   0.44347262   0.03897612
10044.00   0.45428085   0.03935466
10046.00   0.40383220   0.03821436
10048.00   0.37561378   0.03608289
10050.00   0.38267288   0.03366065
10052.00   0.40128455   0.03237909
10054.00   0.42488989   0.03506003
10056.00   0.42625204   0.04018588
10058.00   0.41252434   0.04463388
10060.00   0.38914260   0.04721120
10062.00   0.38601169   0.04837020
10064.00   0.40980706   0.04904796
10066.00   0.42351857   0.04775627
10068.00   0.41025257   0.04509123
10070.00   0.40110078   0.04265414
10072.00   0.39832595   0.04183555
10074.00   0.40974334   0.04275861
10076.00   0.40149412   0.04808151
10078.00   0.40187451   0.05695850
10080.00   0.42363623   0.06549620
10082.00   0.42847958   0.06918605
10084.00   0.42291954   0.06942287
10086.00   0.38884160   0.06565183
10088.00   0.38505825   0.05752267
10090.00   0.40753022   0.04638448
10092.00   0.39706087   0.03924724
10094.00   0.39724383   0.03743794
10096.00   0.41398144   0.03921158
10098.00   0.44205412   0.04389517
10100.00   0.46130005   0.04998993
10102.00   0.45632219   0.05386510
10104.00   0.39014140   0.05454228
10106.00   0.36239871   0.05354183
10108.00   0.38586178   0.05060307
10110.00   0.44943810   0.04515889
10112.00   0.40509287   0.03961711
10114.00   0.39410654   0.03839785
10116.00   0.40314308   0.04371835
10118.00   0.40741479   0.05507545
10120.00   0.38586426   0.06930677
10122.00   0.43319926   0.07897291
10124.00   0.42388940   0.08287869
10126.00   0.37295648   0.08244006
10128.00   0.31272817   0.07741278
10130.00   0.38861847   0.06602828
10132.00   0.41114998   0.05369438
10134.00   0.40837821   0.04600611
10136.00   0.39445043   0.04344662
10138.00   0.37424350   0.04312043
10140.00   0.39121732   0.04399250
10142.00   0.40444064   0.04563299
10144.00   0.39824054   0.04810460
10146.00   0.38632092   0.05221422
10148.00   0.38468227   0.05794428
10150.00   0.37562302   0.06317855
10152.00   0.36415377   0.06616664
10154.00   0.36250338   0.06773894
10156.00   0.37253562   0.06771507
10158.00   0.39356360   0.06520905
10160.00   0.42478129   0.06130992
10162.00   0.45927969   0.05962369
10164.00   0.44010782   0.06343297
10166.00   0.41301438   0.07368278
10168.00   0.46448103   0.08790603
10170.00   0.47428980   0.09707805
10172.00   0.46370482   0.09999934
10174.00   0.42349732   0.09850073
10176.00   0.41321859   0.09297123
10178.00   0.37150076   0.08032985
10180.00   0.37032425   0.06986351
10182.00   0.40675792   0.06733992
10184.00   0.43112436   0.07230223
10186.00   0.37997285   0.07937229
10188.00   0.37580061   0.08360121
10190.00   0.46357942   0.08535177
10192.00   0.48988342   0.08425057
10194.00   0.40772763   0.07912353
10196.00   0.31364158   0.07066213
10198.00   0.36386505   0.06761241
10200.00   0.36412108   0.06882367
10202.00   0.39062801   0.07428005
10204.00   0.43717727   0.08379479
10206.00   0.47811463   0.09598116
10208.00   0.37195778   0.10360408
10210.00   0.36670628   0.10608461
10212.00   0.34980583   0.10454970
10214.00   0.33764747   0.09922721
10216.00   0.31476605   0.08782079
10218.00   0.41897631   0.07730976
10220.00   0.45442364   0.07569052
10222.00   0.40252236   0.08131462
10224.00   0.32261124   0.08868917
10226.00   0.36627683   0.09491446
10228.00   0.38810447   0.09850796
10230.00   0.34626079   0.09550505
10232.00   0.32042775   0.08760267
10234.00   0.37070891   0.07850448
10236.00   0.40361223   0.07029282
10238.00   0.41656923   0.06349612
10240.00   0.42353168   0.05971527
10242.00   0.43853498   0.05830909
10244.00   0.42527398   0.05657490
10246.00   0.37679777   0.05490931
10248.00   0.33006275   0.05401757
10250.00   0.35711154   0.05492909
10252.00   0.39978516   0.05629985
10254.00   0.36933076   0.05653324
10256.00   0.38036656   0.05751196
10258.00   0.41239667   0.05903696
10260.00   0.42372313   0.06058356
10262.00   0.41864339   0.06272393
10264.00   0.43229321   0.06587738
10266.00   0.45586494   0.07100083
10268.00   0.45076597   0.07556634
10270.00   0.44871768   0.07878795
10272.00   0.44819364   0.08027027
10274.00   0.40449086   0.08127030
10276.00   0.33708966   0.08124214
10278.00   0.35506108   0.09246472
10280.00   0.44486964   0.11989293
10282.00   0.55995560   0.15476520
10284.00   0.49672279   0.18137522
10286.00   0.37947425   0.19334422
10288.00   0.37341693   0.19738252
10290.00   0.38968992   0.19284888
10292.00   0.15167074   0.17560768
10294.00   0.31873536   0.15333162
10296.00   0.27734402   0.13915253
10298.00   0.26962212   0.13085288
10300.00   0.34533155   0.12239369
10302.00   0.37559941   0.11008022
10304.00   0.32845390   0.09970603
10306.00   0.40679869   0.09797970
10308.00   0.45067072   0.09885614
10310.00   0.40674624   0.09801952
10312.00   0.42107996   0.09684549
10314.00   0.48300335   0.09278318
10316.00   0.45934239   0.08656996
10318.00   0.43424869   0.08208128
10320.00   0.43582770   0.08130838
10322.00   0.36150655   0.08018751
10324.00   0.36313948   0.08243812
10326.00   0.40359458   0.08573193
10328.00   0.46516216   0.08771014
10330.00   0.48355064   0.08713028
10332.00   0.27221915   0.08348048
10334.00   0.35456118   0.08642388
10336.00   0.50199884   0.09146738
10338.00   0.51225829   0.09684809
10340.00   0.36550781   0.10370382
10342.00   0.33493245   0.11585508
10344.00   0.36769667   0.12787940
10346.00   0.40053213   0.13466813
10348.00   0.36106125   0.13691129
10350.00   0.36094427   0.13793020
10352.00   0.35929012   0.13124722
10354.00   0.29568532   0.12131786
10356.00   0.31383705   0.11516733
10358.00   0.38899955   0.11264042
10360.00   0.29317722   0.10557187
10362.00   0.28691843   0.10535609
10364.00   0.34339714   0.11507388
10366.00   0.39647833   0.13964276
10368.00   0.38696024   0.17377853
10370.00   0.46888566   0.20303585
10372.00   0.55902201   0.21675663
10374.00   0.46283373   0.21940984
10376.00   0.25548637   0.20925389
10378.00   0.21294387   0.18440051
10380.00   0.37836275   0.15063243
10382.00   0.39911118   0.13030364
10384.00   0.45882294   0.12318029
10386.00   0.46737254   0.12241474
10388.00   0.33864394   0.12384073
10390.00   0.36757597   0.13646187
10392.00   0.42917213   0.15628184
10394.00   0.53061157   0.17165364
10396.00   0.57577819   0.17849970
10398.00   0.28534710   0.17634548
10400.00   0.06243818   0.16921754
10402.00   0.19368362   0.15520400
10404.00   0.33714005   0.14179620
10406.00   0.36222124   0.13610637
10408.00   0.53180081   0.14127921
10410.00   0.42885196   0.15515137
10412.00   0.26418629   0.19009857
10414.00   0.27446127   0.22974603
10416.00   0.43385407   0.25962701
10418.00   0.46630204   0.27247968
10420.00   0.44625655   0.27305904
10422.00   0.44276133   0.25441554
10424.00   0.50569111   0.22109406
10426.00   0.58410388   0.18606311
10428.00   0.48034230   0.16478749
10430.00   0.41852573   0.15572804
10432.00   0.39641619   0.15138370
10434.00   0.41396216   0.14727424
10436.00   0.38925910   0.14154047
10438.00   0.56991512   0.14351238
10440.00   0.62806994   0.14562248
10442.00   0.58671826   0.15060364
10444.00   0.48335382   0.16071326
10446.00   0.45928445   0.17758517
10448.00   0.36355543   0.18986289
10450.00   0.33714035   0.19546528
10452.00   0.35954353   0.19554962
10454.00   0.37859473   0.19034822
10456.00   0.23729433   0.17506395
10458.00   0.16158696   0.16061287
10460.00   0.33812913   0.16584824
10462.00   0.48543811   0.19134061
10464.00   0.32113671   0.22283621
10466.00   0.18036230   0.24762519
10468.00   0.24674414   0.26132131
10470.00   0.32901201   0.26408330
10472.00   0.40256938   0.25248316
10474.00   0.42628464   0.22468181
10476.00   0.25694785   0.18964243
10478.00   0.27205440   0.16962357
10480.00   0.41727734   0.16236007
10482.00   0.52806997   0.16282316
10484.00   0.48574886   0.16977155
10486.00   0.51480794   0.12218478
#10488.00   2.31396461   0.11767630
#10490.00   -6.03942680   0.58498359
10492.00   0.42623085   0.17378601
10494.00   0.46492454   0.18351811
10496.00   0.41227040   0.18380104
10498.00   0.43748546   0.17860916
10500.00   0.40923929   0.17923579
10502.00   0.31406111   0.19047758
10504.00   0.40041262   0.20561777
10506.00   0.47545120   0.21879832
10508.00   0.24676676   0.22067717
#10510.00   -8.56538868   0.63955098
#10512.00   1.25304735   0.14668439
10514.00   0.75874144   0.14370494
10516.00   0.32260334   0.19377218
10518.00   0.49342570   0.20085128
10520.00   0.34830463   0.21476193
10522.00   0.18714990   0.23009813
10524.00   0.21996526   0.23639248
10526.00   0.44853744   0.23619859
10528.00   0.52832752   0.22640996
10530.00   0.37746814   0.20648420
10532.00   0.22385746   0.18334098
10534.00   0.37664017   0.17985563
10536.00   0.37805179   0.17572612
10538.00   0.38523260   0.17514019
10540.00   0.55712837   0.18348570
10542.00   0.78834659   0.19989924
10544.00   0.50852436   0.19540501
10546.00   0.37481046   0.18940838
10548.00   0.37805223   0.18574618
10550.00   0.34253240   0.18602602
10552.00   0.35275772   0.17827207
10554.00   0.41962734   0.17895983
10556.00   0.29426315   0.18042940
10558.00   0.30923000   0.17933355
10560.00   0.49389613   0.17654617
10562.00   0.57443881   0.17925851
10564.00   0.41462111   0.18584158
10566.00   0.26505685   0.18936479
10568.00   0.24569087   0.19375575
10570.00   0.34179029   0.20167005
10572.00   0.45271644   0.20577656
10574.00   0.24783754   0.20449467
10576.00   0.24915724   0.20348012
10578.00   0.32471523   0.20443837
10580.00   0.30982432   0.21144289
10582.00   0.14106123   0.22191517
10584.00   0.25076905   0.22548299
10586.00   0.37489417   0.22746265
10588.00   0.44193506   0.22790377
10590.00   0.33173421   0.22078733
10592.00   0.36061630   0.21135771
10594.00   0.42078534   0.21063507
10596.00   0.37052479   0.21157779
10598.00   0.31947592   0.21231520
10600.00   0.33589759   0.21171777
10602.00   0.31960729   0.21068561
10604.00   0.44401944   0.20991071
10606.00   0.47523567   0.21035480
10608.00   0.51240170   0.21553348
10610.00   0.61963910   0.21624430
10612.00   0.51724666   0.21460228
10614.00   0.37350929   0.21515612
10616.00   0.43077865   0.22070153
10618.00   0.70012188   0.22807162
10620.00   0.72858620   0.22997613
10622.00   0.61758024   0.22356439
10624.00   0.48556805   0.22060902
10626.00   0.41270745   0.22424722
10628.00   0.39130637   0.22447872
10630.00   0.48824331   0.22330444
10632.00   0.48095730   0.22708808
10634.00   0.56049991   0.23246884
10636.00   0.60628599   0.23757540
10638.00   0.22294687   0.23813294
10640.00   0.46972290   0.24333453
10642.00   0.65921861   0.25022066
10644.00   0.52528715   0.25152048
10646.00   0.33654699   0.24719822
10648.00   0.38342753   0.25176308
10650.00   0.25591993   0.26116565
10652.00   0.34991351   0.26563558
10654.00   0.51325130   0.26440147
10656.00   0.60643500   0.26480135
10658.00   0.30641332   0.26107025
10660.00   0.36579832   0.26182148
10662.00   0.22007714   0.26421389
10664.00   0.11679994   0.26139048
10666.00   0.22313647   0.25629023
10668.00   0.11984363   0.26262385
10670.00   0.35416031   0.26813003
10672.00   0.56452513   0.27374542
10674.00   0.72646928   0.28201735
10676.00   0.67767388   0.28669962
10678.00   0.40799391   0.28930786
10680.00   0.47714472   0.30029765
10682.00   0.43504861   0.31468984
10684.00   0.39601985   0.32626650
10686.00   0.63270050   0.33010188
10688.00   0.75519419   0.33589625
10690.00   0.68588066   0.34458384
10692.00   0.69955057   0.35276213
10694.00   0.87034959   0.35877085
10696.00   0.71280211   0.36347529
10698.00   0.32728419   0.35808900
10700.00   0.20774932   0.35299739
10702.00   0.31799659   0.35705650
10704.00   0.54743111   0.37376156
10706.00   0.69179493   0.39379907
10708.00   0.60591859   0.40130201
