# File created by shivutils (I.Shivvers)
# wl(A)   flm    er(optional)
3424.00   3.78315880   0.09813148
3426.00   3.41746421   0.09627328
3428.00   3.49601744   0.09776591
3430.00   3.48295475   0.09789215
3432.00   3.48877570   0.09769494
3434.00   3.64694833   0.10036969
3436.00   3.67467029   0.10141895
3438.00   3.67139440   0.10029085
3440.00   3.55822965   0.09878078
3442.00   3.58811184   0.09886238
3444.00   3.42564220   0.09874452
3446.00   3.69750180   0.10109016
3448.00   3.46772722   0.10095041
3450.00   3.45342948   0.10259022
3452.00   3.52970465   0.10411432
3454.00   3.33248077   0.10224640
3456.00   3.57532336   0.10385108
3458.00   3.34084319   0.10102742
3460.00   3.43838580   0.10026626
3462.00   3.44613192   0.10036872
3464.00   3.36436150   0.10018106
3466.00   3.41209398   0.10023691
3468.00   3.42408561   0.10065252
3470.00   3.57928762   0.10136983
3472.00   3.54709644   0.10022962
3474.00   3.25138492   0.09805502
3476.00   3.27131840   0.09947149
3478.00   3.40372940   0.10411330
3480.00   3.41405928   0.10592961
3482.00   3.46501297   0.10583140
3484.00   3.53192041   0.10513539
3486.00   3.58847941   0.10472528
3488.00   3.57390631   0.10341342
3490.00   3.44655013   0.10154000
3492.00   3.57331130   0.10173535
3494.00   3.50211000   0.10036380
3496.00   3.64082929   0.10067473
3498.00   3.44754983   0.09970263
3500.00   3.63070067   0.10059660
3502.00   3.88727534   0.10193059
3504.00   3.74193825   0.10042926
3506.00   3.86608343   0.10085479
3508.00   4.06307079   0.10196535
3510.00   3.97834818   0.10177789
3512.00   3.96286141   0.10046852
3514.00   3.97478543   0.09980042
3516.00   4.21328323   0.10271825
3518.00   4.11949312   0.10120523
3520.00   4.07776805   0.10014249
3522.00   4.20323417   0.10058446
3524.00   4.14808185   0.09945685
3526.00   4.47432295   0.10138085
3528.00   4.51016119   0.10190685
3530.00   4.43794350   0.10198964
3532.00   4.40773632   0.10120214
3534.00   4.35004240   0.10117918
3536.00   4.16523368   0.10020414
3538.00   4.32218492   0.10132837
3540.00   4.26310588   0.10223438
3542.00   4.01287568   0.10184037
3544.00   4.33194295   0.10400932
3546.00   4.13605425   0.10228835
3548.00   4.16997740   0.10151373
3550.00   4.27261776   0.10089337
3552.00   4.00034198   0.09846939
3554.00   4.07254498   0.09853740
3556.00   3.99272433   0.09807714
3558.00   4.08532959   0.09823960
3560.00   4.06825962   0.09759856
3562.00   4.00628866   0.09654732
3564.00   4.10107214   0.09484772
3566.00   4.19417071   0.09529131
3568.00   4.04874945   0.09330621
3570.00   4.14860638   0.09427380
3572.00   4.23143663   0.09534184
3574.00   3.96637870   0.09471615
3576.00   4.02556850   0.09316677
3578.00   4.07323423   0.09184792
3580.00   3.85144602   0.09020631
3582.00   3.92519051   0.08858806
3584.00   3.85046028   0.08386352
3586.00   3.71559923   0.08230071
3588.00   3.88892242   0.08626110
3590.00   3.65008798   0.08605244
3592.00   3.63385629   0.08430066
3594.00   3.61085632   0.08150082
3596.00   3.73092228   0.08233587
3598.00   3.67947284   0.08116399
3600.00   3.56818650   0.08028742
3602.00   3.61542783   0.07955354
3604.00   3.48685457   0.07776817
3606.00   3.61444064   0.07764171
3608.00   3.58770745   0.07707554
3610.00   3.56788856   0.07800372
3612.00   3.70452832   0.08290504
3614.00   3.61694989   0.08341333
3616.00   3.59074424   0.07990488
3618.00   3.66584722   0.07793032
3620.00   3.57000851   0.07685572
3622.00   3.61325364   0.07702605
3624.00   3.77786611   0.07791645
3626.00   3.61762532   0.07665288
3628.00   3.72489849   0.07897784
3630.00   3.80202158   0.08170148
3632.00   3.71340145   0.07956233
3634.00   3.61563110   0.07684678
3636.00   3.71009219   0.07703066
3638.00   3.85447993   0.07764523
3640.00   3.72152492   0.07950551
3642.00   3.73746427   0.08304007
3644.00   3.66797019   0.08431082
3646.00   3.80202618   0.09088251
3648.00   3.82904926   0.12000902
3650.00   4.07648695   0.13218899
3652.00   3.85269733   0.11853872
3654.00   3.98921351   0.10778158
3656.00   3.95066563   0.09659739
3658.00   3.73043013   0.08148865
3660.00   3.72927233   0.08607798
3662.00   3.89610574   0.09737233
3664.00   4.09349032   0.09277574
3666.00   3.79035277   0.07623615
3668.00   3.74060565   0.07169452
3670.00   3.76571752   0.07025822
3672.00   3.81910263   0.06998577
3674.00   3.88340659   0.06966109
3676.00   3.92681227   0.06878229
3678.00   3.85986311   0.06774370
3680.00   3.96024830   0.06777374
3682.00   3.94467809   0.06716597
3684.00   4.00033277   0.06690821
3686.00   3.93704951   0.06606984
3688.00   4.00778742   0.06678915
3690.00   4.11616300   0.06835466
3692.00   3.97660586   0.06763426
3694.00   4.19351570   0.06740358
3696.00   4.05967003   0.06669597
3698.00   4.11494334   0.06759876
3700.00   3.97795745   0.06719444
3702.00   4.18023276   0.06728733
3704.00   4.08701004   0.06599278
3706.00   3.96918300   0.06477786
3708.00   3.94480310   0.06407971
3710.00   3.98420884   0.06410903
3712.00   3.98545972   0.06421323
3714.00   3.87700559   0.06352100
3716.00   3.81956285   0.06299186
3718.00   3.85944275   0.06321601
3720.00   3.79262162   0.06259053
3722.00   3.67395932   0.06115448
3724.00   3.77559625   0.06156100
3726.00   3.62586532   0.06135133
3728.00   3.73484023   0.06169267
3730.00   3.75724202   0.06160228
3732.00   3.69190901   0.06029844
3734.00   3.49218855   0.05864556
3736.00   3.50193320   0.05848761
3738.00   3.43361001   0.05931852
3740.00   3.37369284   0.05984338
3742.00   3.51173424   0.05956183
3744.00   3.31329689   0.05723526
3746.00   3.33473006   0.05605946
3748.00   3.35924936   0.05598356
3750.00   3.19706658   0.05553999
3752.00   3.26567145   0.05638275
3754.00   3.19526772   0.05619352
3756.00   3.21442758   0.05550509
3758.00   3.20394463   0.05479003
3760.00   3.20369790   0.05461365
3762.00   3.11110861   0.05382837
3764.00   3.26036336   0.05417413
3766.00   3.27965413   0.05350729
3768.00   3.17132401   0.05295102
3770.00   3.14871894   0.05354375
3772.00   3.22104956   0.05411875
3774.00   3.33816131   0.05432440
3776.00   3.21723246   0.05325577
3778.00   3.16143723   0.05285749
3780.00   3.06356719   0.05229968
3782.00   3.14746001   0.05254453
3784.00   3.05438676   0.05179398
3786.00   3.00175261   0.05078963
3788.00   2.96263979   0.05082990
3790.00   2.85141804   0.05129897
3792.00   2.87180655   0.05054959
3794.00   2.85390268   0.04951291
3796.00   2.84208907   0.04862920
3798.00   2.85902741   0.04839175
3800.00   2.90656474   0.04944943
3802.00   2.86186430   0.05017022
3804.00   2.80917700   0.04947738
3806.00   2.89396723   0.04871147
3808.00   2.85616470   0.04810852
3810.00   2.85070376   0.04839721
3812.00   2.86649134   0.04830505
3814.00   2.85606773   0.04799373
3816.00   2.95228214   0.04807177
3818.00   2.92850430   0.04785506
3820.00   2.96350166   0.04808180
3822.00   3.05643637   0.04851616
3824.00   3.03024654   0.04804798
3826.00   3.02948630   0.04828020
3828.00   3.23067078   0.05008335
3830.00   3.23268456   0.05029667
3832.00   3.29275451   0.04948181
3834.00   3.20558667   0.04912171
3836.00   3.23460008   0.04914391
3838.00   3.27845835   0.04910159
3840.00   3.31952325   0.04929303
3842.00   3.24277692   0.04866795
3844.00   3.38777738   0.04900885
3846.00   3.26005780   0.04796190
3848.00   3.23210292   0.04739053
3850.00   3.22921172   0.04726806
3852.00   3.16940115   0.04683193
3854.00   3.06345008   0.04621819
3856.00   3.01521927   0.04574933
3858.00   2.94539337   0.04501338
3860.00   3.07994015   0.04564343
3862.00   2.89714486   0.04561197
3864.00   2.91628206   0.04538135
3866.00   2.80991954   0.04439769
3868.00   2.84893684   0.04416885
3870.00   2.83865954   0.04371785
3872.00   2.71478993   0.04476738
3874.00   2.73903323   0.04618766
3876.00   2.70350934   0.04506658
3878.00   2.61310373   0.04326764
3880.00   2.51468809   0.04233397
3882.00   2.56950535   0.04244939
3884.00   2.50302086   0.04244782
3886.00   2.57633873   0.04252460
3888.00   2.45921784   0.04175681
3890.00   2.51878083   0.04184346
3892.00   2.51456667   0.04235121
3894.00   2.55758845   0.04468330
3896.00   2.43529607   0.04515692
3898.00   2.46309608   0.04269356
3900.00   2.45847803   0.04271313
3902.00   2.47420893   0.04340719
3904.00   2.49574007   0.04586136
3906.00   2.53357274   0.05132944
3908.00   2.51350900   0.05433834
3910.00   2.55658652   0.05441039
3912.00   2.54900038   0.05508842
3914.00   2.57408851   0.05215055
3916.00   2.56878784   0.04686864
3918.00   2.61068253   0.04451872
3920.00   2.72446725   0.04346208
3922.00   2.71907264   0.04284193
3924.00   2.76292069   0.04279699
3926.00   2.82594047   0.04250995
3928.00   2.74715598   0.04162072
3930.00   2.84286133   0.04262717
3932.00   2.75316482   0.04425639
3934.00   2.83055147   0.04398640
3936.00   2.83794563   0.04167712
3938.00   2.94289455   0.04163514
3940.00   3.04354329   0.04275042
3942.00   2.98027413   0.04495258
3944.00   3.01864117   0.04610846
3946.00   3.09504021   0.04497093
3948.00   3.06162807   0.04342354
3950.00   3.07457020   0.04293209
3952.00   3.17432685   0.04294197
3954.00   3.10958425   0.04231238
3956.00   3.16769437   0.04243725
3958.00   3.13560432   0.04321537
3960.00   3.19802671   0.04606038
3962.00   3.27929189   0.04605453
3964.00   3.34186735   0.04312261
3966.00   3.26629696   0.04160053
3968.00   3.28342476   0.04134759
3970.00   3.40797923   0.04174079
3972.00   3.34274879   0.04213665
3974.00   3.45040132   0.04246490
3976.00   3.33068163   0.04168637
3978.00   3.41025714   0.04227474
3980.00   3.32066335   0.04211537
3982.00   3.35671609   0.04208465
3984.00   3.49326651   0.04227789
3986.00   3.47959787   0.04237896
3988.00   3.50235946   0.04296617
3990.00   3.43718125   0.04272874
3992.00   3.43756493   0.04275490
3994.00   3.54922833   0.04477438
3996.00   3.59985302   0.04673353
3998.00   3.69240447   0.04599151
4000.00   3.62370034   0.04374972
4002.00   3.67342818   0.04325936
4004.00   3.73021909   0.04300365
4006.00   3.78407463   0.04362320
4008.00   3.82166525   0.04463744
4010.00   3.85696026   0.04476823
4012.00   3.84850059   0.04470655
4014.00   3.93482784   0.04466752
4016.00   4.00156840   0.04527985
4018.00   3.91326304   0.04936161
4020.00   3.96293679   0.05351322
4022.00   3.81274349   0.05448077
4024.00   3.73513658   0.05272246
4026.00   3.83174754   0.04956787
4028.00   3.98020515   0.04767697
4030.00   3.97102976   0.04729786
4032.00   4.00219895   0.04675451
4034.00   3.86077563   0.04563468
4036.00   3.97139388   0.04551542
4038.00   3.91437768   0.04486179
4040.00   3.89182541   0.04480195
4042.00   3.70102743   0.04804811
4044.00   3.72946755   0.07597109
4046.00   4.10768880   0.09366880
4048.00   3.91798517   0.08149112
4050.00   3.82446682   0.05434984
4052.00   3.81827096   0.04815980
4054.00   3.88785438   0.04833374
4056.00   3.75648085   0.04666553
4058.00   3.74078390   0.04423148
4060.00   3.65107458   0.04271606
4062.00   3.69225500   0.04237641
4064.00   3.77070407   0.04257142
4066.00   3.84990727   0.04271104
4068.00   3.77063128   0.04247832
4070.00   3.78875432   0.04192271
4072.00   3.73105176   0.04137558
4074.00   3.63113960   0.04290541
4076.00   3.75103638   0.04952639
4078.00   3.73931693   0.05122431
4080.00   3.65284812   0.04784072
4082.00   3.73280573   0.04611676
4084.00   3.72872910   0.04556223
4086.00   3.73409200   0.04463706
4088.00   3.72315027   0.04309360
4090.00   3.70879066   0.04077087
4092.00   3.77038081   0.04049127
4094.00   3.83863739   0.04083219
4096.00   3.79128126   0.04061038
4098.00   3.78222355   0.04063057
4100.00   3.81913198   0.04037997
4102.00   3.80824535   0.03964027
4104.00   3.86142215   0.03963259
4106.00   3.81985503   0.03980219
4108.00   3.94823350   0.04037467
4110.00   3.91655691   0.04024451
4112.00   3.86593755   0.03996900
4114.00   3.90223715   0.04034979
4116.00   3.89604734   0.04010593
4118.00   3.96267698   0.03969791
4120.00   3.91605900   0.03916991
4122.00   3.95889973   0.03936128
4124.00   3.93570555   0.03949633
4126.00   3.88623162   0.03952490
4128.00   3.93973642   0.03977146
4130.00   3.94433354   0.04044759
4132.00   3.93458155   0.04171022
4134.00   3.83375802   0.04122554
4136.00   3.97513458   0.04041428
4138.00   3.96032512   0.04115147
4140.00   4.04082164   0.04203444
4142.00   3.94392713   0.04054090
4144.00   3.93418967   0.03903549
4146.00   3.94859028   0.03901320
4148.00   3.96623081   0.03939072
4150.00   4.02898552   0.04107450
4152.00   4.00737799   0.04242750
4154.00   3.99485723   0.04169263
4156.00   3.97970595   0.03947239
4158.00   3.87162946   0.03894717
4160.00   3.82704699   0.03935076
4162.00   3.92734053   0.04086043
4164.00   3.91383360   0.04294499
4166.00   3.90006124   0.04250137
4168.00   3.86085173   0.03998138
4170.00   3.76364878   0.03852974
4172.00   3.80708769   0.03810074
4174.00   3.86316403   0.03788682
4176.00   3.82093716   0.03816945
4178.00   3.84054414   0.03851811
4180.00   3.80096909   0.03809020
4182.00   3.75982550   0.03743411
4184.00   3.78552433   0.03747195
4186.00   3.80106907   0.03762679
4188.00   3.71064980   0.03726807
4190.00   3.62829918   0.03712509
4192.00   3.57850372   0.03710851
4194.00   3.51139171   0.03676845
4196.00   3.45505224   0.03614237
4198.00   3.44366181   0.03596274
4200.00   3.43467891   0.03592639
4202.00   3.35782785   0.03592031
4204.00   3.36068784   0.03605624
4206.00   3.37391741   0.03635209
4208.00   3.31636691   0.03666082
4210.00   3.29070937   0.03704578
4212.00   3.34260349   0.03704952
4214.00   3.29975384   0.03647619
4216.00   3.24979323   0.03610724
4218.00   3.26291922   0.03629131
4220.00   3.24799697   0.03599515
4222.00   3.29170072   0.03592828
4224.00   3.21677858   0.03569345
4226.00   3.27018973   0.03585785
4228.00   3.24926957   0.03579257
4230.00   3.13130485   0.03601597
4232.00   3.09874380   0.03657571
4234.00   3.17920867   0.03683970
4236.00   3.10617558   0.03714634
4238.00   3.10425948   0.03714492
4240.00   2.96070275   0.03589219
4242.00   3.01436429   0.03529257
4244.00   3.08540648   0.03868561
4246.00   3.13573164   0.04201616
4248.00   3.06990317   0.04063175
4250.00   3.04147570   0.03658613
4252.00   3.04025690   0.03525728
4254.00   3.07620922   0.03542166
4256.00   3.05806273   0.03557267
4258.00   2.99622615   0.03527613
4260.00   2.99372093   0.03491323
4262.00   3.01818988   0.03469370
4264.00   2.97848750   0.03438496
4266.00   2.96151270   0.03434012
4268.00   2.93532898   0.03428859
4270.00   2.87978508   0.03421752
4272.00   2.85518809   0.03423741
4274.00   2.89541736   0.03447091
4276.00   2.81945473   0.03451994
4278.00   2.72573849   0.03446917
4280.00   2.71480748   0.03440689
4282.00   2.67572933   0.03441603
4284.00   2.75807915   0.03439473
4286.00   2.75352865   0.03412803
4288.00   2.69911708   0.03375769
4290.00   2.60150326   0.03341729
4292.00   2.70422821   0.03402123
4294.00   2.56769319   0.03382651
4296.00   2.62162016   0.03394016
4298.00   2.60591738   0.03370542
4300.00   2.57877526   0.03345301
4302.00   2.53562997   0.03330410
4304.00   2.55901858   0.03373980
4306.00   2.47298164   0.03386951
4308.00   2.42509293   0.03361242
4310.00   2.41607450   0.03418756
4312.00   2.45803249   0.03697387
4314.00   2.44956835   0.03812031
4316.00   2.48167070   0.03678545
4318.00   2.49608009   0.03675530
4320.00   2.46280368   0.03750465
4322.00   2.42441081   0.03747807
4324.00   2.46814802   0.03686912
4326.00   2.43920517   0.03618687
4328.00   2.43712427   0.03507559
4330.00   2.37019079   0.03452809
4332.00   2.46054360   0.03466543
4334.00   2.41027325   0.03476372
4336.00   2.45238043   0.03552358
4338.00   2.37788066   0.03605316
4340.00   2.38434382   0.03637882
4342.00   2.38999595   0.03634222
4344.00   2.43247558   0.03746109
4346.00   2.40073001   0.03916562
4348.00   2.35784814   0.03964406
4350.00   2.39785535   0.03839692
4352.00   2.39124668   0.03789304
4354.00   2.04225587   0.04553692
4356.00   2.35980071   0.07954832
4358.00   2.69500190   0.09579297
4360.00   2.42336579   0.08187248
4362.00   2.14504448   0.05558656
4364.00   2.16002076   0.04208489
4366.00   2.18927665   0.03926291
4368.00   2.16881347   0.03839660
4370.00   2.17983684   0.03798149
4372.00   2.25145102   0.03913324
4374.00   2.19199011   0.03961701
4376.00   2.12444118   0.03853906
4378.00   2.19554501   0.03703351
4380.00   2.18088668   0.03630214
4382.00   2.19165512   0.03598691
4384.00   2.19239206   0.03550217
4386.00   2.24908377   0.03538867
4388.00   2.23390724   0.03554561
4390.00   2.23644173   0.03568342
4392.00   2.25368153   0.03567521
4394.00   2.29348137   0.03552339
4396.00   2.26138981   0.03543590
4398.00   2.35888308   0.03662867
4400.00   2.42742149   0.03747929
4402.00   2.37186923   0.03683466
4404.00   2.40477232   0.03597731
4406.00   2.41072095   0.03575167
4408.00   2.38000299   0.03579128
4410.00   2.39281471   0.03589800
4412.00   2.37514232   0.03629763
4414.00   2.38889303   0.03705116
4416.00   2.41747068   0.03713666
4418.00   2.40176646   0.03655703
4420.00   2.45064351   0.03627231
4422.00   2.46262507   0.03624376
4424.00   2.58905212   0.03636995
4426.00   2.53979392   0.03623002
4428.00   2.54604466   0.03632704
4430.00   2.61066606   0.03661505
4432.00   2.66559581   0.03668601
4434.00   2.63159578   0.03660838
4436.00   2.64408906   0.03651702
4438.00   2.66548612   0.03676736
4440.00   2.67894522   0.03676654
4442.00   2.79400536   0.03688150
4444.00   2.83150830   0.03700585
4446.00   2.81254445   0.03701768
4448.00   2.78254378   0.03684665
4450.00   2.87310785   0.03706377
4452.00   2.97336169   0.03723538
4454.00   2.92893373   0.03716994
4456.00   2.89235662   0.03716238
4458.00   2.93864738   0.03724161
4460.00   2.98352052   0.03722971
4462.00   3.00418532   0.03726803
4464.00   3.05081653   0.03720416
4466.00   2.98390996   0.03696832
4468.00   3.02053052   0.03700677
4470.00   3.01221226   0.03681634
4472.00   3.00931696   0.03680819
4474.00   2.99082354   0.03676617
4476.00   2.93673380   0.03651596
4478.00   2.83957515   0.03647916
4480.00   2.85588726   0.03630116
4482.00   2.75054020   0.03593692
4484.00   2.84346512   0.03613720
4486.00   2.71700606   0.03589059
4488.00   2.69061029   0.03572463
4490.00   2.69516238   0.03578143
4492.00   2.60921003   0.03578440
4494.00   2.59202453   0.03584988
4496.00   2.54918611   0.03564248
4498.00   2.55323791   0.03567452
4500.00   2.56592929   0.03539163
4502.00   2.47204503   0.03491290
4504.00   2.37601067   0.03455441
4506.00   2.36423828   0.03422226
4508.00   2.33145891   0.03391118
4510.00   2.31989067   0.03364698
4512.00   2.24413275   0.03346109
4514.00   2.21326150   0.03325565
4516.00   2.29654017   0.03317204
4518.00   2.24089808   0.03284784
4520.00   2.22231439   0.03278896
4522.00   2.21771914   0.03262118
4524.00   2.17011622   0.03236768
4526.00   2.21903210   0.03225132
4528.00   2.28495128   0.03238702
4530.00   2.27865803   0.03227909
4532.00   2.22001403   0.03213424
4534.00   2.29353827   0.03221443
4536.00   2.37917765   0.03221870
4538.00   2.40165368   0.03218994
4540.00   2.40942101   0.03233031
4542.00   2.45745438   0.03275807
4544.00   2.43798896   0.03288304
4546.00   2.56793574   0.03293057
4548.00   2.50166928   0.03223406
4550.00   2.55195761   0.03210328
4552.00   2.60194132   0.03202275
4554.00   2.57790223   0.03196545
4556.00   2.62945403   0.03228001
4558.00   2.59438387   0.03226826
4560.00   2.66119234   0.03199776
4562.00   2.71173336   0.03185139
4564.00   2.69500197   0.03163240
4566.00   2.67955700   0.03137870
4568.00   2.71715848   0.03134298
4570.00   2.76828582   0.03149084
4572.00   2.69246482   0.03156851
4574.00   2.71433770   0.03202913
4576.00   2.69516432   0.03120416
4578.00   2.66626593   0.03088589
4580.00   2.67553986   0.03053976
4582.00   2.68232037   0.03027527
4584.00   2.66212751   0.02999448
4586.00   2.68227124   0.03004007
4588.00   2.77775591   0.03034314
4590.00   2.67140972   0.03008596
4592.00   2.67725196   0.03012806
4594.00   2.72850065   0.03035961
4596.00   2.72773566   0.03030431
4598.00   2.66715068   0.02992700
4600.00   2.73942073   0.02985809
4602.00   2.76797529   0.02983748
4604.00   2.74627173   0.02974802
4606.00   2.81416340   0.02998040
4608.00   2.73020685   0.02987248
4610.00   2.71736859   0.02987862
4612.00   2.71606412   0.02973643
4614.00   2.72042185   0.02964665
4616.00   2.74056393   0.02937498
4618.00   2.76583397   0.02935365
4620.00   2.69788137   0.02913802
4622.00   2.73174783   0.02924288
4624.00   2.73279227   0.02917956
4626.00   2.72980332   0.02921639
4628.00   2.72747513   0.02918780
4630.00   2.73626719   0.02921760
4632.00   2.75567917   0.02925478
4634.00   2.70219069   0.02911942
4636.00   2.77300263   0.02916282
4638.00   2.80039011   0.02928514
4640.00   2.79252387   0.02933399
4642.00   2.82884505   0.02930472
4644.00   2.84869372   0.02935899
4646.00   2.84011687   0.02942223
4648.00   2.83407998   0.02948041
4650.00   2.84148939   0.02962951
4652.00   2.84338614   0.02979723
4654.00   2.86897750   0.02985966
4656.00   2.80237598   0.02990991
4658.00   2.85827242   0.03029672
4660.00   2.84683329   0.03058421
4662.00   2.84930743   0.03104463
4664.00   2.77069975   0.03137155
4666.00   2.83330233   0.03212799
4668.00   2.86050639   0.03275124
4670.00   2.81711042   0.03278513
4672.00   2.94401984   0.03278100
4674.00   2.82899344   0.03198847
4676.00   2.89381675   0.03144321
4678.00   2.83010693   0.03073987
4680.00   2.83351345   0.03034486
4682.00   2.88441845   0.03012720
4684.00   2.83079747   0.02973517
4686.00   2.88130390   0.02960307
4688.00   2.83863063   0.02935880
4690.00   2.75498726   0.02899472
4692.00   2.84274969   0.02904290
4694.00   2.84868969   0.02897188
4696.00   2.80379389   0.02868498
4698.00   2.85600472   0.02847495
4700.00   2.89153545   0.02852341
4702.00   2.87643452   0.02859757
4704.00   2.86820963   0.02876353
4706.00   2.85880169   0.02901392
4708.00   2.79964706   0.02903789
4710.00   2.81348459   0.02911391
4712.00   2.84720021   0.02903083
4714.00   2.78373410   0.02860116
4716.00   2.81497558   0.02835086
4718.00   2.74341448   0.02803774
4720.00   2.76654925   0.02804068
4722.00   2.80688326   0.02812775
4724.00   2.73472485   0.02784536
4726.00   2.71096463   0.02868769
4728.00   2.71537113   0.02998071
4730.00   2.75693667   0.03050708
4732.00   2.69691167   0.03035070
4734.00   2.70467750   0.03081031
4736.00   2.62590646   0.03100118
4738.00   2.64154874   0.03180623
4740.00   2.58069128   0.03241819
4742.00   2.59510757   0.03327277
4744.00   2.58801430   0.03249679
4746.00   2.52512012   0.03021242
4748.00   2.49922391   0.02841637
4750.00   2.47375080   0.02811988
4752.00   2.43311217   0.02839287
4754.00   2.41751024   0.02813944
4756.00   2.44853600   0.02723279
4758.00   2.38902150   0.02626296
4760.00   2.40630575   0.02577462
4762.00   2.32483917   0.02535439
4764.00   2.32159069   0.02521854
4766.00   2.34671644   0.02507284
4768.00   2.31245659   0.02482297
4770.00   2.34511892   0.02484503
4772.00   2.37092320   0.02485597
4774.00   2.31753284   0.02475434
4776.00   2.22450174   0.02502138
4778.00   2.33883300   0.02614403
4780.00   2.32852398   0.02621653
4782.00   2.30250132   0.02550489
4784.00   2.29521592   0.02491500
4786.00   2.36875541   0.02473498
4788.00   2.36857486   0.02480875
4790.00   2.37620992   0.02503089
4792.00   2.34682757   0.02496524
4794.00   2.33975322   0.02469814
4796.00   2.37106023   0.02454963
4798.00   2.33791926   0.02427446
4800.00   2.39598766   0.02441912
4802.00   2.34769657   0.02424028
4804.00   2.32914036   0.02422359
4806.00   2.33494585   0.02434329
4808.00   2.31396707   0.02436291
4810.00   2.32303118   0.02444280
4812.00   2.27887332   0.02425684
4814.00   2.31079174   0.02435423
4816.00   2.31586533   0.02436891
4818.00   2.32674354   0.02445082
4820.00   2.25830663   0.02451088
4822.00   2.28381685   0.02474267
4824.00   2.30921069   0.02498006
4826.00   2.31399713   0.02523806
4828.00   2.29078288   0.02521146
4830.00   2.30108104   0.02526881
4832.00   2.32994146   0.02549282
4834.00   2.23106287   0.02521251
4836.00   2.26499680   0.02527068
4838.00   2.26021691   0.02585087
4840.00   2.25939293   0.02617483
4842.00   2.22506151   0.02565688
4844.00   2.15692988   0.02514242
4846.00   2.17750376   0.02530688
4848.00   2.19635028   0.02537193
4850.00   2.30770410   0.02574971
4852.00   2.25201626   0.02560664
4854.00   2.23231763   0.02535623
4856.00   2.25105087   0.02518096
4858.00   2.23823929   0.02525969
4860.00   2.24337805   0.02516750
4862.00   2.23621486   0.02537479
4864.00   2.23018804   0.02546117
4866.00   2.29516032   0.02560909
4868.00   2.25144318   0.02542316
4870.00   2.28079539   0.02543007
4872.00   2.24367225   0.02532412
4874.00   2.28353719   0.02543220
4876.00   2.21162464   0.02549985
4878.00   2.25673350   0.02569664
4880.00   2.27797310   0.02575802
4882.00   2.29803044   0.02554001
4884.00   2.29711836   0.02536942
4886.00   2.23082808   0.02501331
4888.00   2.21825107   0.02481033
4890.00   2.22420625   0.02478393
4892.00   2.28029647   0.02508984
4894.00   2.27520188   0.02513312
4896.00   2.26328779   0.02500512
4898.00   2.25513785   0.02481941
4900.00   2.27121553   0.02478283
4902.00   2.29561370   0.02479734
4904.00   2.29421982   0.02473851
4906.00   2.26068777   0.02481363
4908.00   2.28040567   0.02512826
4910.00   2.26351229   0.02517809
4912.00   2.28193866   0.02512882
4914.00   2.29113743   0.02525337
4916.00   2.27716380   0.02527586
4918.00   2.25353033   0.02506465
4920.00   2.27522260   0.02508008
4922.00   2.25809062   0.02494963
4924.00   2.23333524   0.02463459
4926.00   2.24272491   0.02444826
4928.00   2.19066377   0.02413422
4930.00   2.17706289   0.02394422
4932.00   2.21231460   0.02443945
4934.00   2.13960232   0.02400872
4936.00   2.16664727   0.02409924
4938.00   2.09567227   0.02402761
4940.00   2.12299810   0.02418794
4942.00   2.09756614   0.02410835
4944.00   2.11319389   0.02396736
4946.00   2.08776776   0.02373217
4948.00   2.06225214   0.02355618
4950.00   2.09946404   0.02377868
4952.00   2.13300192   0.02433848
4954.00   2.04299963   0.02439781
4956.00   2.03490336   0.02424101
4958.00   2.02208235   0.02398788
4960.00   1.98273582   0.02388920
4962.00   1.95705332   0.02389513
4964.00   1.98563141   0.02416700
4966.00   2.03978920   0.02456880
4968.00   1.97119268   0.02470643
4970.00   1.93505240   0.02520051
4972.00   1.95542265   0.02617113
4974.00   1.93938122   0.02720038
4976.00   1.95578791   0.02845789
4978.00   1.96051796   0.03012915
4980.00   1.91950068   0.03161005
4982.00   1.97527160   0.03285915
4984.00   2.00231748   0.03301791
4986.00   2.03322750   0.03221962
4988.00   1.92107000   0.03066916
4990.00   1.93516569   0.02945888
4992.00   1.93296755   0.02829717
4994.00   1.88512164   0.02694383
4996.00   1.85048322   0.02580200
4998.00   1.87970753   0.02505672
5000.00   1.86038014   0.02440597
5002.00   1.82257992   0.02393292
5004.00   1.73434541   0.02341347
5006.00   1.81134442   0.02327027
5008.00   1.85362732   0.02309893
5010.00   1.85022261   0.02291222
5012.00   1.82288418   0.02267166
5014.00   1.75136668   0.02254229
5016.00   1.75641524   0.02276324
5018.00   1.73964515   0.02302365
5020.00   1.76120182   0.02317287
5022.00   1.78579780   0.02309130
5024.00   1.83079035   0.02283666
5026.00   1.72963478   0.02236062
5028.00   1.76580304   0.02270502
5030.00   1.71240692   0.02286800
5032.00   1.74194665   0.02296901
5034.00   1.74891771   0.02262049
5036.00   1.73816804   0.02233937
5038.00   1.79702344   0.02232493
5040.00   1.81619977   0.02221671
5042.00   1.76381659   0.02208779
5044.00   1.72689270   0.02217746
5046.00   1.75933780   0.02226149
5048.00   1.73453768   0.02220263
5050.00   1.70787656   0.02206701
5052.00   1.78374409   0.02228809
5054.00   1.71149699   0.02211009
5056.00   1.69770463   0.02199524
5058.00   1.67557143   0.02192093
5060.00   1.68694108   0.02206547
5062.00   1.69425230   0.02281031
5064.00   1.69441544   0.02336006
5066.00   1.66715226   0.02369763
5068.00   1.65013472   0.02456358
5070.00   1.70531638   0.02512156
5072.00   1.70152792   0.02455303
5074.00   1.66983471   0.02404120
5076.00   1.68617142   0.02379675
5078.00   1.69280303   0.02420156
5080.00   1.70633745   0.02648515
5082.00   1.63828695   0.02907283
5084.00   1.64663132   0.03101880
5086.00   1.66952843   0.03135732
5088.00   1.67464489   0.03004863
5090.00   1.64641286   0.02751806
5092.00   1.68319599   0.02555065
5094.00   1.65124002   0.02439026
5096.00   1.64625203   0.02449702
5098.00   1.61384548   0.02532478
5100.00   1.73231227   0.02594746
5102.00   1.66303024   0.02496919
5104.00   1.66278510   0.02401761
5106.00   1.67654214   0.02347942
5108.00   1.66329668   0.02311722
5110.00   1.77834149   0.02341460
5112.00   1.70013763   0.02329315
5114.00   1.72631257   0.02375497
5116.00   1.77665931   0.02409125
5118.00   1.73645903   0.02368465
5120.00   1.76457172   0.02339141
5122.00   1.76388521   0.02315317
5124.00   1.79244236   0.02308687
5126.00   1.80405298   0.02299923
5128.00   1.79461519   0.02302977
5130.00   1.85040280   0.02322638
5132.00   1.84556636   0.02333768
5134.00   1.80405370   0.02322248
5136.00   1.84524972   0.02334830
5138.00   1.87975745   0.02349047
5140.00   1.86084151   0.02347432
5142.00   1.87290457   0.02365537
5144.00   1.82813278   0.02390408
5146.00   1.85222107   0.02423804
5148.00   1.90337437   0.02517982
5150.00   1.89852622   0.02608152
5152.00   1.90992579   0.02712253
5154.00   1.94122165   0.02767712
5156.00   1.89548411   0.02706753
5158.00   1.92153187   0.02634465
5160.00   1.84527224   0.02537621
5162.00   1.83525497   0.02465714
5164.00   1.84139278   0.02422514
5166.00   1.88078988   0.02403073
5168.00   1.88778000   0.02390075
5170.00   1.93656734   0.02387645
5172.00   1.91558835   0.02380461
5174.00   1.88662946   0.02389345
5176.00   1.96649853   0.02424706
5178.00   1.92305516   0.02425829
5180.00   1.92898804   0.02415931
5182.00   1.95333614   0.02418721
5184.00   1.96379953   0.02419600
5186.00   1.92957593   0.02417845
5188.00   1.95017239   0.02432913
5190.00   1.98059925   0.02445831
5192.00   1.96674043   0.02446114
5194.00   2.01293027   0.02470094
5196.00   2.04131191   0.02504043
5198.00   2.04963679   0.02534552
5200.00   2.02358413   0.02537610
5202.00   2.08480182   0.02543663
5204.00   2.04111756   0.02512287
5206.00   2.07428082   0.02523758
5208.00   2.06838139   0.02569774
5210.00   2.05532776   0.02608741
5212.00   2.06648852   0.02617188
5214.00   2.08054364   0.02586822
5216.00   2.07508860   0.02592227
5218.00   2.08901152   0.02621038
5220.00   2.10377602   0.02637552
5222.00   2.08762217   0.02608942
5224.00   2.06405279   0.02578388
5226.00   2.10439470   0.02576359
5228.00   2.16508392   0.02590191
5230.00   2.07052479   0.02576171
5232.00   2.10335659   0.02592938
5234.00   2.08743414   0.02583450
5236.00   2.08913064   0.02589605
5238.00   2.13285418   0.02628091
5240.00   2.08272035   0.02624870
5242.00   2.04294022   0.02598818
5244.00   2.11435170   0.02621725
5246.00   2.10566824   0.02617944
5248.00   2.11048490   0.02611481
5250.00   2.12307248   0.02612688
5252.00   2.06246023   0.02608287
5254.00   2.08153162   0.02634358
5256.00   2.12413274   0.02698475
5258.00   2.20224489   0.02767405
5260.00   2.12885114   0.02734837
5262.00   2.09995655   0.02708994
5264.00   2.07334370   0.02682338
5266.00   2.13085427   0.02684829
5268.00   2.04544889   0.02654603
5270.00   2.12969302   0.02675914
5272.00   2.13649475   0.02687718
5274.00   2.14915513   0.02710050
5276.00   2.10458647   0.02698018
5278.00   2.10812433   0.02701228
5280.00   2.11438939   0.02713398
5282.00   2.11814297   0.02735908
5284.00   2.12260183   0.02780068
5286.00   2.12725463   0.02809966
5288.00   2.14094089   0.02800214
5290.00   2.12405283   0.02789315
5292.00   2.13475452   0.02790983
5294.00   2.13176068   0.02785754
5296.00   2.09505639   0.02782794
5298.00   2.06711741   0.02792573
5300.00   2.12474107   0.02829060
5302.00   2.12378230   0.02840144
5304.00   2.07541344   0.02827388
5306.00   2.16140802   0.02846774
5308.00   2.14907773   0.02846298
5310.00   2.11399075   0.02858999
5312.00   2.06596400   0.02855110
5314.00   2.13823282   0.02886190
5316.00   2.10858908   0.02870963
5318.00   2.11393521   0.02880170
5320.00   2.04919168   0.02864109
5322.00   2.03295107   0.02870823
5324.00   2.12780137   0.02912524
5326.00   2.08423450   0.02914996
5328.00   2.03970425   0.02920755
5330.00   2.06146162   0.02949546
5332.00   2.02705035   0.02949665
5334.00   2.06132394   0.02956715
5336.00   1.99177864   0.02958751
5338.00   1.99945549   0.03001263
5340.00   1.95089998   0.03055797
5342.00   1.87558379   0.03059699
5344.00   1.95762690   0.03081105
5346.00   1.97812964   0.03128199
5348.00   1.90323289   0.03206456
5350.00   1.86440124   0.03226574
5352.00   1.86856893   0.03211075
5354.00   1.86704053   0.03279940
5356.00   1.91426122   0.03327125
5358.00   1.87001834   0.03264437
5360.00   1.88095712   0.03186516
5362.00   1.86708714   0.03124194
5364.00   1.80844998   0.03079376
5366.00   1.75479434   0.03040631
5368.00   1.80264773   0.03047658
5370.00   1.74738594   0.03052618
5372.00   1.72186147   0.03095197
5374.00   1.75416178   0.03201682
5376.00   1.74441454   0.03242085
5378.00   1.82501709   0.03259722
5380.00   1.71696009   0.03223091
5382.00   1.72948078   0.03218804
5384.00   1.81171961   0.03251047
5386.00   1.80460181   0.03258891
5388.00   1.72806352   0.03279695
5390.00   1.68109970   0.03364350
5392.00   1.83329456   0.03490389
5394.00   1.72026856   0.03465240
5396.00   1.68110214   0.03437497
5398.00   1.77514797   0.03474507
5400.00   1.77521191   0.03507734
5402.00   1.64230524   0.03478913
5404.00   1.70876634   0.03542117
5406.00   1.68040082   0.03577271
5408.00   1.72552572   0.03648703
5410.00   1.66586807   0.03706562
5412.00   1.65901613   0.03816033
5414.00   1.72139586   0.03980656
5416.00   1.69324850   0.04089259
5418.00   1.69517590   0.04163425
5420.00   1.70233376   0.04204264
5422.00   1.68173039   0.04221826
5424.00   1.55848974   0.04169679
5426.00   1.71906889   0.04205107
5428.00   1.66287264   0.04164084
5430.00   1.64638143   0.04149757
5432.00   1.69001872   0.04168897
5434.00   1.60519260   0.04153594
5436.00   1.66498303   0.04184064
5438.00   1.73971952   0.04217079
5440.00   1.72187241   0.04238041
5442.00   1.60994156   0.04228805
5444.00   1.77317339   0.04320558
5446.00   1.70564137   0.04341389
5448.00   1.75622869   0.01546490
5450.00   1.73219800   0.01554712
5452.00   1.66585153   0.01701974
5454.00   1.63948864   0.02110755
5456.00   1.61919105   0.02771795
5458.00   1.61746001   0.02981242
5460.00   1.66265291   0.02929750
5462.00   1.73793870   0.02790529
5464.00   1.77418649   0.02622592
5466.00   1.77670914   0.02415309
5468.00   1.79530692   0.02161573
5470.00   1.82262218   0.01785101
5472.00   1.82135755   0.01567475
5474.00   1.78573763   0.01561131
5476.00   1.75101721   0.01527622
5478.00   1.73690099   0.01511629
5480.00   1.76091850   0.01551863
5482.00   1.76340216   0.01540565
5484.00   1.74652094   0.01493674
5486.00   1.74809569   0.01456178
5488.00   1.78642899   0.01421830
5490.00   1.80780977   0.01408952
5492.00   1.80398792   0.01438796
5494.00   1.78661257   0.01451894
5496.00   1.77594459   0.01434422
5498.00   1.77443027   0.01416209
5500.00   1.78884566   0.01411301
5502.00   1.83782738   0.01401856
5504.00   1.84181499   0.01417092
5506.00   1.78791517   0.01431599
5508.00   1.71680349   0.01408088
5510.00   1.69737077   0.01417913
5512.00   1.71149832   0.01454459
5514.00   1.74714321   0.01455951
5516.00   1.82445163   0.01431118
5518.00   1.87599444   0.01418432
5520.00   1.91434222   0.01406564
5522.00   1.92314768   0.01390637
5524.00   1.88346106   0.01369594
5526.00   1.81050158   0.01323425
5528.00   1.76951963   0.01294742
5530.00   1.73222893   0.01277157
5532.00   1.71673465   0.01257851
5534.00   1.73675650   0.01219716
5536.00   1.75517696   0.01215960
5538.00   1.75380808   0.01251980
5540.00   1.74922091   0.01272708
5542.00   1.74964833   0.01259355
5544.00   1.74550486   0.01228617
5546.00   1.72765756   0.01217242
5548.00   1.69622231   0.01212613
5550.00   1.67761505   0.01213471
5552.00   1.66023988   0.01198156
5554.00   1.65573901   0.01155025
5556.00   1.66207051   0.01144696
5558.00   1.67362618   0.01168165
5560.00   1.66953516   0.01190249
5562.00   1.64709550   0.01193791
5564.00   1.64600128   0.01245557
5566.00   1.66716999   0.01351648
5568.00   1.66874605   0.01432783
5570.00   1.66239291   0.01519219
5572.00   1.66953957   0.01645364
5574.00   1.65605694   0.01705243
5576.00   1.62240130   0.01728628
5578.00   1.59599364   0.01696633
5580.00   1.56004250   0.01610505
5582.00   1.54009241   0.01526612
5584.00   1.56624955   0.01431396
5586.00   1.60506886   0.01307008
5588.00   1.61374170   0.01219799
5590.00   1.61069882   0.01157093
5592.00   1.61331230   0.01121668
5594.00   1.61261082   0.01127396
5596.00   1.60385263   0.01124285
5598.00   1.59030265   0.01119765
5600.00   1.57566035   0.01149968
5602.00   1.58680594   0.01146644
5604.00   1.62738383   0.01105270
5606.00   1.64375752   0.01115999
5608.00   1.63429821   0.01209633
5610.00   1.62305391   0.01242720
5612.00   1.62312633   0.01222451
5614.00   1.62052816   0.01190582
5616.00   1.61224163   0.01170027
5618.00   1.60783237   0.01174672
5620.00   1.61675847   0.01180459
5622.00   1.64199382   0.01192187
5624.00   1.64920062   0.01163770
5626.00   1.64539057   0.01131090
5628.00   1.64912772   0.01114811
5630.00   1.65642071   0.01091553
5632.00   1.65494329   0.01064185
5634.00   1.65450484   0.01060629
5636.00   1.65710932   0.01085548
5638.00   1.65961504   0.01093649
5640.00   1.65423721   0.01078174
5642.00   1.64428031   0.01051941
5644.00   1.64076865   0.01043514
5646.00   1.63963938   0.01053151
5648.00   1.63066202   0.01063789
5650.00   1.61939973   0.01078978
5652.00   1.61180091   0.01103803
5654.00   1.60359854   0.01153052
5656.00   1.59012073   0.01171841
5658.00   1.57713217   0.01161674
5660.00   1.55684662   0.01146515
5662.00   1.54757053   0.01150879
5664.00   1.55140346   0.01172302
5666.00   1.54706538   0.01203300
5668.00   1.53998017   0.01229362
5670.00   1.51914304   0.01286000
5672.00   1.47251093   0.01374508
5674.00   1.42922169   0.01440173
5676.00   1.42853481   0.01516490
5678.00   1.45200199   0.01617806
5680.00   1.46829861   0.01706364
5682.00   1.49910742   0.01793166
5684.00   1.50468963   0.01870221
5686.00   1.46933335   0.01957048
5688.00   1.44363743   0.01965991
5690.00   1.44728887   0.01890573
5692.00   1.46712863   0.01765964
5694.00   1.49503654   0.01686441
5696.00   1.54234028   0.01624939
5698.00   1.56545907   0.01558511
5700.00   1.57422888   0.01484664
5702.00   1.57284433   0.01400361
5704.00   1.54792523   0.01323968
5706.00   1.50429904   0.01278443
5708.00   1.49079150   0.01278941
5710.00   1.49406338   0.01345142
5712.00   1.50507885   0.01370509
5714.00   1.52950424   0.01373097
5716.00   1.54979485   0.01304954
5718.00   1.57005054   0.01214844
5720.00   1.58785242   0.01170222
5722.00   1.57527822   0.01155590
5724.00   1.54177046   0.01169385
5726.00   1.54136342   0.01173261
5728.00   1.57838845   0.01196765
5730.00   1.57953554   0.01165367
5732.00   1.56898332   0.01105769
5734.00   1.56701279   0.01061653
5736.00   1.55608875   0.01036883
5738.00   1.54102540   0.01043760
5740.00   1.53636664   0.01051421
5742.00   1.53571534   0.01066473
5744.00   1.53670442   0.01073835
5746.00   1.55340409   0.01091292
5748.00   1.57832426   0.01086491
5750.00   1.59205842   0.01071035
5752.00   1.59411961   0.01074885
5754.00   1.59067053   0.01096943
5756.00   1.58157617   0.01127156
5758.00   1.57693583   0.01172674
5760.00   1.57174969   0.01263004
5762.00   1.55376732   0.01314259
5764.00   1.52787709   0.01319687
5766.00   1.50279987   0.01344430
5768.00   1.50752431   0.01376940
5770.00   1.53059763   0.01411450
5772.00   1.55638736   0.01394788
5774.00   1.60749489   0.01329546
5776.00   1.64196301   0.01258614
5778.00   1.63106871   0.01177437
5780.00   1.59813863   0.01143618
5782.00   1.57724756   0.01188290
5784.00   1.55584925   0.01287636
5786.00   1.55850726   0.01367472
5788.00   1.59142011   0.01499784
5790.00   1.60903275   0.01514230
5792.00   1.62250322   0.01417028
5794.00   1.63546962   0.01325285
5796.00   1.63283002   0.01268623
5798.00   1.61190796   0.01216380
5800.00   1.60713762   0.01175134
5802.00   1.61453396   0.01148409
5804.00   1.62072265   0.01126660
5806.00   1.61628330   0.01114180
5808.00   1.61968142   0.01116650
5810.00   1.64396250   0.01132728
5812.00   1.66600794   0.01155408
5814.00   1.66431934   0.01171340
5816.00   1.64906746   0.01180180
5818.00   1.64024353   0.01186657
5820.00   1.61414182   0.01203192
5822.00   1.60461724   0.01228829
5824.00   1.63259834   0.01218167
5826.00   1.66152632   0.01197485
5828.00   1.65906066   0.01205886
5830.00   1.63620728   0.01204797
5832.00   1.63478744   0.01215429
5834.00   1.65370768   0.01273235
5836.00   1.66872466   0.01330641
5838.00   1.65796226   0.01306410
5840.00   1.63024020   0.01257319
5842.00   1.63005638   0.01273852
5844.00   1.64581096   0.01324970
5846.00   1.64760017   0.01391222
5848.00   1.64455438   0.01518573
5850.00   1.63348007   0.01538308
5852.00   1.59749961   0.01475455
5854.00   1.56276560   0.01440719
5856.00   1.56946176   0.01448620
5858.00   1.62292910   0.01487028
5860.00   1.64231902   0.01484042
5862.00   1.64149141   0.01443950
5864.00   1.62202531   0.01437143
5866.00   1.59034282   0.01474306
5868.00   1.58650380   0.01481766
5870.00   1.62246686   0.01475671
5872.00   1.68454474   0.01454837
5874.00   1.68547243   0.01413706
5876.00   1.64226478   0.01319028
5878.00   1.59698892   0.01470475
5880.00   1.55180728   0.01545940
5882.00   1.49651247   0.02070256
5884.00   1.41470402   0.03032969
5886.00   1.38194627   0.03681002
5888.00   1.40505034   0.03842620
5890.00   1.44695932   0.03836446
5892.00   1.46717250   0.03929822
5894.00   1.52087700   0.04068398
5896.00   1.55367547   0.03932919
5898.00   1.49928117   0.03523904
5900.00   1.44070125   0.03077413
5902.00   1.43898711   0.02742361
5904.00   1.45591086   0.02320836
5906.00   1.48193896   0.01922320
5908.00   1.53981125   0.01589272
5910.00   1.57037914   0.01435893
5912.00   1.58121681   0.01382072
5914.00   1.60139173   0.01367716
5916.00   1.62142557   0.01385874
5918.00   1.62249708   0.01427175
5920.00   1.59472597   0.01429332
5922.00   1.52300930   0.01412518
5924.00   1.51109535   0.01405791
5926.00   1.55698138   0.01391317
5928.00   1.60045606   0.01397674
5930.00   1.63122684   0.01412557
5932.00   1.64918661   0.01411498
5934.00   1.60332966   0.01433565
5936.00   1.48505437   0.01482333
5938.00   1.45663559   0.01467762
5940.00   1.52734131   0.01366183
5942.00   1.57162476   0.01308538
5944.00   1.56878525   0.01288860
5946.00   1.54884923   0.01269204
5948.00   1.53906775   0.01272319
5950.00   1.52636206   0.01304096
5952.00   1.53004825   0.01332700
5954.00   1.55511534   0.01379990
5956.00   1.57660377   0.01393271
5958.00   1.58685976   0.01345918
5960.00   1.58137953   0.01276509
5962.00   1.57827342   0.01277429
5964.00   1.57507932   0.01318945
5966.00   1.57065076   0.01321985
5968.00   1.56206489   0.01301921
5970.00   1.56153566   0.01287132
5972.00   1.56524962   0.01267924
5974.00   1.56370574   0.01243646
5976.00   1.56093025   0.01219443
5978.00   1.56057400   0.01197395
5980.00   1.55218238   0.01184477
5982.00   1.53273576   0.01178818
5984.00   1.52789152   0.01183098
5986.00   1.53439724   0.01194012
5988.00   1.54844880   0.01207244
5990.00   1.57761079   0.01243101
5992.00   1.61178696   0.01276765
5994.00   1.62278354   0.01266381
5996.00   1.61877728   0.01229840
5998.00   1.61909682   0.01211346
6000.00   1.61774087   0.01189159
6002.00   1.61537021   0.01158628
6004.00   1.62193900   0.01157559
6006.00   1.63516158   0.01170894
6008.00   1.63043648   0.01151717
6010.00   1.61443770   0.01116761
6012.00   1.60265374   0.01097129
6014.00   1.59690028   0.01081541
6016.00   1.57834524   0.01067235
6018.00   1.54552847   0.01074614
6020.00   1.51496387   0.01107531
6022.00   1.49167031   0.01126162
6024.00   1.46750259   0.01122651
6026.00   1.45978320   0.01119591
6028.00   1.47081119   0.01116752
6030.00   1.47756588   0.01119006
6032.00   1.47775614   0.01121971
6034.00   1.48694015   0.01113059
6036.00   1.51532072   0.01075472
6038.00   1.55916917   0.01016859
6040.00   1.58666539   0.01029611
6042.00   1.61265385   0.01112730
6044.00   1.62048268   0.01133764
6046.00   1.59918922   0.01080486
6048.00   1.58224893   0.01031875
6050.00   1.58483869   0.01039132
6052.00   1.58347142   0.01073406
6054.00   1.57455420   0.01062471
6056.00   1.56548774   0.01021393
6058.00   1.55470538   0.00998023
6060.00   1.52963811   0.00991040
6062.00   1.51583683   0.00981575
6064.00   1.52306336   0.00962330
6066.00   1.53497040   0.00958340
6068.00   1.52655780   0.00989178
6070.00   1.50151533   0.01035084
6072.00   1.50272334   0.01035321
6074.00   1.53499287   0.00991867
6076.00   1.55537868   0.00977369
6078.00   1.55948234   0.00954964
6080.00   1.55513299   0.00949764
6082.00   1.55372828   0.00997620
6084.00   1.55424201   0.01060525
6086.00   1.54657483   0.01074379
6088.00   1.52516526   0.01057942
6090.00   1.51916510   0.01055416
6092.00   1.53344434   0.01033500
6094.00   1.54485804   0.01019256
6096.00   1.54304057   0.01035818
6098.00   1.54315591   0.01077227
6100.00   1.54850417   0.01118314
6102.00   1.55282283   0.01171871
6104.00   1.56429523   0.01198525
6106.00   1.60866648   0.01200559
6108.00   1.61811334   0.01203908
6110.00   1.57109004   0.01216613
6112.00   1.51416588   0.01237398
6114.00   1.47929972   0.01289503
6116.00   1.43924826   0.01386751
6118.00   1.42989308   0.01387377
6120.00   1.47099501   0.01265885
6122.00   1.50345254   0.01156643
6124.00   1.50848699   0.01110077
6126.00   1.50537062   0.01098602
6128.00   1.50921583   0.01064888
6130.00   1.50768822   0.01022646
6132.00   1.51599157   0.01011723
6134.00   1.54305190   0.01045228
6136.00   1.56173456   0.01058365
6138.00   1.55606472   0.01043730
6140.00   1.53423434   0.01015880
6142.00   1.52160680   0.00991101
6144.00   1.50810122   0.00962106
6146.00   1.49188709   0.00972928
6148.00   1.47215861   0.01013343
6150.00   1.46624756   0.01068701
6152.00   1.46928102   0.01168289
6154.00   1.45659125   0.01223005
6156.00   1.44124836   0.01192886
6158.00   1.42913991   0.01120598
6160.00   1.41950500   0.01125131
6162.00   1.41421092   0.01190761
6164.00   1.42556012   0.01174459
6166.00   1.45437390   0.01044968
6168.00   1.46253258   0.00948890
6170.00   1.45930666   0.00947018
6172.00   1.45434862   0.00984327
6174.00   1.45027804   0.00991557
6176.00   1.43906462   0.00989163
6178.00   1.42219019   0.00963908
6180.00   1.39868593   0.00902575
6182.00   1.38759863   0.00877479
6184.00   1.38016921   0.00869588
6186.00   1.37797719   0.00866558
6188.00   1.37304932   0.00867684
6190.00   1.36405826   0.00872895
6192.00   1.36533159   0.00873333
6194.00   1.38543177   0.00872992
6196.00   1.38894832   0.00870605
6198.00   1.36647671   0.00863217
6200.00   1.34156430   0.00852459
6202.00   1.33781016   0.00850380
6204.00   1.35094869   0.00855667
6206.00   1.34686130   0.00854395
6208.00   1.33120322   0.00848072
6210.00   1.31058395   0.00847500
6212.00   1.28666002   0.00856113
6214.00   1.27442122   0.00857176
6216.00   1.27059221   0.00843916
6218.00   1.27050442   0.00826332
6220.00   1.25239235   0.00819870
6222.00   1.21302956   0.00816879
6224.00   1.18911630   0.00834363
6226.00   1.18633345   0.00885035
6228.00   1.18964061   0.00912469
6230.00   1.18520743   0.00913172
6232.00   1.18664476   0.00893149
6234.00   1.17704290   0.00861932
6236.00   1.15402091   0.00803526
6238.00   1.13254252   0.00789088
6240.00   1.11361220   0.00828616
6242.00   1.09355310   0.00858933
6244.00   1.07234243   0.00858194
6246.00   1.05766097   0.00847010
6248.00   1.05063209   0.00833889
6250.00   1.04824501   0.00794652
6252.00   1.04278123   0.00777987
6254.00   1.03568733   0.00787054
6256.00   1.03485891   0.00798087
6258.00   1.03903449   0.00786133
6260.00   1.03664911   0.00791031
6262.00   1.02417162   0.00828328
6264.00   1.00358781   0.00858316
6266.00   1.00049284   0.00866585
6268.00   1.01253635   0.00863854
6270.00   1.02065691   0.00856748
6272.00   1.02610904   0.00827845
6274.00   1.02368298   0.00821693
6276.00   1.01009682   0.00814271
6278.00   0.98765182   0.00789074
6280.00   0.98219308   0.00774801
6282.00   0.98582503   0.00759385
6284.00   0.98899609   0.00749078
6286.00   0.99557215   0.00741998
6288.00   1.00628695   0.00765004
6290.00   1.01250535   0.00801722
6292.00   1.01049694   0.00834711
6294.00   1.00347626   0.00862055
6296.00   0.99145448   0.00890125
6298.00   0.98124546   0.00932138
6300.00   0.96546742   0.01010141
6302.00   0.95894232   0.01031514
6304.00   0.96444321   0.00992839
6306.00   0.97750798   0.00938111
6308.00   0.99597904   0.00902855
6310.00   1.02367011   0.00866208
6312.00   1.04260501   0.00829752
6314.00   1.05471134   0.00790166
6316.00   1.07014382   0.00769720
6318.00   1.09375784   0.00766127
6320.00   1.10513756   0.00759387
6322.00   1.09918207   0.00746268
6324.00   1.08484113   0.00729218
6326.00   1.07502681   0.00731093
6328.00   1.06037584   0.00751414
6330.00   1.05296299   0.00769124
6332.00   1.05739668   0.00790653
6334.00   1.06718555   0.00793505
6336.00   1.07445112   0.00768216
6338.00   1.08253455   0.00721833
6340.00   1.08656886   0.00697157
6342.00   1.08646461   0.00679674
6344.00   1.08882543   0.00673806
6346.00   1.09280396   0.00686725
6348.00   1.09958333   0.00699807
6350.00   1.10901880   0.00696865
6352.00   1.11683154   0.00686243
6354.00   1.12272790   0.00699734
6356.00   1.12800553   0.00733343
6358.00   1.13377640   0.00752385
6360.00   1.14052820   0.00762302
6362.00   1.14446762   0.00766449
6364.00   1.14320332   0.00772194
6366.00   1.14479172   0.00768897
6368.00   1.15548000   0.00757161
6370.00   1.17147866   0.00738590
6372.00   1.17629841   0.00721971
6374.00   1.17076889   0.00698201
6376.00   1.17198339   0.00697715
6378.00   1.18211818   0.00719007
6380.00   1.18621212   0.00728028
6382.00   1.17863348   0.00727816
6384.00   1.16741338   0.00732563
6386.00   1.16784373   0.00730958
6388.00   1.17587814   0.00721626
6390.00   1.18035749   0.00706443
6392.00   1.18334052   0.00684567
6394.00   1.18911472   0.00676727
6396.00   1.19569847   0.00680679
6398.00   1.19813699   0.00691631
6400.00   1.19506228   0.00694981
6402.00   1.18578887   0.00693745
6404.00   1.18610281   0.00690013
6406.00   1.19823477   0.00676989
6408.00   1.20310575   0.00680087
6410.00   1.19709393   0.00708827
6412.00   1.19707650   0.00737184
6414.00   1.21096417   0.00732749
6416.00   1.23216778   0.00705015
6418.00   1.23573655   0.00686398
6420.00   1.22123784   0.00666300
6422.00   1.21903875   0.00655031
6424.00   1.22413832   0.00651053
6426.00   1.22561640   0.00651984
6428.00   1.22983801   0.00652159
6430.00   1.24166262   0.00652002
6432.00   1.22911066   0.00645795
6434.00   1.18311378   0.00630481
6436.00   1.16642344   0.00625013
6438.00   1.19034868   0.00629334
6440.00   1.21467626   0.00637278
6442.00   1.21722829   0.00653191
6444.00   1.21558592   0.00674307
6446.00   1.21940413   0.00681759
6448.00   1.22339898   0.00682746
6450.00   1.22422320   0.00689076
6452.00   1.22696781   0.00696201
6454.00   1.22974467   0.00699503
6456.00   1.22536492   0.00698623
6458.00   1.21246904   0.00677591
6460.00   1.20328304   0.00660990
6462.00   1.19517711   0.00645956
6464.00   1.18741331   0.00644453
6466.00   1.17612180   0.00656663
6468.00   1.17201674   0.00663691
6470.00   1.17613423   0.00658285
6472.00   1.18232650   0.00651004
6474.00   1.17885926   0.00649697
6476.00   1.16905689   0.00642924
6478.00   1.15991640   0.00634680
6480.00   1.14914927   0.00617619
6482.00   1.13639954   0.00627270
6484.00   1.12427953   0.00666507
6486.00   1.12203857   0.00694646
6488.00   1.12399912   0.00683130
6490.00   1.12165424   0.00648323
6492.00   1.12486881   0.00635519
6494.00   1.13439518   0.00629342
6496.00   1.14875609   0.00629823
6498.00   1.16781053   0.00646354
6500.00   1.18174571   0.00667306
6502.00   1.18023637   0.00674819
6504.00   1.16217181   0.00665638
6506.00   1.15183988   0.00660879
6508.00   1.14312854   0.00655410
6510.00   1.13681564   0.00649601
6512.00   1.13002983   0.00640316
6514.00   1.12484306   0.00637347
6516.00   1.11982843   0.00632392
6518.00   1.11592871   0.00620509
6520.00   1.11981136   0.00613971
6522.00   1.13088262   0.00610077
6524.00   1.13786337   0.00617310
6526.00   1.14373976   0.00640514
6528.00   1.14671475   0.00652034
6530.00   1.14539573   0.00656561
6532.00   1.14157045   0.00671197
6534.00   1.14375970   0.00671014
6536.00   1.14843386   0.00643513
6538.00   1.14532906   0.00629828
6540.00   1.13333464   0.00623869
6542.00   1.13219053   0.00638252
6544.00   1.13631776   0.00666938
6546.00   1.12868699   0.00689077
6548.00   1.11745599   0.00684491
6550.00   1.11074197   0.00648819
6552.00   1.11315405   0.00631451
6554.00   1.12632367   0.00622672
6556.00   1.12846836   0.00620536
6558.00   1.12052304   0.00617438
6560.00   1.11168671   0.00615843
6562.00   1.10510391   0.00617012
6564.00   1.10250464   0.00615687
6566.00   1.10312414   0.00624823
6568.00   1.10604227   0.00650120
6570.00   1.10367200   0.00664046
6572.00   1.09881115   0.00664534
6574.00   1.09503183   0.00653655
6576.00   1.09321982   0.00638998
6578.00   1.09521854   0.00615564
6580.00   1.09010518   0.00600730
6582.00   1.07887152   0.00591686
6584.00   1.07713306   0.00592325
6586.00   1.08531451   0.00605927
6588.00   1.09227711   0.00612787
6590.00   1.10152230   0.00616377
6592.00   1.10347250   0.00624749
6594.00   1.09132072   0.00619922
6596.00   1.07005000   0.00597550
6598.00   1.06247196   0.00589176
6600.00   1.06464270   0.00593305
6602.00   1.06696343   0.00593865
6604.00   1.06967059   0.00590257
6606.00   1.06341231   0.00592109
6608.00   1.05821118   0.00590198
6610.00   1.05849993   0.00582398
6612.00   1.05899155   0.00587619
6614.00   1.06256440   0.00603317
6616.00   1.06139633   0.00610819
6618.00   1.05084729   0.00617997
6620.00   1.04345012   0.00620727
6622.00   1.04825547   0.00606885
6624.00   1.05651131   0.00583511
6626.00   1.05596560   0.00573736
6628.00   1.05202100   0.00571139
6630.00   1.04897583   0.00571433
6632.00   1.04574236   0.00580601
6634.00   1.03668034   0.00580950
6636.00   1.02373022   0.00568438
6638.00   1.01220369   0.00552763
6640.00   1.00778314   0.00548631
6642.00   1.00835279   0.00550951
6644.00   1.01136962   0.00550399
6646.00   1.02195725   0.00548628
6648.00   1.02603716   0.00548570
6650.00   1.02260941   0.00549630
6652.00   1.01458916   0.00551173
6654.00   1.00866890   0.00553106
6656.00   1.00586835   0.00554967
6658.00   1.00436622   0.00556658
6660.00   1.00296468   0.00557799
6662.00   1.00202757   0.00560616
6664.00   1.00684103   0.00563569
6666.00   1.01180714   0.00570301
6668.00   1.01019055   0.00580782
6670.00   1.00561163   0.00590208
6672.00   1.00257105   0.00597316
6674.00   0.99793610   0.00606584
6676.00   0.99855593   0.00611175
6678.00   1.00899017   0.00604079
6680.00   1.01354203   0.00594309
6682.00   1.00694066   0.00599027
6684.00   0.99225172   0.00606914
6686.00   0.98269683   0.00593915
6688.00   0.97462615   0.00563238
6690.00   0.97222859   0.00548836
6692.00   0.97598001   0.00546235
6694.00   0.97798547   0.00549657
6696.00   0.97745201   0.00556725
6698.00   0.97387585   0.00565653
6700.00   0.96857122   0.00571437
6702.00   0.95986632   0.00573749
6704.00   0.96136820   0.00578902
6706.00   0.97713691   0.00588985
6708.00   0.98439750   0.00595823
6710.00   0.98111737   0.00599184
6712.00   0.97668192   0.00598275
6714.00   0.97371444   0.00591203
6716.00   0.97026211   0.00576852
6718.00   0.96982726   0.00568104
6720.00   0.97382417   0.00562653
6722.00   0.97188532   0.00558676
6724.00   0.96550119   0.00553919
6726.00   0.95683077   0.00549819
6728.00   0.94636711   0.00543673
6730.00   0.93618014   0.00536625
6732.00   0.93490529   0.00539902
6734.00   0.94182527   0.00549645
6736.00   0.94635564   0.00557224
6738.00   0.95095402   0.00572572
6740.00   0.95125180   0.00581317
6742.00   0.94812170   0.00572587
6744.00   0.94283468   0.00564621
6746.00   0.93865639   0.00556144
6748.00   0.93501744   0.00535996
6750.00   0.93229106   0.00527036
6752.00   0.93024227   0.00538060
6754.00   0.92729712   0.00548519
6756.00   0.92419502   0.00551188
6758.00   0.91915312   0.00548708
6760.00   0.91329989   0.00540022
6762.00   0.90587908   0.00524867
6764.00   0.90965724   0.00528600
6766.00   0.92965850   0.00554815
6768.00   0.94007838   0.00567708
6770.00   0.93701339   0.00569131
6772.00   0.92704567   0.00562417
6774.00   0.91983134   0.00549661
6776.00   0.91249782   0.00533024
6778.00   0.90955302   0.00534313
6780.00   0.91132951   0.00553518
6782.00   0.91097394   0.00556406
6784.00   0.90672836   0.00544028
6786.00   0.90540868   0.00535248
6788.00   0.90887478   0.00541154
6790.00   0.90942365   0.00560339
6792.00   0.90326488   0.00567960
6794.00   0.88921243   0.00575377
6796.00   0.88664424   0.00567553
6798.00   0.89588147   0.00531285
6800.00   0.90489867   0.00500017
6802.00   0.90996680   0.00504845
6804.00   0.91587865   0.00533992
6806.00   0.91431025   0.00542289
6808.00   0.90574124   0.00545861
6810.00   0.90045208   0.00542708
6812.00   0.89898112   0.00527638
6814.00   0.89218339   0.00510654
6816.00   0.88482597   0.00503492
6818.00   0.88027275   0.00511611
6820.00   0.87071943   0.00526327
6822.00   0.85602868   0.00546093
6824.00   0.85122162   0.00560631
6826.00   0.85421875   0.00576222
6828.00   0.85880625   0.00583673
6830.00   0.86933872   0.00584164
6832.00   0.88417071   0.00592500
6834.00   0.89101070   0.00597579
6836.00   0.89201885   0.00596688
6838.00   0.89302304   0.00590736
6840.00   0.89253113   0.00577284
6842.00   0.88808820   0.00559163
6844.00   0.88066205   0.00539182
6846.00   0.87408271   0.00528385
6848.00   0.86513981   0.00514774
6850.00   0.85664946   0.00500309
6852.00   0.85785368   0.00502712
6854.00   0.86782685   0.00518329
6856.00   0.87042883   0.00535444
6858.00   0.86885518   0.00556829
6860.00   0.86497599   0.00577582
6862.00   0.85695389   0.00603448
6864.00   0.84468034   0.00627741
6866.00   0.83522239   0.00643709
6868.00   0.82697001   0.00664716
6870.00   0.82626209   0.00666794
6872.00   0.83275270   0.00639930
6874.00   0.83888996   0.00612966
6876.00   0.85183215   0.00597681
6878.00   0.86476207   0.00578091
6880.00   0.85920832   0.00573994
6882.00   0.83998376   0.00590396
6884.00   0.82931191   0.00593498
6886.00   0.81933001   0.00589718
6888.00   0.81536683   0.00585852
6890.00   0.82236034   0.00569268
6892.00   0.83223128   0.00542686
6894.00   0.83513233   0.00535390
6896.00   0.83629695   0.00546902
6898.00   0.83586591   0.00558894
6900.00   0.83221620   0.00579517
6902.00   0.82891124   0.00583871
6904.00   0.82709208   0.00578147
6906.00   0.82498658   0.00567099
6908.00   0.82370698   0.00550686
6910.00   0.82617640   0.00539923
6912.00   0.83073750   0.00535790
6914.00   0.84008059   0.00536260
6916.00   0.83996046   0.00533727
6918.00   0.82909530   0.00532127
6920.00   0.81809431   0.00528995
6922.00   0.80981725   0.00524518
6924.00   0.80280328   0.00522589
6926.00   0.80042070   0.00529293
6928.00   0.80404362   0.00545013
6930.00   0.80594516   0.00550191
6932.00   0.80784893   0.00548670
6934.00   0.80558592   0.00541216
6936.00   0.80152300   0.00521170
6938.00   0.79895413   0.00504904
6940.00   0.80128235   0.00520159
6942.00   0.80914131   0.00555632
6944.00   0.81274983   0.00576947
6946.00   0.81588918   0.00602663
6948.00   0.81120700   0.00606899
6950.00   0.79858232   0.00578031
6952.00   0.78691816   0.00543753
6954.00   0.77882996   0.00525534
6956.00   0.77399492   0.00509207
6958.00   0.77808547   0.00506169
6960.00   0.79319257   0.00520714
6962.00   0.80162597   0.00523849
6964.00   0.80619389   0.00510400
6966.00   0.80328649   0.00505061
6968.00   0.79595906   0.00514820
6970.00   0.78969267   0.00531988
6972.00   0.78583664   0.00539623
6974.00   0.78435680   0.00542212
6976.00   0.77939302   0.00542635
6978.00   0.76932040   0.00541037
6980.00   0.75902858   0.00539687
6982.00   0.75542653   0.00538079
6984.00   0.75657663   0.00538069
6986.00   0.76231721   0.00532560
6988.00   0.77627468   0.00518060
6990.00   0.78575402   0.00517206
6992.00   0.79400441   0.00538458
6994.00   0.79720336   0.00545998
6996.00   0.79513127   0.00528200
6998.00   0.78708246   0.00505073
7000.00   0.77587536   0.00496407
7002.00   0.75880009   0.00492314
7004.00   0.75180590   0.00496070
7006.00   0.75304711   0.00512060
7008.00   0.75552908   0.00518454
7010.00   0.75756413   0.00520351
7012.00   0.75874433   0.00520222
7014.00   0.76191533   0.00513791
7016.00   0.76406685   0.00515843
7018.00   0.76534966   0.00516186
7020.00   0.76704708   0.00511181
7022.00   0.77035004   0.00512898
7024.00   0.77374905   0.00532859
7026.00   0.77372620   0.00543054
7028.00   0.77149126   0.00545811
7030.00   0.76834622   0.00548383
7032.00   0.76063925   0.00536925
7034.00   0.74582723   0.00510900
7036.00   0.73933971   0.00499694
7038.00   0.74139988   0.00502365
7040.00   0.74512559   0.00503215
7042.00   0.75066885   0.00501549
7044.00   0.75989702   0.00499149
7046.00   0.76396435   0.00503073
7048.00   0.76345721   0.00511711
7050.00   0.76144925   0.00514226
7052.00   0.75662285   0.00513545
7054.00   0.75348079   0.00509075
7056.00   0.75195044   0.00497338
7058.00   0.75134152   0.00489707
7060.00   0.74906334   0.00493115
7062.00   0.74699336   0.00502943
7064.00   0.74643496   0.00506842
7066.00   0.74659461   0.00509402
7068.00   0.74549034   0.00510709
7070.00   0.74441031   0.00506847
7072.00   0.74762440   0.00502196
7074.00   0.75427487   0.00505316
7076.00   0.76221463   0.00512477
7078.00   0.76743460   0.00515828
7080.00   0.77254826   0.00519128
7082.00   0.77326715   0.00522061
7084.00   0.76832321   0.00520471
7086.00   0.76327789   0.00522188
7088.00   0.75792158   0.00531950
7090.00   0.75037649   0.00537680
7092.00   0.74366418   0.00535018
7094.00   0.73726174   0.00526584
7096.00   0.73746377   0.00516150
7098.00   0.74602905   0.00495507
7100.00   0.74939081   0.00486171
7102.00   0.74864891   0.00487621
7104.00   0.74997804   0.00493624
7106.00   0.75798953   0.00497380
7108.00   0.77156535   0.00499299
7110.00   0.77240893   0.00499526
7112.00   0.76272097   0.00497004
7114.00   0.75126204   0.00500066
7116.00   0.73368135   0.00506536
7118.00   0.71989089   0.00513327
7120.00   0.71930167   0.00514277
7122.00   0.72774398   0.00505044
7124.00   0.72529104   0.00499240
7126.00   0.71511614   0.00493761
7128.00   0.70788604   0.00494393
7130.00   0.70116779   0.00497879
7132.00   0.70178008   0.00500197
7134.00   0.71175110   0.00503777
7136.00   0.72747076   0.00506123
7138.00   0.73615465   0.00503206
7140.00   0.74178064   0.00496283
7142.00   0.74937761   0.00498013
7144.00   0.76117393   0.00507337
7146.00   0.76667079   0.00510768
7148.00   0.76539660   0.00512929
7150.00   0.75603643   0.00508699
7152.00   0.74361059   0.00493970
7154.00   0.72629675   0.00469552
7156.00   0.71812579   0.00468324
7158.00   0.71775249   0.00489002
7160.00   0.71744791   0.00501867
7162.00   0.71372494   0.00516774
7164.00   0.71211854   0.00537015
7166.00   0.71583292   0.00540569
7168.00   0.71991169   0.00535313
7170.00   0.72623974   0.00538943
7172.00   0.73835185   0.00551282
7174.00   0.74771267   0.00544598
7176.00   0.75289682   0.00532984
7178.00   0.75603676   0.00527711
7180.00   0.75214782   0.00516370
7182.00   0.74248818   0.00508149
7184.00   0.74161407   0.00512507
7186.00   0.74828494   0.00527869
7188.00   0.74548158   0.00537192
7190.00   0.73368162   0.00551681
7192.00   0.72093543   0.00552410
7194.00   0.71252629   0.00541009
7196.00   0.71436423   0.00531164
7198.00   0.72194350   0.00523014
7200.00   0.73720008   0.00511888
7202.00   0.74478689   0.00507829
7204.00   0.74846691   0.00510556
7206.00   0.74872994   0.00520390
7208.00   0.74838585   0.00538939
7210.00   0.74990228   0.00557850
7212.00   0.74955517   0.00568206
7214.00   0.74729806   0.00573897
7216.00   0.74258083   0.00556851
7218.00   0.73567969   0.00498640
7220.00   0.72826791   0.00466547
7222.00   0.71676508   0.00460658
7224.00   0.70675132   0.00468885
7226.00   0.70435059   0.00480234
7228.00   0.70713031   0.00496197
7230.00   0.70862529   0.00523056
7232.00   0.70929137   0.00561352
7234.00   0.71292213   0.00596538
7236.00   0.72111896   0.00631442
7238.00   0.73114827   0.00670459
7240.00   0.74894544   0.00715597
7242.00   0.77682817   0.00760626
7244.00   0.77785617   0.00763990
7246.00   0.75823060   0.00736538
7248.00   0.74257490   0.00708528
7250.00   0.72341931   0.00664511
7252.00   0.70799190   0.00607235
7254.00   0.70478660   0.00558298
7256.00   0.70931816   0.00528745
7258.00   0.71259618   0.00512635
7260.00   0.71787289   0.00511756
7262.00   0.71855780   0.00510381
7264.00   0.71349874   0.00510186
7266.00   0.71359488   0.00524613
7268.00   0.71955356   0.00553128
7270.00   0.72963205   0.00589050
7272.00   0.73336369   0.00632851
7274.00   0.73111799   0.00689334
7276.00   0.72653836   0.00717119
7278.00   0.71826011   0.00731927
7280.00   0.71461087   0.00719835
7282.00   0.71036905   0.00672953
7284.00   0.70186755   0.00621897
7286.00   0.69493026   0.00601722
7288.00   0.68771309   0.00610260
7290.00   0.69123811   0.00603670
7292.00   0.70919058   0.00587366
7294.00   0.71948454   0.00564816
7296.00   0.71635857   0.00550665
7298.00   0.71202573   0.00547637
7300.00   0.71675953   0.00547107
7302.00   0.72278172   0.00555858
7304.00   0.72492841   0.00572406
7306.00   0.72846311   0.00602512
7308.00   0.72573233   0.00615227
7310.00   0.71139905   0.00607173
7312.00   0.69601175   0.00603547
7314.00   0.68201488   0.00616213
7316.00   0.66494444   0.00629347
7318.00   0.66025722   0.00630432
7320.00   0.66461071   0.00623128
7322.00   0.67475194   0.00608742
7324.00   0.69723502   0.00579120
7326.00   0.71227509   0.00564702
7328.00   0.71440995   0.00555057
7330.00   0.71463987   0.00547722
7332.00   0.72085840   0.00554829
7334.00   0.72760719   0.00573798
7336.00   0.72669435   0.00594536
7338.00   0.71951848   0.00631381
7340.00   0.71306038   0.00644758
7342.00   0.70307118   0.00635581
7344.00   0.69421384   0.00612930
7346.00   0.68559724   0.00579533
7348.00   0.67524660   0.00529515
7350.00   0.67309144   0.00507967
7352.00   0.67837220   0.00508556
7354.00   0.68094578   0.00515095
7356.00   0.68547508   0.00532865
7358.00   0.69129601   0.00555304
7360.00   0.69319779   0.00562637
7362.00   0.69512612   0.00559408
7364.00   0.69697472   0.00584209
7366.00   0.69997126   0.00632138
7368.00   0.70102510   0.00650880
7370.00   0.70206580   0.00655321
7372.00   0.69298744   0.00635883
7374.00   0.67465639   0.00581850
7376.00   0.65152007   0.00519647
7378.00   0.64216310   0.00496274
7380.00   0.64276361   0.00503020
7382.00   0.64600796   0.00503488
7384.00   0.65542820   0.00502649
7386.00   0.65915585   0.00503383
7388.00   0.65851954   0.00522508
7390.00   0.65842703   0.00539373
7392.00   0.66373652   0.00538808
7394.00   0.67425433   0.00533868
7396.00   0.68026021   0.00539097
7398.00   0.68587422   0.00553346
7400.00   0.68512627   0.00555257
7402.00   0.67501590   0.00551269
7404.00   0.65963116   0.00543918
7406.00   0.64847559   0.00533505
7408.00   0.63754404   0.00526210
7410.00   0.63111949   0.00515427
7412.00   0.62865072   0.00496477
7414.00   0.63262400   0.00478508
7416.00   0.64373630   0.00469887
7418.00   0.64588746   0.00470813
7420.00   0.64009401   0.00474485
7422.00   0.63003460   0.00486457
7424.00   0.62825933   0.00493676
7426.00   0.63049844   0.00494084
7428.00   0.63845304   0.00505835
7430.00   0.65707338   0.00542487
7432.00   0.67041293   0.00567344
7434.00   0.66729611   0.00558270
7436.00   0.65846452   0.00528365
7438.00   0.66336313   0.00524199
7440.00   0.67320326   0.00534602
7442.00   0.67604479   0.00529035
7444.00   0.67593679   0.00505037
7446.00   0.67775989   0.00489395
7448.00   0.67563942   0.00479195
7450.00   0.67041671   0.00470666
7452.00   0.66329083   0.00473038
7454.00   0.65341675   0.00492840
7456.00   0.64761597   0.00498462
7458.00   0.64524734   0.00490554
7460.00   0.64324903   0.00481692
7462.00   0.63887444   0.00481170
7464.00   0.63366303   0.00487477
7466.00   0.63722524   0.00497528
7468.00   0.64860585   0.00512464
7470.00   0.66082424   0.00536340
7472.00   0.68133634   0.00577769
7474.00   0.69153526   0.00592110
7476.00   0.68769822   0.00573297
7478.00   0.67548764   0.00552188
7480.00   0.66809821   0.00552072
7482.00   0.66253257   0.00569271
7484.00   0.65344170   0.00561051
7486.00   0.64310873   0.00530846
7488.00   0.63367724   0.00506342
7490.00   0.61931951   0.00487964
7492.00   0.61020860   0.00478653
7494.00   0.61225531   0.00477966
7496.00   0.62069753   0.00484083
7498.00   0.63127244   0.00484877
7500.00   0.64694160   0.00483330
7502.00   0.65329126   0.00482258
7504.00   0.65043253   0.00481177
7506.00   0.64990667   0.00482055
7508.00   0.65084136   0.00483641
7510.00   0.64944983   0.00485478
7512.00   0.64332935   0.00486618
7514.00   0.63210928   0.00485760
7516.00   0.62849700   0.00500107
7518.00   0.63533193   0.00527170
7520.00   0.63395420   0.00553631
7522.00   0.61921519   0.00590210
7524.00   0.59726691   0.00625860
7526.00   0.58017516   0.00627943
7528.00   0.56991082   0.00588116
7530.00   0.56786050   0.00566863
7532.00   0.57369757   0.00546688
7534.00   0.57850647   0.00540452
7536.00   0.58560215   0.00546817
7538.00   0.59234884   0.00562911
7540.00   0.60683176   0.00562807
7542.00   0.63542908   0.00545180
7544.00   0.65025562   0.00545013
7546.00   0.65917081   0.00563377
7548.00   0.66333750   0.00564255
7550.00   0.66425785   0.00536697
7552.00   0.65408903   0.00504847
7554.00   0.63926560   0.00501938
7556.00   0.62303361   0.00519371
7558.00   0.60905015   0.00525079
7560.00   0.59746002   0.00524827
7562.00   0.58866078   0.00520609
7564.00   0.58332616   0.00507596
7566.00   0.57436448   0.00508895
7568.00   0.56183697   0.00519289
7570.00   0.55343460   0.00535660
7572.00   0.55690359   0.00550814
7574.00   0.56847166   0.00559826
7576.00   0.57490070   0.00549440
7578.00   0.58101296   0.00514673
7580.00   0.58530682   0.00496451
7582.00   0.58655743   0.00486195
7584.00   0.58314218   0.00482097
7586.00   0.58113159   0.00487515
7588.00   0.58544284   0.00498895
7590.00   0.57143350   0.00511238
7592.00   0.53803548   0.00509208
7594.00   0.51251058   0.00557729
7596.00   0.49021481   0.00615753
7598.00   0.48486817   0.00747042
7600.00   0.50293927   0.00945115
7602.00   0.53681907   0.01151450
7604.00   0.57858150   0.01266280
7606.00   0.64520940   0.01350101
7608.00   0.68937066   0.01350921
7610.00   0.71564460   0.01259484
7612.00   0.71891436   0.01150309
7614.00   0.70590687   0.01007609
7616.00   0.67059565   0.00849453
7618.00   0.61540914   0.00759704
7620.00   0.52954447   0.00747727
7622.00   0.48651037   0.00730971
7624.00   0.47370423   0.00718927
7626.00   0.48088832   0.00724880
7628.00   0.51165810   0.00794318
7630.00   0.54417615   0.00850138
7632.00   0.55915804   0.00837783
7634.00   0.56880839   0.00783168
7636.00   0.58053833   0.00751978
7638.00   0.59257579   0.00724771
7640.00   0.60139093   0.00703756
7642.00   0.60495821   0.00689719
7644.00   0.60727358   0.00672011
7646.00   0.61276913   0.00650664
7648.00   0.61193639   0.00630580
7650.00   0.60366029   0.00612771
7652.00   0.59026384   0.00592652
7654.00   0.57667853   0.00594229
7656.00   0.55504563   0.00623121
7658.00   0.53789151   0.00636460
7660.00   0.52246676   0.00655032
7662.00   0.49621673   0.00703169
7664.00   0.48518354   0.00692025
7666.00   0.48707445   0.00622169
7668.00   0.49415496   0.00572935
7670.00   0.50738080   0.00548647
7672.00   0.52082761   0.00528325
7674.00   0.53011289   0.00512943
7676.00   0.53343305   0.00510498
7678.00   0.54404221   0.00506910
7680.00   0.56054457   0.00507538
7682.00   0.56605077   0.00505493
7684.00   0.56005843   0.00501045
7686.00   0.55754982   0.00496149
7688.00   0.55730958   0.00484496
7690.00   0.55541614   0.00491761
7692.00   0.54666014   0.00536257
7694.00   0.53310284   0.00594908
7696.00   0.51875849   0.00627445
7698.00   0.49895944   0.00657439
7700.00   0.48289753   0.00664434
7702.00   0.47400914   0.00630223
7704.00   0.46924259   0.00597897
7706.00   0.46402678   0.00593541
7708.00   0.46547773   0.00604798
7710.00   0.47194253   0.00642785
7712.00   0.48255140   0.00716050
7714.00   0.49379340   0.00748840
7716.00   0.51129647   0.00746976
7718.00   0.52718338   0.00735222
7720.00   0.54134618   0.00719898
7722.00   0.55181764   0.00688779
7724.00   0.54787134   0.00664445
7726.00   0.53066543   0.00646932
7728.00   0.52618559   0.00624914
7730.00   0.52930778   0.00590581
7732.00   0.53588589   0.00559398
7734.00   0.55090499   0.00532901
7736.00   0.56600654   0.00512553
7738.00   0.57122681   0.00508577
7740.00   0.57313712   0.00521744
7742.00   0.58529462   0.00552418
7744.00   0.61443487   0.00593025
7746.00   0.62081364   0.00649565
7748.00   0.60713601   0.00744669
7750.00   0.58225280   0.00816458
7752.00   0.54613645   0.00826662
7754.00   0.50086556   0.00796026
7756.00   0.48187143   0.00753736
7758.00   0.48116918   0.00668074
7760.00   0.47924641   0.00604682
7762.00   0.48424208   0.00571287
7764.00   0.48874104   0.00552580
7766.00   0.48832180   0.00525018
7768.00   0.48832455   0.00501873
7770.00   0.48772033   0.00495279
7772.00   0.48287883   0.00498562
7774.00   0.48503348   0.00506823
7776.00   0.49749108   0.00533872
7778.00   0.51230085   0.00558238
7780.00   0.52213167   0.00566622
7782.00   0.53232248   0.00572747
7784.00   0.54349390   0.00578904
7786.00   0.55161054   0.00577332
7788.00   0.56979010   0.00616990
7790.00   0.60930222   0.00710706
7792.00   0.63181797   0.00761470
7794.00   0.63351840   0.00786796
7796.00   0.62234381   0.00785174
7798.00   0.60039967   0.00734066
7800.00   0.56613275   0.00633581
7802.00   0.54738161   0.00584562
7804.00   0.53972258   0.00576406
7806.00   0.53077026   0.00565455
7808.00   0.52284622   0.00562049
7810.00   0.51257107   0.00564591
7812.00   0.49544103   0.00577290
7814.00   0.46684293   0.00598531
7816.00   0.45560889   0.00634537
7818.00   0.45386092   0.00697773
7820.00   0.46411443   0.00727004
7822.00   0.49227184   0.00723585
7824.00   0.51790099   0.00697452
7826.00   0.52167247   0.00652166
7828.00   0.51160401   0.00580870
7830.00   0.51635964   0.00538315
7832.00   0.52799438   0.00512195
7834.00   0.54131156   0.00516334
7836.00   0.56206480   0.00559310
7838.00   0.57347624   0.00591540
7840.00   0.57250135   0.00605873
7842.00   0.56633149   0.00603571
7844.00   0.56683914   0.00619354
7846.00   0.57216157   0.00651120
7848.00   0.57160765   0.00694258
7850.00   0.56659177   0.00762346
7852.00   0.55563551   0.00795528
7854.00   0.54085037   0.00790033
7856.00   0.53200713   0.00763508
7858.00   0.52764976   0.00763847
7860.00   0.52906717   0.00773092
7862.00   0.52890323   0.00750244
7864.00   0.52988052   0.00690050
7866.00   0.52386135   0.00665633
7868.00   0.51646499   0.00651969
7870.00   0.50833911   0.00624070
7872.00   0.49972054   0.00617201
7874.00   0.49074197   0.00638224
7876.00   0.48440886   0.00640732
7878.00   0.47720812   0.00629235
7880.00   0.47777537   0.00622336
7882.00   0.48720156   0.00631587
7884.00   0.50415994   0.00649092
7886.00   0.52502000   0.00660972
7888.00   0.54197657   0.00670271
7890.00   0.54436648   0.00659749
7892.00   0.53638853   0.00627238
7894.00   0.54013965   0.00605668
7896.00   0.54956779   0.00595756
7898.00   0.55737053   0.00585662
7900.00   0.57236835   0.00557095
7902.00   0.59246710   0.00540328
7904.00   0.60497487   0.00578248
7906.00   0.61929283   0.00653491
7908.00   0.63536331   0.00748019
7910.00   0.66197515   0.00909914
7912.00   0.65681601   0.00960455
7914.00   0.63566849   0.00911481
7916.00   0.61194605   0.00839402
7918.00   0.57965972   0.00805659
7920.00   0.54024057   0.00778764
7922.00   0.51745190   0.00741030
7924.00   0.50227249   0.00689434
7926.00   0.50070924   0.00658397
7928.00   0.51822959   0.00652212
7930.00   0.53368518   0.00652020
7932.00   0.54896873   0.00636267
7934.00   0.57006930   0.00604920
7936.00   0.58191097   0.00584521
7938.00   0.58775914   0.00564527
7940.00   0.59231271   0.00559400
7942.00   0.59371921   0.00573495
7944.00   0.59974936   0.00598282
7946.00   0.60443486   0.00610537
7948.00   0.59397954   0.00598949
7950.00   0.58196653   0.00594261
7952.00   0.56817484   0.00590643
7954.00   0.55836982   0.00592244
7956.00   0.54831159   0.00569458
7958.00   0.53801544   0.00598230
7960.00   0.52221847   0.00712930
7962.00   0.51409011   0.00834855
7964.00   0.53129731   0.00836430
7966.00   0.56596422   0.00741898
7968.00   0.57692592   0.00688180
7970.00   0.56430781   0.00655373
7972.00   0.56769262   0.00639878
7974.00   0.58963823   0.00632030
7976.00   0.61163676   0.00629474
7978.00   0.61959755   0.00626867
7980.00   0.62574571   0.00628094
7982.00   0.62788981   0.00631627
7984.00   0.62208700   0.00634186
7986.00   0.61714384   0.00648631
7988.00   0.62105528   0.00677136
7990.00   0.61973706   0.00709063
7992.00   0.60187152   0.00745202
7994.00   0.57041705   0.00771174
7996.00   0.55562893   0.00746657
7998.00   0.55096728   0.00671660
8000.00   0.54870759   0.00618199
8002.00   0.54748613   0.00562448
8004.00   0.54489675   0.00525547
8006.00   0.54708509   0.00529343
8008.00   0.55120859   0.00550943
8010.00   0.54878281   0.00556537
8012.00   0.54365091   0.00561274
8014.00   0.54022767   0.00572802
8016.00   0.53563924   0.00585959
8018.00   0.52995321   0.00602070
8020.00   0.52834472   0.00630173
8022.00   0.53393154   0.00659752
8024.00   0.53802443   0.00679275
8026.00   0.54091085   0.00690167
8028.00   0.54239088   0.00681403
8030.00   0.54268891   0.00650468
8032.00   0.54226771   0.00626532
8034.00   0.54315367   0.00582031
8036.00   0.54650193   0.00534955
8038.00   0.55415635   0.00529471
8040.00   0.57340908   0.00542409
8042.00   0.58609997   0.00544183
8044.00   0.59499399   0.00549267
8046.00   0.59921911   0.00558238
8048.00   0.60323051   0.00556597
8050.00   0.60736628   0.00552754
8052.00   0.61210816   0.00562839
8054.00   0.62314335   0.00581756
8056.00   0.62626636   0.00592175
8058.00   0.62298658   0.00600129
8060.00   0.61164522   0.00600368
8062.00   0.59519431   0.00590601
8064.00   0.57871875   0.00579777
8066.00   0.55498512   0.00578354
8068.00   0.52849264   0.00601231
8070.00   0.52230749   0.00606718
8072.00   0.53046705   0.00595110
8074.00   0.53616869   0.00573709
8076.00   0.54619464   0.00534451
8078.00   0.55346483   0.00515393
8080.00   0.55258481   0.00528332
8082.00   0.54678150   0.00554327
8084.00   0.53720097   0.00548725
8086.00   0.51884304   0.00515249
8088.00   0.51401193   0.00510862
8090.00   0.52063654   0.00529652
8092.00   0.53074813   0.00556442
8094.00   0.54193640   0.00587588
8096.00   0.55390534   0.00613256
8098.00   0.56835267   0.00618981
8100.00   0.58585115   0.00600243
8102.00   0.59734139   0.00589835
8104.00   0.60716522   0.00580178
8106.00   0.60880652   0.00573973
8108.00   0.60169432   0.00564896
8110.00   0.58880576   0.00557562
8112.00   0.57221733   0.00555883
8114.00   0.55392504   0.00557117
8116.00   0.54477747   0.00550536
8118.00   0.54141963   0.00536470
8120.00   0.53949261   0.00527969
8122.00   0.54213963   0.00524657
8124.00   0.54391044   0.00526947
8126.00   0.54038247   0.00528415
8128.00   0.53555702   0.00525670
8130.00   0.53084655   0.00528577
8132.00   0.52154155   0.00537522
8134.00   0.51490939   0.00543567
8136.00   0.51195897   0.00547828
8138.00   0.51027575   0.00550441
8140.00   0.50786279   0.00548242
8142.00   0.51187460   0.00542906
8144.00   0.51825942   0.00544932
8146.00   0.52601825   0.00553931
8148.00   0.53229469   0.00565461
8150.00   0.54121946   0.00577405
8152.00   0.54262087   0.00599241
8154.00   0.53314689   0.00639922
8156.00   0.52594529   0.00659211
8158.00   0.52742201   0.00654491
8160.00   0.53261866   0.00637645
8162.00   0.53497413   0.00631992
8164.00   0.53808022   0.00628829
8166.00   0.53528818   0.00643818
8168.00   0.52273162   0.00658386
8170.00   0.51778907   0.00687253
8172.00   0.52304912   0.00742842
8174.00   0.52543353   0.00826887
8176.00   0.52177925   0.00936144
8178.00   0.51622021   0.01069610
8180.00   0.50856391   0.01187508
8182.00   0.49381785   0.01312706
8184.00   0.48187158   0.01394939
8186.00   0.47318582   0.01453732
8188.00   0.46247827   0.01494616
8190.00   0.45810747   0.01528100
8192.00   0.46254289   0.01558289
8194.00   0.46478324   0.01567031
8196.00   0.46070582   0.01573868
8198.00   0.46584286   0.01522154
8200.00   0.48053610   0.01389332
8202.00   0.49746311   0.01226831
8204.00   0.51859458   0.01098620
8206.00   0.53699093   0.00991154
8208.00   0.54165088   0.00901206
8210.00   0.53163484   0.00841890
8212.00   0.53729078   0.00788730
8214.00   0.55368458   0.00754804
8216.00   0.56223519   0.00729420
8218.00   0.55121906   0.00711098
8220.00   0.52743356   0.00699081
8222.00   0.51889893   0.00680697
8224.00   0.51356713   0.00657225
8226.00   0.51886573   0.00645441
8228.00   0.54389305   0.00650273
8230.00   0.56561279   0.00650117
8232.00   0.57508999   0.00641074
8234.00   0.58320943   0.00627329
8236.00   0.58181845   0.00613882
8238.00   0.56776416   0.00598835
8240.00   0.55013262   0.00583075
8242.00   0.52504560   0.00560443
8244.00   0.51122923   0.00545574
8246.00   0.50561732   0.00547823
8248.00   0.50020905   0.00560454
8250.00   0.49575032   0.00568506
8252.00   0.49194840   0.00588923
8254.00   0.49123961   0.00594317
8256.00   0.49173483   0.00575002
8258.00   0.50167297   0.00560183
8260.00   0.51395983   0.00582984
8262.00   0.52624871   0.00612871
8264.00   0.54441504   0.00611967
8266.00   0.56458855   0.00589081
8268.00   0.57608259   0.00594231
8270.00   0.57860583   0.00611905
8272.00   0.58894166   0.00647148
8274.00   0.61181578   0.00703362
8276.00   0.63040835   0.00764464
8278.00   0.62303105   0.00804043
8280.00   0.59561007   0.00814493
8282.00   0.58022603   0.00843085
8284.00   0.56459551   0.00889235
8286.00   0.55646122   0.00921489
8288.00   0.56075490   0.00930699
8290.00   0.56178132   0.00926154
8292.00   0.55160683   0.00928286
8294.00   0.54225326   0.00932907
8296.00   0.54145531   0.00908385
8298.00   0.54293060   0.00850812
8300.00   0.53692883   0.00798415
8302.00   0.52273305   0.00742384
8304.00   0.52184914   0.00704473
8306.00   0.53191134   0.00683811
8308.00   0.53879543   0.00664780
8310.00   0.53547102   0.00634959
8312.00   0.52722213   0.00603131
8314.00   0.52835695   0.00586680
8316.00   0.53391069   0.00586495
8318.00   0.54517889   0.00584956
8320.00   0.56566133   0.00578508
8322.00   0.58356571   0.00566189
8324.00   0.59173125   0.00560972
8326.00   0.59059769   0.00556949
8328.00   0.58907387   0.00551642
8330.00   0.58622146   0.00535404
8332.00   0.58156340   0.00554931
8334.00   0.57379685   0.00577126
8336.00   0.55902882   0.00654550
8338.00   0.52678508   0.00809849
8340.00   0.48785435   0.00960171
8342.00   0.47266999   0.01049233
8344.00   0.46633504   0.01149077
8346.00   0.46141106   0.01179264
8348.00   0.47374409   0.01101381
8350.00   0.48883411   0.00971120
8352.00   0.48689681   0.00873989
8354.00   0.47996686   0.00797642
8356.00   0.47706552   0.00719013
8358.00   0.47241749   0.00648666
8360.00   0.47302406   0.00615252
8362.00   0.47987701   0.00635851
8364.00   0.48750374   0.00645143
8366.00   0.49814044   0.00644003
8368.00   0.51094668   0.00625120
8370.00   0.52025086   0.00599577
8372.00   0.52980325   0.00570070
8374.00   0.53548668   0.00581838
8376.00   0.53484146   0.00633719
8378.00   0.53697476   0.00666186
8380.00   0.54693866   0.00701534
8382.00   0.55251607   0.00730012
8384.00   0.55130169   0.00711669
8386.00   0.55029544   0.00645045
8388.00   0.54137719   0.00632094
8390.00   0.52278961   0.00643271
8392.00   0.51044255   0.00700165
8394.00   0.49908634   0.00813734
8396.00   0.48999803   0.00883390
8398.00   0.50138670   0.00905690
8400.00   0.52504070   0.00905615
8402.00   0.51682746   0.00882681
8404.00   0.48536108   0.00824836
8406.00   0.46825270   0.00786265
8408.00   0.45678638   0.00751547
8410.00   0.45355940   0.00742151
8412.00   0.46741088   0.00755197
8414.00   0.48591809   0.00754418
8416.00   0.48399024   0.00746683
8418.00   0.47267014   0.00734094
8420.00   0.46714845   0.00754394
8422.00   0.46351589   0.00794293
8424.00   0.45352311   0.00851514
8426.00   0.43973842   0.00946616
8428.00   0.43523565   0.01021040
8430.00   0.44987980   0.01019759
8432.00   0.47926414   0.00977130
8434.00   0.49114494   0.00908170
8436.00   0.48945756   0.00756168
8438.00   0.48943900   0.00631699
8440.00   0.49304479   0.00561895
8442.00   0.50626539   0.00535509
8444.00   0.52724910   0.00552700
8446.00   0.56153686   0.00612526
8448.00   0.56365979   0.00641433
8450.00   0.53791940   0.00668423
8452.00   0.51433069   0.00679147
8454.00   0.49479540   0.00652190
8456.00   0.47806148   0.00655286
8458.00   0.46431544   0.00716265
8460.00   0.46155541   0.00786543
8462.00   0.46499988   0.00825609
8464.00   0.47634780   0.00862173
8466.00   0.48138513   0.00851179
8468.00   0.48469815   0.00771058
8470.00   0.48322304   0.00697382
8472.00   0.47948277   0.00632910
8474.00   0.48018432   0.00574081
8476.00   0.48418045   0.00544466
8478.00   0.49012889   0.00541527
8480.00   0.49267101   0.00532792
8482.00   0.49400797   0.00519190
8484.00   0.49243982   0.00528512
8486.00   0.48833627   0.00566130
8488.00   0.49241930   0.00610227
8490.00   0.49663846   0.00635725
8492.00   0.49678843   0.00651371
8494.00   0.50159016   0.00657707
8496.00   0.51171762   0.00636197
8498.00   0.51841964   0.00648594
8500.00   0.52673589   0.00720373
8502.00   0.53870948   0.00794315
8504.00   0.53757238   0.00806675
8506.00   0.52439776   0.00783187
8508.00   0.51148003   0.00738339
8510.00   0.49227661   0.00631717
8512.00   0.47683811   0.00553824
8514.00   0.46502200   0.00534647
8516.00   0.45705077   0.00544286
8518.00   0.45435382   0.00545310
8520.00   0.45696376   0.00556970
8522.00   0.45956965   0.00556166
8524.00   0.46790081   0.00543160
8526.00   0.47073831   0.00535389
8528.00   0.46551798   0.00536277
8530.00   0.45765990   0.00537427
8532.00   0.45546572   0.00537626
8534.00   0.45086269   0.00545247
8536.00   0.44625910   0.00562416
8538.00   0.44570091   0.00586521
8540.00   0.44865997   0.00599436
8542.00   0.45265065   0.00604394
8544.00   0.46033965   0.00609009
8546.00   0.47471856   0.00615709
8548.00   0.47880830   0.00626311
8550.00   0.47459880   0.00629579
8552.00   0.46809113   0.00634616
8554.00   0.46786508   0.00617112
8556.00   0.47177838   0.00564970
8558.00   0.47498010   0.00523369
8560.00   0.47836754   0.00509082
8562.00   0.47768357   0.00511954
8564.00   0.46994628   0.00515629
8566.00   0.45688877   0.00518582
8568.00   0.45290591   0.00516472
8570.00   0.45534255   0.00511571
8572.00   0.45481998   0.00514441
8574.00   0.45147684   0.00523603
8576.00   0.44652943   0.00529349
8578.00   0.44454084   0.00523677
8580.00   0.44571263   0.00509458
8582.00   0.44599354   0.00512756
8584.00   0.44529787   0.00527818
8586.00   0.44798683   0.00543483
8588.00   0.45505960   0.00566789
8590.00   0.46362552   0.00576599
8592.00   0.47217047   0.00576109
8594.00   0.47580515   0.00577310
8596.00   0.47107856   0.00583614
8598.00   0.45844291   0.00598573
8600.00   0.45992410   0.00597206
8602.00   0.47154522   0.00569510
8604.00   0.48938133   0.00558350
8606.00   0.51721810   0.00578354
8608.00   0.53433162   0.00597388
8610.00   0.53003366   0.00602931
8612.00   0.51349828   0.00611171
8614.00   0.50994632   0.00638899
8616.00   0.51350403   0.00680720
8618.00   0.51218623   0.00719104
8620.00   0.50697280   0.00762026
8622.00   0.50384757   0.00799345
8624.00   0.50269215   0.00829152
8626.00   0.49998851   0.00852555
8628.00   0.49393657   0.00863673
8630.00   0.48472492   0.00865555
8632.00   0.47772618   0.00854905
8634.00   0.47508514   0.00828258
8636.00   0.46703601   0.00797298
8638.00   0.44924188   0.00755722
8640.00   0.42647132   0.00712695
8642.00   0.41421798   0.00696407
8644.00   0.40951894   0.00697876
8646.00   0.41006897   0.00719827
8648.00   0.41610171   0.00768323
8650.00   0.42307721   0.00813817
8652.00   0.43587339   0.00867926
8654.00   0.43933144   0.00916806
8656.00   0.43521048   0.00926467
8658.00   0.43571585   0.00904810
8660.00   0.45360862   0.00891732
8662.00   0.49082345   0.00871484
8664.00   0.51236314   0.00869801
8666.00   0.52768761   0.00896935
8668.00   0.52538764   0.00897524
8670.00   0.51806977   0.00850541
8672.00   0.51895089   0.00786126
8674.00   0.51392147   0.00753636
8676.00   0.50106607   0.00741591
8678.00   0.48466736   0.00712451
8680.00   0.46990842   0.00675650
8682.00   0.45833576   0.00644993
8684.00   0.44856113   0.00615274
8686.00   0.44316939   0.00594399
8688.00   0.44101946   0.00599271
8690.00   0.44156013   0.00629014
8692.00   0.44696736   0.00627233
8694.00   0.46369889   0.00597761
8696.00   0.47032562   0.00579840
8698.00   0.46848753   0.00566431
8700.00   0.46939796   0.00564241
8702.00   0.46432993   0.00593021
8704.00   0.45257559   0.00649578
8706.00   0.45544100   0.00661268
8708.00   0.48057969   0.00632384
8710.00   0.48730680   0.00603291
8712.00   0.47842871   0.00582679
8714.00   0.46208975   0.00582561
8716.00   0.44830354   0.00584173
8718.00   0.43798287   0.00586147
8720.00   0.43459277   0.00575034
8722.00   0.43879420   0.00546260
8724.00   0.43928656   0.00528289
8726.00   0.43536149   0.00531018
8728.00   0.42784563   0.00548420
8730.00   0.43023089   0.00553750
8732.00   0.44115072   0.00542232
8734.00   0.44692844   0.00543950
8736.00   0.45253694   0.00557612
8738.00   0.45346470   0.00572865
8740.00   0.44454259   0.00581703
8742.00   0.44284303   0.00583698
8744.00   0.45103250   0.00584582
8746.00   0.46211080   0.00573012
8748.00   0.47846073   0.00586592
8750.00   0.50266595   0.00611468
8752.00   0.51268801   0.00680938
8754.00   0.52318029   0.00753057
8756.00   0.51407501   0.00865011
8758.00   0.45275719   0.01071223
8760.00   0.36090967   0.01298700
8762.00   0.31955279   0.01364653
8764.00   0.30074793   0.01338811
8766.00   0.30853020   0.01304643
8768.00   0.36391915   0.01219731
8770.00   0.40190975   0.01158820
8772.00   0.40952368   0.01154063
8774.00   0.40269966   0.01151686
8776.00   0.40328820   0.01121781
8778.00   0.41308959   0.01091641
8780.00   0.43166460   0.01042428
8782.00   0.46016783   0.00950786
8784.00   0.48189002   0.00895246
8786.00   0.50910333   0.00888494
8788.00   0.51864125   0.00871653
8790.00   0.51508363   0.00842001
8792.00   0.50852080   0.00813654
8794.00   0.49914780   0.00759301
8796.00   0.48098405   0.00663042
8798.00   0.47606468   0.00610107
8800.00   0.48686828   0.00610893
8802.00   0.49330872   0.00615424
8804.00   0.49244191   0.00619158
8806.00   0.49265747   0.00624840
8808.00   0.48848291   0.00613929
8810.00   0.48062783   0.00581513
8812.00   0.46744390   0.00583459
8814.00   0.45499772   0.00558844
8816.00   0.42864349   0.00647154
8818.00   0.37683411   0.00855057
8820.00   0.31743471   0.01098441
8822.00   0.29871306   0.01284058
8824.00   0.30204262   0.01470306
8826.00   0.31741630   0.01511045
8828.00   0.36440521   0.01408132
8830.00   0.39762962   0.01298485
8832.00   0.40083206   0.01199765
8834.00   0.39753334   0.01118052
8836.00   0.40776600   0.01047459
8838.00   0.42424139   0.00997567
8840.00   0.42751706   0.00940882
8842.00   0.41499269   0.00879550
8844.00   0.41383998   0.00828463
8846.00   0.42977607   0.00790476
8848.00   0.44711843   0.00759913
8850.00   0.46066512   0.00758940
8852.00   0.47209740   0.00774673
8854.00   0.48593639   0.00755390
8856.00   0.50411054   0.00697765
8858.00   0.52474561   0.00705953
8860.00   0.55010372   0.00781748
8862.00   0.55844855   0.00853356
8864.00   0.54669204   0.00914403
8866.00   0.51736118   0.00966992
8868.00   0.50013000   0.00937032
8870.00   0.48996495   0.00809478
8872.00   0.47905882   0.00738149
8874.00   0.45904540   0.00683443
8876.00   0.44718881   0.00739623
8878.00   0.45572737   0.00901132
8880.00   0.47225349   0.01075832
8882.00   0.47470318   0.01189514
8884.00   0.46915530   0.01280536
8886.00   0.46368305   0.01279118
8888.00   0.45894137   0.01167763
8890.00   0.45130470   0.01079255
8892.00   0.42602658   0.00982549
8894.00   0.40237704   0.00884484
8896.00   0.41350780   0.00842524
8898.00   0.44425753   0.00863568
8900.00   0.45431411   0.00883766
8902.00   0.45495054   0.00928754
8904.00   0.45632604   0.00946432
8906.00   0.44770929   0.00934300
8908.00   0.44430467   0.00938562
8910.00   0.45928872   0.00970931
8912.00   0.49452583   0.01027611
8914.00   0.50959694   0.01149107
8916.00   0.51806296   0.01353743
8918.00   0.49714954   0.01418772
8920.00   0.43831219   0.01364527
8922.00   0.39302079   0.01243234
8924.00   0.37451233   0.01080960
8926.00   0.36896661   0.00898614
8928.00   0.35935897   0.00814256
8930.00   0.35145105   0.00819854
8932.00   0.35563076   0.00792878
8934.00   0.37892030   0.00738880
8936.00   0.39019254   0.00741411
8938.00   0.38893270   0.00795575
8940.00   0.38153480   0.00849617
8942.00   0.38165039   0.00888622
8944.00   0.39456011   0.00917706
8946.00   0.40373208   0.00916673
8948.00   0.41015245   0.00834723
8950.00   0.41105205   0.00881655
8952.00   0.41674764   0.01054779
8954.00   0.40564756   0.01180005
8956.00   0.38106528   0.01229165
8958.00   0.35417269   0.01259283
8960.00   0.35634495   0.01218466
8962.00   0.38714731   0.01074960
8964.00   0.39972869   0.00951447
8966.00   0.39045586   0.00844822
8968.00   0.38799311   0.00760816
8970.00   0.40533632   0.00706962
8972.00   0.42906651   0.00692701
8974.00   0.44277664   0.00685976
8976.00   0.45205234   0.00695838
8978.00   0.45971370   0.00723172
8980.00   0.46546650   0.00776493
8982.00   0.47220297   0.00828930
8984.00   0.47255991   0.00886911
8986.00   0.46874028   0.00946044
8988.00   0.47004589   0.00969139
8990.00   0.47097817   0.00965328
8992.00   0.47636960   0.00998621
8994.00   0.48969133   0.01066042
8996.00   0.50309609   0.01109289
8998.00   0.51162413   0.01166795
9000.00   0.51742749   0.01244786
9002.00   0.51291338   0.01239148
9004.00   0.49577832   0.01151044
9006.00   0.48058870   0.01064831
9008.00   0.46365809   0.00943678
9010.00   0.44558881   0.00845345
9012.00   0.42650753   0.00770479
9014.00   0.42065072   0.00724016
9016.00   0.42568165   0.00692164
9018.00   0.43994045   0.00692552
9020.00   0.43830755   0.00682924
9022.00   0.42428957   0.00671546
9024.00   0.41201517   0.00662013
9026.00   0.40348218   0.00664369
9028.00   0.39930631   0.00672386
9030.00   0.39388719   0.00684818
9032.00   0.38401006   0.00707302
9034.00   0.37548484   0.00713797
9036.00   0.36737242   0.00704597
9038.00   0.37036622   0.00719068
9040.00   0.38898888   0.00759236
9042.00   0.39271481   0.00794941
9044.00   0.38205330   0.00833924
9046.00   0.37457602   0.00866533
9048.00   0.37392522   0.00877302
9050.00   0.37453467   0.00869228
9052.00   0.37710021   0.00863507
9054.00   0.38482356   0.00861611
9056.00   0.39223707   0.00856842
9058.00   0.39640085   0.00816720
9060.00   0.40337710   0.00757910
9062.00   0.41738929   0.00725037
9064.00   0.43437085   0.00697724
9066.00   0.44228239   0.00691255
9068.00   0.44615699   0.00720556
9070.00   0.44382669   0.00730190
9072.00   0.42895670   0.00711461
9074.00   0.41779290   0.00690522
9076.00   0.41582635   0.00681433
9078.00   0.41534898   0.00673465
9080.00   0.40944712   0.00670591
9082.00   0.40017672   0.00675069
9084.00   0.38903795   0.00677346
9086.00   0.37441368   0.00666791
9088.00   0.36452368   0.00675236
9090.00   0.35769139   0.00710455
9092.00   0.35515228   0.00745118
9094.00   0.35653515   0.00769642
9096.00   0.36236635   0.00792084
9098.00   0.36079772   0.00802440
9100.00   0.35330454   0.00800575
9102.00   0.34693462   0.00802054
9104.00   0.33896929   0.00788934
9106.00   0.33758414   0.00759695
9108.00   0.34567277   0.00724161
9110.00   0.35839443   0.00667132
9112.00   0.36228289   0.00634936
9114.00   0.36118859   0.00630418
9116.00   0.36182396   0.00633500
9118.00   0.35927685   0.00636350
9120.00   0.35698502   0.00642258
9122.00   0.35640474   0.00642399
9124.00   0.35473235   0.00631752
9126.00   0.35478871   0.00642781
9128.00   0.35738181   0.00674160
9130.00   0.36105698   0.00700845
9132.00   0.36079451   0.00724074
9134.00   0.35925812   0.00751583
9136.00   0.37135360   0.00764971
9138.00   0.39775935   0.00761197
9140.00   0.40190156   0.00757516
9142.00   0.39097382   0.00744605
9144.00   0.38227122   0.00719196
9146.00   0.36871728   0.00667097
9148.00   0.36443371   0.00666948
9150.00   0.37888941   0.00717445
9152.00   0.40166153   0.00789483
9154.00   0.41309333   0.00836370
9156.00   0.41742171   0.00881411
9158.00   0.42460011   0.00883440
9160.00   0.44359608   0.00826086
9162.00   0.44990399   0.00788444
9164.00   0.42486346   0.00789475
9166.00   0.38968091   0.00803423
9168.00   0.36965695   0.00825525
9170.00   0.34883478   0.00884152
9172.00   0.35554439   0.00885375
9174.00   0.40472367   0.00807746
9176.00   0.43381952   0.00749466
9178.00   0.44070029   0.00758828
9180.00   0.43488210   0.00779408
9182.00   0.41679710   0.00766794
9184.00   0.38981333   0.00741261
9186.00   0.37400128   0.00709695
9188.00   0.36101937   0.00651036
9190.00   0.34931064   0.00625185
9192.00   0.34567828   0.00652214
9194.00   0.34853499   0.00677635
9196.00   0.35658452   0.00668212
9198.00   0.36718036   0.00642187
9200.00   0.36771588   0.00643993
9202.00   0.36303101   0.00666863
9204.00   0.36234380   0.00680356
9206.00   0.36007023   0.00679265
9208.00   0.35316537   0.00680907
9210.00   0.35123859   0.00691072
9212.00   0.36277446   0.00711371
9214.00   0.37908213   0.00759914
9216.00   0.40002075   0.00830920
9218.00   0.42032135   0.00856531
9220.00   0.45178241   0.00848038
9222.00   0.46853346   0.00840121
9224.00   0.46632488   0.00821673
9226.00   0.45447868   0.00792858
9228.00   0.44472367   0.00773366
9230.00   0.43848908   0.00771749
9232.00   0.42681167   0.00762322
9234.00   0.40631407   0.00744807
9236.00   0.38452417   0.00711665
9238.00   0.36785182   0.00681556
9240.00   0.35463479   0.00664169
9242.00   0.34735860   0.00660241
9244.00   0.34827407   0.00676297
9246.00   0.34883744   0.00704372
9248.00   0.35220727   0.00757891
9250.00   0.34672368   0.00773999
9252.00   0.33360970   0.00760160
9254.00   0.33208689   0.00734746
9256.00   0.33836348   0.00699690
9258.00   0.35216027   0.00658711
9260.00   0.35561082   0.00641718
9262.00   0.35071509   0.00640987
9264.00   0.34457399   0.00640709
9266.00   0.33785927   0.00646784
9268.00   0.33713157   0.00655089
9270.00   0.34286660   0.00666243
9272.00   0.34957056   0.00690600
9274.00   0.34622325   0.00704905
9276.00   0.33386943   0.00701893
9278.00   0.33832316   0.00728489
9280.00   0.36438057   0.00800764
9282.00   0.38090593   0.00845503
9284.00   0.37912138   0.00850710
9286.00   0.37269825   0.00850663
9288.00   0.38808942   0.00887963
9290.00   0.42295434   0.00965339
9292.00   0.44093668   0.01006916
9294.00   0.44051240   0.00987514
9296.00   0.44810532   0.01035932
9298.00   0.47110522   0.01126960
9300.00   0.50602290   0.01297044
9302.00   0.55315362   0.01573742
9304.00   0.63375816   0.01890389
9306.00   0.63753054   0.02137812
9308.00   0.56927955   0.02405536
9310.00   0.50114030   0.02555446
9312.00   0.45875512   0.02588813
9314.00   0.41813682   0.02573916
9316.00   0.33237490   0.02565164
9318.00   0.22591840   0.02553814
9320.00   0.20557077   0.02537942
9322.00   0.25212853   0.02531149
9324.00   0.26535456   0.02461668
9326.00   0.24717649   0.02306843
9328.00   0.25746246   0.02119796
9330.00   0.28355625   0.01932292
9332.00   0.29386663   0.01786052
9334.00   0.32102618   0.01728148
9336.00   0.37078084   0.01761805
9338.00   0.40550025   0.01800205
9340.00   0.41638684   0.01907856
9342.00   0.43972634   0.01930689
9344.00   0.49690568   0.01871869
9346.00   0.53804186   0.01764930
9348.00   0.51935750   0.01663156
9350.00   0.45716897   0.01551005
9352.00   0.42508081   0.01492463
9354.00   0.40360564   0.01503470
9356.00   0.39571749   0.01478471
9358.00   0.39232364   0.01392770
9360.00   0.38777652   0.01301320
9362.00   0.39134939   0.01186916
9364.00   0.38946572   0.01066131
9366.00   0.35702313   0.01635681
9368.00   0.29703291   0.02389758
9370.00   0.25775656   0.03080565
9372.00   0.21361171   0.03945733
9374.00   0.18131566   0.04381892
9376.00   0.19418025   0.04380882
9378.00   0.23328748   0.04056808
9380.00   0.26176606   0.03620701
9382.00   0.30378731   0.02837871
9384.00   0.34885917   0.02232062
9386.00   0.39458832   0.01733713
9388.00   0.41484544   0.01325817
9390.00   0.43482938   0.01175848
9392.00   0.44110189   0.01182092
9394.00   0.43684722   0.01150807
9396.00   0.42538442   0.01181899
9398.00   0.42409909   0.01223149
9400.00   0.42709336   0.01322341
9402.00   0.43452719   0.01371323
9404.00   0.44013833   0.01348866
9406.00   0.43585250   0.01290523
9408.00   0.41746384   0.01247383
9410.00   0.37972312   0.01204120
9412.00   0.35468929   0.01270534
9414.00   0.33490124   0.01446789
9416.00   0.32577313   0.01561368
9418.00   0.31764003   0.01651900
9420.00   0.31625652   0.01688325
9422.00   0.33324189   0.01656776
9424.00   0.36436100   0.01568986
9426.00   0.38074058   0.01525873
9428.00   0.39817193   0.01457266
9430.00   0.39238465   0.01521198
9432.00   0.35855934   0.01686775
9434.00   0.31000626   0.01932810
9436.00   0.26503444   0.02234692
9438.00   0.22026583   0.02565200
9440.00   0.20843957   0.02734553
9442.00   0.23978109   0.02820768
9444.00   0.28196836   0.02710242
9446.00   0.33732762   0.02284566
9448.00   0.36111508   0.01948455
9450.00   0.37616238   0.01778380
9452.00   0.35913041   0.01774435
9454.00   0.35006709   0.01880228
9456.00   0.35441676   0.02118475
9458.00   0.36178666   0.02195690
9460.00   0.37493807   0.02197685
9462.00   0.36814547   0.02121171
9464.00   0.33545650   0.01907092
9466.00   0.31238523   0.01705124
9468.00   0.30763514   0.01716167
9470.00   0.29372774   0.01858894
9472.00   0.29779938   0.02090178
9474.00   0.32086143   0.02497733
9476.00   0.34510592   0.02681987
9478.00   0.38066012   0.02687099
9480.00   0.42844139   0.02588277
9482.00   0.43356231   0.02382238
9484.00   0.40083344   0.01967146
9486.00   0.36947581   0.01660098
9488.00   0.31261736   0.01376558
9490.00   0.28513283   0.01224387
9492.00   0.30455828   0.01151226
9494.00   0.31706056   0.01261600
9496.00   0.29343800   0.01610806
9498.00   0.29753564   0.02012991
9500.00   0.31993621   0.02173063
9502.00   0.33527230   0.02241518
9504.00   0.32905787   0.02171132
9506.00   0.32463215   0.01865797
9508.00   0.33164687   0.01577521
9510.00   0.32252871   0.01394271
9512.00   0.33372468   0.01328925
9514.00   0.35973811   0.01306942
9516.00   0.38340910   0.01363677
9518.00   0.38579080   0.01426166
9520.00   0.36799398   0.01553287
9522.00   0.37538920   0.01598108
9524.00   0.38905133   0.01567907
9526.00   0.38980936   0.01507393
9528.00   0.40064913   0.01464885
9530.00   0.42450272   0.01421310
9532.00   0.42684770   0.01391460
9534.00   0.41403191   0.01378023
9536.00   0.40432402   0.01368911
9538.00   0.38103669   0.01341457
9540.00   0.36426391   0.01317220
9542.00   0.37069063   0.01342183
9544.00   0.36203450   0.01388367
9546.00   0.37327616   0.01499735
9548.00   0.42299172   0.01710328
9550.00   0.43479773   0.01827246
9552.00   0.37125173   0.01834333
9554.00   0.32251776   0.01786061
9556.00   0.33141831   0.01790616
9558.00   0.35687380   0.01834986
9560.00   0.36409870   0.01873019
9562.00   0.36725177   0.01917784
9564.00   0.36919473   0.01983473
9566.00   0.36572425   0.02129268
9568.00   0.36664240   0.02151428
9570.00   0.36975229   0.02010558
9572.00   0.38679188   0.01804252
9574.00   0.40440723   0.01682825
9576.00   0.41409068   0.01584734
9578.00   0.41770418   0.01468384
9580.00   0.42503458   0.01331693
9582.00   0.41782022   0.01246962
9584.00   0.38440531   0.01186762
9586.00   0.35475166   0.01137812
9588.00   0.34061335   0.01122221
9590.00   0.33358274   0.01138289
9592.00   0.32668772   0.01180522
9594.00   0.32406417   0.01276910
9596.00   0.31844843   0.01321868
9598.00   0.31020276   0.01308625
9600.00   0.30519757   0.01262776
9602.00   0.29314358   0.01229517
9604.00   0.27222710   0.01209858
9606.00   0.28067999   0.01208226
9608.00   0.31472364   0.01214974
9610.00   0.33024836   0.01233516
9612.00   0.33097115   0.01279309
9614.00   0.32553607   0.01335940
9616.00   0.31971228   0.01364026
9618.00   0.32927004   0.01360653
9620.00   0.34035899   0.01391559
9622.00   0.35236105   0.01457925
9624.00   0.34949802   0.01465204
9626.00   0.32164998   0.01395763
9628.00   0.32044944   0.01350112
9630.00   0.36068155   0.01338617
9632.00   0.40201661   0.01296181
9634.00   0.40326455   0.01252231
9636.00   0.37910838   0.01220799
9638.00   0.37261051   0.01205844
9640.00   0.37766536   0.01176416
9642.00   0.37429148   0.01237864
9644.00   0.36165535   0.01410774
9646.00   0.36014078   0.01487352
9648.00   0.34148328   0.01422254
9650.00   0.29128315   0.01281592
9652.00   0.28843033   0.01239112
9654.00   0.32687521   0.01252743
9656.00   0.33691125   0.01271263
9658.00   0.32068893   0.01290801
9660.00   0.30940057   0.01315412
9662.00   0.28862707   0.01381548
9664.00   0.26445805   0.01465536
9666.00   0.28203375   0.01540674
9668.00   0.34197734   0.01633301
9670.00   0.36677030   0.01661080
9672.00   0.35448132   0.01598600
9674.00   0.33583902   0.01571652
9676.00   0.33929804   0.01596437
9678.00   0.35569471   0.01622537
9680.00   0.36683087   0.01634328
9682.00   0.38822846   0.01651358
9684.00   0.40708835   0.01637989
9686.00   0.42096075   0.01548066
9688.00   0.42084894   0.01512892
9690.00   0.44151261   0.01613868
9692.00   0.46836779   0.01771788
9694.00   0.45228128   0.01834147
9696.00   0.42569152   0.01884244
9698.00   0.40378349   0.01860722
9700.00   0.36903298   0.01729678
9702.00   0.33108601   0.01594662
9704.00   0.32360825   0.01507662
9706.00   0.32140581   0.01453741
9708.00   0.30543210   0.01413688
9710.00   0.29207161   0.01417686
9712.00   0.28294283   0.01460736
9714.00   0.27045063   0.01555811
9716.00   0.27339920   0.01626584
9718.00   0.31017739   0.01687208
9720.00   0.33355133   0.01729694
9722.00   0.31529609   0.01762370
9724.00   0.28705385   0.01752818
9726.00   0.26783610   0.01710076
9728.00   0.23996012   0.01625985
9730.00   0.24574190   0.01580798
9732.00   0.30757894   0.01547487
9734.00   0.33823097   0.01554118
9736.00   0.33294649   0.01588145
9738.00   0.30945137   0.01615161
9740.00   0.29155935   0.01623047
9742.00   0.27530691   0.01620299
9744.00   0.27353375   0.01609227
9746.00   0.28472558   0.01606223
9748.00   0.29653681   0.01553351
9750.00   0.30576847   0.01428461
9752.00   0.29457815   0.01310989
9754.00   0.29423486   0.01260759
9756.00   0.31208044   0.01256809
9758.00   0.31997225   0.01253430
9760.00   0.32089179   0.01281794
9762.00   0.32425249   0.01277956
9764.00   0.32796435   0.01234475
9766.00   0.31828631   0.01184996
9768.00   0.31037337   0.01164506
9770.00   0.30862352   0.01166723
9772.00   0.30618136   0.01155908
9774.00   0.30809155   0.01129160
9776.00   0.30793396   0.01148194
9778.00   0.30112351   0.01179559
9780.00   0.28179850   0.01275782
9782.00   0.27449276   0.01472968
9784.00   0.27588488   0.01695200
9786.00   0.27150325   0.01858875
9788.00   0.26722749   0.02026330
9790.00   0.27577541   0.02133928
9792.00   0.29947777   0.02199528
9794.00   0.31340679   0.02208004
9796.00   0.31716804   0.02166144
9798.00   0.31240955   0.02065554
9800.00   0.31020865   0.01968976
9802.00   0.30386224   0.01866099
9804.00   0.30172898   0.01802557
9806.00   0.30421490   0.01783612
9808.00   0.31367519   0.01755463
9810.00   0.31477270   0.01687862
9812.00   0.30702974   0.01574844
9814.00   0.30226232   0.01502409
9816.00   0.28275108   0.01467492
9818.00   0.27545278   0.01451452
9820.00   0.27994403   0.01466326
9822.00   0.29482911   0.01482331
9824.00   0.30972772   0.01492420
9826.00   0.31479871   0.01502677
9828.00   0.30535784   0.01547208
9830.00   0.27946449   0.01593614
9832.00   0.26341145   0.01594709
9834.00   0.24374704   0.01563697
9836.00   0.25105362   0.01540303
9838.00   0.30097446   0.01478748
9840.00   0.33043998   0.01484748
9842.00   0.31840035   0.01585410
9844.00   0.29341878   0.01704825
9846.00   0.28985785   0.01752955
9848.00   0.29458907   0.01774863
9850.00   0.28802052   0.01760784
9852.00   0.27085137   0.01681488
9854.00   0.26498203   0.01613689
9856.00   0.25784496   0.01561076
9858.00   0.23228632   0.01558193
9860.00   0.22583988   0.01606995
9862.00   0.23787518   0.01684445
9864.00   0.25653613   0.01876204
9866.00   0.29370583   0.02203116
9868.00   0.31802207   0.02410412
9870.00   0.30911578   0.02584596
9872.00   0.27478775   0.02707666
9874.00   0.27349536   0.02663311
9876.00   0.29921214   0.02456586
9878.00   0.29829560   0.02264339
9880.00   0.28008022   0.01967853
9882.00   0.26344315   0.01785672
9884.00   0.23804422   0.01751693
9886.00   0.22605657   0.01788482
9888.00   0.23993145   0.01842076
9890.00   0.25949265   0.01919075
9892.00   0.27657284   0.01983510
9894.00   0.30366583   0.02062784
9896.00   0.31472018   0.02090907
9898.00   0.29977058   0.02056073
9900.00   0.28898972   0.02030375
9902.00   0.28736129   0.02003635
9904.00   0.29337508   0.01988488
9906.00   0.29475868   0.02108330
9908.00   0.28568192   0.02328990
9910.00   0.28163438   0.02492493
9912.00   0.29062549   0.02680902
9914.00   0.29201628   0.02765194
9916.00   0.28777909   0.02729269
9918.00   0.30093893   0.02610084
9920.00   0.28998017   0.02438802
9922.00   0.24951929   0.02174622
9924.00   0.24054504   0.02056647
9926.00   0.26100883   0.02098756
9928.00   0.27568023   0.02073510
9930.00   0.29385515   0.01957720
9932.00   0.30720216   0.01950626
9934.00   0.28513013   0.02101065
9936.00   0.25546028   0.02356060
9938.00   0.29570758   0.02756254
9940.00   0.41253051   0.03338296
9942.00   0.44783518   0.03630610
9944.00   0.42742117   0.03720614
9946.00   0.35408363   0.03723009
9948.00   0.23708139   0.03682817
9950.00   0.14213699   0.03596418
9952.00   0.11992291   0.03608064
9954.00   0.13538492   0.03713165
9956.00   0.14406008   0.03803461
9958.00   0.18250568   0.03913164
9960.00   0.23971476   0.03859975
9962.00   0.29947856   0.03729024
9964.00   0.33962321   0.03597826
9966.00   0.31543061   0.03357787
9968.00   0.24173826   0.02950639
9970.00   0.21822919   0.02726246
9972.00   0.21983958   0.02755605
9974.00   0.23733904   0.02709688
9976.00   0.28725573   0.02580878
9978.00   0.32151502   0.02432685
9980.00   0.32228129   0.02330748
9982.00   0.30649847   0.02309658
9984.00   0.30534467   0.02270180
9986.00   0.30540811   0.02209379
9988.00   0.32396096   0.02131467
9990.00   0.36337112   0.02080672
9992.00   0.37462257   0.02118443
9994.00   0.36304608   0.02252590
9996.00   0.32071741   0.02474086
9998.00   0.31030394   0.02582378
10000.00   0.32209550   0.02572813
10002.00   0.38074714   0.02719066
10004.00   0.49709946   0.03022247
10006.00   0.53137986   0.03360868
10008.00   0.45786446   0.03725184
10010.00   0.27907263   0.04188559
10012.00   0.20735405   0.04451702
10014.00   0.22068681   0.04598192
10016.00   0.22943598   0.04478052
10018.00   0.20656301   0.03972879
10020.00   0.16490084   0.03676739
10022.00   0.14141047   0.03659174
10024.00   0.15391362   0.03684627
10026.00   0.19329199   0.03565015
10028.00   0.24613089   0.03365324
10030.00   0.25209595   0.03166268
10032.00   0.21356363   0.02882384
10034.00   0.19682170   0.02735609
10036.00   0.20118048   0.02674435
10038.00   0.25329015   0.02639528
10040.00   0.30946109   0.02637842
10042.00   0.34121740   0.02637216
10044.00   0.34279464   0.02651858
10046.00   0.31811205   0.02724534
10048.00   0.33585558   0.02749971
10050.00   0.35323921   0.02637677
10052.00   0.33224393   0.02569870
10054.00   0.33232018   0.02667733
10056.00   0.34442374   0.02821899
10058.00   0.31610380   0.02925156
10060.00   0.24595894   0.03014776
10062.00   0.24638923   0.03069733
10064.00   0.30982792   0.03106862
10066.00   0.38158254   0.03216781
10068.00   0.44131482   0.03229795
10070.00   0.43254393   0.03106878
10072.00   0.39697225   0.03139464
10074.00   0.34799947   0.03241626
10076.00   0.32759945   0.03414531
10078.00   0.29405203   0.03713001
10080.00   0.25577550   0.03956608
10082.00   0.27312894   0.04084605
10084.00   0.33141851   0.04075810
10086.00   0.33470330   0.03923686
10088.00   0.30196536   0.03568789
10090.00   0.29562026   0.03337588
10092.00   0.33174530   0.03138518
10094.00   0.32353151   0.03095635
10096.00   0.25627075   0.03226932
10098.00   0.15539216   0.03401052
10100.00   0.09182697   0.03425948
10102.00   0.07434598   0.03357731
10104.00   0.09762229   0.03327792
10106.00   0.17729712   0.03305588
10108.00   0.20721058   0.03244737
10110.00   0.20721020   0.03094384
10112.00   0.22135585   0.03082602
10114.00   0.23335424   0.03287123
10116.00   0.27287684   0.03701719
10118.00   0.32647491   0.04053763
10120.00   0.39158787   0.04459751
10122.00   0.39341758   0.04651878
10124.00   0.36158326   0.04751846
10126.00   0.35669113   0.04664419
10128.00   0.33469895   0.04360776
10130.00   0.28021424   0.03938893
10132.00   0.26682373   0.03681202
10134.00   0.28323194   0.03513054
10136.00   0.28414307   0.03541079
10138.00   0.27704827   0.03808435
10140.00   0.26501415   0.04022075
10142.00   0.21258826   0.04230575
10144.00   0.16113566   0.04317049
10146.00   0.18134419   0.04310339
10148.00   0.25174494   0.04245417
10150.00   0.31132366   0.04221478
10152.00   0.41553424   0.04196726
10154.00   0.43552560   0.04192903
10156.00   0.33748586   0.04156321
10158.00   0.21976634   0.04118342
10160.00   0.21299806   0.04168876
10162.00   0.28179434   0.04332628
10164.00   0.30826140   0.04571979
10166.00   0.33617865   0.04898390
10168.00   0.34266929   0.05158806
10170.00   0.30236590   0.05513595
10172.00   0.23629320   0.05717230
10174.00   0.19779752   0.05561738
10176.00   0.17234465   0.05147043
10178.00   0.20165758   0.04923597
10180.00   0.31111120   0.04681702
10182.00   0.37167339   0.04665183
10184.00   0.38266119   0.05028067
10186.00   0.31983674   0.05311944
10188.00   0.23962568   0.05302263
10190.00   0.16867724   0.05092298
10192.00   0.15951381   0.04958640
10194.00   0.21514298   0.04823971
10196.00   0.25540043   0.04783641
10198.00   0.30375715   0.04755234
10200.00   0.29583396   0.04880708
10202.00   0.24353044   0.05182402
10204.00   0.19259341   0.05467521
10206.00   0.20677264   0.05757899
10208.00   0.26801156   0.06104142
10210.00   0.27097725   0.06128116
10212.00   0.22898787   0.05799865
10214.00   0.18696058   0.05578952
10216.00   0.12901272   0.05357595
10218.00   0.09617111   0.05158602
10220.00   0.12370294   0.05143429
10222.00   0.22517992   0.05320164
10224.00   0.25811379   0.05591132
10226.00   0.26144791   0.06062017
10228.00   0.22192908   0.06228341
10230.00   0.11605256   0.06225255
10232.00   0.02602293   0.06066357
10234.00   0.03692848   0.05602502
10236.00   0.10798465   0.04941832
10238.00   0.23570637   0.04713260
10240.00   0.48071408   0.04802476
10242.00   0.57544503   0.04747744
10244.00   0.50731495   0.04661713
10246.00   0.42006515   0.04560596
10248.00   0.30082232   0.04320985
10250.00   0.16596733   0.04076367
10252.00   0.19653579   0.04115844
10254.00   0.35851109   0.04328662
10256.00   0.39561392   0.04496190
10258.00   0.28986971   0.04669631
10260.00   0.29179561   0.04903140
10262.00   0.41255715   0.05228369
10264.00   0.49989924   0.05471805
10266.00   0.50124776   0.05482985
10268.00   0.48159334   0.05344067
10270.00   0.44504762   0.05301467
10272.00   0.36049384   0.05042470
10274.00   0.27911712   0.05435155
10276.00   0.23699936   0.06365180
10278.00   0.19303127   0.07096864
10280.00   0.09841532   0.08142780
10282.00   -0.00990298   0.09955216
10284.00   -0.13940496   0.10820548
10286.00   -0.36411396   0.11351982
10288.00   -0.44867440   0.11288728
10290.00   -0.33700190   0.10658065
10292.00   -0.11539911   0.09661534
10294.00   0.08578993   0.08796264
10296.00   0.26842507   0.08195064
10298.00   0.32050345   0.07615885
10300.00   0.25192089   0.07033803
10302.00   0.20177375   0.06646002
10304.00   0.14449370   0.06629838
10306.00   0.11417448   0.06754039
10308.00   0.11651744   0.06797577
10310.00   0.08260225   0.06737587
10312.00   0.11345433   0.06527949
10314.00   0.30072948   0.06075194
10316.00   0.35631473   0.05932238
10318.00   0.20965130   0.06168694
10320.00   0.11028877   0.06347313
10322.00   0.16960858   0.06332222
10324.00   0.21286035   0.06210013
10326.00   0.22039539   0.06219766
10328.00   0.25027593   0.06287986
10330.00   0.26915494   0.06207527
10332.00   0.26266428   0.05953987
10334.00   0.26430538   0.05878391
10336.00   0.28515979   0.05851163
10338.00   0.35574619   0.05864146
10340.00   0.41304021   0.06127579
10342.00   0.49288954   0.06640275
10344.00   0.57449350   0.06941203
10346.00   0.66982770   0.07208646
10348.00   0.64456819   0.07208973
10350.00   0.52011724   0.06955569
10352.00   0.40682999   0.06651985
10354.00   0.35910730   0.06349291
10356.00   0.45428833   0.06172343
10358.00   0.52394731   0.06084914
10360.00   0.58402842   0.06019203
10362.00   0.56057653   0.06109113
10364.00   0.48485972   0.06303444
10366.00   0.43275864   0.06774180
10368.00   0.37553988   0.07629402
10370.00   0.35660363   0.08448291
10372.00   0.28190578   0.08662817
10374.00   0.12518556   0.08495779
10376.00   0.07565064   0.08170602
10378.00   0.16591229   0.07283534
10380.00   0.17388119   0.06879317
10382.00   0.13128427   0.07001968
10384.00   0.19362125   0.07232693
10386.00   0.32942337   0.07471460
10388.00   0.60768782   0.07752438
10390.00   0.71625355   0.07701485
10392.00   0.67424197   0.07326267
10394.00   0.56678516   0.07105371
10396.00   0.48939563   0.06901498
10398.00   0.55049986   0.06739963
10400.00   0.64486447   0.06707468
10402.00   0.65229432   0.06849107
10404.00   0.65382297   0.06925800
10406.00   0.64325583   0.06936765
10408.00   0.70951805   0.07085535
10410.00   0.87686613   0.07464137
10412.00   0.95822468   0.07832078
10414.00   0.81479180   0.08172526
10416.00   0.48947707   0.08428010
10418.00   0.30522506   0.08307951
10420.00   0.18013100   0.07805902
10422.00   0.27226603   0.07521915
10424.00   0.65599376   0.07398889
10426.00   0.85188156   0.07327960
10428.00   0.92460808   0.07314141
10430.00   0.94771779   0.07365784
10432.00   0.85832879   0.07121723
10434.00   0.65636078   0.06588862
10436.00   0.51740701   0.06208441
10438.00   0.37956900   0.05863965
10440.00   0.28477703   0.05641878
10442.00   0.24289085   0.05662921
10444.00   0.29039020   0.05931956
10446.00   0.39556573   0.06196984
10448.00   0.51653345   0.06438320
10450.00   0.55457366   0.06451107
10452.00   0.52917962   0.06223557
10454.00   0.55111247   0.06109626
10456.00   0.58924007   0.06021572
10458.00   0.63746855   0.06197704
10460.00   0.66466187   0.06607222
10462.00   0.66877651   0.07134535
10464.00   0.73277667   0.07413564
10466.00   0.82825312   0.07598534
10468.00   0.84445864   0.07555851
10470.00   0.80613720   0.07252451
10472.00   0.85882738   0.06952596
10474.00   0.89966437   0.06607761
10476.00   0.87519997   0.06379022
10478.00   0.79228809   0.06479329
10480.00   0.62161289   0.06782488
10482.00   0.55616511   0.06768885
10484.00   0.56948742   0.06513658
10486.00   0.66635899   0.06416535
10488.00   0.81288302   0.06330507
10490.00   0.89814770   0.06247941
10492.00   0.90569878   0.06328859
10494.00   0.88906589   0.06673293
10496.00   0.84441197   0.06823182
10498.00   0.70445383   0.06810776
10500.00   0.65429227   0.06717623
10502.00   0.73148641   0.06669523
10504.00   0.76761925   0.06721031
10506.00   0.74637732   0.06907583
10508.00   0.72663969   0.07133293
10510.00   0.68553115   0.07132939
10512.00   0.61014922   0.06908662
10514.00   0.58435450   0.06851113
10516.00   0.57895885   0.06923459
10518.00   0.56418014   0.07134594
10520.00   0.61016354   0.07351798
10522.00   0.67057654   0.07539504
10524.00   0.67633459   0.07511577
10526.00   0.65663743   0.07232570
10528.00   0.64682707   0.07051757
10530.00   0.60115147   0.06974418
10532.00   0.59966834   0.07061579
10534.00   0.67357785   0.07129702
10536.00   0.73612985   0.07128625
10538.00   0.74747342   0.07176039
10540.00   0.77810043   0.07277005
10542.00   0.78052440   0.07305535
10544.00   0.68230911   0.07129680
10546.00   0.62290904   0.07220151
10548.00   0.69743982   0.07676653
10550.00   0.79427901   0.08033970
10552.00   0.90976346   0.08147491
10554.00   1.09121886   0.08200188
10556.00   1.08384901   0.08220966
10558.00   0.85216248   0.08107190
10560.00   0.72898081   0.08094674
10562.00   0.70623091   0.08227971
10564.00   0.73746425   0.08304262
10566.00   0.77527174   0.08275735
10568.00   0.80502194   0.08243529
10570.00   0.80769804   0.08282114
10572.00   0.78874095   0.08351993
10574.00   0.81066579   0.08461687
10576.00   0.86614269   0.08648727
10578.00   0.88992691   0.08817479
10580.00   0.87287438   0.08924070
10582.00   0.80015191   0.08957451
10584.00   0.80150086   0.08978562
10586.00   0.88492587   0.08974667
10588.00   0.86975342   0.09091536
10590.00   0.66196296   0.09283767
10592.00   0.57057384   0.09452132
10594.00   0.70212103   0.09778028
10596.00   0.91045907   0.10015983
10598.00   0.95575204   0.10090380
10600.00   0.90991819   0.10302286
10602.00   0.89495027   0.10408996
10604.00   0.90700021   0.10309861
10606.00   0.85806584   0.09950920
10608.00   0.76379529   0.09629857
10610.00   0.74538919   0.09486690
10612.00   0.79886425   0.09591785
10614.00   0.90533459   0.09918631
10616.00   0.98857635   0.10089504
10618.00   1.10569829   0.10211757
10620.00   1.09501672   0.10248264
10622.00   0.96987540   0.10213917
10624.00   0.95689420   0.10264452
10626.00   0.94431776   0.10298990
10628.00   0.80518654   0.10210310
10630.00   0.82298648   0.10225138
10632.00   0.98352167   0.10313095
10634.00   1.07364464   0.10363332
10636.00   1.06815383   0.10368876
10638.00   1.08410233   0.10433032
10640.00   1.12128508   0.10477560
10642.00   1.09088004   0.10411868
10644.00   0.98587704   0.10301813
10646.00   0.80494338   0.10130522
10648.00   0.71590976   0.10023296
10650.00   0.66341472   0.09933861
10652.00   0.67660208   0.09901324
10654.00   0.75740406   0.09898294
10656.00   0.86541247   0.09895018
10658.00   0.95413867   0.09869740
10660.00   1.03904352   0.09861630
10662.00   1.05170557   0.09983022
10664.00   0.97245374   0.10417485
10666.00   0.93663651   0.10358004
10668.00   0.93898430   0.09866498
10670.00   0.94192174   0.09429408
10672.00   0.93702522   0.09243674
10674.00   0.92670313   0.09158753
10676.00   0.93209383   0.09160384
10678.00   0.96768388   0.09433377
10680.00   1.00675932   0.09501208
10682.00   1.00572243   0.09144356
10684.00   0.93579593   0.08522266
10686.00   0.86991161   0.08218943
10688.00   0.79003939   0.08141920
10690.00   0.72085983   0.07995678
10692.00   0.63959655   0.07902130
10694.00   0.61126383   0.07793475
10696.00   0.64459574   0.07627625
10698.00   0.69569147   0.07403079
10700.00   0.73103797   0.07237820
10702.00   0.76761591   0.07140786
10704.00   0.77089354   0.07020012
10706.00   0.72019154   0.06884363
10708.00   0.68911201   0.06734947
10710.00   0.70017454   0.06606101
10712.00   0.71417981   0.06440916
10714.00   0.65770338   0.06177013
10716.00   0.61720824   0.05942357
10718.00   0.65588824   0.05839280
10720.00   0.73223087   0.05833424
10722.00   0.75819287   0.05705554
10724.00   0.77528799   0.05453250
10726.00   0.76924095   0.05249344
10728.00   0.67981112   0.05111310
10730.00   0.54989195   0.05001209
10732.00   0.52432960   0.04969745
10734.00   0.56367326   0.05064467
10736.00   0.58214417   0.04974283
10738.00   0.62235059   0.04665524
10740.00   0.63156176   0.04499218
10742.00   0.56794129   0.04555974
10744.00   0.50729574   0.04669350
10746.00   0.50410207   0.04741284
10748.00   0.55762777   0.04841020
10750.00   0.58176278   0.04664482
10752.00   0.58939505   0.04125938
10754.00   0.57040627   0.03759061
10756.00   0.53296322   0.03672669
10758.00   0.53105032   0.03692620
10760.00   0.58464000   0.03661592
10762.00   0.65383846   0.03652947
10764.00   0.64490500   0.03572617
10766.00   0.59072463   0.03393230
10768.00   0.59452331   0.03383507
10770.00   0.66411781   0.03621970
10772.00   0.68730256   0.03742049
10774.00   0.63284141   0.03725166
10776.00   0.48829989   0.03597257
10778.00   0.41723996   0.03406459
10780.00   0.41169384   0.03198174
10782.00   0.42797311   0.03079324
10784.00   0.48425138   0.03031580
10786.00   0.50264011   0.02879800
10788.00   0.48636149   0.02723622
10790.00   0.47196682   0.02617020
10792.00   0.46136175   0.02556247
10794.00   0.41784021   0.02572459
10796.00   0.43793882   0.02614790
10798.00   0.53460161   0.02726623
10800.00   0.58887580   0.02701560
10802.00   0.57819974   0.02569628
10804.00   0.55285144   0.02452673
10806.00   0.53441592   0.02331162
10808.00   0.47848299   0.02265562
10810.00   0.41428445   0.02294759
10812.00   0.32632206   0.02376938
10814.00   0.30841152   0.02465210
10816.00   0.34250971   0.02677354
10818.00   0.41422174   0.02805309
10820.00   0.49598370   0.02754669
10822.00   0.53730792   0.02627038
10824.00   0.58480853   0.02593450
10826.00   0.66824368   0.02612934
10828.00   0.67125896   0.02611637
10830.00   0.54998702   0.02576757
10832.00   0.44739935   0.02570736
10834.00   0.41455008   0.02624425
10836.00   0.44594713   0.02658593
10838.00   0.51406038   0.02637260
10840.00   0.61880514   0.02571324
10842.00   0.62095195   0.02468178
10844.00   0.51102586   0.02259989
10846.00   0.47362831   0.02139115
10848.00   0.49825102   0.02124290
10850.00   0.56161356   0.02247860
10852.00   0.58955382   0.02372725
10854.00   0.52555437   0.02453560
10856.00   0.49599877   0.02440943
10858.00   0.49025646   0.02347987
10860.00   0.48301134   0.02238597
10862.00   0.40946375   0.02040861
10864.00   0.39725600   0.01945956
10866.00   0.48896296   0.01987972
10868.00   0.65193869   0.02072243
10870.00   0.69409928   0.02084945
10872.00   0.65052018   0.02081874
10874.00   0.58843523   0.02024261
10876.00   0.48752263   0.01859567
10878.00   0.44060040   0.01728252
10880.00   0.46070133   0.01693491
10882.00   0.52032965   0.01699668
10884.00   0.56281772   0.01702722
10886.00   0.63161689   0.01772917
10888.00   0.61140560   0.01786911
10890.00   0.45324981   0.01739098
10892.00   0.35731263   0.01626533
10894.00   0.38608342   0.01528708
10896.00   0.45195098   0.01456308
10898.00   0.44072746   0.01414886
10900.00   0.44072746   0.01414886
