# File created by shivutils (I.Shivvers)
# wl(A)   flm    er(optional)
3650.00   0.26169041   0.05614853
3652.00   0.24385819   0.05012427
3654.00   0.17432101   0.04562703
3656.00   0.19288146   0.04072191
3658.00   0.15570083   0.03575786
3660.00   0.19553445   0.03956402
3662.00   0.19800946   0.04254809
3664.00   0.22304796   0.03984019
3666.00   0.25429294   0.03392448
3668.00   0.23495500   0.03234775
3670.00   0.22553584   0.03242562
3672.00   0.21026573   0.03155448
3674.00   0.23286635   0.03108850
3676.00   0.26334780   0.03126033
3678.00   0.20967560   0.02990293
3680.00   0.19707856   0.02956524
3682.00   0.28604028   0.03062304
3684.00   0.28917760   0.03026051
3686.00   0.21645685   0.02917254
3688.00   0.24199782   0.02962564
3690.00   0.16287610   0.02867509
3692.00   0.23410159   0.02961888
3694.00   0.23411480   0.02922489
3696.00   0.18045621   0.02888452
3698.00   0.26044977   0.03124035
3700.00   0.28046539   0.03110877
3702.00   0.18856399   0.02968621
3704.00   0.19877651   0.02967853
3706.00   0.20418465   0.02859521
3708.00   0.19764313   0.02841398
3710.00   0.15970185   0.02762501
3712.00   0.18735853   0.02778314
3714.00   0.17364787   0.02751311
3716.00   0.16422470   0.02693588
3718.00   0.19586915   0.02739655
3720.00   0.17519213   0.02706533
3722.00   0.10852980   0.02586592
3724.00   0.13643353   0.02628820
3726.00   0.16201194   0.02716797
3728.00   0.15250792   0.02695264
3730.00   0.12526670   0.02685508
3732.00   0.15003955   0.02700267
3734.00   0.15609482   0.02683312
3736.00   0.17444403   0.02727930
3738.00   0.16239159   0.02767478
3740.00   0.14180724   0.02732532
3742.00   0.16727127   0.02705673
3744.00   0.15027390   0.02649329
3746.00   0.17198476   0.02679509
3748.00   0.13052650   0.02586477
3750.00   0.17544623   0.02609778
3752.00   0.19118910   0.02577882
3754.00   0.09550872   0.02423249
3756.00   0.13254052   0.02465886
3758.00   0.16197135   0.02467129
3760.00   0.17486387   0.02433917
3762.00   0.16748187   0.02397312
3764.00   0.18553023   0.02408073
3766.00   0.11630736   0.02281076
3768.00   0.12200079   0.02282944
3770.00   0.15230703   0.02371037
3772.00   0.17864969   0.02428967
3774.00   0.18034111   0.02424813
3776.00   0.13100918   0.02310963
3778.00   0.16437256   0.02324221
3780.00   0.10453059   0.02251910
3782.00   0.13593265   0.02296452
3784.00   0.14901632   0.02299524
3786.00   0.12536867   0.02216752
3788.00   0.11546323   0.02251242
3790.00   0.14582114   0.02321617
3792.00   0.18474214   0.02342612
3794.00   0.15622769   0.02264441
3796.00   0.13181569   0.02167079
3798.00   0.16162533   0.02236425
3800.00   0.14459282   0.02231736
3802.00   0.14800005   0.02251914
3804.00   0.13913848   0.02154829
3806.00   0.16172348   0.02142326
3808.00   0.16324034   0.02140549
3810.00   0.15126257   0.02175144
3812.00   0.15761325   0.02181418
3814.00   0.16242078   0.02185434
3816.00   0.14038143   0.02134923
3818.00   0.14944242   0.02149923
3820.00   0.15800612   0.02155603
3822.00   0.16813257   0.02152739
3824.00   0.13986149   0.02106658
3826.00   0.20496096   0.02248084
3828.00   0.16370554   0.02314839
3830.00   0.10247015   0.02223151
3832.00   0.16312937   0.02234194
3834.00   0.19770090   0.02220403
3836.00   0.15124078   0.02155728
3838.00   0.16083321   0.02157983
3840.00   0.15959638   0.02147454
3842.00   0.16822878   0.02134064
3844.00   0.20014259   0.02135890
3846.00   0.18338265   0.02094445
3848.00   0.18967029   0.02050539
3850.00   0.23623891   0.02118561
3852.00   0.20849645   0.02075982
3854.00   0.22542349   0.02076992
3856.00   0.22590742   0.02033483
3858.00   0.21777885   0.02019414
3860.00   0.23743300   0.02093819
3862.00   0.23102829   0.02074122
3864.00   0.24563742   0.02096206
3866.00   0.26220459   0.02074220
3868.00   0.30198652   0.02121708
3870.00   0.25996256   0.02052767
3872.00   0.27613568   0.02156609
3874.00   0.26726955   0.02170739
3876.00   0.26524249   0.02092982
3878.00   0.30809212   0.02097240
3880.00   0.30208609   0.02066991
3882.00   0.28491089   0.02040943
3884.00   0.31052867   0.02073926
3886.00   0.32194996   0.02084005
3888.00   0.33653489   0.02074529
3890.00   0.36550471   0.02124067
3892.00   0.33422330   0.02075413
3894.00   0.35491276   0.02136088
3896.00   0.40554315   0.02191447
3898.00   0.37882113   0.02161842
3900.00   0.36404631   0.02180123
3902.00   0.41420108   0.02266794
3904.00   0.40502071   0.02408427
3906.00   0.47316960   0.02672661
3908.00   0.41871122   0.02683918
3910.00   0.50425643   0.02756157
3912.00   0.43353656   0.02658229
3914.00   0.44494089   0.02506673
3916.00   0.44320861   0.02387116
3918.00   0.47802815   0.02354756
3920.00   0.46494073   0.02283524
3922.00   0.47738966   0.02267387
3924.00   0.48990285   0.02278157
3926.00   0.49045408   0.02254429
3928.00   0.45050207   0.02210811
3930.00   0.43493530   0.02238468
3932.00   0.43732280   0.02261726
3934.00   0.44021994   0.02223248
3936.00   0.44702148   0.02160481
3938.00   0.47694236   0.02221659
3940.00   0.46690664   0.02257521
3942.00   0.51606387   0.02382622
3944.00   0.49296635   0.02363028
3946.00   0.47785804   0.02267030
3948.00   0.51219040   0.02242772
3950.00   0.49905640   0.02204771
3952.00   0.47994038   0.02154456
3954.00   0.48231986   0.02110762
3956.00   0.50918198   0.02167647
3958.00   0.49963114   0.02229586
3960.00   0.51181912   0.02294405
3962.00   0.56121713   0.02317791
3964.00   0.51596600   0.02179508
3966.00   0.47113088   0.02089238
3968.00   0.51362777   0.02102982
3970.00   0.52066481   0.02144546
3972.00   0.53191239   0.02161404
3974.00   0.50879264   0.02154389
3976.00   0.53843492   0.02159555
3978.00   0.49957129   0.02118362
3980.00   0.51535207   0.02135148
3982.00   0.50139844   0.02094891
3984.00   0.49099559   0.02075636
3986.00   0.46522498   0.02035143
3988.00   0.44700134   0.02019716
3990.00   0.45068431   0.02015685
3992.00   0.42511147   0.02007227
3994.00   0.43095484   0.02109478
3996.00   0.42899764   0.02164147
3998.00   0.41382375   0.02081871
4000.00   0.42398190   0.02034299
4002.00   0.41049433   0.01999362
4004.00   0.38342795   0.01964944
4006.00   0.42346787   0.02052321
4008.00   0.37710786   0.02050718
4010.00   0.40387827   0.02080855
4012.00   0.39311665   0.02068389
4014.00   0.39241809   0.02027637
4016.00   0.39073792   0.02090897
4018.00   0.39856112   0.02318916
4020.00   0.39838740   0.02456326
4022.00   0.35388362   0.02437821
4024.00   0.40486667   0.02366436
4026.00   0.33408231   0.02146555
4028.00   0.37508169   0.02121262
4030.00   0.38627759   0.02127760
4032.00   0.38356212   0.02086566
4034.00   0.35041520   0.02037410
4036.00   0.36305109   0.02005544
4038.00   0.39247915   0.02015855
4040.00   0.40686935   0.02063511
4042.00   0.39055347   0.02452795
4044.00   0.44375768   0.03649583
4046.00   0.45188725   0.04022985
4048.00   0.40977669   0.03178161
4050.00   0.43066472   0.02365902
4052.00   0.39761478   0.02195212
4054.00   0.42491606   0.02215092
4056.00   0.43743581   0.02136881
4058.00   0.43452731   0.02074499
4060.00   0.43681470   0.02037437
4062.00   0.45757714   0.02046430
4064.00   0.46229517   0.02047114
4066.00   0.43307334   0.02029292
4068.00   0.49017087   0.02064735
4070.00   0.48410225   0.02014117
4072.00   0.47730371   0.02017539
4074.00   0.52018172   0.02174023
4076.00   0.51792717   0.02379576
4078.00   0.52084857   0.02387545
4080.00   0.51397288   0.02265138
4082.00   0.54474276   0.02243221
4084.00   0.50360841   0.02175632
4086.00   0.52990580   0.02152208
4088.00   0.51457065   0.02043366
4090.00   0.54110235   0.01993898
4092.00   0.50364679   0.01953713
4094.00   0.53551370   0.01974766
4096.00   0.48927069   0.01940733
4098.00   0.56288922   0.02014497
4100.00   0.53556645   0.01973365
4102.00   0.53677458   0.01923777
4104.00   0.55433798   0.01946775
4106.00   0.56009293   0.01952678
4108.00   0.57064342   0.01977756
4110.00   0.58462608   0.01982844
4112.00   0.57320917   0.01973790
4114.00   0.56986761   0.01971263
4116.00   0.59407890   0.01957564
4118.00   0.63623601   0.01967395
4120.00   0.61853915   0.01945330
4122.00   0.61373985   0.01958916
4124.00   0.59384072   0.01957725
4126.00   0.57408267   0.01945490
4128.00   0.59489900   0.01971389
4130.00   0.58034372   0.02029354
4132.00   0.57241106   0.02038800
4134.00   0.58104432   0.02025491
4136.00   0.61981702   0.02026407
4138.00   0.56431109   0.02025366
4140.00   0.58463210   0.02031957
4142.00   0.62212008   0.01989230
4144.00   0.61700583   0.01968808
4146.00   0.61692357   0.01958720
4148.00   0.62377089   0.01973428
4150.00   0.62278283   0.02047656
4152.00   0.56259984   0.02030028
4154.00   0.60769290   0.02013978
4156.00   0.58468056   0.01964749
4158.00   0.55761790   0.01946616
4160.00   0.58750898   0.01975537
4162.00   0.59174228   0.02073660
4164.00   0.58730906   0.02113678
4166.00   0.64110124   0.02092861
4168.00   0.58997053   0.01997404
4170.00   0.59426606   0.01966234
4172.00   0.60364878   0.01933154
4174.00   0.60453767   0.01917491
4176.00   0.58049494   0.01910920
4178.00   0.61787403   0.01942820
4180.00   0.57380503   0.01888218
4182.00   0.61903572   0.01914284
4184.00   0.60295504   0.01896118
4186.00   0.61221790   0.01906843
4188.00   0.61574268   0.01899047
4190.00   0.62004364   0.01908868
4192.00   0.63149095   0.01912840
4194.00   0.59688926   0.01873480
4196.00   0.65314716   0.01892532
4198.00   0.59784847   0.01851390
4200.00   0.61882991   0.01868024
4202.00   0.61255944   0.01869658
4204.00   0.66899848   0.01929718
4206.00   0.65871543   0.01929398
4208.00   0.63464242   0.01937186
4210.00   0.60248649   0.01916676
4212.00   0.59342104   0.01898870
4214.00   0.61646849   0.01901050
4216.00   0.62036335   0.01899691
4218.00   0.61865854   0.01893285
4220.00   0.64457083   0.01899193
4222.00   0.66952765   0.01915915
4224.00   0.63510925   0.01891125
4226.00   0.62763208   0.01887608
4228.00   0.63126117   0.01895149
4230.00   0.62438405   0.01917852
4232.00   0.62535518   0.01923248
4234.00   0.62874687   0.01940220
4236.00   0.60132450   0.01936470
4238.00   0.64363867   0.01952923
4240.00   0.58520192   0.01871055
4242.00   0.60521626   0.01904041
4244.00   0.61255699   0.02081385
4246.00   0.63201267   0.02136349
4248.00   0.58878034   0.02002510
4250.00   0.55717146   0.01871971
4252.00   0.57873446   0.01851240
4254.00   0.60306424   0.01880955
4256.00   0.56828463   0.01857592
4258.00   0.55163491   0.01832628
4260.00   0.60159022   0.01841213
4262.00   0.57230288   0.01820057
4264.00   0.56877327   0.01819975
4266.00   0.55493611   0.01809868
4268.00   0.55651206   0.01805125
4270.00   0.55250680   0.01808848
4272.00   0.58005232   0.01822526
4274.00   0.56608766   0.01823047
4276.00   0.56055778   0.01823300
4278.00   0.52040195   0.01794172
4280.00   0.55010951   0.01828856
4282.00   0.55105740   0.01826671
4284.00   0.54074693   0.01815130
4286.00   0.52449018   0.01793053
4288.00   0.54684347   0.01799756
4290.00   0.54428613   0.01786494
4292.00   0.49852553   0.01770082
4294.00   0.51225132   0.01783103
4296.00   0.50759447   0.01767864
4298.00   0.51541913   0.01767939
4300.00   0.49906361   0.01742590
4302.00   0.50403094   0.01753632
4304.00   0.49958816   0.01765075
4306.00   0.49274775   0.01762950
4308.00   0.50285774   0.01773071
4310.00   0.45375642   0.01789335
4312.00   0.46796146   0.01885832
4314.00   0.43693978   0.01883707
4316.00   0.44854507   0.01819237
4318.00   0.45170808   0.01841926
4320.00   0.42979401   0.01830464
4322.00   0.41520709   0.01801514
4324.00   0.44390115   0.01815549
4326.00   0.44950357   0.01755488
4328.00   0.41844916   0.01695712
4330.00   0.41018626   0.01684080
4332.00   0.39941311   0.01677376
4334.00   0.44323787   0.01711323
4336.00   0.42922738   0.01734899
4338.00   0.41712376   0.01757777
4340.00   0.42291531   0.01760169
4342.00   0.42565539   0.01767434
4344.00   0.46588939   0.01852704
4346.00   0.45392266   0.01887363
4348.00   0.43662214   0.01865499
4350.00   0.46650794   0.01846572
4352.00   0.43344089   0.01841362
4354.00   0.40399957   0.02555871
4356.00   0.46487418   0.03673632
4358.00   0.47978479   0.03902737
4360.00   0.42691797   0.03064176
4362.00   0.45029134   0.02321527
4364.00   0.47857186   0.01967212
4366.00   0.49553701   0.01895136
4368.00   0.41788441   0.01824453
4370.00   0.43128559   0.01837460
4372.00   0.43583712   0.01887743
4374.00   0.47523347   0.01916848
4376.00   0.44569990   0.01850138
4378.00   0.44685328   0.01810098
4380.00   0.42013705   0.01759600
4382.00   0.45866591   0.01774902
4384.00   0.48062444   0.01786299
4386.00   0.47394234   0.01766539
4388.00   0.46546897   0.01775170
4390.00   0.45636097   0.01770650
4392.00   0.46916908   0.01770628
4394.00   0.49435568   0.01774112
4396.00   0.49697876   0.01786470
4398.00   0.44200575   0.01798055
4400.00   0.48679921   0.01833023
4402.00   0.45721343   0.01797023
4404.00   0.46933436   0.01779376
4406.00   0.48252636   0.01781388
4408.00   0.52461994   0.01810020
4410.00   0.46355036   0.01777517
4412.00   0.45902589   0.01806323
4414.00   0.50465262   0.01854751
4416.00   0.48775509   0.01825816
4418.00   0.49409622   0.01809062
4420.00   0.50531965   0.01802560
4422.00   0.50992137   0.01801210
4424.00   0.52739829   0.01794816
4426.00   0.50544399   0.01778224
4428.00   0.52886474   0.01797936
4430.00   0.51722884   0.01785092
4432.00   0.51871288   0.01785872
4434.00   0.51536822   0.01785685
4436.00   0.53519350   0.01797121
4438.00   0.54577351   0.01794971
4440.00   0.54052413   0.01792853
4442.00   0.55828404   0.01800965
4444.00   0.55502176   0.01787418
4446.00   0.55664027   0.01798218
4448.00   0.52246302   0.01768850
4450.00   0.54624796   0.01783511
4452.00   0.55809516   0.01783860
4454.00   0.54568177   0.01783075
4456.00   0.59163743   0.01801142
4458.00   0.52630931   0.01762420
4460.00   0.57866454   0.01802622
4462.00   0.57695758   0.01796230
4464.00   0.58457404   0.01789871
4466.00   0.57906467   0.01788019
4468.00   0.59700245   0.01788385
4470.00   0.61289638   0.01800335
4472.00   0.57854420   0.01785070
4474.00   0.59369844   0.01794595
4476.00   0.57954603   0.01787479
4478.00   0.60030597   0.01781933
4480.00   0.62361461   0.01796108
4482.00   0.66428262   0.01827224
4484.00   0.64295053   0.01814321
4486.00   0.66645533   0.01825917
4488.00   0.66680491   0.01835632
4490.00   0.69881731   0.01855460
4492.00   0.69392848   0.01866920
4494.00   0.69331342   0.01865916
4496.00   0.74213773   0.01886858
4498.00   0.71104199   0.01866055
4500.00   0.69934648   0.01851855
4502.00   0.72541016   0.01860194
4504.00   0.75249857   0.01863693
4506.00   0.78317791   0.01881694
4508.00   0.77647388   0.01863686
4510.00   0.78765422   0.01872804
4512.00   0.81528449   0.01882249
4514.00   0.80187780   0.01869316
4516.00   0.82408285   0.01876236
4518.00   0.81867856   0.01868384
4520.00   0.82586551   0.01862923
4522.00   0.82603204   0.01865437
4524.00   0.85291833   0.01872114
4526.00   0.88443202   0.01880622
4528.00   0.89222181   0.01896089
4530.00   0.88702732   0.01893810
4532.00   0.90397865   0.01904114
4534.00   0.89431149   0.01893222
4536.00   0.87920350   0.01863120
4538.00   0.89963710   0.01873667
4540.00   0.89411485   0.01883217
4542.00   0.93729514   0.01909062
4544.00   0.90658695   0.01890957
4546.00   0.89675403   0.01862479
4548.00   0.92330486   0.01864175
4550.00   0.91004342   0.01847576
4552.00   0.92251074   0.01848469
4554.00   0.92534620   0.01850350
4556.00   0.94142312   0.01862597
4558.00   0.96820033   0.01864238
4560.00   0.95753014   0.01854578
4562.00   0.94657147   0.01838429
4564.00   0.91938174   0.01815271
4566.00   0.91822356   0.01812880
4568.00   0.98328871   0.01838797
4570.00   0.95343965   0.01830108
4572.00   0.94873744   0.01828031
4574.00   0.94489598   0.01823436
4576.00   0.95652366   0.01827176
4578.00   0.93927485   0.01802480
4580.00   0.98470747   0.01854825
4582.00   0.94490844   0.01850825
4584.00   0.94154346   0.01783316
4586.00   0.92564249   0.01777812
4588.00   0.92736721   0.01776601
4590.00   0.93220323   0.01775071
4592.00   0.93053025   0.01774143
4594.00   0.92416066   0.01772142
4596.00   0.89891183   0.01755250
4598.00   0.90307307   0.01745995
4600.00   0.95045745   0.01763695
4602.00   0.92437989   0.01740280
4604.00   0.94040513   0.01746782
4606.00   0.91724122   0.01747060
4608.00   0.92495757   0.01741228
4610.00   0.92162472   0.01739827
4612.00   0.92810768   0.01736168
4614.00   0.94080573   0.01732192
4616.00   0.97273833   0.01740976
4618.00   0.96398145   0.01736684
4620.00   0.96358085   0.01738645
4622.00   0.95707911   0.01731386
4624.00   0.98529911   0.01743512
4626.00   0.93818754   0.01718736
4628.00   0.94716322   0.01721634
4630.00   0.96545380   0.01727891
4632.00   0.99417865   0.01744513
4634.00   0.99847060   0.01742168
4636.00   0.97230750   0.01727090
4638.00   0.98879236   0.01736186
4640.00   0.99977010   0.01733286
4642.00   1.00090861   0.01734998
4644.00   0.96996891   0.01720701
4646.00   0.98433852   0.01726834
4648.00   0.97363901   0.01718757
4650.00   0.96009248   0.01721062
4652.00   0.98594731   0.01732141
4654.00   0.99288291   0.01738292
4656.00   0.96705908   0.01734879
4658.00   0.98283345   0.01748187
4660.00   0.96345472   0.01744997
4662.00   0.95505255   0.01752188
4664.00   0.89773107   0.01734440
4666.00   0.89321399   0.01751572
4668.00   0.95021033   0.01780775
4670.00   0.93067765   0.01773466
4672.00   0.90365851   0.01746757
4674.00   0.91593540   0.01730870
4676.00   0.87639588   0.01699701
4678.00   0.87810153   0.01681165
4680.00   0.86779326   0.01669439
4682.00   0.84346813   0.01642419
4684.00   0.82685184   0.01625627
4686.00   0.80723172   0.01607805
4688.00   0.82564986   0.01610437
4690.00   0.82158065   0.01604509
4692.00   0.79602611   0.01585232
4694.00   0.77941751   0.01571929
4696.00   0.75367063   0.01554109
4698.00   0.77838260   0.01563045
4700.00   0.76166487   0.01556128
4702.00   0.75786906   0.01554794
4704.00   0.77106434   0.01569982
4706.00   0.77277881   0.01579653
4708.00   0.76381880   0.01577766
4710.00   0.79135042   0.01588265
4712.00   0.76033670   0.01565936
4714.00   0.76526111   0.01557603
4716.00   0.77390271   0.01550349
4718.00   0.80696344   0.01569168
4720.00   0.75915158   0.01539888
4722.00   0.75693601   0.01541043
4724.00   0.78301132   0.01560224
4726.00   0.78127772   0.01607268
4728.00   0.76493162   0.01627685
4730.00   0.77961421   0.01637862
4732.00   0.75974333   0.01635404
4734.00   0.77366549   0.01658109
4736.00   0.75987405   0.01663380
4738.00   0.77392626   0.01697365
4740.00   0.72440559   0.01712582
4742.00   0.76414567   0.01721494
4744.00   0.73773223   0.01661409
4746.00   0.73977345   0.01600202
4748.00   0.69415629   0.01537277
4750.00   0.68399602   0.01530334
4752.00   0.70013356   0.01537856
4754.00   0.65316725   0.01488590
4756.00   0.67064232   0.01470544
4758.00   0.67097479   0.01451803
4760.00   0.64064431   0.01426082
4762.00   0.63089883   0.01419294
4764.00   0.62369168   0.01411833
4766.00   0.65574831   0.01420567
4768.00   0.67410040   0.01430560
4770.00   0.63440943   0.01403770
4772.00   0.66305089   0.01420812
4774.00   0.66116095   0.01427995
4776.00   0.66387439   0.01451679
4778.00   0.64558983   0.01451607
4780.00   0.63254958   0.01436357
4782.00   0.65866262   0.01438942
4784.00   0.64189059   0.01409866
4786.00   0.64304358   0.01407119
4788.00   0.65216607   0.01416946
4790.00   0.63178164   0.01408543
4792.00   0.67446160   0.01425561
4794.00   0.64398801   0.01408941
4796.00   0.64908713   0.01401827
4798.00   0.67424959   0.01413235
4800.00   0.64667928   0.01407347
4802.00   0.65745026   0.01403079
4804.00   0.66730142   0.01419117
4806.00   0.65081930   0.01414844
4808.00   0.65593421   0.01422018
4810.00   0.69841111   0.01436514
4812.00   0.70009148   0.01444222
4814.00   0.67237300   0.01428658
4816.00   0.68235970   0.01442113
4818.00   0.72856504   0.01465110
4820.00   0.68638754   0.01451911
4822.00   0.70367807   0.01465064
4824.00   0.73257494   0.01486335
4826.00   0.70745635   0.01474026
4828.00   0.70037192   0.01472850
4830.00   0.68135351   0.01464549
4832.00   0.69781637   0.01474794
4834.00   0.68731230   0.01462255
4836.00   0.68060213   0.01465768
4838.00   0.65807849   0.01461902
4840.00   0.65566158   0.01461084
4842.00   0.64138347   0.01437335
4844.00   0.61804217   0.01418580
4846.00   0.62077403   0.01428056
4848.00   0.65194398   0.01430977
4850.00   0.62008399   0.01410874
4852.00   0.60672402   0.01402488
4854.00   0.58356243   0.01373792
4856.00   0.58990741   0.01376443
4858.00   0.61652440   0.01396098
4860.00   0.57164675   0.01369479
4862.00   0.61432445   0.01404512
4864.00   0.58797979   0.01383778
4866.00   0.59611267   0.01385523
4868.00   0.56233376   0.01364301
4870.00   0.56871390   0.01357517
4872.00   0.55482823   0.01355223
4874.00   0.54631668   0.01345333
4876.00   0.55734235   0.01354619
4878.00   0.54731637   0.01353663
4880.00   0.53438646   0.01345076
4882.00   0.56982869   0.01353989
4884.00   0.59170789   0.01365128
4886.00   0.59003693   0.01360983
4888.00   0.58265042   0.01353521
4890.00   0.56341475   0.01336660
4892.00   0.54415429   0.01331270
4894.00   0.55178499   0.01327447
4896.00   0.56370813   0.01333560
4898.00   0.54039723   0.01317367
4900.00   0.57303989   0.01334474
4902.00   0.53904420   0.01315974
4904.00   0.56390059   0.01334602
4906.00   0.57268453   0.01343498
4908.00   0.58665478   0.01359795
4910.00   0.54727948   0.01327066
4912.00   0.55550003   0.01337093
4914.00   0.56460565   0.01346342
4916.00   0.60504693   0.01360745
4918.00   0.59142643   0.01355842
4920.00   0.60658962   0.01364082
4922.00   0.60965717   0.01372550
4924.00   0.62677819   0.01377183
4926.00   0.62237209   0.01359424
4928.00   0.63649201   0.01363535
4930.00   0.64596236   0.01367259
4932.00   0.66885835   0.01385214
4934.00   0.69291997   0.01405822
4936.00   0.67907333   0.01401548
4938.00   0.68865490   0.01408841
4940.00   0.69724530   0.01413943
4942.00   0.71813697   0.01417730
4944.00   0.74881327   0.01431060
4946.00   0.74866301   0.01423609
4948.00   0.71630359   0.01411593
4950.00   0.74012107   0.01439252
4952.00   0.75443947   0.01461901
4954.00   0.74118316   0.01448116
4956.00   0.75267673   0.01452071
4958.00   0.76338631   0.01455545
4960.00   0.74701184   0.01446259
4962.00   0.75932562   0.01452080
4964.00   0.76440912   0.01460815
4966.00   0.78917223   0.01481065
4968.00   0.77166587   0.01485923
4970.00   0.79301918   0.01522812
4972.00   0.72820848   0.01521814
4974.00   0.75931960   0.01560295
4976.00   0.72812521   0.01590099
4978.00   0.72471297   0.01630263
4980.00   0.71987075   0.01668043
4982.00   0.71444654   0.01679001
4984.00   0.71981668   0.01666293
4986.00   0.70656574   0.01628469
4988.00   0.71743703   0.01599423
4990.00   0.68766838   0.01555643
4992.00   0.70054018   0.01524330
4994.00   0.70503050   0.01490571
4996.00   0.68524641   0.01453894
4998.00   0.67263085   0.01433186
5000.00   0.68025267   0.01424260
5002.00   0.67371953   0.01409817
5004.00   0.65361875   0.01397427
5006.00   0.68124545   0.01403391
5008.00   0.69692856   0.01398877
5010.00   0.68259317   0.01380695
5012.00   0.70976520   0.01393382
5014.00   0.67922252   0.01386445
5016.00   0.66626036   0.01392851
5018.00   0.68323451   0.01415803
5020.00   0.69115227   0.01416999
5022.00   0.70365065   0.01405668
5024.00   0.71014899   0.01400928
5026.00   0.67449963   0.01389020
5028.00   0.70498401   0.01412149
5030.00   0.71065629   0.01413392
5032.00   0.70332956   0.01411885
5034.00   0.70169657   0.01394700
5036.00   0.72772020   0.01407642
5038.00   0.72768253   0.01399696
5040.00   0.70277357   0.01382436
5042.00   0.71099728   0.01389884
5044.00   0.72843367   0.01405067
5046.00   0.73947674   0.01406231
5048.00   0.76579249   0.01426411
5050.00   0.74856377   0.01421794
5052.00   0.75804389   0.01418534
5054.00   0.74991786   0.01412967
5056.00   0.74996555   0.01418198
5058.00   0.77720809   0.01433598
5060.00   0.77841538   0.01449727
5062.00   0.79696196   0.01473698
5064.00   0.81060660   0.01492005
5066.00   0.77654839   0.01498071
5068.00   0.77167052   0.01514596
5070.00   0.77138948   0.01504795
5072.00   0.79383850   0.01496189
5074.00   0.80229038   0.01496736
5076.00   0.82104558   0.01504120
5078.00   0.80058014   0.01549087
5080.00   0.82921863   0.01645936
5082.00   0.81645209   0.01707913
5084.00   0.79626912   0.01722120
5086.00   0.82971424   0.01710805
5088.00   0.86060119   0.01654403
5090.00   0.85584033   0.01587674
5092.00   0.85732174   0.01547370
5094.00   0.83411103   0.01527921
5096.00   0.87976170   0.01568344
5098.00   0.87743914   0.01576226
5100.00   0.89443874   0.01574224
5102.00   0.90921074   0.01549266
5104.00   0.91072315   0.01531975
5106.00   0.93258399   0.01531971
5108.00   0.94056225   0.01529021
5110.00   0.95416868   0.01536554
5112.00   0.93311113   0.01537674
5114.00   0.95173454   0.01549778
5116.00   0.97687387   0.01562938
5118.00   1.00303924   0.01556393
5120.00   0.97524887   0.01530732
5122.00   0.98977631   0.01543627
5124.00   0.99825823   0.01539563
5126.00   1.00842440   0.01546528
5128.00   1.01207888   0.01549158
5130.00   1.03931963   0.01559088
5132.00   1.02560759   0.01552013
5134.00   1.02931249   0.01557706
5136.00   1.03316593   0.01560698
5138.00   1.05096698   0.01564893
5140.00   1.07691455   0.01582694
5142.00   1.02781272   0.01563819
5144.00   1.08665693   0.01597462
5146.00   1.10423195   0.01620477
5148.00   1.09534550   0.01633518
5150.00   1.12018156   0.01665625
5152.00   1.10803616   0.01669535
5154.00   1.13008583   0.01678709
5156.00   1.16038358   0.01674723
5158.00   1.16244066   0.01659722
5160.00   1.16279650   0.01645478
5162.00   1.18364823   0.01643219
5164.00   1.16599941   0.01627215
5166.00   1.16734338   0.01620488
5168.00   1.16124475   0.01611956
5170.00   1.17436409   0.01613271
5172.00   1.20646405   0.01628750
5174.00   1.20021999   0.01632461
5176.00   1.19131839   0.01626126
5178.00   1.20967221   0.01635921
5180.00   1.17951286   0.01616787
5182.00   1.18466938   0.01618492
5184.00   1.19854486   0.01631380
5186.00   1.19760013   0.01634491
5188.00   1.20471513   0.01630058
5190.00   1.25054705   0.01648680
5192.00   1.23368466   0.01642488
5194.00   1.22563279   0.01638887
5196.00   1.23209131   0.01654055
5198.00   1.20420659   0.01644195
5200.00   1.20720720   0.01643919
5202.00   1.19097722   0.01628342
5204.00   1.19643581   0.01627582
5206.00   1.18909597   0.01630071
5208.00   1.24148858   0.01659290
5210.00   1.21618748   0.01646377
5212.00   1.19155288   0.01630250
5214.00   1.21882999   0.01644609
5216.00   1.22766006   0.01647996
5218.00   1.25041747   0.01662789
5220.00   1.25924122   0.01663052
5222.00   1.30270767   0.01673417
5224.00   1.28238881   0.01655523
5226.00   1.30283189   0.01657915
5228.00   1.28278744   0.01649902
5230.00   1.27113533   0.01643443
5232.00   1.30664694   0.01659566
5234.00   1.29858112   0.01654327
5236.00   1.31315696   0.01674196
5238.00   1.33417928   0.01678485
5240.00   1.32474041   0.01668352
5242.00   1.34452879   0.01681657
5244.00   1.34945798   0.01679809
5246.00   1.35246253   0.01680017
5248.00   1.35479045   0.01674677
5250.00   1.35994887   0.01673330
5252.00   1.35891414   0.01679493
5254.00   1.35875916   0.01688940
5256.00   1.36466432   0.01697697
5258.00   1.33556664   0.01690230
5260.00   1.34958076   0.01685148
5262.00   1.36302519   0.01684840
5264.00   1.34151614   0.01670553
5266.00   1.33449757   0.01659795
5268.00   1.26500714   0.01632211
5270.00   1.27667224   0.01634886
5272.00   1.27368879   0.01638679
5274.00   1.29437995   0.01647992
5276.00   1.24223578   0.01623729
5278.00   1.26085496   0.01628285
5280.00   1.24196708   0.01624245
5282.00   1.21534491   0.01615304
5284.00   1.21168125   0.01615339
5286.00   1.18239450   0.01600405
5288.00   1.15979898   0.01586550
5290.00   1.12863564   0.01564468
5292.00   1.13573289   0.01566247
5294.00   1.11971509   0.01558518
5296.00   1.09520578   0.01549423
5298.00   1.06649923   0.01537810
5300.00   1.08277059   0.01546489
5302.00   1.04702985   0.01532332
5304.00   1.07520783   0.01544434
5306.00   1.04921949   0.01529443
5308.00   1.05983198   0.01536926
5310.00   1.05463850   0.01540252
5312.00   1.02663672   0.01525689
5314.00   1.01323712   0.01520008
5316.00   1.01807201   0.01517468
5318.00   1.02053773   0.01519060
5320.00   1.03836429   0.01523658
5322.00   1.01469386   0.01517305
5324.00   0.96736890   0.01497182
5326.00   0.99310273   0.01507812
5328.00   1.00969350   0.01520849
5330.00   1.00296736   0.01523017
5332.00   1.00965512   0.01520097
5334.00   1.00518036   0.01518940
5336.00   0.99309748   0.01521501
5338.00   1.00882912   0.01540226
5340.00   1.02249861   0.01555177
5342.00   1.02094531   0.01548374
5344.00   0.99948883   0.01547290
5346.00   1.00475419   0.01567880
5348.00   1.03536022   0.01590899
5350.00   1.00992322   0.01566510
5352.00   1.00474834   0.01583550
5354.00   1.02225387   0.01598094
5356.00   1.03114307   0.01587332
5358.00   1.04416096   0.01578370
5360.00   1.03931999   0.01567960
5362.00   1.02062392   0.01547021
5364.00   1.02479017   0.01546058
5366.00   1.05671632   0.01549087
5368.00   1.05404663   0.01550098
5370.00   1.07213414   0.01565218
5372.00   1.07381809   0.01578381
5374.00   1.08599615   0.01594820
5376.00   1.06355560   0.01595546
5378.00   1.09408450   0.01603024
5380.00   1.08927882   0.01599041
5382.00   1.09849918   0.01603963
5384.00   1.09713531   0.01608721
5386.00   1.11107278   0.01620638
5388.00   1.11341381   0.01643148
5390.00   1.13255632   0.01662048
5392.00   1.12645853   0.01664616
5394.00   1.14619493   0.01677273
5396.00   1.14458263   0.01674649
5398.00   1.13262165   0.01673246
5400.00   1.18779540   0.01706955
5402.00   1.13872647   0.01689267
5404.00   1.20486784   0.01724160
5406.00   1.18621528   0.01731385
5408.00   1.18848944   0.01747056
5410.00   1.20887256   0.01775179
5412.00   1.17195153   0.01782615
5414.00   1.17920780   0.01810616
5416.00   1.20645773   0.01835616
5418.00   1.22609735   0.01859981
5420.00   1.20001757   0.01865133
5422.00   1.20760310   0.01873565
5424.00   1.21222234   0.01875867
5426.00   1.22470975   0.01879901
5428.00   1.21435964   0.01888477
5430.00   1.21622825   0.01892066
5432.00   1.20808864   0.01895788
5434.00   1.17161107   0.01892469
5436.00   1.20265830   0.01910662
5438.00   1.23214936   0.01936001
5440.00   1.23302150   0.01945337
5442.00   1.19368410   0.01952101
5444.00   1.19350386   0.01960366
5446.00   1.16476858   0.01960338
5448.00   1.15319681   0.01960996
5450.00   1.18071425   0.01975423
5452.00   1.18419993   0.01987210
5454.00   1.18577719   0.02043685
5456.00   1.16703677   0.02382539
5458.00   1.19587147   0.02727961
5460.00   1.11132956   0.02758857
5462.00   1.11270905   0.02607211
5464.00   1.11124623   0.02479699
5466.00   1.09227657   0.02333722
5468.00   1.10264313   0.02215405
5470.00   1.06427336   0.02097906
5472.00   1.05766618   0.02026230
5474.00   1.07209718   0.01991416
5476.00   1.05680716   0.01973996
5478.00   1.05203342   0.02001280
5480.00   1.04341447   0.02032164
5482.00   1.03528726   0.02040053
5484.00   1.03314698   0.02015613
5486.00   1.03101850   0.02002228
5488.00   1.02274704   0.01974945
5490.00   1.00725532   0.01957455
5492.00   0.99151880   0.01939693
5494.00   1.00082171   0.01940023
5496.00   0.99492693   0.01933775
5498.00   1.01536262   0.01942996
5500.00   1.00493610   0.01929814
5502.00   0.99719429   0.01921305
5504.00   1.03946495   0.01949330
5506.00   1.00015497   0.01919808
5508.00   0.94387084   0.01901620
5510.00   0.98997813   0.01941912
5512.00   1.00109351   0.01967647
5514.00   1.00958765   0.01979005
5516.00   0.98453325   0.01974496
5518.00   1.01380885   0.02007400
5520.00   0.98174435   0.01982758
5522.00   1.01055658   0.01989062
5524.00   1.05388820   0.02012464
5526.00   1.05916405   0.02009695
5528.00   1.06202555   0.02000648
5530.00   1.07916403   0.01999973
5532.00   1.12884676   0.02035167
5534.00   1.07511330   0.02000001
5536.00   1.11759651   0.02027125
5538.00   1.14458454   0.02056163
5540.00   1.18304861   0.02085632
5542.00   1.19998980   0.02096418
5544.00   1.21766186   0.02108849
5546.00   1.21075916   0.02112763
5548.00   1.25962281   0.02140770
5550.00   1.26636004   0.02141063
5552.00   1.30526710   0.02161140
5554.00   1.32421207   0.02168644
5556.00   1.37931859   0.02198368
5558.00   1.37408686   0.02206780
5560.00   1.34879947   0.02206941
5562.00   1.38180423   0.02235391
5564.00   1.36420333   0.02227325
5566.00   1.38011253   0.02244795
5568.00   1.48617470   0.02311497
5570.00   1.42117047   0.02323147
5572.00   1.44848406   0.04219392
5574.00   1.47214496   0.04432922
5576.00   1.47465694   0.04590489
5578.00   1.50710082   0.04563754
5580.00   1.50836813   0.04429973
5582.00   1.50605011   0.04197994
5584.00   1.49919188   0.03881128
5586.00   1.52692211   0.03523496
5588.00   1.52325380   0.03286458
5590.00   1.57158792   0.03232249
5592.00   1.59788406   0.03228652
5594.00   1.59086525   0.03208905
5596.00   1.58467352   0.03178750
5598.00   1.55704379   0.03152886
5600.00   1.56557584   0.03134308
5602.00   1.60173571   0.03116177
5604.00   1.59631777   0.03088911
5606.00   1.57341158   0.03051090
5608.00   1.60883486   0.03059177
5610.00   1.63026297   0.03050525
5612.00   1.63750017   0.03035492
5614.00   1.63693798   0.03021807
5616.00   1.61525095   0.02994128
5618.00   1.61028481   0.02959387
5620.00   1.60656607   0.02941639
5622.00   1.57490301   0.02931446
5624.00   1.60269833   0.02917338
5626.00   1.63042367   0.02911757
5628.00   1.63442993   0.02904262
5630.00   1.61646557   0.02875932
5632.00   1.61579359   0.02852692
5634.00   1.65407503   0.02859382
5636.00   1.63451135   0.02842852
5638.00   1.60702610   0.02818041
5640.00   1.60719955   0.02809986
5642.00   1.62325585   0.02809875
5644.00   1.62172186   0.02795868
5646.00   1.62335646   0.02790994
5648.00   1.61043131   0.02774388
5650.00   1.61096859   0.02763187
5652.00   1.61396468   0.02758396
5654.00   1.59470212   0.02757911
5656.00   1.58911574   0.02773019
5658.00   1.58244455   0.02750625
5660.00   1.58674717   0.02732317
5662.00   1.60177195   0.02761780
5664.00   1.61125934   0.02815436
5666.00   1.61540508   0.02823133
5668.00   1.63070667   0.02876488
5670.00   1.64547312   0.02943835
5672.00   1.64110649   0.02965164
5674.00   1.62140572   0.02904647
5676.00   1.64348400   0.02968171
5678.00   1.65089750   0.03005070
5680.00   1.65616167   0.03030617
5682.00   1.68605435   0.03089771
5684.00   1.68701899   0.03115589
5686.00   1.68817997   0.03130012
5688.00   1.68371928   0.03123486
5690.00   1.68869817   0.03092834
5692.00   1.71878469   0.03039941
5694.00   1.70790374   0.02955980
5696.00   1.71252596   0.02878323
5698.00   1.72002649   0.02812868
5700.00   1.72085905   0.02759415
5702.00   1.71355116   0.02714016
5704.00   1.71650970   0.02688317
5706.00   1.72585773   0.02669412
5708.00   1.73057711   0.02652018
5710.00   1.72705793   0.02635642
5712.00   1.72521198   0.02624199
5714.00   1.74864197   0.02624165
5716.00   1.74431133   0.02607549
5718.00   1.72817004   0.02581221
5720.00   1.72227037   0.02557948
5722.00   1.72317374   0.02542631
5724.00   1.74334013   0.02537263
5726.00   1.73870194   0.02521823
5728.00   1.71567094   0.02498491
5730.00   1.70137179   0.02479615
5732.00   1.70659673   0.02470184
5734.00   1.70396900   0.02460386
5736.00   1.69506371   0.02448261
5738.00   1.68635786   0.02438905
5740.00   1.68381786   0.02437694
5742.00   1.68113184   0.02432723
5744.00   1.66405582   0.02419122
5746.00   1.64628327   0.02404667
5748.00   1.63919103   0.02397659
5750.00   1.64591408   0.02402551
5752.00   1.63159049   0.02402201
5754.00   1.61896384   0.02400870
5756.00   1.60918963   0.02403014
5758.00   1.59198570   0.02407625
5760.00   1.58779192   0.02423404
5762.00   1.58340132   0.02446254
5764.00   1.55970395   0.02465400
5766.00   1.53786850   0.02489421
5768.00   1.52579939   0.02513735
5770.00   1.48288202   0.02494610
5772.00   1.48918831   0.02476522
5774.00   1.49000680   0.02441709
5776.00   1.48023617   0.02394751
5778.00   1.47385919   0.02352922
5780.00   1.45600474   0.02329878
5782.00   1.45810449   0.02339331
5784.00   1.46431291   0.02366482
5786.00   1.45847476   0.02398841
5788.00   1.43380976   0.02426864
5790.00   1.43894482   0.02442594
5792.00   1.44159472   0.02436591
5794.00   1.43299484   0.02409858
5796.00   1.41653597   0.02366118
5798.00   1.41160583   0.02314981
5800.00   1.41203201   0.02280105
5802.00   1.42093897   0.02265060
5804.00   1.42672336   0.02260185
5806.00   1.42364597   0.02254915
5808.00   1.42019260   0.02248208
5810.00   1.41554296   0.02243317
5812.00   1.41970980   0.02244256
5814.00   1.42086637   0.02245335
5816.00   1.41330373   0.02243025
5818.00   1.41443586   0.02244341
5820.00   1.41940975   0.02254279
5822.00   1.42528212   0.02261817
5824.00   1.43540955   0.02268580
5826.00   1.44963551   0.02278844
5828.00   1.45421159   0.02285392
5830.00   1.45659828   0.02288858
5832.00   1.46874440   0.02297802
5834.00   1.48684645   0.02310305
5836.00   1.49867284   0.02318656
5838.00   1.48924243   0.02319115
5840.00   1.50355446   0.02332085
5842.00   1.51680040   0.02343083
5844.00   1.52854061   0.02352328
5846.00   1.57110918   0.02377396
5848.00   1.59194410   0.02389674
5850.00   1.59405041   0.02395967
5852.00   1.59116781   0.02402168
5854.00   1.59571040   0.02411906
5856.00   1.61288464   0.02426299
5858.00   1.64351416   0.02445974
5860.00   1.67310679   0.02468266
5862.00   1.68945944   0.02487088
5864.00   1.68396997   0.02495904
5866.00   1.67426920   0.02496836
5868.00   1.70628059   0.02513239
5870.00   1.73765659   0.02524815
5872.00   1.74601567   0.02524271
5874.00   1.73664820   0.02520046
5876.00   1.75119650   0.02544359
5878.00   1.73021281   0.02575027
5880.00   1.70977914   0.02642681
5882.00   1.70040262   0.02767545
5884.00   1.68625581   0.02954206
5886.00   1.64830029   0.03212377
5888.00   1.62949598   0.03453406
5890.00   1.61827552   0.03624566
5892.00   1.61886561   0.03719799
5894.00   1.66434228   0.03768547
5896.00   1.71123123   0.03644660
5898.00   1.73422909   0.03410738
5900.00   1.75654328   0.03153749
5902.00   1.78932512   0.02931649
5904.00   1.82340991   0.02705240
5906.00   1.84490836   0.02562041
5908.00   1.85494423   0.02518285
5910.00   1.84706116   0.02523138
5912.00   1.81538951   0.02517459
5914.00   1.77160275   0.02503568
5916.00   1.73078525   0.02482302
5918.00   1.67964077   0.02456455
5920.00   1.63721621   0.02436624
5922.00   1.59432793   0.02432066
5924.00   1.64330280   0.02441557
5926.00   1.69343460   0.02473607
5928.00   1.75482237   0.02520346
5930.00   1.80507755   0.02574541
5932.00   1.83018363   0.02624827
5934.00   1.89332294   0.02663691
5936.00   1.91377270   0.02554535
5938.00   1.90825975   0.02536113
5940.00   1.89807928   0.02596591
5942.00   1.88585281   0.02523811
5944.00   1.89387178   0.02504776
5946.00   1.90319192   0.02505958
5948.00   1.90891063   0.02514312
5950.00   1.91704464   0.02524033
5952.00   1.94089997   0.02531676
5954.00   1.93103075   0.02523104
5956.00   1.93109477   0.02518180
5958.00   1.94913006   0.02520053
5960.00   1.96920598   0.02520357
5962.00   1.96384442   0.02510225
5964.00   1.97076237   0.02507562
5966.00   1.95553744   0.02496996
5968.00   1.93830812   0.02487469
5970.00   1.95931482   0.02496365
5972.00   1.98175943   0.02505278
5974.00   1.99699461   0.02511347
5976.00   1.99590552   0.02508811
5978.00   1.98634279   0.02499599
5980.00   1.98129034   0.02489820
5982.00   1.96688211   0.02478924
5984.00   1.97315502   0.02475749
5986.00   1.98851347   0.02476917
5988.00   2.00155377   0.02478821
5990.00   2.00232530   0.02477636
5992.00   2.00089931   0.02475830
5994.00   1.97353685   0.02463436
5996.00   1.95798242   0.02454347
5998.00   1.97307408   0.02456751
6000.00   1.97584379   0.02457131
6002.00   1.96220016   0.02449715
6004.00   1.96404743   0.02445616
6006.00   1.97508037   0.02442353
6008.00   1.97801220   0.02434801
6010.00   1.96084106   0.02424081
6012.00   1.97356069   0.02424908
6014.00   1.98724306   0.02426898
6016.00   1.98554409   0.02423887
6018.00   1.96603918   0.02413634
6020.00   1.96338856   0.02410614
6022.00   1.96668530   0.02411710
6024.00   1.96706378   0.02410073
6026.00   1.95890760   0.02403422
6028.00   1.95006430   0.02396327
6030.00   1.92519009   0.02383605
6032.00   1.92397749   0.02380911
6034.00   1.92520440   0.02378417
6036.00   1.91805518   0.02371589
6038.00   1.90928495   0.02363839
6040.00   1.87808549   0.02345235
6042.00   1.88168859   0.02342109
6044.00   1.89897859   0.02346319
6046.00   1.90254247   0.02344828
6048.00   1.88197029   0.02331223
6050.00   1.84898472   0.02315444
6052.00   1.83324158   0.02304896
6054.00   1.82562792   0.02298111
6056.00   1.80709779   0.02289808
6058.00   1.78524053   0.02278842
6060.00   1.75746012   0.02262276
6062.00   1.72494090   0.02245677
6064.00   1.69262731   0.02229810
6066.00   1.66791475   0.02213677
6068.00   1.64856184   0.02200458
6070.00   1.61302888   0.02182546
6072.00   1.57898843   0.02165443
6074.00   1.54847729   0.02149138
6076.00   1.50543070   0.02126964
6078.00   1.44718122   0.02095723
6080.00   1.39995050   0.02069060
6082.00   1.36230528   0.02046598
6084.00   1.32736838   0.02024860
6086.00   1.27852333   0.01995994
6088.00   1.23235619   0.01972965
6090.00   1.20382810   0.01958559
6092.00   1.18148279   0.01947887
6094.00   1.14740038   0.01933024
6096.00   1.08938849   0.01907828
6098.00   1.05264223   0.01893063
6100.00   1.01603949   0.01879753
6102.00   0.98238331   0.01873280
6104.00   0.95940566   0.01880405
6106.00   0.92658585   0.01888086
6108.00   0.92001963   0.01909378
6110.00   0.89479119   0.01923182
6112.00   0.85937160   0.01925397
6114.00   0.84435862   0.01919098
6116.00   0.82071614   0.01890549
6118.00   0.79423839   0.01850820
6120.00   0.77711564   0.01809101
6122.00   0.76767188   0.01769885
6124.00   0.75278503   0.01730956
6126.00   0.73145503   0.01697920
6128.00   0.70413041   0.01670743
6130.00   0.69446945   0.01656888
6132.00   0.70226026   0.01653400
6134.00   0.69268340   0.01643710
6136.00   0.66599596   0.01628977
6138.00   0.64730841   0.01620159
6140.00   0.64378375   0.01620807
6142.00   0.64743572   0.01626084
6144.00   0.63720244   0.01621290
6146.00   0.62220144   0.01611223
6148.00   0.62307858   0.01613674
6150.00   0.62846851   0.01624168
6152.00   0.62020755   0.01631047
6154.00   0.60505319   0.01632156
6156.00   0.60482574   0.01645661
6158.00   0.60838830   0.01659268
6160.00   0.60852569   0.01660827
6162.00   0.60481828   0.01643565
6164.00   0.60266399   0.01619236
6166.00   0.59802240   0.01593465
6168.00   0.59814548   0.01568032
6170.00   0.60561699   0.01546401
6172.00   0.61837053   0.01534030
6174.00   0.62797207   0.01534527
6176.00   0.62244529   0.01523547
6178.00   0.62493199   0.01517502
6180.00   0.64164120   0.01524005
6182.00   0.64863539   0.01528690
6184.00   0.64990371   0.01526624
6186.00   0.65275520   0.01526900
6188.00   0.66294390   0.01533052
6190.00   0.67758995   0.01542737
6192.00   0.69293785   0.01551200
6194.00   0.69940615   0.01553046
6196.00   0.71166199   0.01562150
6198.00   0.72954255   0.01574373
6200.00   0.75009966   0.01584428
6202.00   0.76798248   0.01599761
6204.00   0.78999144   0.01620130
6206.00   0.80118227   0.01634814
6208.00   0.81478423   0.01647163
6210.00   0.84353733   0.01661927
6212.00   0.84785956   0.01662900
6214.00   0.86476374   0.01667978
6216.00   0.88654763   0.01673593
6218.00   0.90751070   0.01677919
6220.00   0.92355013   0.01680582
6222.00   0.95063382   0.01695284
6224.00   0.96539450   0.01705133
6226.00   0.98919839   0.01717363
6228.00   1.02117813   0.01735268
6230.00   1.02799690   0.01753005
6232.00   1.03697193   0.01784382
6234.00   1.06771266   0.01824448
6236.00   1.10329676   0.01859896
6238.00   1.12906539   0.01881597
6240.00   1.15441179   0.01891653
6242.00   1.18924987   0.01890233
6244.00   1.22011769   0.01885565
6246.00   1.24970019   0.01883991
6248.00   1.28034461   0.01886773
6250.00   1.31467927   0.01895078
6252.00   1.34624481   0.01925526
6254.00   1.36753368   0.01960690
6256.00   1.38700283   0.01989755
6258.00   1.41816282   0.02009391
6260.00   1.46115816   0.02030114
6262.00   1.48688471   0.02040149
6264.00   1.50214636   0.02038077
6266.00   1.52245808   0.02032954
6268.00   1.56955242   0.02042644
6270.00   1.58852959   0.02039509
6272.00   1.60375500   0.02049682
6274.00   1.61095905   0.02061886
6276.00   1.62116969   0.02074708
6278.00   1.66589677   0.02106318
6280.00   1.68199396   0.02124568
6282.00   1.72163427   0.02145406
6284.00   1.75494301   0.02158100
6286.00   1.76181650   0.02158653
6288.00   1.77999818   0.02163451
6290.00   1.78942621   0.02170551
6292.00   1.82632458   0.02204426
6294.00   1.87161624   0.02264878
6296.00   1.88844883   0.02338514
6298.00   1.85875964   0.02427820
6300.00   1.89336288   0.02461347
6302.00   1.89977503   0.02470105
6304.00   1.92096090   0.02454117
6306.00   1.94981194   0.02396392
6308.00   1.96262109   0.02317962
6310.00   1.95080960   0.02251793
6312.00   1.93637049   0.02205062
6314.00   1.93187010   0.02176881
6316.00   1.94063103   0.02165055
6318.00   1.97977304   0.02178223
6320.00   2.00757241   0.02190582
6322.00   2.03372765   0.02203955
6324.00   2.06259608   0.02219781
6326.00   2.07271886   0.02230052
6328.00   2.09123683   0.02238944
6330.00   2.11450267   0.02247898
6332.00   2.13030028   0.02251896
6334.00   2.13246131   0.02246106
6336.00   2.14091492   0.02231539
6338.00   2.16197348   0.02226195
6340.00   2.16722107   0.02222404
6342.00   2.16517329   0.02222665
6344.00   2.17177391   0.02229354
6346.00   2.16728687   0.02235099
6348.00   2.16981006   0.02234719
6350.00   2.18464828   0.02234895
6352.00   2.19421554   0.02235632
6354.00   2.18407345   0.02237505
6356.00   2.19850802   0.02247882
6358.00   2.21937966   0.02271671
6360.00   2.22641635   0.02296317
6362.00   2.22088909   0.02310369
6364.00   2.22146153   0.02307215
6366.00   2.22494149   0.02298738
6368.00   2.22391391   0.02280592
6370.00   2.22282791   0.02253080
6372.00   2.23285413   0.02228186
6374.00   2.26627135   0.02230863
6376.00   2.26366162   0.02232348
6378.00   2.25665545   0.02232892
6380.00   2.24947214   0.02232028
6382.00   2.24434757   0.02231434
6384.00   2.26017308   0.02237494
6386.00   2.26092649   0.02232183
6388.00   2.25438595   0.02223902
6390.00   2.25080276   0.02217148
6392.00   2.25568080   0.02212622
6394.00   2.25082660   0.02202901
6396.00   2.25573564   0.02206179
6398.00   2.25521350   0.02209979
6400.00   2.24545932   0.02208670
6402.00   2.23335528   0.02203364
6404.00   2.24034882   0.02205571
6406.00   2.25484872   0.02208132
6408.00   2.25955367   0.02206515
6410.00   2.24937677   0.02200871
6412.00   2.23209357   0.02194564
6414.00   2.23626924   0.02194655
6416.00   2.23782992   0.02194113
6418.00   2.23200703   0.02189737
6420.00   2.22622848   0.02183341
6422.00   2.24335861   0.02185466
6424.00   2.22823000   0.02174793
6426.00   2.21537232   0.02165836
6428.00   2.21745491   0.02163474
6430.00   2.22537494   0.02164534
6432.00   2.21513915   0.02159200
6434.00   2.20997047   0.02156979
6436.00   2.20362782   0.02154722
6438.00   2.19998598   0.02152230
6440.00   2.20451808   0.02150895
6442.00   2.20437694   0.02150391
6444.00   2.20875740   0.02159312
6446.00   2.20623708   0.02174831
6448.00   2.19945526   0.02192138
6450.00   2.19509387   0.02206925
6452.00   2.18463039   0.02229188
6454.00   2.19008899   0.02139999
6456.00   2.19766259   0.02143243
6458.00   2.19040775   0.02139672
6460.00   2.17088246   0.02219338
6462.00   2.16567445   0.02243411
6464.00   2.15189958   0.02142989
6466.00   2.13021827   0.02139569
6468.00   2.11322761   0.02208499
6470.00   2.11759019   0.02171358
6472.00   2.11616421   0.02169772
6474.00   2.10762334   0.02112685
6476.00   2.10200095   0.02100287
6478.00   2.10132980   0.02088681
6480.00   2.08609748   0.02121059
6482.00   2.07514024   0.02076207
6484.00   2.07327747   0.02064587
6486.00   2.07273483   0.02066094
6488.00   2.06405711   0.02059453
6490.00   2.06064796   0.02057040
6492.00   2.05479145   0.02063039
6494.00   2.04217792   0.02075012
6496.00   2.03026938   0.02089291
6498.00   2.03502798   0.02103099
6500.00   2.05762553   0.02116543
6502.00   2.05730152   0.02119013
6504.00   2.04036880   0.02105666
6506.00   2.02560639   0.02083443
6508.00   2.02956676   0.02068015
6510.00   2.01611853   0.02053320
6512.00   1.99414253   0.02035462
6514.00   1.97757375   0.02020358
6516.00   1.97315300   0.02013216
6518.00   1.97837067   0.02015325
6520.00   1.97977579   0.02019460
6522.00   1.98811424   0.02024365
6524.00   1.99685240   0.02028756
6526.00   1.99658048   0.02031971
6528.00   1.99251842   0.02039550
6530.00   1.98068130   0.02043829
6532.00   1.97535861   0.02046605
6534.00   1.97903442   0.02047984
6536.00   1.98760474   0.02048080
6538.00   1.98469102   0.02042117
6540.00   1.96928370   0.02025398
6542.00   1.96192217   0.02014616
6544.00   1.96298063   0.02012810
6546.00   1.95794356   0.02011856
6548.00   1.95542300   0.02018661
6550.00   1.94570696   0.02024935
6552.00   1.93877554   0.02027988
6554.00   1.93492544   0.02026526
6556.00   1.92396867   0.02021926
6558.00   1.93711412   0.02023990
6560.00   1.93556929   0.02013923
6562.00   1.92608798   0.02001660
6564.00   1.92019713   0.01996883
6566.00   1.91604865   0.01995438
6568.00   1.91031349   0.01987674
6570.00   1.90407467   0.01979879
6572.00   1.90536058   0.01981484
6574.00   1.91645300   0.01994202
6576.00   1.90976274   0.01996330
6578.00   1.90733683   0.01996533
6580.00   1.91540658   0.02000120
6582.00   1.92493308   0.01999548
6584.00   1.91760933   0.01984146
6586.00   1.89994287   0.01966416
6588.00   1.89782917   0.01959667
6590.00   1.91001892   0.01964509
6592.00   1.93791902   0.01980702
6594.00   1.98110259   0.02004926
6596.00   1.99510109   0.02014132
6598.00   1.99647915   0.02017419
6600.00   1.98036897   0.02010635
6602.00   1.94653928   0.01991239
6604.00   1.89997530   0.01960971
6606.00   1.87511551   0.01940958
6608.00   1.86137140   0.01931264
6610.00   1.85924399   0.01927522
6612.00   1.86971343   0.01927702
6614.00   1.87479258   0.01930810
6616.00   1.87199831   0.01930911
6618.00   1.87392962   0.01932622
6620.00   1.86767900   0.01929631
6622.00   1.84527576   0.01917560
6624.00   1.83150971   0.01906018
6626.00   1.83179176   0.01901792
6628.00   1.83646119   0.01903089
6630.00   1.83214128   0.01902538
6632.00   1.81330192   0.01894934
6634.00   1.82190001   0.01898439
6636.00   1.81433165   0.01893367
6638.00   1.80711269   0.01887819
6640.00   1.80573881   0.01883912
6642.00   1.80422461   0.01878162
6644.00   1.80090666   0.01874529
6646.00   1.79371262   0.01869944
6648.00   1.78210354   0.01864458
6650.00   1.77420330   0.01861446
6652.00   1.78019774   0.01864166
6654.00   1.77496898   0.01859596
6656.00   1.77118647   0.01858052
6658.00   1.76721430   0.01858220
6660.00   1.75920391   0.01856165
6662.00   1.75062144   0.01851362
6664.00   1.75373399   0.01851038
6666.00   1.75389183   0.01849929
6668.00   1.75013125   0.01846679
6670.00   1.74543679   0.01842243
6672.00   1.73804772   0.01837653
6674.00   1.72953081   0.01835440
6676.00   1.72430420   0.01833699
6678.00   1.72238553   0.01831920
6680.00   1.71803808   0.01828709
6682.00   1.71282399   0.01824812
6684.00   1.70228672   0.01818613
6686.00   1.69450438   0.01813525
6688.00   1.69228661   0.01810536
6690.00   1.69383478   0.01809465
6692.00   1.69582355   0.01810541
6694.00   1.68963492   0.01807373
6696.00   1.68704796   0.01805382
6698.00   1.68722689   0.01805448
6700.00   1.67126286   0.01800743
6702.00   1.66278064   0.01802974
6704.00   1.67166042   0.01813279
6706.00   1.67542303   0.01818954
6708.00   1.66397810   0.01814929
6710.00   1.66131783   0.01814771
6712.00   1.67643976   0.01821368
6714.00   1.68215334   0.01819368
6716.00   1.66785002   0.01806335
6718.00   1.64697027   0.01791344
6720.00   1.66330421   0.01796477
6722.00   1.65352833   0.01786731
6724.00   1.64531887   0.01779081
6726.00   1.64516878   0.01778052
6728.00   1.64979112   0.01781235
6730.00   1.65964091   0.01784048
6732.00   1.64819300   0.01779613
6734.00   1.63584459   0.01774646
6736.00   1.63229239   0.01772434
6738.00   1.63360643   0.01772605
6740.00   1.63149726   0.01769072
6742.00   1.64327490   0.01773753
6744.00   1.64805555   0.01775594
6746.00   1.63447964   0.01768317
6748.00   1.62495959   0.01762717
6750.00   1.62141192   0.01759296
6752.00   1.61781156   0.01758925
6754.00   1.61578238   0.01758468
6756.00   1.61638677   0.01755925
6758.00   1.61845100   0.01753873
6760.00   1.61107838   0.01749958
6762.00   1.60394859   0.01746939
6764.00   1.59713745   0.01744349
6766.00   1.59189761   0.01742167
6768.00   1.60407925   0.01744642
6770.00   1.60074997   0.01740301
6772.00   1.58544064   0.01730574
6774.00   1.57390010   0.01723602
6776.00   1.57911599   0.01726277
6778.00   1.58488286   0.01729441
6780.00   1.58182490   0.01727714
6782.00   1.56843519   0.01721042
6784.00   1.55011857   0.01711861
6786.00   1.53582203   0.01704085
6788.00   1.52716076   0.01701353
6790.00   1.52824342   0.01700603
6792.00   1.53019178   0.01700708
6794.00   1.52553785   0.01698858
6796.00   1.51572835   0.01691332
6798.00   1.51141644   0.01688022
6800.00   1.50371945   0.01684062
6802.00   1.50129366   0.01682461
6804.00   1.50581980   0.01683811
6806.00   1.49701726   0.01680602
6808.00   1.48942840   0.01676999
6810.00   1.49176693   0.01677041
6812.00   1.48396933   0.01672690
6814.00   1.46204722   0.01662753
6816.00   1.47243404   0.01667854
6818.00   1.47868431   0.01670898
6820.00   1.47054732   0.01669172
6822.00   1.45907831   0.01674334
6824.00   1.46192992   0.01699608
6826.00   1.46034813   0.01731843
6828.00   1.44354248   0.01752978
6830.00   1.44760847   0.01781206
6832.00   1.46520388   0.01803881
6834.00   1.45383978   0.01788258
6836.00   1.44930232   0.01760628
6838.00   1.44389772   0.01736397
6840.00   1.44757426   0.01718582
6842.00   1.45428944   0.01701658
6844.00   1.44770432   0.01679332
6846.00   1.43737924   0.01663774
6848.00   1.44084394   0.01659339
6850.00   1.45288754   0.01662155
6852.00   1.45867383   0.01663660
6854.00   1.45807600   0.01660000
6856.00   1.44036520   0.01658369
6858.00   1.43344653   0.01681332
6860.00   1.44546235   0.01737187
6862.00   1.46484625   0.01817712
6864.00   1.44910967   0.01891374
6866.00   1.41471481   0.01972170
6868.00   1.41362441   0.02065326
6870.00   1.43556774   0.02113487
6872.00   1.43784034   0.02056367
6874.00   1.42051733   0.01961788
6876.00   1.42295706   0.01888433
6878.00   1.43050575   0.01835812
6880.00   1.43450224   0.01800199
6882.00   1.43200982   0.01777154
6884.00   1.42959273   0.01771185
6886.00   1.43036366   0.01789153
6888.00   1.42861080   0.01809876
6890.00   1.42326117   0.01817731
6892.00   1.42721748   0.01814452
6894.00   1.42353642   0.01802104
6896.00   1.42036581   0.01791047
6898.00   1.42324114   0.01786212
6900.00   1.42902184   0.01783294
6902.00   1.41751921   0.01764511
6904.00   1.41615617   0.01747534
6906.00   1.42358303   0.01742921
6908.00   1.42907667   0.01745187
6910.00   1.42306852   0.01743082
6912.00   1.41954708   0.01734156
6914.00   1.41982985   0.01731042
6916.00   1.41863966   0.01734620
6918.00   1.41643715   0.01741501
6920.00   1.41253519   0.01744544
6922.00   1.40717065   0.01739924
6924.00   1.41534126   0.01745899
6926.00   1.41454697   0.01742286
6928.00   1.40472507   0.01720136
6930.00   1.40860939   0.01688809
6932.00   1.40930974   0.01673465
6934.00   1.41475916   0.01683278
6936.00   1.41209090   0.01696950
6938.00   1.39671195   0.01700655
6940.00   1.38068151   0.01699760
6942.00   1.38999999   0.01705528
6944.00   1.39270306   0.01717739
6946.00   1.38825321   0.01727954
6948.00   1.38475192   0.01729672
6950.00   1.38605738   0.01724140
6952.00   1.39155591   0.01722532
6954.00   1.39126146   0.01702979
6956.00   1.37720525   0.01667409
6958.00   1.35372686   0.01632595
6960.00   1.35782301   0.01625437
6962.00   1.36821651   0.01625352
6964.00   1.37070787   0.01626811
6966.00   1.36454260   0.01627102
6968.00   1.35869014   0.01626447
6970.00   1.36226988   0.01629928
6972.00   1.36618388   0.01641150
6974.00   1.35962200   0.01651230
6976.00   1.34454870   0.01653673
6978.00   1.33727467   0.01649136
6980.00   1.34999168   0.01651083
6982.00   1.36881816   0.01662033
6984.00   1.38100147   0.01665509
6986.00   1.37952769   0.01652610
6988.00   1.35988712   0.01626488
6990.00   1.34526551   0.01610247
6992.00   1.35543966   0.01618223
6994.00   1.37097800   0.01632813
6996.00   1.36937582   0.01633687
6998.00   1.35230970   0.01617914
7000.00   1.35848141   0.01620208
7002.00   1.36361110   0.01626458
7004.00   1.36296332   0.01632090
7006.00   1.36101913   0.01637228
7008.00   1.35685253   0.01640986
7010.00   1.36148965   0.01644331
7012.00   1.35948217   0.01638640
7014.00   1.35125387   0.01627194
7016.00   1.34929430   0.01620312
7018.00   1.36845982   0.01623782
7020.00   1.36659205   0.01618289
7022.00   1.35921669   0.01612189
7024.00   1.35962355   0.01612279
7026.00   1.36490011   0.01616651
7028.00   1.34487784   0.01607843
7030.00   1.34138238   0.01603401
7032.00   1.34940851   0.01604662
7034.00   1.35515726   0.01607755
7036.00   1.35091150   0.01608124
7038.00   1.34336793   0.01608392
7040.00   1.34702635   0.01607938
7042.00   1.35208988   0.01606950
7044.00   1.34792960   0.01607093
7046.00   1.34320879   0.01614612
7048.00   1.34293807   0.01618567
7050.00   1.34251118   0.01619259
7052.00   1.33640730   0.01615168
7054.00   1.32452106   0.01606013
7056.00   1.32094038   0.01596173
7058.00   1.33098543   0.01594933
7060.00   1.33612144   0.01597054
7062.00   1.32842243   0.01595157
7064.00   1.31323373   0.01587137
7066.00   1.31586921   0.01595004
7068.00   1.33227825   0.01603895
7070.00   1.34563363   0.01610327
7072.00   1.34055197   0.01608506
7074.00   1.31625164   0.01594050
7076.00   1.32268512   0.01589561
7078.00   1.32938135   0.01595544
7080.00   1.32594502   0.01597049
7082.00   1.31756163   0.01590402
7084.00   1.32712567   0.01593208
7086.00   1.32630348   0.01596577
7088.00   1.32018125   0.01595161
7090.00   1.31381452   0.01591936
7092.00   1.31446087   0.01592510
7094.00   1.33281136   0.01601846
7096.00   1.32491159   0.01587704
7098.00   1.32024157   0.01573664
7100.00   1.31875241   0.01565780
7102.00   1.31424201   0.01563211
7104.00   1.32515478   0.01569697
7106.00   1.32921600   0.01576548
7108.00   1.31836939   0.01573096
7110.00   1.30788553   0.01564614
7112.00   1.31752598   0.01564318
7114.00   1.32518041   0.01574055
7116.00   1.32324493   0.01574938
7118.00   1.32270288   0.01573222
7120.00   1.32538402   0.01572029
7122.00   1.32065248   0.01567842
7124.00   1.32121813   0.01568745
7126.00   1.32575631   0.01574177
7128.00   1.32346070   0.01577068
7130.00   1.31732857   0.01576995
7132.00   1.32738626   0.01581546
7134.00   1.32752001   0.01579319
7136.00   1.33223665   0.01576947
7138.00   1.34124804   0.01580589
7140.00   1.34811461   0.01590579
7142.00   1.33964062   0.01593544
7144.00   1.33878171   0.01596752
7146.00   1.34239805   0.01601282
7148.00   1.34655190   0.01602036
7150.00   1.34735644   0.01595615
7152.00   1.33862603   0.01588351
7154.00   1.34268570   0.01589926
7156.00   1.33778524   0.01586835
7158.00   1.33372843   0.01586939
7160.00   1.34874392   0.01604506
7162.00   1.35610998   0.01616720
7164.00   1.34990537   0.01625405
7166.00   1.34351647   0.01637888
7168.00   1.34330261   0.01656590
7170.00   1.34459341   0.01677234
7172.00   1.36215150   0.01702781
7174.00   1.36392820   0.01709027
7176.00   1.36471021   0.01707606
7178.00   1.37171209   0.01709009
7180.00   1.37109673   0.01711713
7182.00   1.35328329   0.01708981
7184.00   1.34899843   0.01718357
7186.00   1.36113560   0.01734590
7188.00   1.37381756   0.01741569
7190.00   1.35308444   0.01716386
7192.00   1.36344814   0.01711414
7194.00   1.36123621   0.01705914
7196.00   1.34701872   0.01696672
7198.00   1.34279478   0.01692994
7200.00   1.35820675   0.01713979
7202.00   1.36972809   0.01723441
7204.00   1.36419475   0.01707083
7206.00   1.35236061   0.01676119
7208.00   1.34769094   0.01651189
7210.00   1.34373868   0.01622038
7212.00   1.33720779   0.01600022
7214.00   1.33868599   0.01593881
7216.00   1.34494507   0.01598499
7218.00   1.34393537   0.01599340
7220.00   1.33610201   0.01597370
7222.00   1.32788455   0.01595346
7224.00   1.33659124   0.01605646
7226.00   1.35786450   0.01626704
7228.00   1.36137497   0.01638717
7230.00   1.34802091   0.01648245
7232.00   1.34455550   0.01677918
7234.00   1.35482275   0.01744597
7236.00   1.36651742   0.01837492
7238.00   1.34830129   0.01900044
7240.00   1.34515250   0.01972809
7242.00   1.35100853   0.02039716
7244.00   1.36478579   0.02060268
7246.00   1.37693346   0.02004246
7248.00   1.35195029   0.01915364
7250.00   1.34275091   0.01851428
7252.00   1.35365975   0.01801632
7254.00   1.37045276   0.01760060
7256.00   1.36537945   0.01725132
7258.00   1.34784567   0.01699652
7260.00   1.32942879   0.01671344
7262.00   1.31891298   0.01652302
7264.00   1.32362735   0.01652901
7266.00   1.33764029   0.01670240
7268.00   1.34175014   0.01669910
7270.00   1.35921276   0.01734429
7272.00   1.36479247   0.01848869
7274.00   1.34771883   0.01957060
7276.00   1.33839023   0.01990459
7278.00   1.34423506   0.01991097
7280.00   1.34888804   0.01962408
7282.00   1.34758604   0.01896063
7284.00   1.33951890   0.01804245
7286.00   1.33489764   0.01769291
7288.00   1.33147526   0.01764244
7290.00   1.33643091   0.01748715
7292.00   1.34366000   0.01719985
7294.00   1.34677494   0.01696747
7296.00   1.34364593   0.01680934
7298.00   1.33676469   0.01681206
7300.00   1.31740701   0.01688289
7302.00   1.29824138   0.01694395
7304.00   1.30149090   0.01695425
7306.00   1.31329775   0.01694598
7308.00   1.31701934   0.01684455
7310.00   1.31533575   0.01702661
7312.00   1.31230140   0.01759952
7314.00   1.30800354   0.01827017
7316.00   1.29228532   0.01832940
7318.00   1.30252564   0.01829859
7320.00   1.31383264   0.01796384
7322.00   1.30672824   0.01721784
7324.00   1.29824972   0.01642820
7326.00   1.29686821   0.01634688
7328.00   1.29519475   0.01650490
7330.00   1.29372394   0.01665327
7332.00   1.29418802   0.01669490
7334.00   1.29740322   0.01669940
7336.00   1.28697884   0.01712308
7338.00   1.27613413   0.01757465
7340.00   1.26879883   0.01786324
7342.00   1.26618385   0.01796992
7344.00   1.26266575   0.01805296
7346.00   1.28189516   0.01753401
7348.00   1.28635645   0.01663109
7350.00   1.27008235   0.01580805
7352.00   1.25687754   0.01562127
7354.00   1.25543547   0.01592756
7356.00   1.25166261   0.01619664
7358.00   1.24945569   0.01632638
7360.00   1.24385607   0.01630728
7362.00   1.21944094   0.01618442
7364.00   1.19676769   0.01632083
7366.00   1.19881213   0.01668976
7368.00   1.20748556   0.01697961
7370.00   1.20673764   0.01700960
7372.00   1.19454372   0.01689738
7374.00   1.18505883   0.01650097
7376.00   1.18694651   0.01586793
7378.00   1.19114232   0.01531151
7380.00   1.18604064   0.01509273
7382.00   1.17749941   0.01503971
7384.00   1.16828287   0.01496651
7386.00   1.16258895   0.01502111
7388.00   1.16022527   0.01522723
7390.00   1.16068351   0.01549996
7392.00   1.14833629   0.01551950
7394.00   1.14317858   0.01544230
7396.00   1.14264464   0.01555106
7398.00   1.13874328   0.01579051
7400.00   1.12250602   0.01585777
7402.00   1.11214578   0.01574023
7404.00   1.10607970   0.01567085
7406.00   1.10373819   0.01546673
7408.00   1.09979820   0.01504185
7410.00   1.08680224   0.01453857
7412.00   1.08460164   0.01436318
7414.00   1.09395349   0.01439092
7416.00   1.09272361   0.01440888
7418.00   1.07622111   0.01433272
7420.00   1.07616150   0.01432311
7422.00   1.07855237   0.01430583
7424.00   1.07574463   0.01433603
7426.00   1.07103813   0.01442332
7428.00   1.06801748   0.01452118
7430.00   1.06478727   0.01452997
7432.00   1.07034099   0.01465452
7434.00   1.06309831   0.01477624
7436.00   1.04912913   0.01482783
7438.00   1.04610503   0.01480477
7440.00   1.03865993   0.01473528
7442.00   1.03141606   0.01462204
7444.00   1.03028882   0.01441097
7446.00   1.03107989   0.01414771
7448.00   1.02295017   0.01395068
7450.00   1.01885450   0.01390691
7452.00   1.01405692   0.01389138
7454.00   1.00716400   0.01387113
7456.00   1.00185692   0.01385920
7458.00   1.00716090   0.01391200
7460.00   1.00001276   0.01395273
7462.00   0.98221493   0.01397576
7464.00   0.96687001   0.01401028
7466.00   0.96329379   0.01409850
7468.00   0.96287817   0.01426366
7470.00   0.95739579   0.01439053
7472.00   0.94455928   0.01438724
7474.00   0.93243629   0.01435832
7476.00   0.92585158   0.01441050
7478.00   0.90375948   0.01440578
7480.00   0.88996905   0.01433997
7482.00   0.88499379   0.01427209
7484.00   0.88147980   0.01415906
7486.00   0.86896926   0.01392048
7488.00   0.85971713   0.01365053
7490.00   0.84438920   0.01334885
7492.00   0.83090520   0.01310591
7494.00   0.82022411   0.01296803
7496.00   0.80954474   0.01292016
7498.00   0.79998606   0.01283255
7500.00   0.79527479   0.01272722
7502.00   0.79012251   0.01261765
7504.00   0.78128290   0.01251658
7506.00   0.76908344   0.01242998
7508.00   0.76595664   0.01241726
7510.00   0.76778579   0.01244041
7512.00   0.76897675   0.01246386
7514.00   0.76773906   0.01250594
7516.00   0.76960534   0.01265212
7518.00   0.77145261   0.01326129
7520.00   0.76386499   0.01396444
7522.00   0.75129360   0.01438710
7524.00   0.74259037   0.01443965
7526.00   0.74471563   0.01473678
7528.00   0.74896431   0.01469178
7530.00   0.75317758   0.01405518
7532.00   0.75622481   0.01323357
7534.00   0.75950330   0.01290773
7536.00   0.77139592   0.01289040
7538.00   0.77331918   0.01276008
7540.00   0.77179831   0.01264165
7542.00   0.77252054   0.01260588
7544.00   0.77398247   0.01260582
7546.00   0.77144313   0.01253920
7548.00   0.77367121   0.01249793
7550.00   0.77787644   0.01254063
7552.00   0.78108996   0.01267177
7554.00   0.78250486   0.01283535
7556.00   0.79195070   0.01297475
7558.00   0.79690009   0.01303405
7560.00   0.79818946   0.01305248
7562.00   0.80105066   0.01306758
7564.00   0.80691320   0.01304081
7566.00   0.80428666   0.01324713
7568.00   0.80631351   0.01372900
7570.00   0.81480199   0.01416835
7572.00   0.82185823   0.01426823
7574.00   0.81450421   0.01414348
7576.00   0.80926257   0.01387591
7578.00   0.81977606   0.01351461
7580.00   0.83599710   0.01324050
7582.00   0.83996749   0.01323470
7584.00   0.83754754   0.01329848
7586.00   0.85522175   0.01348140
7588.00   0.86700612   0.01372782
7590.00   0.85763913   0.01408368
7592.00   0.82822853   0.01474281
7594.00   0.82168674   0.01632388
7596.00   0.87054592   0.02031952
7598.00   0.91531080   0.02606946
7600.00   0.91006118   0.03174870
7602.00   0.84786433   0.03549092
7604.00   0.88896912   0.03760427
7606.00   0.92728215   0.03647494
7608.00   0.93667150   0.03279255
7610.00   0.91989779   0.02788838
7612.00   0.90261942   0.02371717
7614.00   0.93507957   0.02085487
7616.00   0.95325613   0.01875740
7618.00   0.94643253   0.01759163
7620.00   0.93601704   0.01783360
7622.00   0.97051424   0.01954289
7624.00   0.99564892   0.02165069
7626.00   1.02096403   0.02341752
7628.00   1.01294351   0.02323715
7630.00   1.00250316   0.02313178
7632.00   0.98815602   0.02243115
7634.00   0.99499512   0.02161301
7636.00   0.99401128   0.02070916
7638.00   0.99551952   0.01997589
7640.00   1.04933333   0.01979081
7642.00   1.04677904   0.02032340
7644.00   1.03716564   0.01965541
7646.00   1.05286431   0.01903666
7648.00   1.07948673   0.01834385
7650.00   1.06844544   0.01824263
7652.00   1.05005240   0.01797106
7654.00   1.06744909   0.01741773
7656.00   1.08455026   0.01692000
7658.00   1.07746470   0.01679091
7660.00   1.09567034   0.01675745
7662.00   1.09543538   0.01656400
7664.00   1.08976233   0.01633107
7666.00   1.09023988   0.01613689
7668.00   1.09718359   0.01597406
7670.00   1.09942734   0.01565445
7672.00   1.10545814   0.01544688
7674.00   1.11052048   0.01523913
7676.00   1.11831892   0.01510536
7678.00   1.13289678   0.01519427
7680.00   1.13712656   0.01522199
7682.00   1.14550495   0.01521741
7684.00   1.15130138   0.01521313
7686.00   1.14695978   0.01518862
7688.00   1.13286972   0.01511124
7690.00   1.14634907   0.01513589
7692.00   1.14527667   0.01509537
7694.00   1.14696062   0.01515757
7696.00   1.15457594   0.01530539
7698.00   1.15022933   0.01528548
7700.00   1.14280176   0.01521181
7702.00   1.14586437   0.01513763
7704.00   1.15258443   0.01507743
7706.00   1.15838039   0.01523213
7708.00   1.16802227   0.01609542
7710.00   1.17542493   0.01707103
7712.00   1.17308462   0.01809612
7714.00   1.16962326   0.01888372
7716.00   1.17276239   0.01912948
7718.00   1.15094888   0.01858190
7720.00   1.16484118   0.01805005
7722.00   1.18423545   0.01738822
7724.00   1.18938506   0.01661503
7726.00   1.18073606   0.01594830
7728.00   1.18137014   0.01580335
7730.00   1.18576956   0.01567550
7732.00   1.19401312   0.01553341
7734.00   1.19762564   0.01538097
7736.00   1.19051492   0.01524549
7738.00   1.17603612   0.01510192
7740.00   1.18051589   0.01508214
7742.00   1.18710363   0.01518112
7744.00   1.18702221   0.01566002
7746.00   1.18970144   0.01699837
7748.00   1.20504141   0.01810596
7750.00   1.21389282   0.01859054
7752.00   1.20956898   0.01869753
7754.00   1.19756031   0.01861444
7756.00   1.20169890   0.01805273
7758.00   1.20912170   0.01715366
7760.00   1.22523439   0.01665017
7762.00   1.23172009   0.01649354
7764.00   1.21687174   0.01626010
7766.00   1.21934950   0.01574834
7768.00   1.22200382   0.01549608
7770.00   1.23316944   0.01555992
7772.00   1.24413860   0.01576666
7774.00   1.23910046   0.01588242
7776.00   1.24133706   0.01618693
7778.00   1.24775493   0.01641230
7780.00   1.24915636   0.01640307
7782.00   1.24740708   0.01622576
7784.00   1.25489902   0.01612853
7786.00   1.27280438   0.01600673
7788.00   1.27287340   0.01636412
7790.00   1.27166688   0.01714587
7792.00   1.27862740   0.01795179
7794.00   1.28775811   0.01823807
7796.00   1.29543626   0.01824227
7798.00   1.30835259   0.01786272
7800.00   1.31979668   0.01712371
7802.00   1.31999743   0.01631397
7804.00   1.30269396   0.01620542
7806.00   1.30106580   0.01646201
7808.00   1.30916941   0.01669665
7810.00   1.31659043   0.01680596
7812.00   1.31836808   0.01682277
7814.00   1.32356322   0.01658437
7816.00   1.31978166   0.01702723
7818.00   1.32487488   0.01793511
7820.00   1.33892882   0.01873306
7822.00   1.35305691   0.01891824
7824.00   1.34699023   0.01887396
7826.00   1.34467399   0.01819682
7828.00   1.34985101   0.01714123
7830.00   1.35992527   0.01621088
7832.00   1.36749458   0.01599029
7834.00   1.38123333   0.01613542
7836.00   1.39811385   0.01653058
7838.00   1.40533912   0.01690364
7840.00   1.40003955   0.01705885
7842.00   1.39556181   0.01694924
7844.00   1.39826870   0.01694988
7846.00   1.40527248   0.01719884
7848.00   1.41493452   0.01786643
7850.00   1.42682230   0.01883981
7852.00   1.43654680   0.01954206
7854.00   1.44288933   0.01982273
7856.00   1.43733609   0.01995110
7858.00   1.43166924   0.01969423
7860.00   1.43933916   0.01884860
7862.00   1.44518900   0.01809086
7864.00   1.43616188   0.01801118
7866.00   1.43594301   0.01812414
7868.00   1.44953859   0.01820504
7870.00   1.46953452   0.01830097
7872.00   1.47776699   0.01847731
7874.00   1.46460152   0.01844901
7876.00   1.45245254   0.01816759
7878.00   1.45467865   0.01782875
7880.00   1.46283674   0.01776223
7882.00   1.47143090   0.01785785
7884.00   1.48316133   0.01812645
7886.00   1.48815155   0.01842360
7888.00   1.48494756   0.01857354
7890.00   1.47690547   0.01838617
7892.00   1.48746300   0.01846690
7894.00   1.49100626   0.01831535
7896.00   1.49283743   0.01783255
7898.00   1.49919856   0.01720733
7900.00   1.51002312   0.01705961
7902.00   1.51380873   0.01701755
7904.00   1.51400816   0.01699770
7906.00   1.50539303   0.01721601
7908.00   1.48619068   0.01800282
7910.00   1.48670948   0.01971707
7912.00   1.49189794   0.02054922
7914.00   1.49929321   0.02093976
7916.00   1.49842310   0.02111142
7918.00   1.48259914   0.02101039
7920.00   1.51339817   0.01997637
7922.00   1.52124321   0.01909042
7924.00   1.51525676   0.01863271
7926.00   1.50667036   0.01849179
7928.00   1.49706221   0.01828722
7930.00   1.49532986   0.01810508
7932.00   1.51219118   0.01805961
7934.00   1.52083647   0.01796417
7936.00   1.50779760   0.01763276
7938.00   1.49550867   0.01701240
7940.00   1.50593221   0.01678089
7942.00   1.50684035   0.01680692
7944.00   1.50634718   0.01711731
7946.00   1.51259458   0.01758351
7948.00   1.51273525   0.01774978
7950.00   1.50729561   0.01773356
7952.00   1.49944317   0.01762489
7954.00   1.49752748   0.01741876
7956.00   1.50399828   0.01715867
7958.00   1.49439681   0.01720762
7960.00   1.48675597   0.01827360
7962.00   1.48759520   0.01929330
7964.00   1.49241340   0.01979188
7966.00   1.48910034   0.01976809
7968.00   1.48305750   0.01948028
7970.00   1.48086834   0.01859767
7972.00   1.47923887   0.01768189
7974.00   1.47916496   0.01732268
7976.00   1.48445737   0.01775770
7978.00   1.48932970   0.01798637
7980.00   1.49490893   0.01809682
7982.00   1.49561465   0.01803792
7984.00   1.49214363   0.01780080
7986.00   1.49305820   0.01743249
7988.00   1.49063337   0.01805881
7990.00   1.48342454   0.01901443
7992.00   1.47725809   0.01970220
7994.00   1.47374582   0.01984009
7996.00   1.46419847   0.01972736
7998.00   1.46850717   0.01912792
8000.00   1.47234213   0.01804454
8002.00   1.47467613   0.01702428
8004.00   1.48057938   0.01672864
8006.00   1.48550856   0.01685053
8008.00   1.48788965   0.01711284
8010.00   1.47953212   0.01734692
8012.00   1.46782100   0.01748759
8014.00   1.47115600   0.01758221
8016.00   1.47308791   0.01765959
8018.00   1.45873117   0.01758174
8020.00   1.45434034   0.01783783
8022.00   1.46627915   0.01847946
8024.00   1.47081435   0.01902746
8026.00   1.45890713   0.01910239
8028.00   1.45965445   0.01908416
8030.00   1.46067321   0.01870958
8032.00   1.45302677   0.01789427
8034.00   1.45211089   0.01707867
8036.00   1.45202684   0.01671289
8038.00   1.44161189   0.01654944
8040.00   1.43156087   0.01646773
8042.00   1.43254459   0.01642122
8044.00   1.43723392   0.01642670
8046.00   1.43253851   0.01659148
8048.00   1.42515087   0.01678213
8050.00   1.41800058   0.01687502
8052.00   1.41423380   0.01683853
8054.00   1.41788208   0.01688675
8056.00   1.42461300   0.01710328
8058.00   1.41553366   0.01726813
8060.00   1.39737225   0.01731028
8062.00   1.39129317   0.01729060
8064.00   1.39405632   0.01733915
8066.00   1.38242340   0.01714065
8068.00   1.37179852   0.01672336
8070.00   1.36763585   0.01627077
8072.00   1.36323559   0.01608464
8074.00   1.35947037   0.01609830
8076.00   1.34689522   0.01608233
8078.00   1.33026230   0.01602135
8080.00   1.31871665   0.01596390
8082.00   1.31825161   0.01595781
8084.00   1.32010758   0.01601341
8086.00   1.32010627   0.01605663
8088.00   1.31696105   0.01606325
8090.00   1.30864906   0.01604111
8092.00   1.28795671   0.01601048
8094.00   1.28377628   0.01601351
8096.00   1.28944671   0.01612060
8098.00   1.29142654   0.01627645
8100.00   1.28020895   0.01637174
8102.00   1.28196490   0.01636630
8104.00   1.28027833   0.01636038
8106.00   1.27428710   0.01628275
8108.00   1.26790917   0.01611654
8110.00   1.26332021   0.01589303
8112.00   1.24355543   0.01567829
8114.00   1.23444140   0.01565676
8116.00   1.23579645   0.01571933
8118.00   1.24244404   0.01577447
8120.00   1.24993050   0.01581232
8122.00   1.24934161   0.01581078
8124.00   1.24153709   0.01577622
8126.00   1.23517179   0.01579288
8128.00   1.23520207   0.01591638
8130.00   1.23025143   0.01609122
8132.00   1.22548902   0.01621454
8134.00   1.22150695   0.01627350
8136.00   1.21456659   0.01625096
8138.00   1.20421648   0.01617731
8140.00   1.20014226   0.01618337
8142.00   1.19856083   0.01630195
8144.00   1.19218767   0.01635053
8146.00   1.19055521   0.01639576
8148.00   1.19898987   0.01653739
8150.00   1.20322311   0.01661191
8152.00   1.18648601   0.01642979
8154.00   1.17756522   0.01623351
8156.00   1.17403734   0.01614119
8158.00   1.15699756   0.01616384
8160.00   1.14112675   0.01632129
8162.00   1.15970826   0.01667965
8164.00   1.16210783   0.01673390
8166.00   1.13320887   0.01636197
8168.00   1.11475074   0.01598949
8170.00   1.12418807   0.01599259
8172.00   1.11630416   0.01594501
8174.00   1.10709560   0.01607267
8176.00   1.10881054   0.01653117
8178.00   1.10469508   0.01713485
8180.00   1.10146558   0.01749077
8182.00   1.09367251   0.01755497
8184.00   1.08127868   0.01749888
8186.00   1.06726301   0.01750492
8188.00   1.06011665   0.01753738
8190.00   1.04538262   0.01757313
8192.00   1.03175890   0.01767372
8194.00   1.01999450   0.01779390
8196.00   1.00566244   0.01781193
8198.00   0.98475194   0.01756791
8200.00   0.97748876   0.01686551
8202.00   0.97212571   0.01602063
8204.00   0.96231109   0.01534201
8206.00   0.95078248   0.01502657
8208.00   0.93786854   0.01483160
8210.00   0.92682618   0.01468044
8212.00   0.91586596   0.01454545
8214.00   0.89917070   0.01436557
8216.00   0.86890572   0.01404650
8218.00   0.86547083   0.01402492
8220.00   0.87423795   0.01418525
8222.00   0.87379122   0.01446130
8224.00   0.85813075   0.01483957
8226.00   0.85634041   0.01541823
8228.00   0.85213447   0.01572858
8230.00   0.84421229   0.01549619
8232.00   0.83058763   0.01481890
8234.00   0.81323004   0.01402732
8236.00   0.79508895   0.01356142
8238.00   0.79761982   0.01350604
8240.00   0.79827040   0.01353257
8242.00   0.78713781   0.01344571
8244.00   0.76726156   0.01321407
8246.00   0.76010776   0.01305066
8248.00   0.76791137   0.01302072
8250.00   0.77347058   0.01310340
8252.00   0.76471829   0.01318849
8254.00   0.74011725   0.01313808
8256.00   0.72846919   0.01303968
8258.00   0.72629356   0.01299943
8260.00   0.72206098   0.01291986
8262.00   0.71491194   0.01277114
8264.00   0.71399426   0.01262513
8266.00   0.71603912   0.01261305
8268.00   0.71222574   0.01267865
8270.00   0.70894092   0.01282442
8272.00   0.71069121   0.01314344
8274.00   0.71655041   0.01385994
8276.00   0.71786243   0.01489362
8278.00   0.70417124   0.01565323
8280.00   0.69644994   0.01614600
8282.00   0.71089792   0.01662224
8284.00   0.71117133   0.01740959
8286.00   0.71908283   0.01774553
8288.00   0.72579688   0.01751558
8290.00   0.72106546   0.01708148
8292.00   0.69966960   0.01697247
8294.00   0.71389246   0.01731681
8296.00   0.71182823   0.01739462
8298.00   0.71654850   0.01739956
8300.00   0.72620732   0.01733785
8302.00   0.72287875   0.01701300
8304.00   0.71882123   0.01593994
8306.00   0.72357339   0.01482002
8308.00   0.72749680   0.01416650
8310.00   0.72714287   0.01408645
8312.00   0.73253590   0.01416516
8314.00   0.72999185   0.01420169
8316.00   0.72293472   0.01392976
8318.00   0.71204871   0.01347992
8320.00   0.70563322   0.01310384
8322.00   0.72336084   0.01300536
8324.00   0.72065276   0.01282081
8326.00   0.73201531   0.01277785
8328.00   0.74628145   0.01282917
8330.00   0.74598783   0.01287011
8332.00   0.74357456   0.01288915
8334.00   0.75774652   0.01328158
8336.00   0.73775631   0.01407216
8338.00   0.75291902   0.01465292
8340.00   0.75340283   0.01759133
8342.00   0.78578424   0.01970846
8344.00   0.76462984   0.02060902
8346.00   0.76783842   0.02051511
8348.00   0.75999445   0.02048284
8350.00   0.75581521   0.01947430
8352.00   0.75932837   0.01734576
8354.00   0.77508974   0.01608658
8356.00   0.78300339   0.01598767
8358.00   0.79266685   0.01623078
8360.00   0.78520948   0.01517686
8362.00   0.78880501   0.01503115
8364.00   0.77199250   0.01489823
8366.00   0.78651553   0.01468178
8368.00   0.79843593   0.01452572
8370.00   0.80030107   0.01462746
8372.00   0.80027580   0.01345553
8374.00   0.80126542   0.01321097
8376.00   0.79723197   0.01349726
8378.00   0.78565580   0.01428134
8380.00   0.79884386   0.01495900
8382.00   0.82011288   0.01525889
8384.00   0.83296853   0.01611307
8386.00   0.82996756   0.01569060
8388.00   0.81932497   0.01530788
8390.00   0.83028078   0.01446653
8392.00   0.83445042   0.01462388
8394.00   0.83453614   0.01633686
8396.00   0.84293264   0.01856166
8398.00   0.87093204   0.01972178
8400.00   0.87428278   0.01990311
8402.00   0.87768602   0.01967417
8404.00   0.88851446   0.01843545
8406.00   0.90133786   0.01627811
8408.00   0.89932680   0.01479255
8410.00   0.90551573   0.01438792
8412.00   0.92001581   0.01530749
8414.00   0.93156558   0.01580840
8416.00   0.93039173   0.01583384
8418.00   0.92993349   0.01594189
8420.00   0.94487065   0.01540144
8422.00   0.96491140   0.01490864
8424.00   0.98256636   0.01654706
8426.00   0.99410921   0.01838917
8428.00   0.98551202   0.01948524
8430.00   0.99705428   0.01981483
8432.00   1.00890493   0.01980609
8434.00   1.01921308   0.01918018
8436.00   1.03554368   0.01752500
8438.00   1.05294120   0.01529439
8440.00   1.07045138   0.01445248
8442.00   1.09201944   0.01442776
8444.00   1.10847330   0.01461080
8446.00   1.11066020   0.01492308
8448.00   1.11499083   0.01572054
8450.00   1.13639629   0.01634564
8452.00   1.15760243   0.01663207
8454.00   1.16668272   0.01661218
8456.00   1.16792917   0.01647133
8458.00   1.17788172   0.01625315
8460.00   1.19012320   0.01696134
8462.00   1.20454109   0.01815671
8464.00   1.22129285   0.01908336
8466.00   1.23447716   0.01919140
8468.00   1.24705577   0.01913438
8470.00   1.26010549   0.01838506
8472.00   1.26852798   0.01704977
8474.00   1.27524102   0.01573175
8476.00   1.28909111   0.01558756
8478.00   1.30840874   0.01565749
8480.00   1.31912661   0.01568317
8482.00   1.32288897   0.01563274
8484.00   1.33319819   0.01564715
8486.00   1.36245382   0.01585135
8488.00   1.38289738   0.01630744
8490.00   1.38880551   0.01676495
8492.00   1.39239919   0.01707026
8494.00   1.41521728   0.01719562
8496.00   1.42684948   0.01725983
8498.00   1.44115162   0.01739608
8500.00   1.45270479   0.01777840
8502.00   1.45958602   0.01829381
8504.00   1.46840751   0.01851222
8506.00   1.48226964   0.01856541
8508.00   1.49456072   0.01843035
8510.00   1.50830948   0.01791920
8512.00   1.52278996   0.01708484
8514.00   1.52862775   0.01663044
8516.00   1.53610456   0.01661457
8518.00   1.54802895   0.01671208
8520.00   1.56204796   0.01678543
8522.00   1.57654810   0.01683208
8524.00   1.58832657   0.01690038
8526.00   1.60076511   0.01696156
8528.00   1.60799730   0.01696335
8530.00   1.61553764   0.01696063
8532.00   1.63199389   0.01706452
8534.00   1.63201511   0.01726283
8536.00   1.62788582   0.01738875
8538.00   1.63040113   0.01745585
8540.00   1.64007342   0.01751338
8542.00   1.64692497   0.01762131
8544.00   1.65951693   0.01786996
8546.00   1.67898214   0.01811063
8548.00   1.69053650   0.01822373
8550.00   1.69016314   0.01820166
8552.00   1.69502866   0.01818301
8554.00   1.70931911   0.01795432
8556.00   1.71751320   0.01762549
8558.00   1.72263801   0.01740236
8560.00   1.72952855   0.01738906
8562.00   1.73219216   0.01739462
8564.00   1.73809469   0.01742831
8566.00   1.74023116   0.01744820
8568.00   1.73889744   0.01746208
8570.00   1.73704278   0.01748703
8572.00   1.74026406   0.01751638
8574.00   1.75330770   0.01758218
8576.00   1.76976871   0.01764995
8578.00   1.78095341   0.01766901
8580.00   1.78229463   0.01761908
8582.00   1.77993214   0.01760277
8584.00   1.78310239   0.01768467
8586.00   1.79232979   0.01777077
8588.00   1.79913414   0.01781020
8590.00   1.79433906   0.01784117
8592.00   1.80402911   0.01801767
8594.00   1.80980873   0.01811636
8596.00   1.80837715   0.01810010
8598.00   1.80703676   0.01804185
8600.00   1.82505429   0.01812432
8602.00   1.81241977   0.01797680
8604.00   1.80815220   0.01782814
8606.00   1.81628239   0.01778986
8608.00   1.82551897   0.01787491
8610.00   1.82313216   0.01795843
8612.00   1.82526553   0.01812555
8614.00   1.81566298   0.01836407
8616.00   1.80949402   0.01862021
8618.00   1.82561111   0.01890019
8620.00   1.83705580   0.01925472
8622.00   1.83676994   0.01957975
8624.00   1.83020604   0.01987133
8626.00   1.82253361   0.02011144
8628.00   1.82126367   0.02028585
8630.00   1.82479286   0.02036320
8632.00   1.82914150   0.02032976
8634.00   1.83188689   0.02017768
8636.00   1.83150399   0.01991742
8638.00   1.82779968   0.01958866
8640.00   1.83585441   0.01922179
8642.00   1.84827101   0.01896742
8644.00   1.85437644   0.01890343
8646.00   1.84714508   0.01901556
8648.00   1.83322012   0.01922869
8650.00   1.84344959   0.01964284
8652.00   1.85540640   0.02002096
8654.00   1.85542202   0.02027372
8656.00   1.84096432   0.02037493
8658.00   1.84505272   0.02035737
8660.00   1.83912504   0.02032431
8662.00   1.83002818   0.02022032
8664.00   1.82741463   0.02007700
8666.00   1.83669102   0.01994701
8668.00   1.84808636   0.01982940
8670.00   1.82782233   0.01958399
8672.00   1.81626749   0.01934497
8674.00   1.82445586   0.01915569
8676.00   1.84002745   0.01898712
8678.00   1.83997858   0.01880669
8680.00   1.84104156   0.01862477
8682.00   1.83523786   0.01843856
8684.00   1.82787037   0.01827461
8686.00   1.83333004   0.01816898
8688.00   1.82879746   0.01803219
8690.00   1.81877470   0.01790780
8692.00   1.81809032   0.01784039
8694.00   1.82910156   0.01783890
8696.00   1.83566797   0.01786844
8698.00   1.83880460   0.01786670
8700.00   1.83449173   0.01782367
8702.00   1.82321966   0.01776440
8704.00   1.81609476   0.01773740
8706.00   1.83524334   0.01777896
8708.00   1.85339546   0.01781583
8710.00   1.84731662   0.01776569
8712.00   1.83217847   0.01767245
8714.00   1.83061540   0.01761015
8716.00   1.82525444   0.01753656
8718.00   1.82734251   0.01753661
8720.00   1.83058608   0.01756028
8722.00   1.83041441   0.01757056
8724.00   1.83231115   0.01758106
8726.00   1.83682954   0.01758806
8728.00   1.83136189   0.01756346
8730.00   1.82157576   0.01752509
8732.00   1.81741655   0.01750457
8734.00   1.83275664   0.01755571
8736.00   1.83679950   0.01759225
8738.00   1.83177471   0.01760114
8740.00   1.82423401   0.01758729
8742.00   1.82229626   0.01757917
8744.00   1.83232248   0.01762002
8746.00   1.82110214   0.01757241
8748.00   1.81792307   0.01753328
8750.00   1.82216644   0.01753940
8752.00   1.82465649   0.01767895
8754.00   1.81979227   0.01816381
8756.00   1.81610870   0.01922847
8758.00   1.81896937   0.02026208
8760.00   1.81873798   0.02108925
8762.00   1.80591762   0.02182194
8764.00   1.79002655   0.02290107
8766.00   1.77036273   0.02282439
8768.00   1.77123964   0.02218281
8770.00   1.78778279   0.02168691
8772.00   1.78609276   0.02182543
8774.00   1.77743304   0.02198136
8776.00   1.77198088   0.02197972
8778.00   1.77395391   0.02190690
8780.00   1.77695847   0.02168210
8782.00   1.76995289   0.02101214
8784.00   1.77055454   0.01948709
8786.00   1.76588595   0.01856823
8788.00   1.76428413   0.01842198
8790.00   1.76987708   0.01864729
8792.00   1.76524162   0.01866423
8794.00   1.77058411   0.01866961
8796.00   1.77432060   0.01834544
8798.00   1.77243900   0.01779144
8800.00   1.76738989   0.01729802
8802.00   1.75552464   0.01712881
8804.00   1.74896872   0.01717694
8806.00   1.75499725   0.01729715
8808.00   1.76265609   0.01738979
8810.00   1.75779688   0.01740982
8812.00   1.74943495   0.01736370
8814.00   1.75266981   0.01733307
8816.00   1.74703419   0.01721531
8818.00   1.73027718   0.01727849
8820.00   1.71885359   0.01817725
8822.00   1.72007036   0.02120878
8824.00   1.71641016   0.02400883
8826.00   1.70243824   0.02535436
8828.00   1.68271196   0.02542829
8830.00   1.66637290   0.02546160
8832.00   1.67228210   0.02453333
8834.00   1.67933273   0.02275219
8836.00   1.68121302   0.02115382
8838.00   1.67564523   0.02043494
8840.00   1.66542625   0.01993201
8842.00   1.63470089   0.01868438
8844.00   1.61183393   0.01763746
8846.00   1.61165190   0.01736477
8848.00   1.62661934   0.01777960
8850.00   1.60951996   0.01775885
8852.00   1.58920145   0.01766578
8854.00   1.59801471   0.01752918
8856.00   1.61466217   0.01728130
8858.00   1.60559332   0.01695153
8860.00   1.61198437   0.01718067
8862.00   1.61588478   0.01800860
8864.00   1.59985769   0.01886683
8866.00   1.57171154   0.01933647
8868.00   1.56234634   0.01929667
8870.00   1.53715503   0.01911493
8872.00   1.51677692   0.01843080
8874.00   1.49675882   0.01727772
8876.00   1.47310793   0.01617973
8878.00   1.45155430   0.01621518
8880.00   1.44621611   0.01782251
8882.00   1.43418646   0.02028646
8884.00   1.41877460   0.02188472
8886.00   1.37618101   0.02209098
8888.00   1.39877379   0.02200333
8890.00   1.39475679   0.02108558
8892.00   1.37722147   0.01881729
8894.00   1.35494101   0.01641312
8896.00   1.34012413   0.01568063
8898.00   1.31864023   0.01639732
8900.00   1.31619608   0.01753042
8902.00   1.30941820   0.01813131
8904.00   1.29886019   0.01815875
8906.00   1.29541051   0.01793094
8908.00   1.29671204   0.01726856
8910.00   1.30496168   0.01622504
8912.00   1.29851854   0.01597954
8914.00   1.28143549   0.01748027
8916.00   1.27516603   0.02040990
8918.00   1.27090418   0.02198076
8920.00   1.25587642   0.02230137
8922.00   1.24805164   0.02199323
8924.00   1.25341988   0.02102411
8926.00   1.26078260   0.01852269
8928.00   1.25795305   0.01634628
8930.00   1.25327742   0.01538084
8932.00   1.24441779   0.01521811
8934.00   1.22966039   0.01515977
8936.00   1.20873511   0.01504381
8938.00   1.20683825   0.01583522
8940.00   1.20228112   0.01677919
8942.00   1.19578993   0.01739592
8944.00   1.19087458   0.01753179
8946.00   1.18245268   0.01759445
8948.00   1.19703591   0.01714574
8950.00   1.19096708   0.01659641
8952.00   1.17156732   0.01708282
8954.00   1.16744268   0.01916033
8956.00   1.16935039   0.02082858
8958.00   1.14850712   0.02127321
8960.00   1.15011096   0.02157716
8962.00   1.17307389   0.02139531
8964.00   1.17941606   0.01946311
8966.00   1.15994489   0.01678796
8968.00   1.15349519   0.01560723
8970.00   1.15468848   0.01556594
8972.00   1.15709245   0.01574379
8974.00   1.15926754   0.01559693
8976.00   1.14501858   0.01529879
8978.00   1.13017571   0.01511360
8980.00   1.12681329   0.01521231
8982.00   1.13366687   0.01576919
8984.00   1.12746119   0.01695405
8986.00   1.16126120   0.01886935
8988.00   1.18894136   0.02012812
8990.00   1.19037569   0.02002746
8992.00   1.16697466   0.01853825
8994.00   1.14240801   0.01704887
8996.00   1.13231671   0.01700071
8998.00   1.13625801   0.01832308
9000.00   1.15322506   0.01988646
9002.00   1.17719221   0.02060560
9004.00   1.17234373   0.02039202
9006.00   1.16001809   0.01923331
9008.00   1.17945468   0.01761102
9010.00   1.21510839   0.01630116
9012.00   1.21805525   0.01609950
9014.00   1.22800744   0.01635097
9016.00   1.25743437   0.01665207
9018.00   1.25278461   0.01655350
9020.00   1.20791936   0.01608960
9022.00   1.18050992   0.01583329
9024.00   1.19455111   0.01599150
9026.00   1.19679773   0.01590847
9028.00   1.19189405   0.01559881
9030.00   1.19103730   0.01527404
9032.00   1.18071544   0.01511047
9034.00   1.19121516   0.01531649
9036.00   1.19801843   0.01552726
9038.00   1.19847071   0.01568228
9040.00   1.19462967   0.01581387
9042.00   1.20445144   0.01598501
9044.00   1.20958471   0.01612261
9046.00   1.21366000   0.01639147
9048.00   1.21643984   0.01671015
9050.00   1.21975696   0.01689965
9052.00   1.22993100   0.01694642
9054.00   1.23651540   0.01655223
9056.00   1.24015045   0.01596151
9058.00   1.24529600   0.01555435
9060.00   1.24997878   0.01562072
9062.00   1.24747407   0.01567488
9064.00   1.23905063   0.01568866
9066.00   1.23136711   0.01583238
9068.00   1.23600292   0.01617745
9070.00   1.26920950   0.01662407
9072.00   1.27755356   0.01653324
9074.00   1.26327050   0.01618689
9076.00   1.24097168   0.01590955
9078.00   1.23350954   0.01593530
9080.00   1.26431000   0.01621568
9082.00   1.27352369   0.01628972
9084.00   1.26081121   0.01618703
9086.00   1.25523579   0.01618716
9088.00   1.27621460   0.01646702
9090.00   1.27309513   0.01660991
9092.00   1.27228606   0.01659114
9094.00   1.27531707   0.01664120
9096.00   1.27613914   0.01682220
9098.00   1.26730263   0.01704687
9100.00   1.26251149   0.01712923
9102.00   1.24549949   0.01710407
9104.00   1.24682701   0.01722430
9106.00   1.26446736   0.01725920
9108.00   1.26743996   0.01665240
9110.00   1.24691951   0.01565669
9112.00   1.23628914   0.01523395
9114.00   1.24136889   0.01545825
9116.00   1.26096356   0.01598906
9118.00   1.28628528   0.01631936
9120.00   1.26018369   0.01587356
9122.00   1.22430730   0.01530387
9124.00   1.21276557   0.01516263
9126.00   1.23524296   0.01567491
9128.00   1.26313388   0.01651207
9130.00   1.27873266   0.01703236
9132.00   1.26243830   0.01711141
9134.00   1.24582875   0.01694326
9136.00   1.25836456   0.01673932
9138.00   1.24466360   0.01615600
9140.00   1.21869504   0.01550459
9142.00   1.21194851   0.01515524
9144.00   1.22413242   0.01518549
9146.00   1.23213768   0.01543803
9148.00   1.22670424   0.01590964
9150.00   1.23259413   0.01670516
9152.00   1.24209678   0.01751834
9154.00   1.24660349   0.01792749
9156.00   1.23726332   0.01754862
9158.00   1.20155060   0.01662929
9160.00   1.19272828   0.01597393
9162.00   1.19647110   0.01569967
9164.00   1.19739449   0.01564222
9166.00   1.19982958   0.01554044
9168.00   1.21894395   0.01567336
9170.00   1.20691049   0.01594117
9172.00   1.20153677   0.01634353
9174.00   1.22253907   0.01669033
9176.00   1.21906555   0.01648890
9178.00   1.20160544   0.01590667
9180.00   1.18377209   0.01549683
9182.00   1.18506479   0.01544337
9184.00   1.20696270   0.01557046
9186.00   1.20430839   0.01533307
9188.00   1.18662214   0.01506069
9190.00   1.18303907   0.01502872
9192.00   1.18866110   0.01517778
9194.00   1.18483436   0.01526112
9196.00   1.18410981   0.01518544
9198.00   1.17294931   0.01486157
9200.00   1.16345513   0.01457023
9202.00   1.16064644   0.01449158
9204.00   1.16433859   0.01463771
9206.00   1.18107986   0.01488463
9208.00   1.18280160   0.01497583
9210.00   1.18584764   0.01512370
9212.00   1.19805324   0.01542576
9214.00   1.20517612   0.01573467
9216.00   1.20848525   0.01591761
9218.00   1.21477139   0.01597321
9220.00   1.21626961   0.01588949
9222.00   1.21384299   0.01579231
9224.00   1.22783458   0.01600945
9226.00   1.25564528   0.01636854
9228.00   1.27782059   0.01655547
9230.00   1.28710043   0.01654285
9232.00   1.28220570   0.01639166
9234.00   1.25858951   0.01606765
9236.00   1.23782539   0.01575715
9238.00   1.23090816   0.01560914
9240.00   1.22969520   0.01561054
9242.00   1.21996248   0.01564149
9244.00   1.21995366   0.01565326
9246.00   1.22007442   0.01562081
9248.00   1.22132671   0.01559612
9250.00   1.22250712   0.01556023
9252.00   1.21857941   0.01543082
9254.00   1.21597493   0.01529279
9256.00   1.21914017   0.01531100
9258.00   1.22083080   0.01539511
9260.00   1.21752560   0.01542364
9262.00   1.21711409   0.01534088
9264.00   1.20764017   0.01515014
9266.00   1.19596541   0.01496541
9268.00   1.19455230   0.01492651
9270.00   1.20677173   0.01508621
9272.00   1.22349596   0.01536443
9274.00   1.21815884   0.01572563
9276.00   1.22574902   0.01618382
9278.00   1.24494195   0.01657147
9280.00   1.25888145   0.01674959
9282.00   1.23788631   0.01673547
9284.00   1.21839523   0.01675446
9286.00   1.22064292   0.01684589
9288.00   1.22827446   0.01693009
9290.00   1.21199882   0.01693226
9292.00   1.21321297   0.01720184
9294.00   1.22580755   0.01770767
9296.00   1.23652601   0.01820682
9298.00   1.24256706   0.01871271
9300.00   1.25012636   0.01954403
9302.00   1.24662054   0.02154010
9304.00   1.22076690   0.02391433
9306.00   1.22895539   0.02677718
9308.00   1.23546243   0.03002737
9310.00   1.25109303   0.03329087
9312.00   1.23749173   0.03498743
9314.00   1.25932109   0.03651084
9316.00   1.29723418   0.03750943
9318.00   1.30794346   0.03731003
9320.00   1.23544204   0.03522721
9322.00   1.24160206   0.03494969
9324.00   1.29552853   0.03472059
9326.00   1.33125865   0.03321222
9328.00   1.33186245   0.02989297
9330.00   1.24092507   0.02629895
9332.00   1.25573719   0.02579367
9334.00   1.30239618   0.02770661
9336.00   1.32797778   0.02970066
9338.00   1.29950321   0.03010616
9340.00   1.28167391   0.03175489
9342.00   1.35677052   0.03313923
9344.00   1.39393568   0.03073047
9346.00   1.33561456   0.02475660
9348.00   1.23662233   0.02097777
9350.00   1.23592806   0.02071027
9352.00   1.29902458   0.02330110
9354.00   1.35764873   0.02611530
9356.00   1.36619055   0.02698398
9358.00   1.32700133   0.02404682
9360.00   1.26047814   0.02146310
9362.00   1.22832060   0.02046905
9364.00   1.25713158   0.02158709
9366.00   1.32371521   0.02479164
9368.00   1.33281517   0.03011403
9370.00   1.36129904   0.03831688
9372.00   1.36087930   0.04434060
9374.00   1.31961477   0.04809383
9376.00   1.26611423   0.05083847
9378.00   1.34904861   0.05356256
9380.00   1.35991514   0.04911833
9382.00   1.29719722   0.03965189
9384.00   1.23744583   0.02683560
9386.00   1.27025115   0.02137979
9388.00   1.26672637   0.01945558
9390.00   1.25075948   0.01806270
9392.00   1.24652863   0.01735889
9394.00   1.26062715   0.01764734
9396.00   1.27479923   0.01872224
9398.00   1.27246046   0.02036054
9400.00   1.28804600   0.02176208
9402.00   1.29366970   0.02222659
9404.00   1.27828777   0.02180057
9406.00   1.26502895   0.02146311
9408.00   1.28955996   0.02112709
9410.00   1.31711292   0.02052618
9412.00   1.31061780   0.02006917
9414.00   1.26657832   0.02042044
9416.00   1.23957443   0.02212693
9418.00   1.24792635   0.02330402
9420.00   1.25277984   0.02387750
9422.00   1.24791896   0.02462063
9424.00   1.25290155   0.02613305
9426.00   1.26927447   0.02759016
9428.00   1.32977855   0.02563912
9430.00   1.28661668   0.02208507
9432.00   1.20426619   0.01962204
9434.00   1.17776763   0.02167124
9436.00   1.20299613   0.02865460
9438.00   1.30041933   0.03968880
9440.00   1.38230944   0.04829353
9442.00   1.36991692   0.04703410
9444.00   1.23741150   0.03485562
9446.00   1.16191852   0.02593923
9448.00   1.15054274   0.02059284
9450.00   1.18219876   0.01957525
9452.00   1.27164471   0.02177846
9454.00   1.30513597   0.02671897
9456.00   1.28471780   0.03141277
9458.00   1.25945473   0.03332937
9460.00   1.23913455   0.03252267
9462.00   1.25340950   0.03048200
9464.00   1.19183922   0.02511797
9466.00   1.19696045   0.02188177
9468.00   1.21223533   0.02058989
9470.00   1.22138846   0.02173090
9472.00   1.19097435   0.02484521
9474.00   1.21974087   0.02940247
9476.00   1.24259531   0.03218595
9478.00   1.22701120   0.03454547
9480.00   1.22212458   0.03487644
9482.00   1.22654581   0.03103980
9484.00   1.16786635   0.02381325
9486.00   1.13177812   0.01900608
9488.00   1.12546468   0.01758949
9490.00   1.14192879   0.01842873
9492.00   1.16550934   0.02004074
9494.00   1.22615683   0.02257008
9496.00   1.26384389   0.02648028
9498.00   1.28182316   0.03025098
9500.00   1.27260983   0.03178461
9502.00   1.20413494   0.02806506
9504.00   1.13626635   0.02409535
9506.00   1.10971582   0.02126487
9508.00   1.10987031   0.01955259
9510.00   1.11539614   0.01830835
9512.00   1.13090217   0.01805716
9514.00   1.16170073   0.02015137
9516.00   1.19921720   0.02343675
9518.00   1.21768689   0.02598084
9520.00   1.20069456   0.02655139
9522.00   1.16916120   0.02546762
9524.00   1.15849173   0.02390624
9526.00   1.14747572   0.02199934
9528.00   1.13417363   0.02023853
9530.00   1.12678576   0.01932736
9532.00   1.10351646   0.01887582
9534.00   1.11241829   0.01888750
9536.00   1.12523782   0.01901011
9538.00   1.13293898   0.01927430
9540.00   1.14804518   0.02003942
9542.00   1.19719756   0.02134434
9544.00   1.24109459   0.02203105
9546.00   1.23629904   0.02221667
9548.00   1.18818223   0.02252967
9550.00   1.15884304   0.02380381
9552.00   1.14886200   0.02554268
9554.00   1.14961720   0.02627669
9556.00   1.12824643   0.02515590
9558.00   1.07345450   0.02239427
9560.00   1.04960239   0.02086113
9562.00   1.06119287   0.02367409
9564.00   1.09934139   0.02781950
9566.00   1.11550963   0.02993294
9568.00   1.06806576   0.02824528
9570.00   1.04584968   0.02529668
9572.00   1.02121627   0.02215639
9574.00   1.01443982   0.01941060
9576.00   1.03027248   0.01794534
9578.00   1.05438673   0.01829911
9580.00   1.07325876   0.01878414
9582.00   1.04802883   0.01824918
9584.00   1.01928198   0.01779007
9586.00   1.01668262   0.01832620
9588.00   1.04488671   0.01987024
9590.00   1.07178509   0.02077077
9592.00   1.05833924   0.02020843
9594.00   1.02396619   0.01892267
9596.00   0.99605632   0.01780666
9598.00   0.99341172   0.01724778
9600.00   0.98735619   0.01705276
9602.00   1.00182557   0.01788083
9604.00   1.02112138   0.01916568
9606.00   1.02263200   0.01996990
9608.00   0.99869871   0.01928986
9610.00   0.96992236   0.01835072
9612.00   0.96585423   0.01781744
9614.00   0.97958642   0.01797185
9616.00   0.98627239   0.01870890
9618.00   0.97634774   0.01988226
9620.00   0.98653960   0.02092282
9622.00   0.98452312   0.02122523
9624.00   0.97344857   0.02064667
9626.00   0.97656727   0.01936817
9628.00   0.97109026   0.01759617
9630.00   0.93816996   0.01627454
9632.00   0.92378360   0.01610062
9634.00   0.94742489   0.01699276
9636.00   0.98711604   0.01808239
9638.00   0.96503955   0.01767671
9640.00   0.92827111   0.01690592
9642.00   0.92296785   0.01671226
9644.00   0.95467478   0.01725326
9646.00   0.97174388   0.01750186
9648.00   0.94841367   0.01684766
9650.00   0.92416745   0.01629616
9652.00   0.91604394   0.01621920
9654.00   0.92290920   0.01654235
9656.00   0.91166896   0.01672515
9658.00   0.92857343   0.01728222
9660.00   0.94648784   0.01808240
9662.00   0.95479721   0.01880554
9664.00   0.95007396   0.01914809
9666.00   0.92537522   0.01918352
9668.00   0.89572948   0.01882792
9670.00   0.87918144   0.01829865
9672.00   0.87580514   0.01769612
9674.00   0.87608975   0.01711090
9676.00   0.87616682   0.01726391
9678.00   0.87653095   0.01842770
9680.00   0.88315719   0.01947204
9682.00   0.89007252   0.01967515
9684.00   0.87619209   0.01889034
9686.00   0.84813023   0.01794266
9688.00   0.85355848   0.01730289
9690.00   0.87626666   0.01699787
9692.00   0.88534212   0.01706582
9694.00   0.86484581   0.01783358
9696.00   0.88121825   0.01933713
9698.00   0.88356501   0.02024187
9700.00   0.87639064   0.02039519
9702.00   0.87299395   0.01994763
9704.00   0.87027651   0.01885864
9706.00   0.87256193   0.01762339
9708.00   0.87020832   0.01706376
9710.00   0.85883927   0.01721901
9712.00   0.84092802   0.01771140
9714.00   0.85329324   0.01903560
9716.00   0.86412877   0.02051520
9718.00   0.85721713   0.02130496
9720.00   0.84555799   0.02148370
9722.00   0.85787040   0.02164016
9724.00   0.86197704   0.02115755
9726.00   0.84424520   0.01924498
9728.00   0.82701427   0.01724366
9730.00   0.82400054   0.01654015
9732.00   0.82931662   0.01739353
9734.00   0.82939869   0.01885696
9736.00   0.84040672   0.01971000
9738.00   0.83819944   0.01969796
9740.00   0.81489521   0.01909192
9742.00   0.80840307   0.01871146
9744.00   0.80401009   0.01794494
9746.00   0.80572325   0.01730571
9748.00   0.81244421   0.01700902
9750.00   0.81876683   0.01694422
9752.00   0.81128353   0.01649471
9754.00   0.81917685   0.01631997
9756.00   0.83055478   0.01635683
9758.00   0.83649731   0.01642721
9760.00   0.83279616   0.01635468
9762.00   0.82488745   0.01625820
9764.00   0.80457306   0.01581669
9766.00   0.79410130   0.01531676
9768.00   0.79323989   0.01497753
9770.00   0.78685403   0.01488644
9772.00   0.78033561   0.01497945
9774.00   0.79093295   0.01528569
9776.00   0.79398531   0.01552522
9778.00   0.78525108   0.01562110
9780.00   0.78398257   0.01573235
9782.00   0.77999848   0.01616335
9784.00   0.78328329   0.01754366
9786.00   0.79207677   0.02003274
9788.00   0.79820061   0.02290571
9790.00   0.78877789   0.02488913
9792.00   0.78923160   0.02551237
9794.00   0.76542181   0.02495530
9796.00   0.75261492   0.02363569
9798.00   0.78127432   0.02212320
9800.00   0.79984975   0.02099837
9802.00   0.78519082   0.02014536
9804.00   0.76270050   0.01918228
9806.00   0.74186414   0.01815779
9808.00   0.73200005   0.01759846
9810.00   0.78329247   0.01906515
9812.00   0.77818513   0.01844035
9814.00   0.75484300   0.01818811
9816.00   0.75388598   0.01849502
9818.00   0.74708492   0.01706924
9820.00   0.75693458   0.01671756
9822.00   0.76831532   0.01680142
9824.00   0.77206141   0.01681976
9826.00   0.76574916   0.01666447
9828.00   0.75449705   0.01656535
9830.00   0.75037974   0.01635830
9832.00   0.74669981   0.01603612
9834.00   0.74293274   0.01568417
9836.00   0.73897094   0.01541737
9838.00   0.73079449   0.01530364
9840.00   0.75340462   0.01584443
9842.00   0.76109385   0.01683176
9844.00   0.75566310   0.01809544
9846.00   0.75367600   0.01931916
9848.00   0.75024527   0.01988150
9850.00   0.73862487   0.01968822
9852.00   0.73236865   0.01903288
9854.00   0.72823578   0.01795822
9856.00   0.72377139   0.01657125
9858.00   0.73988181   0.01598598
9860.00   0.74334311   0.01577963
9862.00   0.73607522   0.01590563
9864.00   0.72756654   0.01693563
9866.00   0.72567463   0.01954502
9868.00   0.71332127   0.02344576
9870.00   0.71490401   0.02622912
9872.00   0.71241623   0.02749872
9874.00   0.71077043   0.02738106
9876.00   0.74497849   0.02635364
9878.00   0.75715274   0.02329994
9880.00   0.74836063   0.01990529
9882.00   0.73381251   0.01753771
9884.00   0.72585756   0.01692129
9886.00   0.72548276   0.01707111
9888.00   0.72875118   0.01786271
9890.00   0.73006630   0.01932522
9892.00   0.72893339   0.02075977
9894.00   0.72834367   0.02154626
9896.00   0.72162032   0.02150595
9898.00   0.72099823   0.02116729
9900.00   0.73036265   0.02012537
9902.00   0.73773128   0.01860788
9904.00   0.72710830   0.01740285
9906.00   0.72269696   0.01763276
9908.00   0.71860987   0.01979682
9910.00   0.71076727   0.02322880
9912.00   0.70447606   0.02648082
9914.00   0.71399850   0.02827428
9916.00   0.71379018   0.02845594
9918.00   0.69653505   0.02735990
9920.00   0.68862528   0.02479254
9922.00   0.70106512   0.02117483
9924.00   0.71135730   0.01829513
9926.00   0.69292384   0.01731415
9928.00   0.69069546   0.01707743
9930.00   0.70074320   0.01712347
9932.00   0.70869493   0.01742726
9934.00   0.70220327   0.01818348
9936.00   0.68731624   0.02009858
9938.00   0.67583519   0.02319819
9940.00   0.66718102   0.02690755
9942.00   0.66146916   0.03053364
9944.00   0.67170757   0.03352774
9946.00   0.68976998   0.03445357
9948.00   0.69301432   0.03381938
9950.00   0.68465966   0.03252885
9952.00   0.68578690   0.03165026
9954.00   0.70501608   0.03115919
9956.00   0.71700090   0.03168236
9958.00   0.71033806   0.03276774
9960.00   0.69277430   0.03331207
9962.00   0.68882662   0.03209708
9964.00   0.68698090   0.02945673
9966.00   0.68611962   0.02709471
9968.00   0.66892135   0.02511256
9970.00   0.70131922   0.02351936
9972.00   0.69230938   0.02275767
9974.00   0.70570344   0.02277927
9976.00   0.71057755   0.02256931
9978.00   0.69858962   0.02168959
9980.00   0.67810041   0.02030864
9982.00   0.68133861   0.01951179
9984.00   0.68221855   0.01902435
9986.00   0.69187945   0.01871950
9988.00   0.69809276   0.01852688
9990.00   0.69057131   0.01847202
9992.00   0.68647218   0.01868075
9994.00   0.68646711   0.01928418
9996.00   0.68615061   0.02014909
9998.00   0.68400794   0.02096427
10000.00   0.68082744   0.02147611
10002.00   0.68158221   0.02175158
10004.00   0.68476933   0.02280632
10006.00   0.68591970   0.02591844
10008.00   0.67862225   0.03081182
10010.00   0.66541433   0.03614685
10012.00   0.64547223   0.03890386
10014.00   0.63436753   0.03958758
10016.00   0.64592427   0.03850925
10018.00   0.65051204   0.03578342
10020.00   0.67654234   0.03117377
10022.00   0.68352395   0.02908798
10024.00   0.67365146   0.02850339
10026.00   0.65967172   0.02852132
10028.00   0.65796083   0.02814347
10030.00   0.66627371   0.02652494
10032.00   0.67753291   0.02396955
10034.00   0.68114018   0.02197428
10036.00   0.68396300   0.02132286
10038.00   0.69255930   0.02190115
10040.00   0.69115371   0.02291208
10042.00   0.68707967   0.02345906
10044.00   0.67959803   0.02356646
10046.00   0.67611104   0.02334245
10048.00   0.65860295   0.02286402
10050.00   0.67353505   0.02181316
10052.00   0.66753054   0.02127194
10054.00   0.68118685   0.02214921
10056.00   0.70396167   0.02414184
10058.00   0.69952697   0.02607570
10060.00   0.73485416   0.02734306
10062.00   0.74031812   0.02798146
10064.00   0.72083116   0.02794860
10066.00   0.66985065   0.02731127
10068.00   0.67085761   0.02633270
10070.00   0.65993750   0.02547526
10072.00   0.66117120   0.02510462
10074.00   0.67015928   0.02573782
10076.00   0.67378813   0.02780782
10078.00   0.64269644   0.03147982
10080.00   0.65506941   0.03501109
10082.00   0.65027845   0.03695624
10084.00   0.68148166   0.03716673
10086.00   0.65061736   0.03576129
10088.00   0.64634883   0.03214539
10090.00   0.65957665   0.02776199
10092.00   0.67107362   0.02469905
10094.00   0.66447580   0.02379929
10096.00   0.64388943   0.02427423
10098.00   0.66246587   0.02637106
10100.00   0.65195298   0.02860592
10102.00   0.66764736   0.03075163
10104.00   0.66632080   0.03087530
10106.00   0.64978838   0.03062329
10108.00   0.67065614   0.03018663
10110.00   0.66254658   0.02708616
10112.00   0.67909592   0.02545763
10114.00   0.69855648   0.02520628
10116.00   0.70509219   0.02695275
10118.00   0.70633978   0.03158033
10120.00   0.68865114   0.03736225
10122.00   0.67199606   0.04173257
10124.00   0.69348204   0.04354000
10126.00   0.64710337   0.04354015
10128.00   0.63714749   0.04139166
10130.00   0.68267775   0.03683564
10132.00   0.66486788   0.03150226
10134.00   0.64917785   0.02818899
10136.00   0.64559656   0.02737974
10138.00   0.67177147   0.02744346
10140.00   0.67608768   0.02777181
10142.00   0.66399759   0.02832153
10144.00   0.66692573   0.02935076
10146.00   0.71107244   0.03100659
10148.00   0.68556243   0.03314124
10150.00   0.67317170   0.03511032
10152.00   0.65455991   0.03640294
10154.00   0.64255184   0.03690893
10156.00   0.64631081   0.03729772
10158.00   0.67644215   0.03635767
10160.00   0.66138804   0.03487008
10162.00   0.65824080   0.03410596
10164.00   0.65546638   0.03538553
10166.00   0.64120966   0.03965566
10168.00   0.62185514   0.04516004
10170.00   0.60251695   0.04947756
10172.00   0.67288476   0.05128040
10174.00   0.65593284   0.04949171
10176.00   0.68332523   0.04900533
10178.00   0.67466021   0.04438157
10180.00   0.63457340   0.03926380
10182.00   0.65272683   0.03798403
10184.00   0.67042065   0.04064612
10186.00   0.64874285   0.04362136
10188.00   0.65277457   0.04575357
10190.00   0.62524605   0.04651417
10192.00   0.59111935   0.04569171
10194.00   0.60533720   0.04393652
10196.00   0.62426263   0.04075681
10198.00   0.64509851   0.03878551
10200.00   0.65811831   0.03934090
10202.00   0.65187889   0.04140972
10204.00   0.66591382   0.04492209
10206.00   0.63571376   0.04951654
10208.00   0.62843096   0.05329654
10210.00   0.64928102   0.05488074
10212.00   0.57317078   0.05429677
10214.00   0.58864021   0.05229678
10216.00   0.65034109   0.04808226
10218.00   0.68392873   0.04341723
10220.00   0.68317491   0.04128249
10222.00   0.64489245   0.04322336
10224.00   0.60800731   0.04580272
10226.00   0.61222684   0.04836460
10228.00   0.62316513   0.04986691
10230.00   0.52775633   0.05046355
10232.00   0.62224478   0.04736012
10234.00   0.59754664   0.04393409
10236.00   0.56925595   0.04044016
10238.00   0.55855626   0.03732605
10240.00   0.60670388   0.03532901
10242.00   0.61276650   0.03464084
10244.00   0.62039864   0.03441377
10246.00   0.61523336   0.03426744
10248.00   0.59647518   0.03412957
10250.00   0.58298141   0.03423109
10252.00   0.60083818   0.03474521
10254.00   0.60905331   0.03524940
10256.00   0.60457516   0.03564340
10258.00   0.60069579   0.03602402
10260.00   0.60013252   0.03644218
10262.00   0.60710788   0.03714326
10264.00   0.61199468   0.03840505
10266.00   0.60959470   0.04011367
10268.00   0.60137892   0.04189232
10270.00   0.61201829   0.04326111
10272.00   0.60707259   0.04411484
10274.00   0.59060025   0.04445888
10276.00   0.57858139   0.04555748
10278.00   0.54629362   0.04995769
10280.00   0.58170098   0.06126505
10282.00   0.53735793   0.07511035
10284.00   0.56420696   0.08966053
10286.00   0.59648544   0.09749650
10288.00   0.71716863   0.09867571
10290.00   0.65228903   0.09552692
10292.00   0.58591205   0.08917246
10294.00   0.55707133   0.07994816
10296.00   0.55609316   0.07142115
10298.00   0.62113798   0.07014485
10300.00   0.59439439   0.06766233
10302.00   0.59665495   0.06035776
10304.00   0.60383993   0.05588059
10306.00   0.63796872   0.05468290
10308.00   0.61580610   0.05481467
10310.00   0.55962670   0.05400388
10312.00   0.53762621   0.05327372
10314.00   0.55528712   0.05211763
10316.00   0.58571428   0.05004039
10318.00   0.56745917   0.04797681
10320.00   0.55796057   0.04714847
10322.00   0.56430835   0.04773100
10324.00   0.57977659   0.04889622
10326.00   0.57119530   0.04951094
10328.00   0.55257350   0.04846918
10330.00   0.54439008   0.05025369
10332.00   0.58881515   0.05061997
10334.00   0.56253046   0.05087517
10336.00   0.51669019   0.05174870
10338.00   0.59592450   0.05358164
10340.00   0.58386493   0.05734937
10342.00   0.63075525   0.06328977
10344.00   0.63802356   0.06776933
10346.00   0.50558531   0.07008635
10348.00   0.56717616   0.07357021
10350.00   0.61541754   0.07444387
10352.00   0.61975199   0.07242700
10354.00   0.54988164   0.06772598
10356.00   0.56110942   0.06387572
10358.00   0.56492388   0.06414305
10360.00   0.57491964   0.06154861
10362.00   0.56355351   0.06122087
10364.00   0.49487865   0.06413025
10366.00   0.56058538   0.07423231
10368.00   0.57831538   0.09209672
10370.00   0.57395869   0.10613608
10372.00   0.58856928   0.11415196
10374.00   0.42801923   0.11653695
10376.00   0.45962733   0.11333782
10378.00   0.54333413   0.10223482
10380.00   0.55458403   0.08757962
10382.00   0.48866564   0.07483880
10384.00   0.48551849   0.06875772
10386.00   0.56484514   0.06980740
10388.00   0.59088564   0.07186175
10390.00   0.61570817   0.07700769
10392.00   0.49907207   0.08587568
10394.00   0.49008894   0.09384714
10396.00   0.61362147   0.09411590
10398.00   0.56220615   0.09523641
10400.00   0.56805778   0.09514525
10402.00   0.61159950   0.08874041
10404.00   0.63800538   0.08207009
10406.00   0.62751341   0.07932907
10408.00   0.66494811   0.08266996
10410.00   0.68367058   0.08957337
10412.00   0.60495281   0.10459533
10414.00   0.78925514   0.13022336
10416.00   0.83190733   0.14476985
10418.00   0.69110322   0.15231650
10420.00   0.59740496   0.15364465
10422.00   0.62764072   0.14891027
10424.00   0.53697062   0.12967767
10426.00   0.53610647   0.10856255
10428.00   0.52193189   0.09525908
10430.00   0.65082586   0.09079559
10432.00   0.69203746   0.08856025
10434.00   0.53969586   0.08710738
10436.00   0.54204100   0.08282460
10438.00   0.61859298   0.08236131
10440.00   0.60573202   0.08304264
10442.00   0.57909709   0.08401040
10444.00   0.53523737   0.08921719
10446.00   0.49884549   0.09554140
10448.00   0.56000400   0.10410755
10450.00   0.53760457   0.10817805
10452.00   0.51731211   0.10654979
10454.00   0.47437856   0.10254163
10456.00   0.46739784   0.09952603
10458.00   0.50405502   0.09286121
10460.00   0.65919369   0.09183563
10462.00   0.61166978   0.10118160
10464.00   0.66971654   0.12078573
10466.00   0.58745766   0.13075911
10468.00   0.49193400   0.13717619
10470.00   0.59519559   0.14053802
10472.00   0.73062050   0.13963941
10474.00   0.66314006   0.12589382
10476.00   0.60921729   0.10975132
10478.00   0.51789433   0.09693317
10480.00   0.41470575   0.09044623
10482.00   0.54929131   0.08952421
10484.00   0.59132898   0.08952802
10486.00   0.52505982   0.09023851
10488.00   0.58415580   0.09255590
10490.00   0.59909129   0.09118295
10492.00   0.55536938   0.09000060
10494.00   0.50586653   0.08880315
10496.00   0.48151413   0.08847534
10498.00   0.47533539   0.08896609
10500.00   0.39647770   0.08857331
10502.00   0.38666251   0.09154207
10504.00   0.43879807   0.09786117
10506.00   0.53415620   0.10348588
10508.00   0.47412229   0.10419363
10510.00   0.47601745   0.10538387
10512.00   0.49905857   0.10602754
10514.00   0.47767210   0.10537630
10516.00   0.47026014   0.10301445
10518.00   0.51536214   0.10470212
10520.00   0.63955164   0.11243180
10522.00   0.64627492   0.11889207
10524.00   0.44218826   0.12130400
10526.00   0.40111086   0.11784884
10528.00   0.37151867   0.11535906
10530.00   0.47208789   0.11240669
10532.00   0.53692824   0.10384771
10534.00   0.51377070   0.09724179
10536.00   0.47644424   0.09335508
10538.00   0.47747827   0.09193265
10540.00   0.45060527   0.09160125
10542.00   0.41411787   0.09184866
10544.00   0.43725407   0.09240916
10546.00   0.50204843   0.09413160
10548.00   0.47766343   0.09329597
10550.00   0.47287434   0.09500203
10552.00   0.53453779   0.09563639
10554.00   0.48934495   0.09552901
10556.00   0.48976403   0.09436883
10558.00   0.42040342   0.09336153
10560.00   0.45109224   0.09456985
10562.00   0.51451129   0.09582453
10564.00   0.53520036   0.09799101
10566.00   0.50974989   0.09971297
10568.00   0.44795120   0.10205855
10570.00   0.44971442   0.10284957
10572.00   0.41801095   0.10224815
10574.00   0.43317825   0.10424207
10576.00   0.45227405   0.10594604
10578.00   0.33002281   0.10319269
10580.00   0.44505811   0.10528740
10582.00   0.40413293   0.11119671
10584.00   0.55301213   0.11255765
10586.00   0.47851479   0.11797030
10588.00   0.45959419   0.11485401
10590.00   0.34997571   0.11067442
10592.00   0.42055959   0.10777042
10594.00   0.46978980   0.10908602
10596.00   0.41866529   0.10505081
10598.00   0.46721143   0.10499027
10600.00   0.49017811   0.10975958
10602.00   0.47318208   0.10580701
10604.00   0.47444209   0.10727956
10606.00   0.50929445   0.10859352
10608.00   0.55457371   0.10821715
10610.00   0.47783324   0.10852943
10612.00   0.46221161   0.10931778
10614.00   0.40750366   0.11269280
10616.00   0.41350609   0.11357950
10618.00   0.48530427   0.10890657
10620.00   0.52585065   0.11123134
10622.00   0.54467106   0.11457883
10624.00   0.61598599   0.11453235
10626.00   0.47909546   0.11541153
10628.00   0.44437736   0.11545415
10630.00   0.55454767   0.11532566
10632.00   0.59442037   0.11776597
10634.00   0.63093835   0.11761241
10636.00   0.53384948   0.12085686
10638.00   0.51962423   0.12173098
10640.00   0.39860979   0.12394711
10642.00   0.51667774   0.12085562
10644.00   0.60292947   0.12272189
10646.00   0.38322860   0.12122416
10648.00   0.43834442   0.12467279
10650.00   0.56229484   0.13154334
