# File created by shivutils (I.Shivvers)
# wl(A)   flm    er(optional)
3632.00   0.10625696   0.02029135
3634.00   0.10799576   0.02023334
3636.00   0.13897672   0.02077986
3638.00   0.11607259   0.02029872
3640.00   0.08341312   0.02020475
3642.00   0.13037135   0.02173056
3644.00   0.12620953   0.02193625
3646.00   0.07867686   0.02209118
3648.00   0.10810520   0.02887700
3650.00   0.08504403   0.03253306
3652.00   0.10909688   0.03033795
3654.00   0.11601182   0.02762323
3656.00   0.12635514   0.02548948
3658.00   0.12519580   0.02208009
3660.00   0.12518360   0.02255772
3662.00   0.12809628   0.02512429
3664.00   0.12011690   0.02404204
3666.00   0.09084298   0.01973571
3668.00   0.13977523   0.01909526
3670.00   0.12590759   0.01860054
3672.00   0.12152940   0.01835991
3674.00   0.06783979   0.01700031
3676.00   0.13209675   0.01768178
3678.00   0.09696236   0.01728504
3680.00   0.11212493   0.01715794
3682.00   0.11495131   0.01691943
3684.00   0.09227028   0.01632745
3686.00   0.10535381   0.01651165
3688.00   0.08332694   0.01606625
3690.00   0.08603477   0.01633298
3692.00   0.10173791   0.01655548
3694.00   0.09535776   0.01632942
3696.00   0.12823133   0.01697961
3698.00   0.12236499   0.01739877
3700.00   0.11280153   0.01760487
3702.00   0.11110462   0.01735437
3704.00   0.11833086   0.01740279
3706.00   0.09552310   0.01650747
3708.00   0.11823745   0.01660481
3710.00   0.11277196   0.01622686
3712.00   0.13082932   0.01651420
3714.00   0.10226995   0.01584326
3716.00   0.10535005   0.01595706
3718.00   0.10116312   0.01556110
3720.00   0.10483381   0.01545131
3722.00   0.10931989   0.01531160
3724.00   0.10277557   0.01546980
3726.00   0.10866716   0.01613490
3728.00   0.12719752   0.01670754
3730.00   0.09847905   0.01644156
3732.00   0.12285109   0.01663559
3734.00   0.13694555   0.01661783
3736.00   0.11012823   0.01616532
3738.00   0.13813740   0.01711956
3740.00   0.12779608   0.01704027
3742.00   0.12714104   0.01652333
3744.00   0.13270095   0.01648662
3746.00   0.14228567   0.01600152
3748.00   0.13952738   0.01592714
3750.00   0.15492751   0.01626521
3752.00   0.13810468   0.01605843
3754.00   0.15935579   0.01614969
3756.00   0.13644837   0.01585766
3758.00   0.12928192   0.01553033
3760.00   0.12792504   0.01520327
3762.00   0.13430966   0.01514944
3764.00   0.12432566   0.01494746
3766.00   0.13185306   0.01483711
3768.00   0.12739348   0.01449044
3770.00   0.10876268   0.01448224
3772.00   0.13192672   0.01518918
3774.00   0.11658991   0.01483797
3776.00   0.11252186   0.01472239
3778.00   0.12082143   0.01468384
3780.00   0.12180860   0.01454058
3782.00   0.10111587   0.01413715
3784.00   0.09414162   0.01429341
3786.00   0.07591464   0.01410455
3788.00   0.09006346   0.01412926
3790.00   0.11202847   0.01492560
3792.00   0.09750199   0.01421351
3794.00   0.09597326   0.01390041
3796.00   0.09357160   0.01342807
3798.00   0.12628683   0.01589600
3800.00   0.10316739   0.01729837
3802.00   0.09709374   0.01369584
3804.00   0.07573552   0.01315779
3806.00   0.07707683   0.01272049
3808.00   0.08038212   0.01288224
3810.00   0.08637969   0.01313684
3812.00   0.09021807   0.01352711
3814.00   0.07722609   0.01336868
3816.00   0.07034728   0.01334204
3818.00   0.04881126   0.01265154
3820.00   0.07073808   0.01300204
3822.00   0.06949973   0.01276572
3824.00   0.09360016   0.01289825
3826.00   0.05942686   0.01261047
3828.00   0.06595054   0.01357752
3830.00   0.04063246   0.01356250
3832.00   0.06645579   0.01348968
3834.00   0.07579131   0.01322380
3836.00   0.06326126   0.01289617
3838.00   0.06092721   0.01276172
3840.00   0.05173996   0.01246744
3842.00   0.08060200   0.01278369
3844.00   0.06433598   0.01247541
3846.00   0.06587023   0.01227877
3848.00   0.04790854   0.01182420
3850.00   0.03535600   0.01133069
3852.00   0.06035737   0.01170632
3854.00   0.05119986   0.01135361
3856.00   0.07889996   0.01158596
3858.00   0.04814444   0.01082075
3860.00   0.05223594   0.01093816
3862.00   0.06389540   0.01143457
3864.00   0.05206335   0.01117409
3866.00   0.06308252   0.01107125
3868.00   0.07397369   0.01098174
3870.00   0.06006131   0.01070501
3872.00   0.06951920   0.01108519
3874.00   0.06826885   0.01145676
3876.00   0.07336099   0.01133340
3878.00   0.07709101   0.01095458
3880.00   0.06446113   0.01062491
3882.00   0.06129136   0.01027789
3884.00   0.07153927   0.01044387
3886.00   0.07620943   0.01034789
3888.00   0.09314288   0.01075726
3890.00   0.08835138   0.01072109
3892.00   0.07513969   0.01051475
3894.00   0.08674857   0.01078721
3896.00   0.08439399   0.01090239
3898.00   0.09615304   0.01091070
3900.00   0.11635056   0.01142301
3902.00   0.08582991   0.01110024
3904.00   0.09852681   0.01217072
3906.00   0.12550193   0.01370512
3908.00   0.11709914   0.01428083
3910.00   0.11939294   0.01426698
3912.00   0.12682024   0.01424250
3914.00   0.10546632   0.01309401
3916.00   0.12891558   0.01261501
3918.00   0.13395624   0.01215481
3920.00   0.14418516   0.01192004
3922.00   0.11167280   0.01119574
3924.00   0.14947437   0.01153246
3926.00   0.15151633   0.01154909
3928.00   0.14855912   0.01131330
3930.00   0.15638269   0.01159891
3932.00   0.15139006   0.01189051
3934.00   0.14953773   0.01178367
3936.00   0.17003563   0.01153517
3938.00   0.16912849   0.01155979
3940.00   0.17788076   0.01200590
3942.00   0.16365816   0.01233786
3944.00   0.17478167   0.01257384
3946.00   0.18262498   0.01230777
3948.00   0.18520637   0.01196546
3950.00   0.17669532   0.01167923
3952.00   0.18387954   0.01168418
3954.00   0.18561526   0.01160553
3956.00   0.16844533   0.01125857
3958.00   0.19310479   0.01183802
3960.00   0.20452921   0.01236955
3962.00   0.20926714   0.01228580
3964.00   0.20681214   0.01162109
3966.00   0.20909134   0.01133671
3968.00   0.19729827   0.01117015
3970.00   0.19607358   0.01121658
3972.00   0.21758787   0.01156997
3974.00   0.21176894   0.01154348
3976.00   0.22608247   0.01178448
3978.00   0.20192583   0.01150740
3980.00   0.18254167   0.01128122
3982.00   0.21643145   0.01162919
3984.00   0.22424658   0.01163428
3986.00   0.19708893   0.01133238
3988.00   0.21613704   0.01156778
3990.00   0.22625512   0.01170083
3992.00   0.22996062   0.01167591
3994.00   0.21751259   0.01186757
3996.00   0.23456660   0.01223691
3998.00   0.21910185   0.01198125
4000.00   0.25451133   0.01208892
4002.00   0.23007557   0.01168530
4004.00   0.24818937   0.01180252
4006.00   0.24217223   0.01194995
4008.00   0.24692035   0.01218558
4010.00   0.23507717   0.01212910
4012.00   0.25554889   0.01228890
4014.00   0.24372381   0.01207203
4016.00   0.22889847   0.01195634
4018.00   0.25430116   0.01313699
4020.00   0.24938101   0.01391619
4022.00   0.26204583   0.01429882
4024.00   0.25661850   0.01388857
4026.00   0.23215984   0.01290068
4028.00   0.24557368   0.01254053
4030.00   0.26229444   0.01252385
4032.00   0.25412416   0.01230932
4034.00   0.26677698   0.01235222
4036.00   0.24965014   0.01212582
4038.00   0.24395612   0.01196588
4040.00   0.25692174   0.01221926
4042.00   0.25073463   0.01313473
4044.00   0.28829768   0.01946280
4046.00   0.28170115   0.02291366
4048.00   0.24490190   0.01983749
4050.00   0.25773001   0.01450651
4052.00   0.25552386   0.01287082
4054.00   0.25014514   0.01274537
4056.00   0.23242746   0.01224082
4058.00   0.25789741   0.01204596
4060.00   0.24846156   0.01181546
4062.00   0.23485371   0.01157215
4064.00   0.23464093   0.01159131
4066.00   0.24926648   0.01175103
4068.00   0.22991943   0.01149116
4070.00   0.24030483   0.01135725
4072.00   0.23084605   0.01112256
4074.00   0.22153106   0.01150129
4076.00   0.22665125   0.01280500
4078.00   0.22286801   0.01303740
4080.00   0.22943701   0.01246693
4082.00   0.21192777   0.01193207
4084.00   0.21787329   0.01172410
4086.00   0.18881169   0.01123316
4088.00   0.20312487   0.01100367
4090.00   0.20027442   0.01046439
4092.00   0.20760494   0.01047964
4094.00   0.18354031   0.01016450
4096.00   0.17689599   0.00999181
4098.00   0.18623441   0.01013474
4100.00   0.18766001   0.01006538
4102.00   0.17334719   0.00976499
4104.00   0.19154815   0.00987233
4106.00   0.18976599   0.00989965
4108.00   0.19011533   0.00990534
4110.00   0.17659058   0.00982902
4112.00   0.17629141   0.00970622
4114.00   0.17340820   0.00968304
4116.00   0.18093495   0.00971170
4118.00   0.17698516   0.00967778
4120.00   0.16705431   0.00940429
4122.00   0.18632078   0.00971038
4124.00   0.18749584   0.00988285
4126.00   0.19236840   0.00989031
4128.00   0.17918487   0.00981774
4130.00   0.19683588   0.01017963
4132.00   0.18428358   0.01032245
4134.00   0.16440484   0.01001763
4136.00   0.16675064   0.00982457
4138.00   0.18362169   0.01021243
4140.00   0.17659363   0.01017920
4142.00   0.17164648   0.00979078
4144.00   0.18417120   0.00967634
4146.00   0.17283806   0.00949831
4148.00   0.16248642   0.00945802
4150.00   0.17116681   0.00987288
4152.00   0.18127294   0.01025618
4154.00   0.17789738   0.01009501
4156.00   0.17464985   0.00984408
4158.00   0.15954931   0.00962325
4160.00   0.16578959   0.00967086
4162.00   0.15409610   0.00988806
4164.00   0.16121554   0.01049543
4166.00   0.18030150   0.01062087
4168.00   0.14725547   0.00985271
4170.00   0.14993419   0.00965005
4172.00   0.16102825   0.00952275
4174.00   0.16437069   0.00937514
4176.00   0.16203819   0.00944900
4178.00   0.17784072   0.00967219
4180.00   0.18415609   0.00949552
4182.00   0.14851646   0.00907144
4184.00   0.15457265   0.00913466
4186.00   0.17591470   0.00938664
4188.00   0.15844251   0.00918218
4190.00   0.13894978   0.00893891
4192.00   0.15114836   0.00921063
4194.00   0.16773573   0.00931114
4196.00   0.15696384   0.00895585
4198.00   0.14469174   0.00876051
4200.00   0.15793321   0.00901064
4202.00   0.15050969   0.00890774
4204.00   0.15996532   0.00904450
4206.00   0.16546121   0.00926086
4208.00   0.15003514   0.00918894
4210.00   0.14429036   0.00910900
4212.00   0.14291286   0.00903248
4214.00   0.13975874   0.00898129
4216.00   0.13446984   0.00890365
4218.00   0.13647549   0.00886687
4220.00   0.14209943   0.00880975
4222.00   0.14183410   0.00892296
4224.00   0.13673149   0.00881343
4226.00   0.14976670   0.00895764
4228.00   0.14087890   0.00888068
4230.00   0.12675968   0.00882078
4232.00   0.14002562   0.00906833
4234.00   0.14500551   0.00916663
4236.00   0.13485563   0.00920516
4238.00   0.15024579   0.00935181
4240.00   0.13636883   0.00901402
4242.00   0.13078581   0.00884871
4244.00   0.14497708   0.00982164
4246.00   0.14840770   0.01042395
4248.00   0.14863276   0.01012052
4250.00   0.14805841   0.00944860
4252.00   0.13515617   0.00899718
4254.00   0.14171627   0.00905672
4256.00   0.15968929   0.00928743
4258.00   0.15826051   0.00923602
4260.00   0.16098420   0.00912967
4262.00   0.15114328   0.00903836
4264.00   0.17369953   0.00922571
4266.00   0.15349443   0.00906700
4268.00   0.15045188   0.00903017
4270.00   0.14690763   0.00899883
4272.00   0.13626729   0.00893110
4274.00   0.15821037   0.00922107
4276.00   0.14557171   0.00912839
4278.00   0.16178207   0.00928862
4280.00   0.16784753   0.00939067
4282.00   0.16899182   0.00936167
4284.00   0.16853675   0.00943175
4286.00   0.15177596   0.00918734
4288.00   0.16808820   0.00931644
4290.00   0.15582438   0.00917507
4292.00   0.16034994   0.00928367
4294.00   0.16753562   0.00937716
4296.00   0.18351968   0.00950674
4298.00   0.17201069   0.00933503
4300.00   0.16898739   0.00928589
4302.00   0.17824435   0.00937862
4304.00   0.17064130   0.00944329
4306.00   0.17181930   0.00946780
4308.00   0.16863267   0.00950802
4310.00   0.16587947   0.00965889
4312.00   0.17093545   0.01016167
4314.00   0.16598569   0.01034276
4316.00   0.16773242   0.01014856
4318.00   0.16641861   0.01014281
4320.00   0.16207524   0.01025183
4322.00   0.16066019   0.01011387
4324.00   0.16282767   0.01002162
4326.00   0.14846155   0.00977036
4328.00   0.17774595   0.00980307
4330.00   0.18278225   0.00971933
4332.00   0.15800825   0.00955737
4334.00   0.15112849   0.00960286
4336.00   0.16506632   0.00976425
4338.00   0.17180826   0.00997180
4340.00   0.17631693   0.01013397
4342.00   0.17867482   0.01017520
4344.00   0.18075909   0.01039377
4346.00   0.17969230   0.01070772
4348.00   0.15395303   0.01058062
4350.00   0.18341634   0.01057019
4352.00   0.18212855   0.01047743
4354.00   0.18069613   0.01300518
4356.00   0.18364650   0.01988660
4358.00   0.18327563   0.02257237
4360.00   0.12278865   0.01891476
4362.00   0.14834303   0.01412853
4364.00   0.18827084   0.01156894
4366.00   0.18442138   0.01090291
4368.00   0.19119926   0.01076073
4370.00   0.18076646   0.01065861
4372.00   0.19755977   0.01094303
4374.00   0.19008495   0.01099542
4376.00   0.17761171   0.01074948
4378.00   0.18864542   0.01052855
4380.00   0.18719617   0.01046818
4382.00   0.18858308   0.01034259
4384.00   0.19271848   0.01032029
4386.00   0.19505852   0.01032892
4388.00   0.18786357   0.01031690
4390.00   0.19518423   0.01037474
4392.00   0.19315821   0.01032526
4394.00   0.18381074   0.01019097
4396.00   0.17883547   0.01025514
4398.00   0.18007472   0.01042158
4400.00   0.20785059   0.01082082
4402.00   0.18421641   0.01052257
4404.00   0.18203031   0.01041444
4406.00   0.18661813   0.01048327
4408.00   0.17931999   0.01046894
4410.00   0.16518638   0.01036914
4412.00   0.20066294   0.01069947
4414.00   0.18805531   0.01070309
4416.00   0.18660477   0.01065212
4418.00   0.17864233   0.01054859
4420.00   0.15854290   0.01034736
4422.00   0.16551937   0.01032715
4424.00   0.15991831   0.01027517
4426.00   0.15930013   0.01020276
4428.00   0.15959772   0.01016251
4430.00   0.17558786   0.01028866
4432.00   0.16793548   0.01026941
4434.00   0.14488360   0.01001717
4436.00   0.14886938   0.01006985
4438.00   0.14916925   0.01003923
4440.00   0.16170275   0.01017795
4442.00   0.16869225   0.01013397
4444.00   0.14024818   0.00993316
4446.00   0.14633413   0.00997282
4448.00   0.13850427   0.00991395
4450.00   0.13379326   0.00985567
4452.00   0.14373952   0.00993958
4454.00   0.12498096   0.00977565
4456.00   0.12156165   0.00973458
4458.00   0.12994128   0.00967195
4460.00   0.13982233   0.00976796
4462.00   0.11510465   0.00956175
4464.00   0.13728365   0.00976492
4466.00   0.14531091   0.00978205
4468.00   0.15101026   0.00975707
4470.00   0.11937062   0.00954147
4472.00   0.12564370   0.00960069
4474.00   0.11690240   0.00952508
4476.00   0.11415018   0.00951646
4478.00   0.12447624   0.00957269
4480.00   0.11643728   0.00947833
4482.00   0.09835812   0.00935237
4484.00   0.11986251   0.00954582
4486.00   0.10588725   0.00939084
4488.00   0.11258102   0.00941680
4490.00   0.11266150   0.00943024
4492.00   0.10733065   0.00939745
4494.00   0.10135777   0.00935081
4496.00   0.09564297   0.00934206
4498.00   0.10147174   0.00933915
4500.00   0.11824343   0.00938213
4502.00   0.11188451   0.00930302
4504.00   0.09947701   0.00916504
4506.00   0.11003109   0.00922575
4508.00   0.10535732   0.00913562
4510.00   0.12222023   0.00921341
4512.00   0.11586033   0.00915683
4514.00   0.11363441   0.00906590
4516.00   0.12553445   0.00912370
4518.00   0.11280197   0.00901837
4520.00   0.13159637   0.00908578
4522.00   0.12719816   0.00902243
4524.00   0.12480804   0.00895728
4526.00   0.12553480   0.00891914
4528.00   0.12405853   0.00891849
4530.00   0.11923235   0.00884735
4532.00   0.11637665   0.00887491
4534.00   0.11734654   0.00879087
4536.00   0.12257921   0.00883083
4538.00   0.12874879   0.00879517
4540.00   0.12668809   0.00877682
4542.00   0.12256057   0.00878493
4544.00   0.12133061   0.00873952
4546.00   0.12624031   0.00872788
4548.00   0.12781720   0.00865810
4550.00   0.10579106   0.00840130
4552.00   0.11995679   0.00846221
4554.00   0.13282561   0.00851864
4556.00   0.13762960   0.00853338
4558.00   0.12389849   0.00846427
4560.00   0.14604232   0.00852950
4562.00   0.13770084   0.00833652
4564.00   0.15224563   0.00842001
4566.00   0.12662220   0.00817525
4568.00   0.15270840   0.00836403
4570.00   0.15168874   0.00837486
4572.00   0.13314793   0.00820958
4574.00   0.13764787   0.00828313
4576.00   0.15689641   0.00834082
4578.00   0.15693992   0.00830153
4580.00   0.16658141   0.00832783
4582.00   0.15855885   0.00816115
4584.00   0.16312605   0.00815344
4586.00   0.16402400   0.00818200
4588.00   0.15572643   0.00810106
4590.00   0.16578884   0.00815256
4592.00   0.15998685   0.00810783
4594.00   0.17341466   0.00813732
4596.00   0.19318885   0.00826186
4598.00   0.17306480   0.00812030
4600.00   0.17837799   0.00808299
4602.00   0.19423628   0.00817428
4604.00   0.18835776   0.00805948
4606.00   0.18818091   0.00811004
4608.00   0.21214789   0.00832985
4610.00   0.20063035   0.00827814
4612.00   0.21358804   0.00827327
4614.00   0.22277328   0.00830363
4616.00   0.22991006   0.00832506
4618.00   0.21094413   0.00815014
4620.00   0.23480694   0.00832858
4622.00   0.24050769   0.00833584
4624.00   0.24947645   0.00843567
4626.00   0.25520280   0.00840279
4628.00   0.26406935   0.00848539
4630.00   0.26887167   0.00852726
4632.00   0.27029753   0.00850218
4634.00   0.26840433   0.00849301
4636.00   0.27599034   0.00851172
4638.00   0.28963625   0.00858853
4640.00   0.29247162   0.00860045
4642.00   0.29757380   0.00863797
4644.00   0.29232207   0.00861364
4646.00   0.31480134   0.00874742
4648.00   0.31510925   0.00874024
4650.00   0.30899823   0.00874042
4652.00   0.30841923   0.00878100
4654.00   0.32108632   0.00888286
4656.00   0.32334948   0.00891237
4658.00   0.32803026   0.00897643
4660.00   0.33323470   0.00907773
4662.00   0.33304924   0.00916593
4664.00   0.30897000   0.00904999
4666.00   0.33304977   0.00927679
4668.00   0.33121842   0.00934463
4670.00   0.32944795   0.00935253
4672.00   0.34089944   0.00940939
4674.00   0.34743276   0.00933101
4676.00   0.32298338   0.00906473
4678.00   0.33516762   0.00906433
4680.00   0.33461228   0.00901748
4682.00   0.34448215   0.00900832
4684.00   0.34461021   0.00894648
4686.00   0.33404002   0.00883992
4688.00   0.35383540   0.00892743
4690.00   0.34637281   0.00886815
4692.00   0.34119862   0.00881840
4694.00   0.34567940   0.00881538
4696.00   0.35023156   0.00880240
4698.00   0.35517213   0.00879121
4700.00   0.35384312   0.00876157
4702.00   0.36302850   0.00881933
4704.00   0.37100601   0.00895084
4706.00   0.36513010   0.00894952
4708.00   0.36014673   0.00898627
4710.00   0.34504429   0.00886888
4712.00   0.35222721   0.00886990
4714.00   0.36046883   0.00887153
4716.00   0.36511457   0.00885180
4718.00   0.36448887   0.00881198
4720.00   0.35509482   0.00878172
4722.00   0.34976995   0.00868301
4724.00   0.35533333   0.00875487
4726.00   0.34641993   0.00884921
4728.00   0.34689033   0.00903020
4730.00   0.33159330   0.00894842
4732.00   0.34373090   0.00906941
4734.00   0.32325020   0.00901531
4736.00   0.31413502   0.00899457
4738.00   0.31941369   0.00920954
4740.00   0.31969947   0.00931225
4742.00   0.32578492   0.00940582
4744.00   0.31014398   0.00913104
4746.00   0.29981488   0.00869743
4748.00   0.31490764   0.00854670
4750.00   0.29117501   0.00832005
4752.00   0.28214395   0.00829507
4754.00   0.27719507   0.00815012
4756.00   0.26686978   0.00794310
4758.00   0.26858085   0.00783923
4760.00   0.26616400   0.00773816
4762.00   0.26170379   0.00769449
4764.00   0.24148071   0.00748316
4766.00   0.23415698   0.00738495
4768.00   0.24892537   0.00749417
4770.00   0.23187819   0.00730802
4772.00   0.21467370   0.00716781
4774.00   0.21747790   0.00717730
4776.00   0.21691678   0.00729512
4778.00   0.20918183   0.00737151
4780.00   0.19882043   0.00724285
4782.00   0.19715641   0.00710153
4784.00   0.19110774   0.00698928
4786.00   0.19079700   0.00691435
4788.00   0.18911086   0.00693457
4790.00   0.17687795   0.00684398
4792.00   0.17544451   0.00685310
4794.00   0.17478675   0.00678659
4796.00   0.18045557   0.00679002
4798.00   0.17133829   0.00670987
4800.00   0.16253346   0.00659208
4802.00   0.17003164   0.00666444
4804.00   0.15869322   0.00655549
4806.00   0.17097396   0.00667918
4808.00   0.16692670   0.00669139
4810.00   0.16595015   0.00669033
4812.00   0.16746037   0.00667164
4814.00   0.15752554   0.00664426
4816.00   0.16817358   0.00673021
4818.00   0.16009887   0.00673664
4820.00   0.15787660   0.00673068
4822.00   0.15494992   0.00676199
4824.00   0.15512313   0.00674245
4826.00   0.14400207   0.00669685
4828.00   0.16238558   0.00685933
4830.00   0.15043113   0.00675756
4832.00   0.15273908   0.00678272
4834.00   0.14832415   0.00676899
4836.00   0.14907977   0.00678234
4838.00   0.14891566   0.00691854
4840.00   0.15971085   0.00698852
4842.00   0.16492085   0.00695186
4844.00   0.16443753   0.00690819
4846.00   0.15742405   0.00683964
4848.00   0.16494781   0.00691705
4850.00   0.16240275   0.00693808
4852.00   0.16314816   0.00688723
4854.00   0.16644852   0.00686490
4856.00   0.17285390   0.00688189
4858.00   0.17440619   0.00691478
4860.00   0.16988531   0.00702059
4862.00   0.18606177   0.00717930
4864.00   0.17468931   0.00701488
4866.00   0.19953427   0.00720057
4868.00   0.17622744   0.00693862
4870.00   0.19439529   0.00711129
4872.00   0.17821978   0.00694230
4874.00   0.17822319   0.00692760
4876.00   0.19335771   0.00712551
4878.00   0.20623790   0.00724242
4880.00   0.19856876   0.00721542
4882.00   0.20525417   0.00724452
4884.00   0.22440816   0.00734061
4886.00   0.21013971   0.00721945
4888.00   0.20217332   0.00715201
4890.00   0.21822990   0.00724603
4892.00   0.22219594   0.00730625
4894.00   0.23112833   0.00735160
4896.00   0.23160714   0.00735385
4898.00   0.23344538   0.00732468
4900.00   0.23584729   0.00738453
4902.00   0.24495314   0.00742339
4904.00   0.24380846   0.00745201
4906.00   0.24010438   0.00742394
4908.00   0.24690269   0.00751652
4910.00   0.24647987   0.00747284
4912.00   0.24057862   0.00745208
4914.00   0.22314173   0.00732163
4916.00   0.22575116   0.00735168
4918.00   0.23866539   0.00740817
4920.00   0.23602155   0.00737965
4922.00   0.22274421   0.00727411
4924.00   0.23289062   0.00730099
4926.00   0.23549807   0.00728819
4928.00   0.24028072   0.00730684
4930.00   0.23179428   0.00720603
4932.00   0.22524279   0.00717669
4934.00   0.23798174   0.00729884
4936.00   0.22874485   0.00728886
4938.00   0.23376863   0.00733551
4940.00   0.21383479   0.00718300
4942.00   0.22109488   0.00720108
4944.00   0.23699787   0.00729428
4946.00   0.22964542   0.00721458
4948.00   0.23524047   0.00726086
4950.00   0.22145811   0.00721456
4952.00   0.23782413   0.00739321
4954.00   0.24218178   0.00745088
4956.00   0.24129364   0.00741905
4958.00   0.25290400   0.00751409
4960.00   0.23460628   0.00734458
4962.00   0.22422138   0.00730702
4964.00   0.23265909   0.00743415
4966.00   0.23755035   0.00746528
4968.00   0.24197136   0.00757581
4970.00   0.23791374   0.00765761
4972.00   0.24192473   0.00787496
4974.00   0.26081678   0.00811875
4976.00   0.25704318   0.00831589
4978.00   0.25921419   0.00863464
4980.00   0.26861200   0.00893964
4982.00   0.26791582   0.00905180
4984.00   0.26970533   0.00902307
4986.00   0.28071108   0.00889849
4988.00   0.27855897   0.00870078
4990.00   0.28971142   0.00860802
4992.00   0.28832194   0.00845359
4994.00   0.28828508   0.00823792
4996.00   0.30262202   0.00815276
4998.00   0.31182095   0.00812311
5000.00   0.31707987   0.00810184
5002.00   0.31268492   0.00802267
5004.00   0.31431511   0.00803751
5006.00   0.32716018   0.00803568
5008.00   0.33049345   0.00804679
5010.00   0.34126943   0.00808536
5012.00   0.32894087   0.00796275
5014.00   0.33250389   0.00801605
5016.00   0.35252199   0.00818434
5018.00   0.33879367   0.00816805
5020.00   0.34356984   0.00819428
5022.00   0.34325004   0.00815998
5024.00   0.34208107   0.00808312
5026.00   0.33912763   0.00808354
5028.00   0.34976500   0.00818524
5030.00   0.33818433   0.00814145
5032.00   0.34256458   0.00817131
5034.00   0.33901390   0.00809235
5036.00   0.34549367   0.00809581
5038.00   0.35545716   0.00810787
5040.00   0.34726262   0.00803937
5042.00   0.35204807   0.00810339
5044.00   0.34946832   0.00809161
5046.00   0.34522888   0.00806080
5048.00   0.34039918   0.00807092
5050.00   0.33208808   0.00801038
5052.00   0.32644397   0.00794290
5054.00   0.32838222   0.00794575
5056.00   0.32421723   0.00792956
5058.00   0.31105700   0.00782668
5060.00   0.29785588   0.00778915
5062.00   0.29968658   0.00787444
5064.00   0.29084820   0.00791055
5066.00   0.29128313   0.00799439
5068.00   0.27809390   0.00804181
5070.00   0.28108793   0.00802618
5072.00   0.27388665   0.00786777
5074.00   0.26529482   0.00774784
5076.00   0.26286417   0.00774462
5078.00   0.25550383   0.00789670
5080.00   0.25431579   0.00832000
5082.00   0.24982381   0.00866472
5084.00   0.24102087   0.00885630
5086.00   0.23685327   0.00877055
5088.00   0.24606724   0.00846720
5090.00   0.23701313   0.00802560
5092.00   0.22832239   0.00767303
5094.00   0.22744182   0.00752831
5096.00   0.22596948   0.00762746
5098.00   0.21984090   0.00771406
5100.00   0.21003613   0.00754346
5102.00   0.19887184   0.00730358
5104.00   0.20016105   0.00722387
5106.00   0.19361678   0.00709192
5108.00   0.20672047   0.00711281
5110.00   0.18871383   0.00700424
5112.00   0.19564466   0.00708067
5114.00   0.20097853   0.00716044
5116.00   0.19595441   0.00713534
5118.00   0.19873929   0.00705506
5120.00   0.18589732   0.00690926
5122.00   0.18692409   0.00688901
5124.00   0.18908465   0.00688765
5126.00   0.17662686   0.00677439
5128.00   0.18159840   0.00677800
5130.00   0.17879216   0.00679666
5132.00   0.17833412   0.00676629
5134.00   0.17552426   0.00675720
5136.00   0.16801247   0.00673151
5138.00   0.16606754   0.00671452
5140.00   0.16554038   0.00674403
5142.00   0.17161252   0.00676407
5144.00   0.15569787   0.00668412
5146.00   0.16431113   0.00683208
5148.00   0.16729090   0.00701535
5150.00   0.17255855   0.00718825
5152.00   0.15539798   0.00715514
5154.00   0.16416731   0.00721928
5156.00   0.16604698   0.00715069
5158.00   0.18168662   0.00711194
5160.00   0.17580494   0.00695974
5162.00   0.17003749   0.00682917
5164.00   0.16140845   0.00671209
5166.00   0.17745537   0.00682162
5168.00   0.16235392   0.00664049
5170.00   0.16746578   0.00666026
5172.00   0.17906201   0.00673442
5174.00   0.16735421   0.00667021
5176.00   0.15783885   0.00662905
5178.00   0.16211012   0.00665799
5180.00   0.16962999   0.00666174
5182.00   0.15445735   0.00656585
5184.00   0.17038111   0.00669345
5186.00   0.16443472   0.00667703
5188.00   0.16812415   0.00672848
5190.00   0.17116399   0.00673825
5192.00   0.16524021   0.00670179
5194.00   0.17217180   0.00681719
5196.00   0.16527826   0.00680235
5198.00   0.17883171   0.00694794
5200.00   0.17462899   0.00691944
5202.00   0.16967812   0.00686188
5204.00   0.16789131   0.00681864
5206.00   0.16113304   0.00673827
5208.00   0.15857360   0.00676972
5210.00   0.15656839   0.00682576
5212.00   0.16655295   0.00684939
5214.00   0.15125635   0.00670058
5216.00   0.16238807   0.00681245
5218.00   0.16601783   0.00689630
5220.00   0.16404983   0.00685278
5222.00   0.15180369   0.00671849
5224.00   0.16711198   0.00678960
5226.00   0.15333019   0.00665539
5228.00   0.16568728   0.00675028
5230.00   0.17929372   0.00686634
5232.00   0.17512344   0.00681982
5234.00   0.16301242   0.00679315
5236.00   0.15158993   0.00669718
5238.00   0.17829446   0.00689227
5240.00   0.17140679   0.00686355
5242.00   0.16077958   0.00672078
5244.00   0.16619788   0.00674873
5246.00   0.16638680   0.00670605
5248.00   0.17498320   0.00674150
5250.00   0.16684064   0.00673231
5252.00   0.17174780   0.00673963
5254.00   0.17107549   0.00684244
5256.00   0.16309467   0.00683884
5258.00   0.17458312   0.00690893
5260.00   0.16058539   0.00674672
5262.00   0.17028750   0.00680525
5264.00   0.17145272   0.00676298
5266.00   0.17962027   0.00678199
5268.00   0.17289424   0.00673317
5270.00   0.16783117   0.00670983
5272.00   0.18348591   0.00683374
5274.00   0.18069075   0.00683339
5276.00   0.18421003   0.00688164
5278.00   0.18511759   0.00690363
5280.00   0.16612057   0.00673385
5282.00   0.18690319   0.00689964
5284.00   0.19442572   0.00698547
5286.00   0.20409058   0.00709585
5288.00   0.19514014   0.00699140
5290.00   0.19667497   0.00700489
5292.00   0.20589027   0.00707363
5294.00   0.21985368   0.00716192
5296.00   0.19971217   0.00700470
5298.00   0.21054180   0.00711776
5300.00   0.20345472   0.00707840
5302.00   0.21101843   0.00713777
5304.00   0.21729985   0.00716230
5306.00   0.21778481   0.00717116
5308.00   0.23342896   0.00726991
5310.00   0.21168272   0.00714963
5312.00   0.21975918   0.00721855
5314.00   0.24102508   0.00733969
5316.00   0.25005645   0.00739168
5318.00   0.24961650   0.00740607
5320.00   0.24739230   0.00741507
5322.00   0.24030741   0.00735807
5324.00   0.24010350   0.00736919
5326.00   0.24957709   0.00744607
5328.00   0.25413010   0.00746038
5330.00   0.24393305   0.00742594
5332.00   0.24170527   0.00741461
5334.00   0.23443992   0.00736372
5336.00   0.25490084   0.00756163
5338.00   0.25422454   0.00757444
5340.00   0.25971881   0.00766965
5342.00   0.25143990   0.00763862
5344.00   0.26004153   0.00768381
5346.00   0.26681176   0.00781479
5348.00   0.27341342   0.00796167
5350.00   0.27136654   0.00791059
5352.00   0.25505599   0.00786130
5354.00   0.28388014   0.00812054
5356.00   0.29244447   0.00813717
5358.00   0.28508115   0.00799414
5360.00   0.28226480   0.00793782
5362.00   0.28563514   0.00787732
5364.00   0.28837842   0.00787378
5366.00   0.28394726   0.00782941
5368.00   0.28787413   0.00783764
5370.00   0.28186834   0.00786098
5372.00   0.30535799   0.00806040
5374.00   0.30215675   0.00812762
5376.00   0.30442756   0.00813944
5378.00   0.30024409   0.00808113
5380.00   0.30456504   0.00810003
5382.00   0.32749912   0.00824362
5384.00   0.30794713   0.00813115
5386.00   0.30555317   0.00810002
5388.00   0.31652975   0.00826239
5390.00   0.31208009   0.00833013
5392.00   0.30351260   0.00831518
5394.00   0.31163606   0.00837226
5396.00   0.31485391   0.00838785
5398.00   0.29442820   0.00831382
5400.00   0.33123481   0.00856909
5402.00   0.31949365   0.00856052
5404.00   0.32273635   0.00862655
5406.00   0.32079279   0.00869238
5408.00   0.32340291   0.00880220
5410.00   0.31124130   0.00885449
5412.00   0.30216447   0.00894031
5414.00   0.29267541   0.00904113
5416.00   0.31443292   0.00933515
5418.00   0.29941213   0.00930988
5420.00   0.30741331   0.00942423
5422.00   0.28619164   0.00927777
5424.00   0.29227799   0.00933555
5426.00   0.28154099   0.00924573
5428.00   0.30243868   0.00940808
5430.00   0.28340146   0.00933468
5432.00   0.29017013   0.00938970
5434.00   0.29661098   0.00944275
5436.00   0.29338291   0.00950619
5438.00   0.30321354   0.00964325
5440.00   0.29048178   0.00958858
5442.00   0.28780046   0.00965299
5444.00   0.28104067   0.00971541
5446.00   0.28467143   0.00975117
5448.00   0.28868249   0.00982776
5450.00   0.27362445   0.00978346
5452.00   0.29013821   0.00988488
5454.00   0.26476821   0.00991641
5456.00   0.27665129   0.01159184
5458.00   0.26667181   0.01387688
5460.00   0.30141607   0.01498969
5462.00   0.28419745   0.01413764
5464.00   0.28886196   0.01327891
5466.00   0.26810956   0.01221353
5468.00   0.28134823   0.01145461
5470.00   0.30290592   0.01097496
5472.00   0.29529920   0.01048589
5474.00   0.30209064   0.01035815
5476.00   0.31399009   0.01037472
5478.00   0.30313212   0.01042419
5480.00   0.30761865   0.01063320
5482.00   0.30057791   0.01069083
5484.00   0.30952284   0.01072316
5486.00   0.32266563   0.01067718
5488.00   0.33399627   0.01063603
5490.00   0.32417798   0.01049142
5492.00   0.32370311   0.01044122
5494.00   0.33834451   0.01049214
5496.00   0.35481474   0.01061902
5498.00   0.30697790   0.01024677
5500.00   0.35689765   0.01058052
5502.00   0.34928650   0.01050725
5504.00   0.37117237   0.01066125
5506.00   0.37473169   0.01067892
5508.00   0.35653195   0.01053111
5510.00   0.37441149   0.01076464
5512.00   0.37597671   0.01090191
5514.00   0.40376848   0.01114981
5516.00   0.37752026   0.01094365
5518.00   0.39477924   0.01112491
5520.00   0.40898833   0.01125643
5522.00   0.39640173   0.01110975
5524.00   0.40653753   0.01115130
5526.00   0.42294583   0.01119816
5528.00   0.42344734   0.01118526
5530.00   0.43804398   0.01120874
5532.00   0.42628267   0.01105267
5534.00   0.46378100   0.01132149
5536.00   0.44348019   0.01121275
5538.00   0.46292695   0.01136081
5540.00   0.45730481   0.01134981
5542.00   0.46898073   0.01146309
5544.00   0.46387985   0.01142078
5546.00   0.46861532   0.01147800
5548.00   0.49816316   0.01165842
5550.00   0.48530701   0.01161034
5552.00   0.48717210   0.01160560
5554.00   0.47374752   0.01154963
5556.00   0.49819294   0.01170075
5558.00   0.51278126   0.01180651
5560.00   0.50336462   0.01840807
5562.00   0.50446272   0.01886410
5564.00   0.51100457   0.01951017
5566.00   0.52199715   0.02037113
5568.00   0.52141565   0.02122865
5570.00   0.54013324   0.02211587
5572.00   0.51298970   0.02355739
5574.00   0.51135463   0.02532610
5576.00   0.52719140   0.02659521
5578.00   0.53805655   0.02647109
5580.00   0.54020882   0.02539987
5582.00   0.54071981   0.02370057
5584.00   0.55731583   0.02113798
5586.00   0.56338048   0.01837046
5588.00   0.55683064   0.01689117
5590.00   0.55040270   0.01640285
5592.00   0.54380649   0.01625489
5594.00   0.53072304   0.01602205
5596.00   0.54020244   0.01601330
5598.00   0.55525219   0.01601608
5600.00   0.55946207   0.01595420
5602.00   0.56114841   0.01591801
5604.00   0.55687362   0.01582754
5606.00   0.55595320   0.01573276
5608.00   0.55790490   0.01565456
5610.00   0.55460572   0.01553871
5612.00   0.54336447   0.01533267
5614.00   0.54837137   0.01525161
5616.00   0.55866593   0.01526282
5618.00   0.55337626   0.01516599
5620.00   0.54061359   0.01499043
5622.00   0.55936545   0.01507648
5624.00   0.55756921   0.01499389
5626.00   0.54658967   0.01482691
5628.00   0.54770994   0.01478507
5630.00   0.55451900   0.01476433
5632.00   0.54899448   0.01463819
5634.00   0.54238039   0.01453295
5636.00   0.54234141   0.01447012
5638.00   0.52762455   0.01430085
5640.00   0.52895367   0.01426514
5642.00   0.53522295   0.01425572
5644.00   0.52461511   0.01411985
5646.00   0.50799876   0.01395597
5648.00   0.49928248   0.01380777
5650.00   0.49550590   0.01372828
5652.00   0.49292865   0.01365092
5654.00   0.48878875   0.01357794
5656.00   0.49926481   0.01364178
5658.00   0.50577760   0.01366896
5660.00   0.50920182   0.01369856
5662.00   0.49471369   0.01360612
5664.00   0.47745433   0.01354689
5666.00   0.46512330   0.01355373
5668.00   0.47155213   0.01372033
5670.00   0.47843537   0.01392788
5672.00   0.47860679   0.01402747
5674.00   0.47729754   0.01409164
5676.00   0.47314736   0.01421866
5678.00   0.47158304   0.01440295
5680.00   0.47229668   0.01467592
5682.00   0.46864191   0.01495372
5684.00   0.45878741   0.01515667
5686.00   0.45789656   0.01533657
5688.00   0.46407071   0.01537636
5690.00   0.46854472   0.01519728
5692.00   0.45731208   0.01474628
5694.00   0.45944723   0.01428174
5696.00   0.46569297   0.01385249
5698.00   0.46287480   0.01341613
5700.00   0.45105612   0.01302269
5702.00   0.44279620   0.01272283
5704.00   0.44387516   0.01254945
5706.00   0.44036123   0.01240815
5708.00   0.44076803   0.01229240
5710.00   0.43965593   0.01220939
5712.00   0.44039312   0.01218005
5714.00   0.43178022   0.01207029
5716.00   0.42640957   0.01194098
5718.00   0.41773093   0.01175938
5720.00   0.40854549   0.01160058
5722.00   0.39488053   0.01142607
5724.00   0.39477864   0.01136249
5726.00   0.40071273   0.01132792
5728.00   0.40190277   0.01126381
5730.00   0.39439908   0.01115276
5732.00   0.38679835   0.01103698
5734.00   0.37611088   0.01090765
5736.00   0.36833367   0.01080174
5738.00   0.36283270   0.01073872
5740.00   0.35967970   0.01069320
5742.00   0.36071733   0.01067556
5744.00   0.36074415   0.01065341
5746.00   0.34877041   0.01052568
5748.00   0.34633502   0.01051054
5750.00   0.34562922   0.01051387
5752.00   0.34171987   0.01047552
5754.00   0.32956442   0.01041536
5756.00   0.32674685   0.01045420
5758.00   0.32435134   0.01052150
5760.00   0.31795874   0.01060979
5762.00   0.31424281   0.01074121
5764.00   0.31071368   0.01094379
5766.00   0.30033854   0.01114610
5768.00   0.29660937   0.01129283
5770.00   0.29701540   0.01128408
5772.00   0.29746664   0.01115806
5774.00   0.29116434   0.01088525
5776.00   0.28413233   0.01054898
5778.00   0.28485903   0.01030827
5780.00   0.28158736   0.01018614
5782.00   0.28319451   0.01025366
5784.00   0.28102648   0.01041196
5786.00   0.27587828   0.01063496
5788.00   0.28226900   0.01093142
5790.00   0.28491402   0.01105598
5792.00   0.27403459   0.01094199
5794.00   0.27015120   0.01076641
5796.00   0.26716861   0.01047416
5798.00   0.27731177   0.01026804
5800.00   0.27734107   0.01006641
5802.00   0.28172091   0.01000101
5804.00   0.28599358   0.01001009
5806.00   0.28189695   0.00997073
5808.00   0.28239679   0.00995836
5810.00   0.28367731   0.00994389
5812.00   0.28030524   0.00993042
5814.00   0.28697261   0.00999484
5816.00   0.29263103   0.01004920
5818.00   0.29061639   0.01004776
5820.00   0.29383445   0.01007620
5822.00   0.29765931   0.01032966
5824.00   0.29845834   0.01001982
5826.00   0.29536152   0.01003090
5828.00   0.30242991   0.01010513
5830.00   0.31564292   0.01059953
5832.00   0.31198135   0.01038931
5834.00   0.31332186   0.01041822
5836.00   0.31035674   0.01044550
5838.00   0.31352863   0.01047884
5840.00   0.31238759   0.01049502
5842.00   0.31571260   0.01055055
5844.00   0.32298753   0.01064058
5846.00   0.32394531   0.01068505
5848.00   0.33080837   0.01077581
5850.00   0.33355919   0.01083315
5852.00   0.34270704   0.01093927
5854.00   0.34745315   0.01100471
5856.00   0.35196805   0.01108450
5858.00   0.35613617   0.01116728
5860.00   0.36431685   0.01129483
5862.00   0.36432263   0.01137668
5864.00   0.36178836   0.01143910
5866.00   0.36948410   0.01156646
5868.00   0.37693501   0.01165313
5870.00   0.38199365   0.01170288
5872.00   0.37903377   0.01165683
5874.00   0.37460384   0.01162424
5876.00   0.37809524   0.01175786
5878.00   0.38293490   0.01210344
5880.00   0.38289154   0.01275335
5882.00   0.38637474   0.01401713
5884.00   0.38391533   0.01604285
5886.00   0.37619793   0.01853235
5888.00   0.38793445   0.02006648
5890.00   0.38492528   0.02152199
5892.00   0.36920652   0.02231260
5894.00   0.37097439   0.02244525
5896.00   0.38435173   0.02125493
5898.00   0.38980517   0.01985564
5900.00   0.38881066   0.01758602
5902.00   0.39410850   0.01542083
5904.00   0.39402175   0.01320221
5906.00   0.40110627   0.01181697
5908.00   0.39822587   0.01145566
5910.00   0.39538729   0.01150737
5912.00   0.39917275   0.01157578
5914.00   0.40079021   0.01160229
5916.00   0.39274168   0.01156345
5918.00   0.39564618   0.01158798
5920.00   0.39251837   0.01158265
5922.00   0.38969150   0.01155434
5924.00   0.40117088   0.01161579
5926.00   0.39943361   0.01164229
5928.00   0.39241815   0.01164072
5930.00   0.39049783   0.01165962
5932.00   0.39305988   0.01168312
5934.00   0.38500190   0.01158683
5936.00   0.38367605   0.01148726
5938.00   0.38037494   0.01137428
5940.00   0.38331518   0.01129158
5942.00   0.38525891   0.01121927
5944.00   0.38905239   0.01119555
5946.00   0.38690946   0.01114576
5948.00   0.38057768   0.01110697
5950.00   0.37624359   0.01109428
5952.00   0.38418269   0.01114057
5954.00   0.38332784   0.01110287
5956.00   0.37991640   0.01104071
5958.00   0.37861514   0.01098570
5960.00   0.37412897   0.01090918
5962.00   0.37517413   0.01088538
5964.00   0.38005957   0.01088611
5966.00   0.37657133   0.01084716
5968.00   0.36577499   0.01074861
5970.00   0.35749459   0.01069439
5972.00   0.35599652   0.01067391
5974.00   0.36209941   0.01070043
5976.00   0.36365208   0.01068468
5978.00   0.35301521   0.01059242
5980.00   0.35364422   0.01056471
5982.00   0.34922758   0.01049168
5984.00   0.34067830   0.01039137
5986.00   0.34319857   0.01038524
5988.00   0.35098359   0.01041616
5990.00   0.35004166   0.01038388
5992.00   0.34490141   0.01033632
5994.00   0.34572053   0.01034007
5996.00   0.34833375   0.01032919
5998.00   0.34801269   0.01030184
6000.00   0.34993148   0.01031569
6002.00   0.34524384   0.01025945
6004.00   0.34582686   0.01021848
6006.00   0.34172574   0.01015717
6008.00   0.33888128   0.01010431
6010.00   0.33141908   0.00998390
6012.00   0.33575407   0.00997211
6014.00   0.34121537   0.00997441
6016.00   0.33686826   0.00992088
6018.00   0.33266756   0.00988273
6020.00   0.33400604   0.00987433
6022.00   0.32812354   0.00984564
6024.00   0.33559471   0.00977593
6026.00   0.31533924   0.00981860
6028.00   0.32144311   0.00957858
6030.00   0.31677228   0.00952235
6032.00   0.31320518   0.00949576
6034.00   0.31159928   0.01005011
6036.00   0.30970278   0.00952438
6038.00   0.30110112   0.00949792
6040.00   0.28987682   0.00938475
6042.00   0.29046395   0.00933696
6044.00   0.28685760   0.00926789
6046.00   0.28475034   0.00923851
6048.00   0.28396276   0.00921923
6050.00   0.28295612   0.00919637
6052.00   0.27588856   0.00911977
6054.00   0.26966837   0.00905114
6056.00   0.27150378   0.00905299
6058.00   0.27495292   0.00906711
6060.00   0.27661872   0.00906501
6062.00   0.26604903   0.00896336
6064.00   0.25889915   0.00889399
6066.00   0.25829723   0.00887042
6068.00   0.25572634   0.00884215
6070.00   0.25324285   0.00881706
6072.00   0.25078785   0.00877894
6074.00   0.24327458   0.00872387
6076.00   0.24674951   0.00874214
6078.00   0.25293532   0.00878048
6080.00   0.24363776   0.00867574
6082.00   0.23773824   0.00861913
6084.00   0.24030912   0.00865329
6086.00   0.23965478   0.00864970
6088.00   0.23977225   0.00863512
6090.00   0.23605859   0.00863673
6092.00   0.23783074   0.00869542
6094.00   0.23641098   0.00871050
6096.00   0.23884046   0.00876733
6098.00   0.23358475   0.00878385
6100.00   0.23686869   0.00889733
6102.00   0.23920308   0.00901246
6104.00   0.23940551   0.00913848
6106.00   0.23973215   0.00933684
6108.00   0.24021983   0.00959343
6110.00   0.24109411   0.00981427
6112.00   0.24060138   0.00994510
6114.00   0.24325812   0.00999340
6116.00   0.24790311   0.00995200
6118.00   0.24568109   0.00973623
6120.00   0.23877184   0.00941683
6122.00   0.23730971   0.00915996
6124.00   0.24022134   0.00902212
6126.00   0.24127352   0.00890478
6128.00   0.24418892   0.00884371
6130.00   0.23977323   0.00877656
6132.00   0.23300315   0.00870725
6134.00   0.23716085   0.00872539
6136.00   0.24332142   0.00876863
6138.00   0.24328256   0.00877748
6140.00   0.23828107   0.00874177
6142.00   0.23867172   0.00873426
6144.00   0.24003874   0.00873951
6146.00   0.23620135   0.00871733
6148.00   0.23607977   0.00873712
6150.00   0.23213251   0.00873460
6152.00   0.23465981   0.00880211
6154.00   0.23456901   0.00888219
6156.00   0.23044866   0.00895538
6158.00   0.22922683   0.00902829
6160.00   0.23127322   0.00902220
6162.00   0.22940350   0.00889939
6164.00   0.23189855   0.00878347
6166.00   0.23626842   0.00867930
6168.00   0.23759507   0.00851507
6170.00   0.23712228   0.00834211
6172.00   0.23687823   0.00825717
6174.00   0.23754954   0.00823491
6176.00   0.23806508   0.00820448
6178.00   0.23476346   0.00813622
6180.00   0.23627974   0.00813146
6182.00   0.23844749   0.00813241
6184.00   0.24014567   0.00814266
6186.00   0.24503398   0.00818264
6188.00   0.24840884   0.00819121
6190.00   0.25100556   0.00821989
6192.00   0.25014088   0.00822576
6194.00   0.24938482   0.00820946
6196.00   0.24776922   0.00824987
6198.00   0.24841690   0.00855337
6200.00   0.25179610   0.00817593
6202.00   0.25604400   0.00823837
6204.00   0.25335827   0.00825403
6206.00   0.25333947   0.00824583
6208.00   0.25511280   0.00833023
6210.00   0.25629032   0.00832533
6212.00   0.25828585   0.00833402
6214.00   0.25643483   0.00828678
6216.00   0.25217229   0.00821495
6218.00   0.25093606   0.00816046
6220.00   0.25419065   0.00815232
6222.00   0.25751343   0.00817021
6224.00   0.25393286   0.00813698
6226.00   0.25393781   0.00812650
6228.00   0.25415552   0.00814363
6230.00   0.25570258   0.00822795
6232.00   0.24975859   0.00831023
6234.00   0.24548288   0.00841620
6236.00   0.24413705   0.00851011
6238.00   0.24182422   0.00853296
6240.00   0.23706774   0.00846076
6242.00   0.24145089   0.00838678
6244.00   0.24323551   0.00825000
6246.00   0.23807263   0.00807095
6248.00   0.24025591   0.00800227
6250.00   0.24211244   0.00798701
6252.00   0.24160063   0.00804457
6254.00   0.23792310   0.00812959
6256.00   0.23560762   0.00822487
6258.00   0.23878010   0.00831086
6260.00   0.24078000   0.00830800
6262.00   0.23531498   0.00822689
6264.00   0.23409593   0.00814048
6266.00   0.23266749   0.00801285
6268.00   0.23025103   0.00792136
6270.00   0.22945166   0.00789960
6272.00   0.23239429   0.00795052
6274.00   0.23085994   0.00795423
6276.00   0.23185970   0.00798284
6278.00   0.23078758   0.00796940
6280.00   0.22625649   0.00788302
6282.00   0.22361088   0.00782186
6284.00   0.22929180   0.00789332
6286.00   0.22854017   0.00793542
6288.00   0.23385985   0.00802070
6290.00   0.23500650   0.00805540
6292.00   0.23796983   0.00816497
6294.00   0.24429415   0.00848827
6296.00   0.25116014   0.00901486
6298.00   0.24721639   0.00938499
6300.00   0.24319462   0.00952706
6302.00   0.24245621   0.00955839
6304.00   0.24751304   0.00951119
6306.00   0.25473008   0.00917196
6308.00   0.25428846   0.00870217
6310.00   0.25413236   0.00838583
6312.00   0.24769713   0.00812565
6314.00   0.24376087   0.00790807
6316.00   0.24905999   0.00785294
6318.00   0.25043377   0.00783655
6320.00   0.24642222   0.00777473
6322.00   0.24459787   0.00777420
6324.00   0.24627040   0.00784558
6326.00   0.24207477   0.00786110
6328.00   0.24114920   0.00787549
6330.00   0.24311598   0.00788181
6332.00   0.24162848   0.00783135
6334.00   0.23588204   0.00771411
6336.00   0.23673649   0.00762630
6338.00   0.23772968   0.00754333
6340.00   0.23973519   0.00750597
6342.00   0.23940603   0.00750909
6344.00   0.23565297   0.00748638
6346.00   0.23280932   0.00747402
6348.00   0.23748042   0.00752151
6350.00   0.23764229   0.00755332
6352.00   0.23278864   0.00755655
6354.00   0.22239895   0.00747733
6356.00   0.22298729   0.00749805
6358.00   0.22626221   0.00763532
6360.00   0.22544092   0.00779044
6362.00   0.22149856   0.00779094
6364.00   0.22271551   0.00774369
6366.00   0.22137620   0.00765412
6368.00   0.22312979   0.00755523
6370.00   0.22420864   0.00738037
6372.00   0.22340886   0.00722073
6374.00   0.22138365   0.00718572
6376.00   0.21904989   0.00720270
6378.00   0.21938987   0.00723741
6380.00   0.21949463   0.00725109
6382.00   0.22282583   0.00728884
6384.00   0.22423746   0.00729028
6386.00   0.22375691   0.00725983
6388.00   0.21704660   0.00716821
6390.00   0.21808164   0.00712989
6392.00   0.22278357   0.00712005
6394.00   0.22448975   0.00709374
6396.00   0.22462408   0.00710203
6398.00   0.22416057   0.00712943
6400.00   0.22256863   0.00715720
6402.00   0.22537225   0.00719102
6404.00   0.22691904   0.00719854
6406.00   0.22759026   0.00720023
6408.00   0.22923827   0.00716819
6410.00   0.22963989   0.00712818
6412.00   0.23516946   0.00716764
6414.00   0.23235767   0.00715311
6416.00   0.23243503   0.00715619
6418.00   0.23758404   0.00718111
6420.00   0.23974253   0.00717067
6422.00   0.23930280   0.00713209
6424.00   0.23880053   0.00712113
6426.00   0.24165408   0.00715240
6428.00   0.24293779   0.00715504
6430.00   0.24383782   0.00709243
6432.00   0.24262564   0.00707999
6434.00   0.24619390   0.00712948
6436.00   0.24696267   0.00712908
6438.00   0.24760705   0.00711883
6440.00   0.25028431   0.00714655
6442.00   0.25247598   0.00717148
6444.00   0.25741351   0.00720286
6446.00   0.26476029   0.00726271
6448.00   0.26688102   0.00729423
6450.00   0.26811865   0.00732239
6452.00   0.26768720   0.00732179
6454.00   0.26887676   0.00734404
6456.00   0.27070209   0.00736869
6458.00   0.27353504   0.00740589
6460.00   0.27485254   0.00745237
6462.00   0.28506532   0.00759968
6464.00   0.29089102   0.00769821
6466.00   0.29029304   0.00772997
6468.00   0.28419447   0.00769678
6470.00   0.28911188   0.00770354
6472.00   0.29639912   0.00768762
6474.00   0.30013442   0.00763774
6476.00   0.30291930   0.00760840
6478.00   0.30370775   0.00756343
6480.00   0.30903926   0.00756147
6482.00   0.31225672   0.00756172
6484.00   0.31314802   0.00755551
6486.00   0.32046714   0.00759741
6488.00   0.32496467   0.00762230
6490.00   0.32347298   0.00762228
6492.00   0.32808509   0.00771012
6494.00   0.33638778   0.00788445
6496.00   0.33500504   0.00799179
6498.00   0.33312327   0.00804314
6500.00   0.34218904   0.00814849
6502.00   0.34926930   0.00822018
6504.00   0.35542527   0.00822520
6506.00   0.36384892   0.00820049
6508.00   0.36369944   0.00811796
6510.00   0.36177170   0.00804730
6512.00   0.35955051   0.00796727
6514.00   0.35768843   0.00789514
6516.00   0.36538568   0.00794086
6518.00   0.37689447   0.00804658
6520.00   0.38588598   0.00812615
6522.00   0.38902900   0.00814174
6524.00   0.39401188   0.00820666
6526.00   0.39613810   0.00826888
6528.00   0.39521298   0.00831223
6530.00   0.40054336   0.00839957
6532.00   0.40709957   0.00846711
6534.00   0.40468201   0.00844622
6536.00   0.41114882   0.00847220
6538.00   0.41541287   0.00845953
6540.00   0.41715083   0.00841640
6542.00   0.41933954   0.00840608
6544.00   0.42163154   0.00841708
6546.00   0.42260846   0.00844433
6548.00   0.42579937   0.00852849
6550.00   0.42727184   0.00859654
6552.00   0.43292734   0.00864691
6554.00   0.44155073   0.00869292
6556.00   0.44428679   0.00872151
6558.00   0.43851161   0.00870152
6560.00   0.44170979   0.00872052
6562.00   0.44098505   0.00868722
6564.00   0.44555235   0.00871631
6566.00   0.45104071   0.00877389
6568.00   0.45152202   0.00872798
6570.00   0.45459297   0.00867963
6572.00   0.45996901   0.00868307
6574.00   0.46317557   0.00873645
6576.00   0.46607748   0.00876938
6578.00   0.46770167   0.00878212
6580.00   0.46364069   0.00876258
6582.00   0.46575531   0.00873927
6584.00   0.46084473   0.00863302
6586.00   0.45992997   0.00857285
6588.00   0.46355197   0.00857087
6590.00   0.46605802   0.00857363
6592.00   0.46688557   0.00857407
6594.00   0.46958414   0.00859873
6596.00   0.47344652   0.00863262
6598.00   0.47499606   0.00865505
6600.00   0.47195712   0.00865046
6602.00   0.47290635   0.00866388
6604.00   0.47316134   0.00865569
6606.00   0.47350809   0.00863624
6608.00   0.47261575   0.00859566
6610.00   0.47228572   0.00854720
6612.00   0.46818450   0.00848423
6614.00   0.46438977   0.00843960
6616.00   0.46654549   0.00844324
6618.00   0.47197676   0.00847699
6620.00   0.47338423   0.00849526
6622.00   0.47133386   0.00848475
6624.00   0.46890688   0.00847943
6626.00   0.46690431   0.00847287
6628.00   0.46648732   0.00847579
6630.00   0.46697044   0.00849030
6632.00   0.46552670   0.00847788
6634.00   0.46326828   0.00845224
6636.00   0.46378765   0.00844316
6638.00   0.46705380   0.00845347
6640.00   0.46549776   0.00841588
6642.00   0.46173337   0.00836390
6644.00   0.46489897   0.00837349
6646.00   0.46309009   0.00836251
6648.00   0.45558771   0.00830982
6650.00   0.45259383   0.00827902
6652.00   0.45518959   0.00830067
6654.00   0.45033547   0.00826983
6656.00   0.44229260   0.00821486
6658.00   0.44294897   0.00821569
6660.00   0.44200346   0.00821966
6662.00   0.44051254   0.00824286
6664.00   0.43640295   0.00826199
6666.00   0.42904332   0.00824632
6668.00   0.42888531   0.00826368
6670.00   0.43149337   0.00826410
6672.00   0.43026963   0.00819387
6674.00   0.43138555   0.00814635
6676.00   0.43242192   0.00813528
6678.00   0.43119559   0.00813850
6680.00   0.42625389   0.00809692
6682.00   0.42653635   0.00809367
6684.00   0.41906777   0.00803141
6686.00   0.41267693   0.00798331
6688.00   0.40897098   0.00795646
6690.00   0.40363884   0.00792613
6692.00   0.40609494   0.00793355
6694.00   0.41033390   0.00794410
6696.00   0.40766838   0.00790509
6698.00   0.40191665   0.00786634
6700.00   0.40231761   0.00788304
6702.00   0.39904091   0.00788773
6704.00   0.39403439   0.00788598
6706.00   0.39350680   0.00790348
6708.00   0.39324865   0.00789986
6710.00   0.39044285   0.00787374
6712.00   0.38179502   0.00781713
6714.00   0.37494445   0.00776773
6716.00   0.37787923   0.00775642
6718.00   0.36917782   0.00766363
6720.00   0.36496988   0.00761639
6722.00   0.36496937   0.00758975
6724.00   0.35892510   0.00750527
6726.00   0.35291338   0.00743692
6728.00   0.34727636   0.00740660
6730.00   0.34456190   0.00740114
6732.00   0.34225607   0.00738422
6734.00   0.33788610   0.00734764
6736.00   0.33299628   0.00730191
6738.00   0.33448431   0.00729374
6740.00   0.32777011   0.00722078
6742.00   0.32176289   0.00715923
6744.00   0.31575948   0.00709718
6746.00   0.31046167   0.00704685
6748.00   0.30520177   0.00699078
6750.00   0.30284742   0.00695042
6752.00   0.30077550   0.00693241
6754.00   0.29630539   0.00689471
6756.00   0.29452598   0.00687509
6758.00   0.28847048   0.00682829
6760.00   0.28424004   0.00678492
6762.00   0.28260124   0.00674879
6764.00   0.27688551   0.00668467
6766.00   0.27517375   0.00666885
6768.00   0.27378950   0.00665380
6770.00   0.26940125   0.00660895
6772.00   0.26553863   0.00658053
6774.00   0.26357159   0.00655920
6776.00   0.26290473   0.00655468
6778.00   0.26084352   0.00653421
6780.00   0.25494048   0.00648318
6782.00   0.24994223   0.00644936
6784.00   0.24300463   0.00639449
6786.00   0.23584495   0.00635231
6788.00   0.22892575   0.00630679
6790.00   0.22702181   0.00628395
6792.00   0.22736625   0.00625819
6794.00   0.22877561   0.00621673
6796.00   0.22298740   0.00616862
6798.00   0.22457166   0.00620694
6800.00   0.22491397   0.00620862
6802.00   0.22341006   0.00614940
6804.00   0.22009313   0.00610081
6806.00   0.21828277   0.00608821
6808.00   0.21661925   0.00606804
6810.00   0.21751380   0.00606366
6812.00   0.21396674   0.00602832
6814.00   0.21110637   0.00601500
6816.00   0.20672046   0.00598349
6818.00   0.20330064   0.00595516
6820.00   0.20299719   0.00597637
6822.00   0.20307834   0.00608638
6824.00   0.20236187   0.00630677
6826.00   0.19926001   0.00651681
6828.00   0.19905216   0.00670315
6830.00   0.19825302   0.00685507
6832.00   0.19709320   0.00692404
6834.00   0.19470955   0.00681640
6836.00   0.19434617   0.00663696
6838.00   0.19435394   0.00645948
6840.00   0.19586079   0.00627752
6842.00   0.19882120   0.00613740
6844.00   0.19960541   0.00605199
6846.00   0.19612898   0.00597409
6848.00   0.19395764   0.00590387
6850.00   0.19349523   0.00585850
6852.00   0.19453663   0.00585870
6854.00   0.19416046   0.00585692
6856.00   0.19426872   0.00590590
6858.00   0.19427992   0.00611363
6860.00   0.19591357   0.00655423
6862.00   0.19509654   0.00705285
6864.00   0.19296522   0.00758678
6866.00   0.19313936   0.00812511
6868.00   0.19874865   0.00834281
6870.00   0.20121531   0.00784642
6872.00   0.19901691   0.00709356
6874.00   0.19583686   0.00660591
6876.00   0.19638927   0.00640056
6878.00   0.19472516   0.00624983
6880.00   0.19440375   0.00618796
6882.00   0.19642520   0.00628925
6884.00   0.19304405   0.00642261
6886.00   0.18790965   0.00650035
6888.00   0.19254695   0.00657612
6890.00   0.19804223   0.00659714
6892.00   0.19301420   0.00647911
6894.00   0.18855149   0.00634269
6896.00   0.18749677   0.00627143
6898.00   0.18994848   0.00627607
6900.00   0.19273452   0.00626590
6902.00   0.19164298   0.00621964
6904.00   0.19058275   0.00617276
6906.00   0.18935589   0.00614647
6908.00   0.19118428   0.00619298
6910.00   0.19006436   0.00622149
6912.00   0.19187351   0.00625821
6914.00   0.19373982   0.00625582
6916.00   0.18714237   0.00617173
6918.00   0.18502742   0.00619656
6920.00   0.18886562   0.00629699
6922.00   0.18686527   0.00631830
6924.00   0.18195349   0.00626732
6926.00   0.18139736   0.00622452
6928.00   0.18530421   0.00615294
6930.00   0.18662149   0.00596425
6932.00   0.18813996   0.00586528
6934.00   0.18530186   0.00588347
6936.00   0.17989619   0.00595451
6938.00   0.18143599   0.00601717
6940.00   0.18079089   0.00602131
6942.00   0.18093969   0.00607739
6944.00   0.18018681   0.00618743
6946.00   0.18439990   0.00631406
6948.00   0.18332352   0.00631398
6950.00   0.17859030   0.00625464
6952.00   0.18098433   0.00624755
6954.00   0.18527888   0.00615051
6956.00   0.18261690   0.00591471
6958.00   0.18176349   0.00576210
6960.00   0.18490563   0.00572819
6962.00   0.18547086   0.00572718
6964.00   0.18246174   0.00574025
6966.00   0.18086524   0.00580260
6968.00   0.18053615   0.00584800
6970.00   0.18233518   0.00589344
6972.00   0.18164556   0.00594293
6974.00   0.17882228   0.00599400
6976.00   0.17891109   0.00603285
6978.00   0.17873637   0.00601201
6980.00   0.17972255   0.00600157
6982.00   0.17691489   0.00593861
6984.00   0.17683427   0.00584165
6986.00   0.17788394   0.00574122
6988.00   0.17680646   0.00567711
6990.00   0.17162363   0.00559695
6992.00   0.17467773   0.00561403
6994.00   0.17711963   0.00563128
6996.00   0.17576869   0.00562085
6998.00   0.17982607   0.00568879
7000.00   0.17761676   0.00570354
7002.00   0.17757471   0.00572628
7004.00   0.17948101   0.00576484
7006.00   0.17759649   0.00579049
7008.00   0.17724593   0.00582511
7010.00   0.17613757   0.00581492
7012.00   0.17844021   0.00580630
7014.00   0.18136233   0.00578749
7016.00   0.18086040   0.00574065
7018.00   0.18294744   0.00569366
7020.00   0.18204270   0.00563238
7022.00   0.18083884   0.00561420
7024.00   0.17492765   0.00556197
7026.00   0.17782176   0.00560087
7028.00   0.18255663   0.00565358
7030.00   0.18293262   0.00568236
7032.00   0.18303914   0.00569601
7034.00   0.18345757   0.00572591
7036.00   0.18282062   0.00572642
7038.00   0.18393224   0.00572302
7040.00   0.18236779   0.00569699
7042.00   0.18395524   0.00573547
7044.00   0.18500376   0.00580267
7046.00   0.18418193   0.00586673
7048.00   0.18523477   0.00591770
7050.00   0.18560894   0.00593199
7052.00   0.18370026   0.00588131
7054.00   0.18290246   0.00578632
7056.00   0.18611701   0.00573969
7058.00   0.18872797   0.00574159
7060.00   0.19132429   0.00577593
7062.00   0.18982165   0.00575979
7064.00   0.18744494   0.00575954
7066.00   0.18463857   0.00576541
7068.00   0.18748219   0.00581381
7070.00   0.18886586   0.00584152
7072.00   0.18697703   0.00582248
7074.00   0.18600099   0.00579615
7076.00   0.18529141   0.00576006
7078.00   0.18307643   0.00572887
7080.00   0.18417130   0.00574305
7082.00   0.18691777   0.00576910
7084.00   0.19038445   0.00583075
7086.00   0.19226177   0.00588467
7088.00   0.18592243   0.00582454
7090.00   0.18469930   0.00579339
7092.00   0.18388551   0.00577885
7094.00   0.18375206   0.00573953
7096.00   0.18203282   0.00566276
7098.00   0.18340451   0.00564331
7100.00   0.18377204   0.00563488
7102.00   0.18307863   0.00560144
7104.00   0.18208224   0.00557599
7106.00   0.18067570   0.00556907
7108.00   0.17655618   0.00553512
7110.00   0.17766689   0.00553903
7112.00   0.17882134   0.00555127
7114.00   0.17899953   0.00555484
7116.00   0.17957991   0.00555794
7118.00   0.17790453   0.00554708
7120.00   0.17597796   0.00554197
7122.00   0.17436604   0.00555204
7124.00   0.17901243   0.00562713
7126.00   0.17781825   0.00562112
7128.00   0.17508678   0.00558594
7130.00   0.17219347   0.00555534
7132.00   0.17410809   0.00556248
7134.00   0.17436118   0.00555579
7136.00   0.17377627   0.00554228
7138.00   0.17139961   0.00554201
7140.00   0.17503472   0.00563036
7142.00   0.17485948   0.00566623
7144.00   0.17202485   0.00563817
7146.00   0.17359097   0.00563706
7148.00   0.17272989   0.00560379
7150.00   0.17232257   0.00558845
7152.00   0.17341493   0.00556298
7154.00   0.17483370   0.00554914
7156.00   0.17254043   0.00552177
7158.00   0.17155755   0.00552511
7160.00   0.17129441   0.00557390
7162.00   0.17105079   0.00562448
7164.00   0.17046247   0.00565853
7166.00   0.16808338   0.00569580
7168.00   0.16788495   0.00573848
7170.00   0.16597964   0.00574159
7172.00   0.16571485   0.00576553
7174.00   0.16508983   0.00576971
7176.00   0.16677599   0.00577533
7178.00   0.17000395   0.00583250
7180.00   0.17306711   0.00591240
7182.00   0.16952173   0.00590519
7184.00   0.16997392   0.00592129
7186.00   0.16856863   0.00586085
7188.00   0.16743535   0.00577002
7190.00   0.16982503   0.00575003
7192.00   0.17802329   0.00583615
7194.00   0.17672242   0.00582321
7196.00   0.16945928   0.00575196
7198.00   0.16948904   0.00577402
7200.00   0.16869633   0.00577177
7202.00   0.16574858   0.00569776
7204.00   0.16826765   0.00565697
7206.00   0.17491664   0.00562993
7208.00   0.17424347   0.00553985
7210.00   0.17153092   0.00548073
7212.00   0.17074569   0.00547745
7214.00   0.17643940   0.00561743
7216.00   0.17826723   0.00570344
7218.00   0.17724152   0.00575063
7220.00   0.17566575   0.00577401
7222.00   0.17253844   0.00575588
7224.00   0.18182893   0.00585181
7226.00   0.17967182   0.00578763
7228.00   0.17211075   0.00584063
7230.00   0.17410241   0.00620789
7232.00   0.17290922   0.00641786
7234.00   0.18265949   0.00659749
7236.00   0.18597959   0.00700458
7238.00   0.18065195   0.00747798
7240.00   0.18177812   0.00800475
7242.00   0.18472390   0.00839749
7244.00   0.18449013   0.00831005
7246.00   0.18829666   0.00792337
7248.00   0.18464231   0.00749497
7250.00   0.18481319   0.00713514
7252.00   0.18898530   0.00671776
7254.00   0.19092529   0.00633224
7256.00   0.19161363   0.00618027
7258.00   0.19154806   0.00613242
7260.00   0.18838876   0.00605460
7262.00   0.19193065   0.00601233
7264.00   0.19797768   0.00603162
7266.00   0.19966064   0.00604247
7268.00   0.19915354   0.00612909
7270.00   0.19629379   0.00652340
7272.00   0.19459240   0.00727248
7274.00   0.19577987   0.00782156
7276.00   0.20472622   0.00795205
7278.00   0.20646417   0.00786034
7280.00   0.20433544   0.00773435
7282.00   0.20665379   0.00742661
7284.00   0.20599572   0.00701890
7286.00   0.20575476   0.00690001
7288.00   0.20696515   0.00688518
7290.00   0.20731515   0.00667398
7292.00   0.20681702   0.00637075
7294.00   0.21055345   0.00624534
7296.00   0.21512520   0.00629522
7298.00   0.21649474   0.00645288
7300.00   0.21332073   0.00660459
7302.00   0.21556024   0.00665936
7304.00   0.21943112   0.00666685
7306.00   0.21581358   0.00661698
7308.00   0.21629632   0.00658169
7310.00   0.22207522   0.00670955
7312.00   0.22279179   0.00708758
7314.00   0.22058113   0.00740777
7316.00   0.22378774   0.00753227
7318.00   0.22817357   0.00748276
7320.00   0.23000699   0.00724208
7322.00   0.22818319   0.00679497
7324.00   0.23085074   0.00654166
7326.00   0.23530678   0.00666126
7328.00   0.22676151   0.00673211
7330.00   0.22934961   0.00677201
7332.00   0.22933145   0.00673756
7334.00   0.22824411   0.00675352
7336.00   0.23125394   0.00706545
7338.00   0.23357414   0.00746257
7340.00   0.23001049   0.00761021
7342.00   0.22792429   0.00763431
7344.00   0.23030221   0.00754070
7346.00   0.22928010   0.00714464
7348.00   0.23022753   0.00653925
7350.00   0.23011135   0.00621165
7352.00   0.22805548   0.00622306
7354.00   0.22800107   0.00642617
7356.00   0.22935878   0.00665440
7358.00   0.22740750   0.00669697
7360.00   0.22708501   0.00670805
7362.00   0.22750109   0.00675168
7364.00   0.22296339   0.00684220
7366.00   0.21736567   0.00700169
7368.00   0.22043128   0.00713268
7370.00   0.22744256   0.00719439
7372.00   0.22710435   0.00709518
7374.00   0.22840720   0.00684381
7376.00   0.22497852   0.00637658
7378.00   0.22404034   0.00607409
7380.00   0.22531068   0.00602120
7382.00   0.22630447   0.00601849
7384.00   0.22654586   0.00604269
7386.00   0.22214998   0.00611617
7388.00   0.21931003   0.00626684
7390.00   0.22139592   0.00638577
7392.00   0.22248925   0.00641135
7394.00   0.22035737   0.00642466
7396.00   0.22264574   0.00659180
7398.00   0.22007245   0.00673246
7400.00   0.21729486   0.00677335
7402.00   0.22001411   0.00679535
7404.00   0.22491252   0.00680007
7406.00   0.22253545   0.00663392
7408.00   0.21996038   0.00628503
7410.00   0.22027141   0.00600631
7412.00   0.22038108   0.00593693
7414.00   0.21881920   0.00592146
7416.00   0.21986836   0.00592437
7418.00   0.21933579   0.00590772
7420.00   0.21580203   0.00586611
7422.00   0.21815844   0.00589709
7424.00   0.21977158   0.00597061
7426.00   0.22469036   0.00611724
7428.00   0.22497702   0.00618646
7430.00   0.22070831   0.00618527
7432.00   0.21826385   0.00623622
7434.00   0.22577375   0.00642526
7436.00   0.22755803   0.00650001
7438.00   0.22853692   0.00649228
7440.00   0.22585094   0.00644896
7442.00   0.22376211   0.00636589
7444.00   0.22680147   0.00622149
7446.00   0.22858901   0.00604394
7448.00   0.23160125   0.00597794
7450.00   0.23660921   0.00601242
7452.00   0.23547550   0.00601700
7454.00   0.23295529   0.00601114
7456.00   0.23493540   0.00604624
7458.00   0.23720141   0.00612719
7460.00   0.23764677   0.00619245
7462.00   0.23930965   0.00626468
7464.00   0.23852952   0.00632500
7466.00   0.24466328   0.00647321
7468.00   0.24762936   0.00661393
7470.00   0.24667341   0.00669146
7472.00   0.24724662   0.00671475
7474.00   0.24872653   0.00675284
7476.00   0.25001347   0.00682695
7478.00   0.25364926   0.00687639
7480.00   0.25809053   0.00691854
7482.00   0.25506309   0.00688370
7484.00   0.25300184   0.00678810
7486.00   0.26227000   0.00673219
7488.00   0.26366299   0.00661845
7490.00   0.26229641   0.00649399
7492.00   0.26824835   0.00647680
7494.00   0.27020112   0.00648183
7496.00   0.26755694   0.00645506
7498.00   0.26863760   0.00642884
7500.00   0.26944050   0.00639180
7502.00   0.27120164   0.00639113
7504.00   0.27771437   0.00644437
7506.00   0.27979729   0.00644824
7508.00   0.28262439   0.00646130
7510.00   0.28379190   0.00647908
7512.00   0.28110817   0.00649084
7514.00   0.28246287   0.00654448
7516.00   0.28877473   0.00667993
7518.00   0.28755471   0.00691840
7520.00   0.28540197   0.00725890
7522.00   0.29013348   0.00750338
7524.00   0.29189157   0.00758651
7526.00   0.28807992   0.00758362
7528.00   0.29161310   0.00750226
7530.00   0.29839501   0.00724449
7532.00   0.30287623   0.00700183
7534.00   0.29832661   0.00685702
7536.00   0.30070877   0.00682372
7538.00   0.30472329   0.00679498
7540.00   0.29830420   0.00670414
7542.00   0.29504752   0.00666638
7544.00   0.29668874   0.00667175
7546.00   0.29989660   0.00667113
7548.00   0.30412593   0.00667397
7550.00   0.30502677   0.00668587
7552.00   0.30438152   0.00674836
7554.00   0.30211234   0.00680789
7556.00   0.30167282   0.00684506
7558.00   0.30169308   0.00684596
7560.00   0.30414653   0.00684771
7562.00   0.30178759   0.00681378
7564.00   0.29862204   0.00680791
7566.00   0.29695880   0.00692818
7568.00   0.29693505   0.00715787
7570.00   0.29865441   0.00733607
7572.00   0.29900250   0.00738009
7574.00   0.29718527   0.00732788
7576.00   0.29554719   0.00716847
7578.00   0.29151425   0.00687487
7580.00   0.28891256   0.00669787
7582.00   0.28878701   0.00673520
7584.00   0.28635702   0.00679559
7586.00   0.28497517   0.00687546
7588.00   0.28435364   0.00713831
7590.00   0.27808806   0.00762084
7592.00   0.26282066   0.00847214
7594.00   0.25987411   0.01012756
7596.00   0.26553485   0.01227067
7598.00   0.25764272   0.01411626
7600.00   0.23946446   0.01535899
7602.00   0.23972106   0.01584184
7604.00   0.23465341   0.01478370
7606.00   0.22493343   0.01275907
7608.00   0.22224157   0.01091874
7610.00   0.22714049   0.00948693
7612.00   0.23557262   0.00846513
7614.00   0.24455483   0.00786959
7616.00   0.24207391   0.00759399
7618.00   0.23292828   0.00770495
7620.00   0.22297378   0.00824508
7622.00   0.22081000   0.00905136
7624.00   0.22251956   0.00967551
7626.00   0.21927910   0.00978228
7628.00   0.21768188   0.00963274
7630.00   0.22167146   0.00946406
7632.00   0.22674154   0.00919842
7634.00   0.22342579   0.00867798
7636.00   0.21961761   0.00817810
7638.00   0.21830285   0.00787518
7640.00   0.21459384   0.00765555
7642.00   0.21086110   0.00744451
7644.00   0.21063082   0.00728511
7646.00   0.21539277   0.00721645
7648.00   0.21505792   0.00713167
7650.00   0.21715327   0.00707651
7652.00   0.21924025   0.00698832
7654.00   0.22051007   0.00690617
7656.00   0.21601973   0.00682855
7658.00   0.21367277   0.00680036
7660.00   0.20999503   0.00672367
7662.00   0.20720057   0.00664317
7664.00   0.20818186   0.00658913
7666.00   0.21098058   0.00651256
7668.00   0.20938289   0.00633340
7670.00   0.21120672   0.00618075
7672.00   0.21282911   0.00608086
7674.00   0.21230865   0.00603364
7676.00   0.21567343   0.00604877
7678.00   0.21717803   0.00606118
7680.00   0.21992074   0.00611068
7682.00   0.22259779   0.00617830
7684.00   0.22325175   0.00620590
7686.00   0.22419645   0.00622408
7688.00   0.22694136   0.00628286
7690.00   0.22831333   0.00632513
7692.00   0.22578835   0.00629985
7694.00   0.22477542   0.00634621
7696.00   0.22428031   0.00642931
7698.00   0.22238155   0.00642908
7700.00   0.22238381   0.00638892
7702.00   0.22607936   0.00639498
7704.00   0.23355214   0.00641896
7706.00   0.23648983   0.00656460
7708.00   0.23733215   0.00708078
7710.00   0.23906924   0.00782915
7712.00   0.24101837   0.00846270
7714.00   0.23853044   0.00886471
7716.00   0.23828490   0.00892393
7718.00   0.24631314   0.00870641
7720.00   0.25196421   0.00828968
7722.00   0.25237003   0.00780263
7724.00   0.25394237   0.00730880
7726.00   0.25223425   0.00698945
7728.00   0.25275001   0.00688189
7730.00   0.25555837   0.00679300
7732.00   0.26036826   0.00668881
7734.00   0.26385224   0.00663039
7736.00   0.26407972   0.00661250
7738.00   0.26828706   0.00663477
7740.00   0.26876649   0.00660892
7742.00   0.26950574   0.00662918
7744.00   0.27017021   0.00698790
7746.00   0.27128470   0.00775206
7748.00   0.27355477   0.00839769
7750.00   0.27464020   0.00857090
7752.00   0.28259400   0.00863762
7754.00   0.29064509   0.00859984
7756.00   0.28873250   0.00819759
7758.00   0.28143200   0.00763154
7760.00   0.28016785   0.00738267
7762.00   0.28653333   0.00739707
7764.00   0.29868111   0.00736535
7766.00   0.29662427   0.00710186
7768.00   0.29573107   0.00693658
7770.00   0.29824543   0.00699427
7772.00   0.30480111   0.00712436
7774.00   0.30654526   0.00723396
7776.00   0.29936555   0.00731147
7778.00   0.29860613   0.00738022
7780.00   0.30236033   0.00733758
7782.00   0.30403519   0.00729684
7784.00   0.30715957   0.00728387
7786.00   0.31158841   0.00728921
7788.00   0.31510651   0.00749756
7790.00   0.31553736   0.00803545
7792.00   0.31484380   0.00837835
7794.00   0.30904278   0.00837690
7796.00   0.31372622   0.00831398
7798.00   0.31801245   0.00810359
7800.00   0.31475651   0.00755827
7802.00   0.31713378   0.00722423
7804.00   0.31745434   0.00731493
7806.00   0.31694159   0.00752255
7808.00   0.32331648   0.00767304
7810.00   0.32513711   0.00770971
7812.00   0.32496873   0.00763527
7814.00   0.32704601   0.00760976
7816.00   0.32354012   0.00790973
7818.00   0.31902957   0.00843332
7820.00   0.32149681   0.00872300
7822.00   0.32161766   0.00874848
7824.00   0.31971133   0.00861380
7826.00   0.32510951   0.00828751
7828.00   0.32724068   0.00762393
7830.00   0.32396945   0.00711540
7832.00   0.31943658   0.00694812
7834.00   0.32596812   0.00709105
7836.00   0.32754803   0.00730884
7838.00   0.32778546   0.00752744
7840.00   0.32870957   0.00763540
7842.00   0.33221579   0.00769758
7844.00   0.33021727   0.00771451
7846.00   0.32559249   0.00780944
7848.00   0.32746860   0.00828380
7850.00   0.32983246   0.00884299
7852.00   0.33005270   0.00913791
7854.00   0.33039895   0.00929298
7856.00   0.32933298   0.00937606
7858.00   0.33640686   0.00910899
7860.00   0.33418664   0.00849556
7862.00   0.32255498   0.00804919
7864.00   0.32296726   0.00805926
7866.00   0.32465586   0.00815788
7868.00   0.32825267   0.00818936
7870.00   0.32686821   0.00815115
7872.00   0.32472411   0.00814386
7874.00   0.32063198   0.00812634
7876.00   0.31899261   0.00802240
7878.00   0.32038745   0.00792543
7880.00   0.31582332   0.00786043
7882.00   0.31369567   0.00787951
7884.00   0.30993044   0.00800275
7886.00   0.31089690   0.00819054
7888.00   0.31394157   0.00827241
7890.00   0.31398511   0.00822648
7892.00   0.30967680   0.00813242
7894.00   0.31040627   0.00787499
7896.00   0.31547868   0.00746984
7898.00   0.30775079   0.00753728
7900.00   0.30141610   0.00746158
7902.00   0.30401620   0.00719025
7904.00   0.30912313   0.00687934
7906.00   0.30268851   0.00715387
7908.00   0.30119970   0.00784099
7910.00   0.30113003   0.00865225
7912.00   0.30034018   0.00911375
7914.00   0.29857323   0.00926958
7916.00   0.29867920   0.00942077
7918.00   0.30007529   0.00926326
7920.00   0.30219373   0.00870763
7922.00   0.29834875   0.00813631
7924.00   0.29098272   0.00791778
7926.00   0.29041943   0.00786084
7928.00   0.29276821   0.00777484
7930.00   0.28878489   0.00765064
7932.00   0.28351817   0.00756787
7934.00   0.28364643   0.00749332
7936.00   0.28687397   0.00728887
7938.00   0.28507257   0.00693705
7940.00   0.28107259   0.00669705
7942.00   0.27918187   0.00674423
7944.00   0.27856138   0.00693889
7946.00   0.27406591   0.00711791
7948.00   0.27403799   0.00721210
7950.00   0.27618131   0.00721485
7952.00   0.27200660   0.00710496
7954.00   0.27201012   0.00692639
7956.00   0.27018273   0.00673345
7958.00   0.26609114   0.00688695
7960.00   0.26301658   0.00750124
7962.00   0.26301810   0.00807920
7964.00   0.25612339   0.00819602
7966.00   0.25158548   0.00815908
7968.00   0.25460446   0.00799407
7970.00   0.26038834   0.00756573
7972.00   0.25979188   0.00702780
7974.00   0.25161621   0.00693150
7976.00   0.24521269   0.00714654
7978.00   0.24396257   0.00732179
7980.00   0.24017565   0.00727696
7982.00   0.24137652   0.00716769
7984.00   0.24284931   0.00695137
7986.00   0.24088444   0.00681634
7988.00   0.23409446   0.00716295
7990.00   0.23460883   0.00784795
7992.00   0.23089047   0.00813425
7994.00   0.22907943   0.00818686
7996.00   0.22792153   0.00810246
7998.00   0.22590399   0.00764443
8000.00   0.22637425   0.00681920
8002.00   0.22317553   0.00624673
8004.00   0.22262597   0.00610811
8006.00   0.21986942   0.00613188
8008.00   0.21852736   0.00629462
8010.00   0.21719404   0.00654603
8012.00   0.21512973   0.00666165
8014.00   0.21535383   0.00669674
8016.00   0.21503830   0.00671857
8018.00   0.21344592   0.00675860
8020.00   0.21017940   0.00694794
8022.00   0.21291228   0.00738732
8024.00   0.21415915   0.00767598
8026.00   0.20894034   0.00767752
8028.00   0.20538342   0.00755099
8030.00   0.20239057   0.00723320
8032.00   0.20167331   0.00666845
8034.00   0.20157313   0.00614851
8036.00   0.19974376   0.00590909
8038.00   0.19560353   0.00581990
8040.00   0.19756126   0.00583174
8042.00   0.19272566   0.00575292
8044.00   0.19003884   0.00573414
8046.00   0.19075298   0.00589169
8048.00   0.19012247   0.00609476
8050.00   0.18772246   0.00616985
8052.00   0.18588698   0.00615676
8054.00   0.18241024   0.00613198
8056.00   0.17737286   0.00618917
8058.00   0.17771538   0.00637189
8060.00   0.17603157   0.00645083
8062.00   0.17737408   0.00647332
8064.00   0.17907055   0.00648936
8066.00   0.18485157   0.00639629
8068.00   0.18220867   0.00602948
8070.00   0.17865777   0.00569319
8072.00   0.17545497   0.00555517
8074.00   0.17594266   0.00558460
8076.00   0.17897260   0.00563791
8078.00   0.17687775   0.00564062
8080.00   0.17401390   0.00564765
8082.00   0.17539029   0.00567009
8084.00   0.17497201   0.00563943
8086.00   0.17252557   0.00560143
8088.00   0.17100823   0.00564303
8090.00   0.17319672   0.00573573
8092.00   0.17314829   0.00576236
8094.00   0.16949479   0.00571749
8096.00   0.16856854   0.00578080
8098.00   0.17392461   0.00597974
8100.00   0.17729791   0.00608986
8102.00   0.17176884   0.00602804
8104.00   0.16889311   0.00600210
8106.00   0.16787857   0.00594869
8108.00   0.16615380   0.00578282
8110.00   0.16605841   0.00564796
8112.00   0.16979063   0.00565084
8114.00   0.16849846   0.00564035
8116.00   0.16596450   0.00560695
8118.00   0.16764586   0.00561318
8120.00   0.16960423   0.00559643
8122.00   0.16719829   0.00553817
8124.00   0.16710167   0.00554848
8126.00   0.17029822   0.00562878
8128.00   0.16605462   0.00563037
8130.00   0.15893285   0.00560721
8132.00   0.16080596   0.00570019
8134.00   0.16686779   0.00583667
8136.00   0.16427179   0.00582842
8138.00   0.16223340   0.00580211
8140.00   0.16377501   0.00585842
8142.00   0.16471693   0.00595939
8144.00   0.16181211   0.00598070
8146.00   0.16097857   0.00594820
8148.00   0.16121581   0.00592555
8150.00   0.16452464   0.00593530
8152.00   0.16584998   0.00589084
8154.00   0.16568254   0.00581045
8156.00   0.16401911   0.00580879
8158.00   0.15893009   0.00584822
8160.00   0.15840335   0.00590976
8162.00   0.16492914   0.00598549
8164.00   0.16194926   0.00589572
8166.00   0.16208357   0.00583211
8168.00   0.16464786   0.00583258
8170.00   0.16749400   0.00588181
8172.00   0.16196460   0.00591472
8174.00   0.15732977   0.00605720
8176.00   0.15665148   0.00636765
8178.00   0.16178097   0.00680958
8180.00   0.16752911   0.00716608
8182.00   0.16402483   0.00732230
8184.00   0.16528778   0.00750958
8186.00   0.16535129   0.00765312
8188.00   0.16245140   0.00768107
8190.00   0.16254976   0.00777996
8192.00   0.15863757   0.00789207
8194.00   0.15489069   0.00788819
8196.00   0.16169786   0.00787080
8198.00   0.16310586   0.00766165
8200.00   0.16040497   0.00715720
8202.00   0.16128297   0.00657855
8204.00   0.16023819   0.00624437
8206.00   0.15667470   0.00613379
8208.00   0.15255380   0.00603861
8210.00   0.15563287   0.00597637
8212.00   0.15857048   0.00591607
8214.00   0.15902627   0.00581770
8216.00   0.15463810   0.00569779
8218.00   0.15529811   0.00572540
8220.00   0.15511312   0.00581561
8222.00   0.14849116   0.00589176
8224.00   0.14203137   0.00600841
8226.00   0.14379275   0.00614568
8228.00   0.15158656   0.00611832
8230.00   0.14982152   0.00579145
8232.00   0.15132402   0.00554368
8234.00   0.15021412   0.00542318
8236.00   0.15132877   0.00543738
8238.00   0.15372655   0.00550735
8240.00   0.15172762   0.00549748
8242.00   0.15043038   0.00547650
8244.00   0.15170483   0.00546165
8246.00   0.15234117   0.00544556
8248.00   0.15365881   0.00546762
8250.00   0.14855213   0.00546089
8252.00   0.14327449   0.00543091
8254.00   0.14227393   0.00540952
8256.00   0.14330378   0.00539469
8258.00   0.14392741   0.00535407
8260.00   0.14248516   0.00524141
8262.00   0.14285368   0.00527962
8264.00   0.14378729   0.00558703
8266.00   0.14433222   0.00552150
8268.00   0.13729827   0.00547009
8270.00   0.13209189   0.00548628
8272.00   0.13288367   0.00567290
8274.00   0.13388218   0.00600805
8276.00   0.13059647   0.00662240
8278.00   0.13056864   0.00714474
8280.00   0.13324875   0.00750688
8282.00   0.12984824   0.00785094
8284.00   0.12421783   0.00821035
8286.00   0.12417176   0.00828664
8288.00   0.12770365   0.00799038
8290.00   0.12987077   0.00772432
8292.00   0.13046159   0.00774900
8294.00   0.12870961   0.00787562
8296.00   0.12457424   0.00786779
8298.00   0.11848453   0.00778898
8300.00   0.11453100   0.00767169
8302.00   0.11483482   0.00729744
8304.00   0.11744687   0.00660475
8306.00   0.11382448   0.00594958
8308.00   0.11124169   0.00570794
8310.00   0.10949758   0.00570371
8312.00   0.10694990   0.00573183
8314.00   0.10115537   0.00565719
8316.00   0.10104199   0.00543946
8318.00   0.10111757   0.00510798
8320.00   0.09764874   0.00485800
8322.00   0.09221151   0.00468253
8324.00   0.08921394   0.00454204
8326.00   0.08718145   0.00446972
8328.00   0.08267619   0.00440414
8330.00   0.08144919   0.00438869
8332.00   0.07881077   0.00437947
8334.00   0.07550889   0.00439897
8336.00   0.06991614   0.00467359
8338.00   0.06887547   0.00582177
8340.00   0.07897958   0.00765390
8342.00   0.08065268   0.00883095
8344.00   0.07472551   0.00902061
8346.00   0.07370558   0.00913057
8348.00   0.07064828   0.00912510
8350.00   0.06961884   0.00825632
8352.00   0.06806500   0.00686760
8354.00   0.06524052   0.00619333
8356.00   0.06451196   0.00596178
8358.00   0.06687212   0.00558678
8360.00   0.06749702   0.00517206
8362.00   0.06489250   0.00508596
8364.00   0.06219818   0.00508977
8366.00   0.06245638   0.00502502
8368.00   0.06058898   0.00485868
8370.00   0.05925755   0.00453874
8372.00   0.05763625   0.00417030
8374.00   0.05702010   0.00412081
8376.00   0.06052854   0.00459185
8378.00   0.06015631   0.00519943
8380.00   0.05637548   0.00550953
8382.00   0.05621317   0.00556866
8384.00   0.05793133   0.00553432
8386.00   0.05686437   0.00527537
8388.00   0.05270812   0.00469654
8390.00   0.05382093   0.00426141
8392.00   0.05743677   0.00469691
8394.00   0.05506219   0.00603739
8396.00   0.05584082   0.00718973
8398.00   0.06063165   0.00765942
8400.00   0.05426041   0.00761625
8402.00   0.05282245   0.00740414
8404.00   0.05256318   0.00645578
8406.00   0.05298631   0.00501501
8408.00   0.05584912   0.00435462
8410.00   0.05769368   0.00484363
8412.00   0.05860927   0.00547295
8414.00   0.05929649   0.00569846
8416.00   0.05897967   0.00571096
8418.00   0.05829996   0.00560317
8420.00   0.05954241   0.00521065
8422.00   0.06068114   0.00486394
8424.00   0.06310660   0.00568220
8426.00   0.06356122   0.00709461
8428.00   0.06246677   0.00797717
8430.00   0.05957143   0.00811752
8432.00   0.06202937   0.00802976
8434.00   0.06671419   0.00743098
8436.00   0.06894162   0.00607741
8438.00   0.06650307   0.00464912
8440.00   0.06702948   0.00404794
8442.00   0.06803479   0.00402093
8444.00   0.07135130   0.00418889
8446.00   0.06952212   0.00459253
8448.00   0.06930472   0.00520008
8450.00   0.07394189   0.00565014
8452.00   0.07916668   0.00579063
8454.00   0.07901161   0.00574358
8456.00   0.07828294   0.00553048
8458.00   0.07849132   0.00542052
8460.00   0.07756896   0.00595368
8462.00   0.08093370   0.00690578
8464.00   0.08703419   0.00740785
8466.00   0.08824891   0.00741283
8468.00   0.08620448   0.00721135
8470.00   0.08616971   0.00650003
8472.00   0.08744454   0.00536048
8474.00   0.08835761   0.00452470
8476.00   0.09231276   0.00442811
8478.00   0.09320825   0.00445709
8480.00   0.09071078   0.00439169
8482.00   0.08969643   0.00432897
8484.00   0.09283811   0.00435864
8486.00   0.09347508   0.00449335
8488.00   0.09497780   0.00486782
8490.00   0.09424875   0.00527208
8492.00   0.09476209   0.00547176
8494.00   0.09558996   0.00549763
8496.00   0.09688515   0.00552776
8498.00   0.09451678   0.00558996
8500.00   0.09244747   0.00588032
8502.00   0.09335055   0.00624757
8504.00   0.09545827   0.00641164
8506.00   0.09513543   0.00636595
8508.00   0.09624407   0.00613908
8510.00   0.09791557   0.00552848
8512.00   0.10011571   0.00480165
8514.00   0.10304976   0.00447598
8516.00   0.10431838   0.00449303
8518.00   0.10278964   0.00450641
8520.00   0.10385424   0.00451832
8522.00   0.10586154   0.00453806
8524.00   0.10687989   0.00454316
8526.00   0.10999482   0.00455733
8528.00   0.10928646   0.00452871
8530.00   0.10824808   0.00451686
8532.00   0.11013183   0.00462946
8534.00   0.11052238   0.00484418
8536.00   0.10976825   0.00500773
8538.00   0.11045029   0.00505734
8540.00   0.11289064   0.00510859
8542.00   0.11498326   0.00524294
8544.00   0.11576807   0.00545649
8546.00   0.11248305   0.00554722
8548.00   0.11291912   0.00558471
8550.00   0.11649158   0.00560142
8552.00   0.11613242   0.00547852
8554.00   0.11365984   0.00512869
8556.00   0.11433975   0.00477229
8558.00   0.11536988   0.00461085
8560.00   0.11389393   0.00455662
8562.00   0.11631009   0.00458770
8564.00   0.11709934   0.00459673
8566.00   0.11642673   0.00460585
8568.00   0.12058872   0.00468501
8570.00   0.12378582   0.00472718
8572.00   0.12409417   0.00477737
8574.00   0.12503017   0.00507684
8576.00   0.12834859   0.00509634
8578.00   0.12571305   0.00493427
8580.00   0.12486368   0.00481970
8582.00   0.13030307   0.00490971
8584.00   0.13424088   0.00502289
8586.00   0.13380471   0.00508590
8588.00   0.13721788   0.00516810
8590.00   0.14564262   0.00533942
8592.00   0.15028208   0.00548551
8594.00   0.15389490   0.00553867
8596.00   0.15820502   0.00554225
8598.00   0.16193867   0.00556123
8600.00   0.16405949   0.00556026
8602.00   0.16745190   0.00550453
8604.00   0.16754465   0.00541069
8606.00   0.16944391   0.00543733
8608.00   0.17456575   0.00561693
8610.00   0.18158989   0.00588165
8612.00   0.18226479   0.00613720
8614.00   0.18306975   0.00646186
8616.00   0.18940590   0.00688367
8618.00   0.19595097   0.00731028
8620.00   0.19790123   0.00767038
8622.00   0.20095135   0.00802522
8624.00   0.20809148   0.00835265
8626.00   0.21066733   0.00856735
8628.00   0.20700443   0.00863436
8630.00   0.20809518   0.00863055
8632.00   0.21622586   0.00856908
8634.00   0.21726651   0.00835596
8636.00   0.21751316   0.00803541
8638.00   0.22151734   0.00766342
8640.00   0.22161193   0.00727201
8642.00   0.22887135   0.00705060
8644.00   0.23533319   0.00705373
8646.00   0.23266666   0.00720711
8648.00   0.22877802   0.00749737
8650.00   0.22618763   0.00786841
8652.00   0.22742705   0.00823986
8654.00   0.23392165   0.00850352
8656.00   0.23575079   0.00862118
8658.00   0.24111004   0.00867548
8660.00   0.24434739   0.00868762
8662.00   0.24505074   0.00864264
8664.00   0.24003649   0.00852296
8666.00   0.23622322   0.00840202
8668.00   0.23930003   0.00826124
8670.00   0.24306214   0.00810539
8672.00   0.24338458   0.00792055
8674.00   0.24051321   0.00771133
8676.00   0.24346508   0.00752961
8678.00   0.24781007   0.00738125
8680.00   0.25067803   0.00722000
8682.00   0.24850571   0.00701630
8684.00   0.25180015   0.00690909
8686.00   0.25092003   0.00675846
8688.00   0.24620228   0.00658313
8690.00   0.24751683   0.00650619
8692.00   0.25035602   0.00643169
8694.00   0.25165406   0.00637652
8696.00   0.25365478   0.00637952
8698.00   0.25930825   0.00638571
8700.00   0.25333157   0.00630585
8702.00   0.25184649   0.00629517
8704.00   0.25272176   0.00628871
8706.00   0.25077704   0.00622930
8708.00   0.24817920   0.00622574
8710.00   0.24885194   0.00654757
8712.00   0.25461957   0.00610328
8714.00   0.26134959   0.00606099
8716.00   0.26214924   0.00625980
8718.00   0.25556794   0.00602671
8720.00   0.25395736   0.00600419
8722.00   0.25507629   0.00604210
8724.00   0.25780424   0.00606345
8726.00   0.25739661   0.00604997
8728.00   0.25603235   0.00603050
8730.00   0.25239068   0.00599195
8732.00   0.25244921   0.00598925
8734.00   0.25307918   0.00600145
8736.00   0.25544646   0.00603917
8738.00   0.25730002   0.00605894
8740.00   0.25842693   0.00609293
8742.00   0.25943720   0.00629892
8744.00   0.26285273   0.00666232
8746.00   0.26661325   0.00618546
8748.00   0.26415399   0.00612677
8750.00   0.25827762   0.00646154
8752.00   0.25783077   0.00646973
8754.00   0.26113883   0.00696654
8756.00   0.26246339   0.00776327
8758.00   0.26174879   0.00853327
8760.00   0.25930521   0.00909147
8762.00   0.25660822   0.00967052
8764.00   0.25783417   0.01014897
8766.00   0.25932711   0.00998675
8768.00   0.25999209   0.00945082
8770.00   0.25739858   0.00916833
8772.00   0.25647148   0.00922779
8774.00   0.25534603   0.00927149
8776.00   0.26222548   0.00926539
8778.00   0.26425394   0.00921134
8780.00   0.26689470   0.00899895
8782.00   0.26708403   0.00838767
8784.00   0.27445278   0.00753802
8786.00   0.27020076   0.00700229
8788.00   0.26509038   0.00707451
8790.00   0.26391467   0.00720991
8792.00   0.27175671   0.00726437
8794.00   0.27339274   0.00716474
8796.00   0.27231300   0.00682861
8798.00   0.27566275   0.00641788
8800.00   0.27409691   0.00615924
8802.00   0.27883708   0.00618903
8804.00   0.28328624   0.00627259
8806.00   0.28380200   0.00634082
8808.00   0.28211159   0.00637609
8810.00   0.28342208   0.00641347
8812.00   0.28445235   0.00642515
8814.00   0.28722355   0.00640255
8816.00   0.28792080   0.00634416
8818.00   0.28555879   0.00652147
8820.00   0.28807560   0.00751783
8822.00   0.28860959   0.00931011
8824.00   0.28705433   0.01073599
8826.00   0.28120744   0.01123318
8828.00   0.28652784   0.01135817
8830.00   0.29587492   0.01128350
8832.00   0.29018819   0.01061916
8834.00   0.28506055   0.00953164
8836.00   0.28819838   0.00885066
8838.00   0.29668769   0.00859776
8840.00   0.29704797   0.00825979
8842.00   0.29595613   0.00756013
8844.00   0.29927287   0.00710362
8846.00   0.30158225   0.00716214
8848.00   0.30297762   0.00739234
8850.00   0.30753183   0.00752729
8852.00   0.31081989   0.00751010
8854.00   0.31208196   0.00731915
8856.00   0.30945778   0.00698973
8858.00   0.31105205   0.00678140
8860.00   0.30417606   0.00682054
8862.00   0.29992256   0.00729644
8864.00   0.29888138   0.00782003
8866.00   0.30091524   0.00804520
8868.00   0.29964292   0.00800366
8870.00   0.29768112   0.00784711
8872.00   0.29583958   0.00743023
8874.00   0.29909423   0.00686473
8876.00   0.30210045   0.00651053
8878.00   0.29871592   0.00677973
8880.00   0.29144314   0.00789538
8882.00   0.28994867   0.00918668
8884.00   0.29296425   0.00986791
8886.00   0.29509971   0.00997980
8888.00   0.29218751   0.00980989
8890.00   0.28775316   0.00908362
8892.00   0.28670642   0.00778323
8894.00   0.29184341   0.00676753
8896.00   0.29724208   0.00676303
8898.00   0.29758421   0.00742283
8900.00   0.29704353   0.00802875
8902.00   0.29435006   0.00824831
8904.00   0.29057360   0.00824730
8906.00   0.28861356   0.00807668
8908.00   0.29182613   0.00758403
8910.00   0.29473898   0.00693498
8912.00   0.29397652   0.00705383
8914.00   0.29265311   0.00830199
8916.00   0.29315147   0.00976911
8918.00   0.29209408   0.01040390
8920.00   0.28717259   0.01040298
8922.00   0.28366575   0.01013391
8924.00   0.28272316   0.00933867
8926.00   0.28427905   0.00791579
8928.00   0.28493086   0.00674959
8930.00   0.28347543   0.00647301
8932.00   0.28383037   0.00645034
8934.00   0.28228924   0.00641449
8936.00   0.27894065   0.00657117
8938.00   0.28107038   0.00717148
8940.00   0.28447375   0.00781318
8942.00   0.28240618   0.00805645
8944.00   0.27976868   0.00810392
8946.00   0.27607962   0.00801973
8948.00   0.27687350   0.00766883
8950.00   0.26773790   0.00721872
8952.00   0.27098349   0.00784962
8954.00   0.27567723   0.00912967
8956.00   0.26768148   0.00988717
#8958.00   0.25120497   0.01009892
#8960.00   0.25505498   0.01020878
8962.00   0.26510748   0.00972944
8964.00   0.27551135   0.00830710
8966.00   0.26839921   0.00691296
8968.00   0.26032159   0.00645554
8970.00   0.26146087   0.00649337
8972.00   0.26500404   0.00651443
8974.00   0.26704875   0.00647477
8976.00   0.26050976   0.00641420
8978.00   0.26226023   0.00646681
8980.00   0.26494288   0.00665692
8982.00   0.25729701   0.00713329
#8984.00   0.24209018   0.00792345
#8986.00   0.23267464   0.00858068
#8988.00   0.24105400   0.00871623
8990.00   0.25834262   0.00833859
8992.00   0.26293439   0.00767034
8994.00   0.25858650   0.00733022
8996.00   0.25210908   0.00790526
8998.00   0.25475767   0.00898168
9000.00   0.26651770   0.00976841
9002.00   0.27491251   0.00994274
9004.00   0.26862013   0.00955030
9006.00   0.26140308   0.00855410
9008.00   0.25979641   0.00735600
9010.00   0.25796476   0.00658598
9012.00   0.25152668   0.00633383
9014.00   0.24941917   0.00631252
9016.00   0.24893503   0.00629402
9018.00   0.24455757   0.00625351
9020.00   0.23806155   0.00621744
9022.00   0.23631160   0.00625155
9024.00   0.23786896   0.00625616
9026.00   0.23881789   0.00616389
9028.00   0.24095213   0.00606077
9030.00   0.24401765   0.00606567
9032.00   0.24441731   0.00620346
9034.00   0.24054325   0.00640586
9036.00   0.23923326   0.00660027
9038.00   0.23789334   0.00668710
9040.00   0.23712754   0.00669461
9042.00   0.23467849   0.00665416
9044.00   0.23507957   0.00675726
9046.00   0.22986764   0.00700093
9048.00   0.22788852   0.00723928
9050.00   0.22551049   0.00727939
9052.00   0.22951835   0.00719198
9054.00   0.22579937   0.00681762
9056.00   0.21667951   0.00624664
9058.00   0.21767206   0.00594158
9060.00   0.22065705   0.00595279
9062.00   0.22129498   0.00602362
9064.00   0.22012000   0.00608800
9066.00   0.21080904   0.00612467
9068.00   0.20265575   0.00614927
9070.00   0.20669289   0.00613196
9072.00   0.21512394   0.00606931
9074.00   0.21240370   0.00593697
9076.00   0.20611542   0.00586025
9078.00   0.20428793   0.00588708
9080.00   0.20879777   0.00593520
9082.00   0.20734890   0.00588484
9084.00   0.20517051   0.00586185
9086.00   0.20452784   0.00594593
9088.00   0.20290045   0.00604034
9090.00   0.19673693   0.00602352
9092.00   0.19715428   0.00605968
9094.00   0.19695848   0.00613854
9096.00   0.19439214   0.00628019
9098.00   0.19956632   0.00654848
9100.00   0.20300335   0.00670789
9102.00   0.19593300   0.00667193
9104.00   0.19321179   0.00656551
9106.00   0.19632006   0.00634850
9108.00   0.20164888   0.00598023
9110.00   0.19782066   0.00558269
9112.00   0.19322067   0.00546804
9114.00   0.18891948   0.00553330
9116.00   0.18818833   0.00560540
9118.00   0.19192076   0.00559349
9120.00   0.19589269   0.00552997
9122.00   0.19153048   0.00545731
9124.00   0.18351047   0.00546969
9126.00   0.18085749   0.00562420
9128.00   0.18283840   0.00578719
9130.00   0.18115799   0.00581668
9132.00   0.17853361   0.00576223
9134.00   0.18669641   0.00574834
9136.00   0.19431828   0.00578251
9138.00   0.19043534   0.00573794
9140.00   0.18189482   0.00561762
9142.00   0.18610382   0.00561159
9144.00   0.19022562   0.00561689
9146.00   0.18791370   0.00568217
9148.00   0.17650795   0.00584872
9150.00   0.17035376   0.00612485
9152.00   0.17202413   0.00627069
9154.00   0.17835017   0.00628919
9156.00   0.17994130   0.00618448
9158.00   0.18081389   0.00605793
9160.00   0.18160029   0.00593318
9162.00   0.18171577   0.00583471
9164.00   0.18124776   0.00576350
9166.00   0.18251233   0.00572635
9168.00   0.18150866   0.00569074
9170.00   0.17422950   0.00563439
9172.00   0.16991703   0.00561848
9174.00   0.17290521   0.00558814
9176.00   0.18095227   0.00555237
9178.00   0.18156816   0.00545372
9180.00   0.18042590   0.00541214
9182.00   0.18216443   0.00543648
9184.00   0.18727309   0.00543164
9186.00   0.18575656   0.00535246
9188.00   0.17992850   0.00527977
9190.00   0.17565298   0.00527659
9192.00   0.17726330   0.00532739
9194.00   0.18146019   0.00534418
9196.00   0.18534417   0.00531983
9198.00   0.18694626   0.00530478
9200.00   0.18713999   0.00533072
9202.00   0.18381830   0.00534650
9204.00   0.18351726   0.00538024
9206.00   0.18483095   0.00541542
9208.00   0.18075073   0.00541893
9210.00   0.17997451   0.00553036
9212.00   0.18070309   0.00574801
9214.00   0.18126036   0.00595267
9216.00   0.19195296   0.00613124
9218.00   0.19819911   0.00621322
9220.00   0.19447744   0.00618410
9222.00   0.18715809   0.00606964
9224.00   0.18661900   0.00596300
9226.00   0.18344416   0.00583360
9228.00   0.17945890   0.00571713
9230.00   0.18202746   0.00563631
9232.00   0.18179178   0.00550653
9234.00   0.17675684   0.00537156
9236.00   0.17588921   0.00533465
9238.00   0.17652507   0.00532724
9240.00   0.17415799   0.00530921
9242.00   0.17556088   0.00536266
9244.00   0.18125989   0.00549295
9246.00   0.18330510   0.00555496
9248.00   0.18300886   0.00556140
9250.00   0.18083161   0.00552911
9252.00   0.17980230   0.00548790
9254.00   0.17838120   0.00543380
9256.00   0.17433713   0.00536184
9258.00   0.17461435   0.00536071
9260.00   0.18020678   0.00540286
9262.00   0.17699730   0.00530603
9264.00   0.17110932   0.00519542
9266.00   0.17231916   0.00519849
9268.00   0.17440309   0.00524162
9270.00   0.17407189   0.00529629
9272.00   0.17259049   0.00537364
9274.00   0.16937904   0.00543052
9276.00   0.16901179   0.00551841
9278.00   0.16993868   0.00560231
9280.00   0.16846685   0.00563970
9282.00   0.16621423   0.00566968
9284.00   0.16491453   0.00571445
9286.00   0.16724682   0.00580457
9288.00   0.16933870   0.00593288
9290.00   0.16665441   0.00605630
9292.00   0.16322558   0.00618066
9294.00   0.16266268   0.00627925
9296.00   0.16362487   0.00634866
9298.00   0.16272096   0.00662079
9300.00   0.16791765   0.00766203
9302.00   0.16726160   0.00940464
9304.00   0.16155107   0.01119926
9306.00   0.16019149   0.01293150
9308.00   0.16558981   0.01483489
9310.00   0.16101944   0.01663118
9312.00   0.15385053   0.01765829
9314.00   0.15257554   0.01779871
9316.00   0.14972629   0.01713397
9318.00   0.15092355   0.01613007
9320.00   0.14828952   0.01520343
9322.00   0.15083246   0.01451397
9324.00   0.16324452   0.01374093
9326.00   0.16494016   0.01266744
9328.00   0.15568174   0.01156341
9330.00   0.13906926   0.01022344
9332.00   0.14570804   0.00975135
9334.00   0.16087382   0.01053120
9336.00   0.16814141   0.01131027
9338.00   0.14889926   0.01161580
9340.00   0.12828581   0.01152533
9342.00   0.14435242   0.01055573
9344.00   0.17603578   0.00891308
9346.00   0.17925783   0.00772956
9348.00   0.16216105   0.00743891
9350.00   0.14640822   0.00795823
9352.00   0.14124818   0.00874658
9354.00   0.15101631   0.00887698
9356.00   0.16285518   0.00811309
9358.00   0.16339613   0.00725979
9360.00   0.15470436   0.00679951
9362.00   0.14792156   0.00699982
9364.00   0.14157294   0.00781780
9366.00   0.13746314   0.00933638
9368.00   0.15067068   0.01215706
9370.00   0.16063382   0.01609259
9372.00   0.15152259   0.01951414
9374.00   0.14310463   0.02187449
9376.00   0.14448836   0.02241886
9378.00   0.15482056   0.02157246
9380.00   0.15775926   0.01784360
9382.00   0.16091402   0.01297252
9384.00   0.16209270   0.00840609
9386.00   0.16513795   0.00667640
9388.00   0.16776907   0.00616495
9390.00   0.16897273   0.00593990
9392.00   0.16515985   0.00592270
9394.00   0.16258663   0.00626840
9396.00   0.15708469   0.00696843
9398.00   0.15316962   0.00777421
9400.00   0.15481384   0.00821619
9402.00   0.16331090   0.00829590
9404.00   0.16382627   0.00816754
9406.00   0.15528174   0.00779915
9408.00   0.15110154   0.00709713
9410.00   0.15577289   0.00654384
9412.00   0.15702379   0.00674522
9414.00   0.15270056   0.00777292
9416.00   0.15464914   0.00898959
9418.00   0.16208430   0.00983244
9420.00   0.16460411   0.01054491
9422.00   0.15724914   0.01140093
9424.00   0.14304768   0.01153515
9426.00   0.14545737   0.00992660
9428.00   0.16437951   0.00782235
9430.00   0.17595463   0.00687604
9432.00   0.16890059   0.00756548
9434.00   0.15111186   0.01026065
9436.00   0.13805871   0.01470172
9438.00   0.13780457   0.01722725
9440.00   0.14694600   0.01766520
9442.00   0.15464211   0.01404861
9444.00   0.16127883   0.01149457
9446.00   0.15684612   0.00870788
9448.00   0.14785565   0.00724056
9450.00   0.14248006   0.00756133
9452.00   0.14167978   0.00940516
9454.00   0.15065779   0.01209415
9456.00   0.15236627   0.01381058
9458.00   0.15419672   0.01369637
9460.00   0.15806289   0.01247420
9462.00   0.15513514   0.01088800
9464.00   0.14607154   0.00898452
9466.00   0.14500237   0.00736237
9468.00   0.15047343   0.00711235
9470.00   0.14698207   0.00835515
9472.00   0.14478178   0.01069663
9474.00   0.14656274   0.01310430
9476.00   0.14366345   0.01465798
9478.00   0.14443372   0.01500543
9480.00   0.15378396   0.01365614
9482.00   0.15044016   0.01062737
9484.00   0.15541892   0.00765406
9486.00   0.15764740   0.00639515
9488.00   0.15024401   0.00634031
9490.00   0.14011134   0.00677363
9492.00   0.13882853   0.00746118
9494.00   0.14148641   0.00853642
9496.00   0.14195621   0.01009751
9498.00   0.15095541   0.01149089
9500.00   0.16480725   0.01151098
9502.00   0.17232709   0.01036922
9504.00   0.16528933   0.00920858
9506.00   0.15872017   0.00838033
9508.00   0.15536410   0.00757391
9510.00   0.15436868   0.00685551
9512.00   0.14629637   0.00679590
9514.00   0.14458896   0.00771756
9516.00   0.15037297   0.00883244
9518.00   0.15371633   0.00924792
9520.00   0.15678114   0.00898691
9522.00   0.15691684   0.00847614
9524.00   0.16209960   0.00792932
9526.00   0.16751045   0.00733567
9528.00   0.16690926   0.00694678
9530.00   0.16807799   0.00701189
9532.00   0.17496543   0.00741728
9534.00   0.17470944   0.00770430
9536.00   0.17414130   0.00778771
9538.00   0.16711135   0.00767098
9540.00   0.16053249   0.00750511
9542.00   0.16106445   0.00727500
9544.00   0.16830839   0.00720947
9546.00   0.16723560   0.00766130
9548.00   0.15899207   0.00868269
9550.00   0.15417020   0.00985833
9552.00   0.15241687   0.01051782
9554.00   0.15958454   0.01049338
9556.00   0.17279889   0.00981776
9558.00   0.17643809   0.00895515
9560.00   0.17024435   0.00906106
9562.00   0.16691500   0.01069841
9564.00   0.16301405   0.01222375
9566.00   0.16330351   0.01236368
9568.00   0.16427574   0.01137985
9570.00   0.17019315   0.01028365
9572.00   0.17622977   0.00910871
9574.00   0.17426543   0.00787631
9576.00   0.16268343   0.00695521
9578.00   0.16748913   0.00679726
9580.00   0.17993093   0.00683753
9582.00   0.17781138   0.00674049
9584.00   0.16733415   0.00673314
9586.00   0.16042325   0.00693795
9588.00   0.16666172   0.00724323
9590.00   0.17354679   0.00727882
9592.00   0.17545931   0.00697288
9594.00   0.17527699   0.00664191
9596.00   0.18058248   0.00650856
9598.00   0.17883329   0.00645592
9600.00   0.17169933   0.00665642
9602.00   0.17016189   0.00725076
9604.00   0.17812508   0.00791077
9606.00   0.18862146   0.00818217
9608.00   0.19288827   0.00808109
9610.00   0.18772833   0.00786531
9612.00   0.18154113   0.00764203
9614.00   0.17712732   0.00759545
9616.00   0.17894419   0.00813032
9618.00   0.18125737   0.00900036
9620.00   0.18444800   0.00942200
9622.00   0.18115884   0.00913437
9624.00   0.18236776   0.00845085
9626.00   0.19351806   0.00773847
9628.00   0.19590859   0.00708638
9630.00   0.18641047   0.00679630
9632.00   0.17829943   0.00683246
9634.00   0.18007368   0.00699626
9636.00   0.18407595   0.00698961
9638.00   0.18609942   0.00684733
9640.00   0.18687774   0.00673655
9642.00   0.18889171   0.00673607
9644.00   0.19197015   0.00675792
9646.00   0.19506657   0.00671811
9648.00   0.18870078   0.00659888
9650.00   0.18556613   0.00659922
9652.00   0.18917967   0.00701146
9654.00   0.18622769   0.00726649
9656.00   0.18042915   0.00729023
9658.00   0.18125498   0.00743946
9660.00   0.18556905   0.00764854
9662.00   0.18718012   0.00793744
9664.00   0.18799090   0.00833221
9666.00   0.18661757   0.00851281
9668.00   0.19023375   0.00847093
9670.00   0.19344191   0.00829473
9672.00   0.19469734   0.00810793
9674.00   0.18821247   0.00805436
9676.00   0.18995972   0.00849650
9678.00   0.19162466   0.00906413
9680.00   0.19037783   0.00929447
9682.00   0.19249161   0.00919321
9684.00   0.19364750   0.00896368
9686.00   0.18844481   0.00848453
9688.00   0.18688436   0.00790501
9690.00   0.19074242   0.00763218
9692.00   0.19284253   0.00795794
9694.00   0.18537097   0.00865489
9696.00   0.17767759   0.00924849
9698.00   0.18272448   0.00953967
9700.00   0.19216824   0.00952847
9702.00   0.19014676   0.00914649
9704.00   0.18146944   0.00842838
9706.00   0.18130435   0.00814993
9708.00   0.18726115   0.00764081
9710.00   0.19207801   0.00790654
9712.00   0.18817295   0.00835232
9714.00   0.18549053   0.00911228
9716.00   0.17848951   0.01017876
9718.00   0.17327464   0.01004039
9720.00   0.16713589   0.01004335
9722.00   0.16956948   0.00989335
9724.00   0.16923709   0.00918990
9726.00   0.16888262   0.00807539
9728.00   0.16749091   0.00726637
9730.00   0.16765833   0.00733870
9732.00   0.16478287   0.00789196
9734.00   0.16352592   0.00840253
9736.00   0.16300489   0.00859545
9738.00   0.15838329   0.00851935
9740.00   0.15528642   0.00840606
9742.00   0.16107731   0.00826100
9744.00   0.15889023   0.00783545
#9746.00   0.14340894   0.00730721
#9748.00   0.13118674   0.00697286
#9750.00   0.13322185   0.00682734
#9752.00   0.14280809   0.00667227
9754.00   0.15847552   0.00659419
9756.00   0.16239752   0.00649078
9758.00   0.15334614   0.00631757
9760.00   0.14842048   0.00619085
9762.00   0.14971405   0.00611893
9764.00   0.14856066   0.00599003
9766.00   0.14708778   0.00586986
9768.00   0.14786498   0.00583830
9770.00   0.14768152   0.00587846
9772.00   0.14516798   0.00593861
9774.00   0.14358294   0.00602769
9776.00   0.13800402   0.00606382
9778.00   0.13963215   0.00610743
9780.00   0.13633354   0.00615657
9782.00   0.13778567   0.00666475
9784.00   0.13737899   0.00778214
9786.00   0.13413014   0.00923853
9788.00   0.12989245   0.01044541
9790.00   0.12729968   0.01103103
9792.00   0.12632082   0.01111961
9794.00   0.12552935   0.01084732
9796.00   0.12510328   0.01016196
9798.00   0.13567875   0.00942311
9800.00   0.13960713   0.00889679
9802.00   0.13410063   0.00846196
9804.00   0.13716628   0.00808519
9806.00   0.13850801   0.00776646
9808.00   0.13606329   0.00768114
9810.00   0.13331302   0.00778550
9812.00   0.13323075   0.00788516
9814.00   0.13609196   0.00784743
9816.00   0.13351364   0.00754954
9818.00   0.13091071   0.00717919
9820.00   0.13318761   0.00697018
9822.00   0.13236481   0.00687600
9824.00   0.12972333   0.00681924
9826.00   0.12739661   0.00673848
9828.00   0.12701105   0.00670170
9830.00   0.12874775   0.00698593
9832.00   0.12840323   0.00668932
9834.00   0.12608403   0.00645151
9836.00   0.12987204   0.00650636
9838.00   0.13003369   0.00632784
9840.00   0.12682648   0.00661108
9842.00   0.12786129   0.00727659
9844.00   0.13213827   0.00808850
9846.00   0.13094144   0.00869418
9848.00   0.12864286   0.00882659
9850.00   0.12927525   0.00867751
9852.00   0.13010176   0.00823585
9854.00   0.12953024   0.00748415
9856.00   0.12922424   0.00671594
9858.00   0.13360490   0.00637141
9860.00   0.14010791   0.00643738
9862.00   0.13888758   0.00674312
9864.00   0.13370648   0.00763203
9866.00   0.13077299   0.00935379
9868.00   0.12909587   0.01128004
9870.00   0.12668471   0.01253115
9872.00   0.13099700   0.01301334
9874.00   0.13525379   0.01276708
9876.00   0.13810320   0.01166442
9878.00   0.14571701   0.00991201
9880.00   0.14732875   0.00822421
9882.00   0.14209726   0.00734911
9884.00   0.14181194   0.00731217
9886.00   0.14470516   0.00760847
9888.00   0.14518039   0.00826172
9890.00   0.14361747   0.00922786
9892.00   0.13756092   0.00999862
9894.00   0.13764797   0.01032402
9896.00   0.14145817   0.01032791
9898.00   0.14190130   0.00996008
9900.00   0.14753957   0.00917046
9902.00   0.15335345   0.00816142
9904.00   0.15379655   0.00770014
9906.00   0.15463777   0.00823966
9908.00   0.15853333   0.00992218
9910.00   0.16173489   0.01208786
9912.00   0.15376432   0.01362540
9914.00   0.14707994   0.01421404
9916.00   0.15713538   0.01420039
9918.00   0.16331033   0.01341061
9920.00   0.16706847   0.01167371
9922.00   0.16099097   0.00946263
9924.00   0.16204961   0.00823444
9926.00   0.16127048   0.00788863
9928.00   0.16526937   0.00787374
9930.00   0.16761233   0.00794568
9932.00   0.16973646   0.00830458
9934.00   0.17435749   0.00924306
9936.00   0.17604013   0.01099312
9938.00   0.17503470   0.01328632
9940.00   0.17064454   0.01574035
9942.00   0.17297378   0.01794126
9944.00   0.17732051   0.01934673
9946.00   0.17542017   0.01950279
9948.00   0.17940311   0.01879643
9950.00   0.19263369   0.01803654
9952.00   0.18333808   0.01730057
9954.00   0.16698384   0.01691128
9956.00   0.18362226   0.01744266
9958.00   0.18626803   0.01814876
9960.00   0.18081510   0.01807126
9962.00   0.17916983   0.01697166
9964.00   0.19561630   0.01552164
9966.00   0.20321390   0.01420816
9968.00   0.18972740   0.01291969
9970.00   0.17752984   0.01202154
9972.00   0.18133971   0.01179536
9974.00   0.19448729   0.01196355
9976.00   0.19666904   0.01173810
9978.00   0.19681004   0.01107401
9980.00   0.20350410   0.01047858
9982.00   0.20291033   0.00997742
9984.00   0.20028889   0.00959978
9986.00   0.20726904   0.00940949
9988.00   0.21271907   0.00932547
9990.00   0.21126166   0.00930532
9992.00   0.21330175   0.00957370
9994.00   0.21429589   0.01011813
9996.00   0.21075855   0.01071576
9998.00   0.20079850   0.01109686
10000.00   0.20278242   0.01141111
10002.00   0.21803974   0.01183606
10004.00   0.23274080   0.01280617
10006.00   0.22775918   0.01490814
10008.00   0.22180876   0.01792653
10010.00   0.22694351   0.02051555
10012.00   0.23838542   0.02183913
10014.00   0.21905681   0.02185492
10016.00   0.22120573   0.02086475
10018.00   0.23535649   0.01885174
10020.00   0.24036425   0.01664942
10022.00   0.21399920   0.01549910
10024.00   0.21999806   0.01551841
10026.00   0.22665516   0.01541368
10028.00   0.23159933   0.01486929
10030.00   0.24105257   0.01388131
10032.00   0.24028727   0.01249944
10034.00   0.24070734   0.01152140
10036.00   0.24193515   0.01145093
10038.00   0.24901509   0.01199445
10040.00   0.25103858   0.01255359
10042.00   0.24732646   0.01279198
10044.00   0.24128066   0.01275146
10046.00   0.24878758   0.01264873
10048.00   0.24163929   0.01211707
10050.00   0.23667005   0.01151000
10052.00   0.23777434   0.01148586
10054.00   0.24793454   0.01238914
10056.00   0.25098109   0.01368555
10058.00   0.25042719   0.01474217
10060.00   0.24485053   0.01524607
10062.00   0.24952570   0.01560151
10064.00   0.25511226   0.01564059
10066.00   0.26215339   0.01526664
10068.00   0.25536811   0.01461136
10070.00   0.25018448   0.01423009
10072.00   0.25994653   0.01423281
10074.00   0.26912916   0.01472828
10076.00   0.26434970   0.01604106
10078.00   0.26392424   0.01804662
10080.00   0.25710356   0.01967888
10082.00   0.25884050   0.02041119
10084.00   0.24666683   0.02021244
10086.00   0.24351463   0.01907756
10088.00   0.24273273   0.01683368
10090.00   0.25665671   0.01452612
10092.00   0.26532376   0.01332663
10094.00   0.26805210   0.01319510
10096.00   0.26726261   0.01381312
10098.00   0.24864526   0.01487562
10100.00   0.25054359   0.01623002
10102.00   0.25437665   0.01707670
10104.00   0.26506308   0.01739811
10106.00   0.27148414   0.01716231
10108.00   0.28083521   0.01634353
10110.00   0.27152646   0.01484841
10112.00   0.25976595   0.01374863
10114.00   0.25944450   0.01379638
10116.00   0.26619267   0.01535735
10118.00   0.27822560   0.01841177
10120.00   0.27128333   0.02151771
10122.00   0.29027236   0.02374184
10124.00   0.28721026   0.02449998
10126.00   0.26418418   0.02410450
10128.00   0.25180781   0.02242813
10130.00   0.25500920   0.01945896
10132.00   0.25912195   0.01678277
10134.00   0.26431939   0.01549171
10136.00   0.26916310   0.01527426
10138.00   0.26777649   0.01526504
10140.00   0.25850585   0.01540325
10142.00   0.26878107   0.01606075
10144.00   0.27130842   0.01683903
10146.00   0.26951188   0.01788811
10148.00   0.27475441   0.01928751
10150.00   0.28414515   0.02064283
10152.00   0.26845074   0.02128518
10154.00   0.25554395   0.02156665
10156.00   0.25290102   0.02139811
10158.00   0.26537237   0.02078066
10160.00   0.26823705   0.01988992
10162.00   0.27324226   0.01979505
10164.00   0.26601332   0.02100396
10166.00   0.26649356   0.02379565
10168.00   0.26049650   0.02692676
10170.00   0.24417505   0.02889450
10172.00   0.23489982   0.02948763
10174.00   0.25295228   0.02910990
10176.00   0.26426163   0.02745980
10178.00   0.25472093   0.02449502
10180.00   0.26290587   0.02214727
10182.00   0.28123772   0.02202136
10184.00   0.27703902   0.02357209
10186.00   0.26003972   0.02519603
10188.00   0.25408557   0.02607641
10190.00   0.25142491   0.02622944
10192.00   0.26001117   0.02588905
10194.00   0.27691323   0.02480359
10196.00   0.26849872   0.02300542
10198.00   0.24663100   0.02181908
10200.00   0.24412543   0.02243079
10202.00   0.24795350   0.02421306
10204.00   0.25954199   0.02685006
10206.00   0.25306961   0.02973768
10208.00   0.26682848   0.03191123
10210.00   0.27423114   0.03255300
10212.00   0.26542726   0.03189657
10214.00   0.24261224   0.03004304
10216.00   0.26518387   0.02745168
10218.00   0.26876634   0.02485105
10220.00   0.25746551   0.02428967
10222.00   0.25577658   0.02598440
10224.00   0.25418356   0.02808755
10226.00   0.24663228   0.02957812
10228.00   0.24675137   0.03030854
10230.00   0.24095307   0.02956971
10232.00   0.23525412   0.02743009
10234.00   0.23169008   0.02486966
10236.00   0.25379246   0.02307131
10238.00   0.25696257   0.02140073
10240.00   0.24890061   0.02023615
10242.00   0.23773520   0.01960189
10244.00   0.25020409   0.01964305
10246.00   0.24874693   0.01962186
10248.00   0.24292196   0.01967000
10250.00   0.23652211   0.01979029
10252.00   0.24259931   0.02009251
10254.00   0.23207742   0.02008874
10256.00   0.22296235   0.02018194
10258.00   0.23763625   0.02081553
10260.00   0.24602556   0.02142066
10262.00   0.23280238   0.02180284
10264.00   0.22161520   0.02264789
10266.00   0.23511511   0.02416138
10268.00   0.22330824   0.02521896
10270.00   0.24156956   0.02642561
10272.00   0.23792915   0.02687946
10274.00   0.22846387   0.02716644
10276.00   0.22229284   0.02780555
10278.00   0.22660884   0.03099454
10280.00   0.24014431   0.03848201
10282.00   0.26264626   0.04829950
10284.00   0.26219273   0.05550227
10286.00   0.23996574   0.05893118
10288.00   0.24146581   0.06004461
10290.00   0.26987946   0.05909738
10292.00   0.25667205   0.05457800
10294.00   0.24576728   0.04847265
10296.00   0.24994692   0.04436553
10298.00   0.23879367   0.04194637
10300.00   0.22533607   0.03955461
10302.00   0.24052545   0.03627256
10304.00   0.22596660   0.03359181
10306.00   0.23227370   0.03308856
10308.00   0.22573881   0.03319971
10310.00   0.23304343   0.03301551
10312.00   0.23048589   0.03248107
10314.00   0.21737304   0.03116395
10316.00   0.20549852   0.02943607
10318.00   0.21341479   0.02822218
10320.00   0.24259436   0.02862706
10322.00   0.24665548   0.02935202
10324.00   0.22217536   0.02948077
10326.00   0.21398219   0.02970598
10328.00   0.21294650   0.02991423
10330.00   0.19325784   0.02970498
10332.00   0.18963242   0.02978018
10334.00   0.21772239   0.03065429
10336.00   0.22768065   0.03162659
10338.00   0.22962540   0.03281350
10340.00   0.21870929   0.03483909
10342.00   0.21548614   0.03788939
10344.00   0.21703395   0.04092147
10346.00   0.21271494   0.04284297
10348.00   0.16342077   0.04306508
10350.00   0.16697735   0.04304210
10352.00   0.20966932   0.04242063
10354.00   0.22480404   0.04022963
10356.00   0.20964766   0.03759796
10358.00   0.19468813   0.03601622
10360.00   0.18465909   0.03496134
10362.00   0.17758194   0.03437261
10364.00   0.19215500   0.03662911
10366.00   0.20287776   0.04296366
10368.00   0.21561900   0.05185277
10370.00   0.21446514   0.05952926
10372.00   0.23007391   0.06342855
10374.00   0.24647424   0.06440650
10376.00   0.25471818   0.06254426
10378.00   0.21550018   0.05603793
10380.00   0.19084953   0.04697780
10382.00   0.18775097   0.04036488
10384.00   0.21100605   0.03837252
10386.00   0.21614707   0.03813648
10388.00   0.16470689   0.03803317
10390.00   0.13890783   0.04064508
10392.00   0.18332255   0.04620109
10394.00   0.20810971   0.05044098
10396.00   0.22276543   0.05242410
10398.00   0.22440183   0.05303637
10400.00   0.24134266   0.05209836
10402.00   0.21730405   0.04820079
10404.00   0.19481593   0.04378111
10406.00   0.18585014   0.04137371
10408.00   0.18706784   0.04159732
10410.00   0.18761277   0.04528677
10412.00   0.17950648   0.05309326
10414.00   0.19216841   0.06381527
10416.00   0.19716671   0.07194373
10418.00   0.13838503   0.07506199
10420.00   0.13523521   0.07550333
10422.00   0.18277268   0.07263048
10424.00   0.16612028   0.06441685
10426.00   0.14461616   0.05471995
10428.00   0.18228325   0.04939031
10430.00   0.19106817   0.04671549
10432.00   0.13624059   0.04417267
10434.00   0.12634298   0.04265852
10436.00   0.14752509   0.04201911
10438.00   0.16374318   0.04151945
10440.00   0.20017052   0.04277148
10442.00   0.20236859   0.04470789
10444.00   0.16946864   0.04655427
10446.00   0.19136605   0.05142613
10448.00   0.19311528   0.05533376
10450.00   0.20224598   0.05730819
10452.00   0.18238893   0.05703214
10454.00   0.15927938   0.05582120
10456.00   0.15550792   0.05266137
10458.00   0.15657601   0.04916601
10460.00   0.17389438   0.04895350
10462.00   0.15934901   0.05340219
10464.00   0.15152410   0.06139123
10466.00   0.20058887   0.07042998
10468.00   0.14672399   0.07433355
10470.00   0.13972318   0.07588793
10472.00   0.21515226   0.07527917
10474.00   0.14857292   0.06742942
10476.00   0.12193169   0.05786809
10478.00   0.13248697   0.05142983
10480.00   0.13829631   0.04869126
10482.00   0.13914070   0.04815485
10484.00   0.20266867   0.05033077
10486.00   0.26008242   0.05224804
10488.00   0.23422159   0.05149290
10490.00   0.16463041   0.04865685
10492.00   0.19547403   0.04955776
10494.00   0.21072571   0.05040972
10496.00   0.17132296   0.04972233
10498.00   0.17335568   0.05029049
10500.00   0.19333753   0.05194975
10502.00   0.18212789   0.05255603
10504.00   0.16992030   0.05501773
10506.00   0.18833610   0.05957311
10508.00   0.20583245   0.06274604
10510.00   0.24069890   0.06496376
10512.00   0.22351274   0.06433672
10514.00   0.14917517   0.06043095
10516.00   0.17151356   0.05926757
10518.00   0.19534138   0.06087252
10520.00   0.19430310   0.06521595
10522.00   0.15635680   0.06858355
10524.00   0.13945863   0.07117337
10526.00   0.21026976   0.07381228
10528.00   0.19830287   0.07212093
10530.00   0.14464666   0.06580882
10532.00   0.14265414   0.06021444
10534.00   0.15914059   0.05631422
10536.00   0.11105026   0.05266114
10538.00   0.10750700   0.05179530
10540.00   0.16589987   0.05461317
10542.00   0.18896028   0.05627735
10544.00   0.16640952   0.05602900
10546.00   0.12236100   0.05397642
10548.00   0.11191996   0.05305584
10550.00   0.16269594   0.05484567
10552.00   0.20926189   0.05693594
10554.00   0.17745802   0.05681220
10556.00   0.16918671   0.05749647
10558.00   0.17186239   0.05686886
10560.00   0.17870142   0.05701542
10562.00   0.18528861   0.05819082
10564.00   0.21403106   0.06024614
10566.00   0.19832999   0.06056907
10568.00   0.18465340   0.06172943
10570.00   0.14245354   0.06272029
10572.00   0.09714124   0.06355312
10574.00   0.13047551   0.06537183
10576.00   0.19762132   0.06710352
10578.00   0.18669963   0.06560236
10580.00   0.19404508   0.06640258
10582.00   0.22197415   0.07039963
10584.00   0.20645612   0.07285941
10586.00   0.16011438   0.07207635
10588.00   0.19091576   0.07286739
10590.00   0.27082169   0.07433690
10592.00   0.28421748   0.07227536
10594.00   0.23931322   0.06857222
10596.00   0.21233271   0.06652526
10598.00   0.17839059   0.06614004
10600.00   0.13363825   0.06508997
10602.00   0.15281796   0.06511129
10604.00   0.17370579   0.06552015
10606.00   0.16574639   0.06536424
10608.00   0.13801473   0.06444357
10610.00   0.18269639   0.06629170
10612.00   0.21243772   0.06790115
10614.00   0.22725163   0.06811193
10616.00   0.20594937   0.06800298
10618.00   0.23359951   0.07118894
10620.00   0.20201179   0.06963041
10622.00   0.25741917   0.07179728
10624.00   0.28810057   0.07407048
10626.00   0.21334893   0.07188422
10628.00   0.15772146   0.06949156
10630.00   0.16043836   0.07130800
10632.00   0.17282341   0.07184857
10634.00   0.22835246   0.07395700
10636.00   0.25370494   0.07383384
10638.00   0.23959363   0.07314303
10640.00   0.19141801   0.07505355
10642.00   0.15298443   0.07698022
10644.00   0.10866881   0.07570226
10646.00   0.21356015   0.07876469
10648.00   0.26309472   0.08022020
10650.00   0.27049300   0.08288577
10652.00   0.17960806   0.08256957
10654.00   0.11627530   0.08144207
10656.00   0.08585414   0.08046870
10658.00   0.06876601   0.07921699
10660.00   0.09673023   0.07948419
10662.00   0.09595452   0.08031424
10664.00   0.16794519   0.08286628
10666.00   0.22266579   0.08465623
10668.00   0.23548931   0.08586751
10670.00   0.21075214   0.08477511
10672.00   0.22993243   0.08774175
10674.00   0.19604868   0.08812435
10676.00   0.20572612   0.08893657
10678.00   0.16285515   0.08922599
10680.00   0.12064521   0.09153600
10682.00   0.17772667   0.09695895
10684.00   0.22505558   0.10228486
10686.00   0.19109422   0.10684620
10688.00   0.19514519   0.10921632
10690.00   0.21566890   0.11115697
10692.00   0.28715080   0.11555763
10694.00   0.08960824   0.11113140
10696.00   0.02324912   0.10992919
10698.00   0.03097666   0.11497064
10700.00   0.11427902   0.12041615
10702.00   0.19982794   0.12462316
10704.00   0.17789890   0.12541199
10706.00   0.03741103   0.12781127
10708.00   0.01877142   0.13571116
10710.00   0.18985254   0.14408635
