# File created by shivutils (I.Shivvers)
# 
# wl(A)   flm    er(optional)
3450.00   0.78911185   0.05865598
3452.00   0.77130586   0.05960456
3454.00   0.69052333   0.05801805
3456.00   0.67644501   0.05846497
3458.00   0.73788357   0.05844006
3460.00   0.91791171   0.05988581
3462.00   0.76970607   0.05849128
3464.00   0.82862955   0.05890844
3466.00   0.77918905   0.05913733
3468.00   0.74161416   0.05781695
3470.00   0.79953277   0.05917214
3472.00   0.79032677   0.05856455
3474.00   0.72417575   0.05719674
3476.00   0.85510767   0.06059749
3478.00   0.86902148   0.06278425
3480.00   0.80328542   0.06330658
3482.00   0.89340788   0.06430961
3484.00   0.77004939   0.06145121
3486.00   0.85331458   0.06296179
3488.00   0.85773492   0.06271814
3490.00   0.85737449   0.06256972
3492.00   0.93289524   0.06220147
3494.00   0.83694512   0.05972106
3496.00   0.78779948   0.05964253
3498.00   0.88077497   0.06050892
3500.00   0.87280095   0.06123625
3502.00   0.79894215   0.05991993
3504.00   0.79610151   0.05902562
3506.00   0.81058025   0.05825711
3508.00   0.79091603   0.05845422
3510.00   0.88066751   0.06134443
3512.00   0.79982853   0.05911526
3514.00   0.85331368   0.05909755
3516.00   0.92292988   0.06089804
3518.00   0.84485829   0.05923769
3520.00   0.85461175   0.05902720
3522.00   0.82129818   0.05872413
3524.00   0.76975030   0.05715640
3526.00   0.84988111   0.05843899
3528.00   0.82246733   0.05735954
3530.00   0.74479508   0.05609568
3532.00   0.73844594   0.05586271
3534.00   0.71992779   0.05542005
3536.00   0.76750070   0.05645455
3538.00   0.78371119   0.05668694
3540.00   0.77087575   0.05808297
3542.00   0.79455930   0.06005315
3544.00   0.78747201   0.05977996
3546.00   0.76633739   0.05953726
3548.00   0.79380143   0.05850061
3550.00   0.76223963   0.05754137
3552.00   0.77177656   0.05780952
3554.00   0.81676728   0.05895725
3556.00   0.75616181   0.05686670
3558.00   0.65539110   0.05523913
3560.00   0.76815730   0.05617353
3562.00   0.72054058   0.05532020
3564.00   0.79747272   0.05557524
3566.00   0.73937172   0.05363720
3568.00   0.76540262   0.05326955
3570.00   0.81810635   0.05350694
3572.00   0.87865728   0.05478726
3574.00   0.73839408   0.05286001
3576.00   0.69272435   0.05123195
3578.00   0.78661156   0.05237479
3580.00   0.73288542   0.05104373
3582.00   0.80127478   0.05165656
3584.00   0.70145619   0.04869723
3586.00   0.81863892   0.04960968
3588.00   0.84495044   0.04954544
3590.00   0.80413699   0.05012248
3592.00   0.72067714   0.04786970
3594.00   0.74381381   0.04749803
3596.00   0.73504281   0.04781189
3598.00   0.83547461   0.04803142
3600.00   0.75836623   0.04714877
3602.00   0.89029860   0.04877768
3604.00   0.78927529   0.04626564
3606.00   0.74776328   0.04501372
3608.00   0.76178032   0.04524212
3610.00   0.76976687   0.04612900
3612.00   0.84219497   0.04774167
3614.00   0.78369170   0.04774784
3616.00   0.85498506   0.04861926
3618.00   0.80052543   0.04731625
3620.00   0.90951383   0.04869508
3622.00   0.86967421   0.04699697
3624.00   0.90617502   0.04769365
3626.00   0.93291175   0.04742123
3628.00   0.93224484   0.04771165
3630.00   0.84997958   0.04805642
3632.00   0.84139079   0.04737834
3634.00   0.83101100   0.04659575
3636.00   0.80901510   0.04612872
3638.00   0.83727658   0.04600247
3640.00   0.83952522   0.04672110
3642.00   0.79767621   0.04703337
3644.00   0.80804849   0.04784128
3646.00   0.83221036   0.04853167
3648.00   0.89803970   0.05681745
3650.00   0.78083640   0.06336650
3652.00   0.98066002   0.06260511
3654.00   0.84881568   0.05601257
3656.00   0.75314730   0.05228693
3658.00   0.89226496   0.04774684
3660.00   0.78051382   0.04614469
3662.00   0.81795627   0.05038070
3664.00   0.90524030   0.05123340
3666.00   0.85808229   0.04508590
3668.00   0.92105669   0.04325156
3670.00   0.86030871   0.04211162
3672.00   0.87768799   0.04210110
3674.00   0.78925717   0.04053277
3676.00   0.80849004   0.04069445
3678.00   0.82551086   0.03999268
3680.00   0.81483161   0.03963857
3682.00   0.83594590   0.03975129
3684.00   0.79149872   0.03869996
3686.00   0.84511900   0.03892049
3688.00   0.83679330   0.03858206
3690.00   0.82211405   0.03881072
3692.00   0.74803978   0.03832957
3694.00   0.84114867   0.03904656
3696.00   0.81163144   0.03814635
3698.00   0.78682512   0.03814320
3700.00   0.74365139   0.03793043
3702.00   0.86559045   0.03948725
3704.00   0.88525915   0.03933463
3706.00   0.72863770   0.03714388
3708.00   0.81876326   0.03864702
3710.00   0.84374237   0.03802044
3712.00   0.78243887   0.03734976
3714.00   0.82798535   0.03838339
3716.00   0.85589045   0.03739855
3718.00   0.75641948   0.03609541
3720.00   0.76355267   0.03623188
3722.00   0.81642795   0.03666331
3724.00   0.92063212   0.03754995
3726.00   0.91296113   0.03768954
3728.00   0.93522531   0.03827091
3730.00   0.84319979   0.03687605
3732.00   0.83374447   0.03717357
3734.00   0.90040702   0.03762075
3736.00   0.85727102   0.03669880
3738.00   0.88832122   0.03781654
3740.00   0.88709223   0.03809423
3742.00   0.90872592   0.03789113
3744.00   0.90120387   0.03737659
3746.00   0.85914898   0.03633223
3748.00   0.88929260   0.03646251
3750.00   0.90805507   0.03643906
3752.00   0.90287548   0.03637366
3754.00   0.85147643   0.03564452
3756.00   0.87150985   0.03581154
3758.00   0.88983792   0.03563191
3760.00   0.86020559   0.03535407
3762.00   0.82967180   0.03434997
3764.00   0.87473541   0.03493792
3766.00   0.82460278   0.03423495
3768.00   0.87811595   0.03427382
3770.00   0.84884375   0.03412666
3772.00   0.83793253   0.03419816
3774.00   0.85330933   0.03446161
3776.00   0.73907691   0.03302042
3778.00   0.85086393   0.03404309
3780.00   0.88710409   0.03427858
3782.00   0.85050422   0.03379968
3784.00   0.82912624   0.03377121
3786.00   0.80509037   0.03277649
3788.00   0.84323186   0.03354044
3790.00   0.79461402   0.03323516
3792.00   0.83900946   0.03375779
3794.00   0.89241147   0.03373291
3796.00   0.81111956   0.03265792
3798.00   0.79961061   0.03222073
3800.00   0.85661304   0.03292399
3802.00   0.83382797   0.03301544
3804.00   0.78793508   0.03253163
3806.00   0.83040190   0.03251742
3808.00   0.77954936   0.03219753
3810.00   0.75802648   0.03152486
3812.00   0.81645370   0.03251814
3814.00   0.72891808   0.03148876
3816.00   0.82956177   0.03234966
3818.00   0.77522969   0.03180164
3820.00   0.81905669   0.03205500
3822.00   0.78900385   0.03182923
3824.00   0.73966366   0.03074294
3826.00   0.87244540   0.03286970
3828.00   0.91022563   0.03376919
3830.00   0.89049494   0.03425602
3832.00   0.86000353   0.03334227
3834.00   0.88128090   0.03319964
3836.00   0.85139054   0.03278002
3838.00   0.87723464   0.03274056
3840.00   0.85913634   0.03266780
3842.00   0.88485336   0.03270239
3844.00   0.90915024   0.03272938
3846.00   0.87909788   0.03221152
3848.00   0.86316901   0.03171812
3850.00   0.96686071   0.03262011
3852.00   0.86640388   0.03171172
3854.00   0.91886824   0.03204471
3856.00   0.90091980   0.03178814
3858.00   0.86264777   0.03118962
3860.00   0.90086544   0.03135358
3862.00   0.94080198   0.03214108
3864.00   0.89107388   0.03143795
3866.00   0.93463624   0.03182307
3868.00   0.91394109   0.03137601
3870.00   0.89694679   0.03094363
3872.00   0.92144144   0.03175826
3874.00   0.92769295   0.03235703
3876.00   0.93444616   0.03224575
3878.00   0.90608847   0.03105443
3880.00   0.86224580   0.03054458
3882.00   0.85514843   0.03045576
3884.00   0.83916295   0.03050950
3886.00   0.81133938   0.03040888
3888.00   0.81620890   0.03012477
3890.00   0.77998638   0.02958094
3892.00   0.84943467   0.03012591
3894.00   0.82994503   0.03027705
3896.00   0.85235173   0.03059943
3898.00   0.89332521   0.03092869
3900.00   0.88132328   0.03069531
3902.00   0.87932456   0.03085506
3904.00   0.93068373   0.03245781
3906.00   0.97226083   0.03499475
3908.00   0.94370264   0.03596426
3910.00   0.92712098   0.03607371
3912.00   0.88298112   0.03647324
3914.00   0.85020638   0.03553813
3916.00   0.94689763   0.03347801
3918.00   0.92530149   0.03175053
3920.00   0.85454971   0.03008928
3922.00   0.83976746   0.02951282
3924.00   0.83631575   0.02918100
3926.00   0.84106249   0.02923070
3928.00   0.86164141   0.02921686
3930.00   0.82208598   0.02889607
3932.00   0.77701002   0.02896540
3934.00   0.81125587   0.02936316
3936.00   0.86444575   0.02900417
3938.00   0.89382452   0.02908631
3940.00   0.87888694   0.02936380
3942.00   0.81820279   0.02934669
3944.00   0.88310027   0.03041166
3946.00   0.93064404   0.03051117
3948.00   0.87693608   0.02924322
3950.00   0.86183470   0.02872402
3952.00   0.84958667   0.02837425
3954.00   0.90606821   0.02879749
3956.00   0.92300320   0.02873502
3958.00   0.87699938   0.02845498
3960.00   0.87464070   0.02944512
3962.00   0.83194053   0.02921128
3964.00   0.82101667   0.02793133
3966.00   0.83516204   0.02745403
3968.00   0.80174410   0.02693881
3970.00   0.79484576   0.02665264
3972.00   0.85258442   0.02752238
3974.00   0.80711681   0.02711165
3976.00   0.91292834   0.02801699
3978.00   0.85871774   0.02737113
3980.00   0.89028680   0.02772076
3982.00   0.88416129   0.02763645
3984.00   0.84798270   0.02705993
3986.00   0.89011455   0.02749632
3988.00   0.81151861   0.02667764
3990.00   0.83737445   0.02727110
3992.00   0.86379385   0.02719975
3994.00   0.91881764   0.02835773
3996.00   0.85170346   0.02854921
3998.00   0.87859869   0.02857688
4000.00   0.91540217   0.02800879
4002.00   0.85914338   0.02717624
4004.00   0.87142283   0.02709632
4006.00   0.85509032   0.02721751
4008.00   0.85502577   0.02756019
4010.00   0.89948225   0.02808581
4012.00   0.86752433   0.02779863
4014.00   0.85042113   0.02747280
4016.00   0.86382079   0.02753824
4018.00   0.88478547   0.02931373
4020.00   0.90531504   0.03143046
4022.00   0.89910704   0.03237314
4024.00   0.85615009   0.03144611
4026.00   0.84203744   0.02992039
4028.00   0.85698235   0.02847062
4030.00   0.83381176   0.02815168
4032.00   0.91101587   0.02856001
4034.00   0.86930627   0.02785878
4036.00   0.89507949   0.02774785
4038.00   0.87879056   0.02743831
4040.00   0.95149410   0.02810741
4042.00   0.88962907   0.02842207
4044.00   0.99484056   0.03857752
4046.00   0.89433777   0.04690589
4048.00   0.81981796   0.04363505
4050.00   0.84169549   0.03271191
4052.00   0.91990167   0.02937917
4054.00   0.86725658   0.02943073
4056.00   0.91071010   0.02887215
4058.00   0.89677131   0.02766836
4060.00   0.90224653   0.02718796
4062.00   0.87656617   0.02690451
4064.00   0.93503654   0.02737361
4066.00   0.84697241   0.02653262
4068.00   0.86977786   0.02659638
4070.00   0.94528782   0.02696615
4072.00   0.82090223   0.02561706
4074.00   0.82983029   0.02621485
4076.00   0.84784168   0.02866637
4078.00   0.86333114   0.02964623
4080.00   0.85108238   0.02881526
4082.00   0.86160862   0.02796683
4084.00   0.87722498   0.02773863
4086.00   0.82792443   0.02684189
4088.00   0.84135884   0.02642601
4090.00   0.84219760   0.02535152
4092.00   0.81464285   0.02477745
4094.00   0.83484405   0.02487515
4096.00   0.83927250   0.02502988
4098.00   0.82218456   0.02475186
4100.00   0.86253589   0.02508031
4102.00   0.88374633   0.02503039
4104.00   0.80439764   0.02400328
4106.00   0.81768221   0.02424873
4108.00   0.80510104   0.02417807
4110.00   0.86156869   0.02444848
4112.00   0.86027521   0.02447980
4114.00   0.85987115   0.02459000
4116.00   0.84595090   0.02438713
4118.00   0.85572124   0.02434175
4120.00   0.85595572   0.02409438
4122.00   0.87702763   0.02423535
4124.00   0.83878934   0.02395352
4126.00   0.85186517   0.02411851
4128.00   0.85940355   0.02420778
4130.00   0.87079757   0.02455595
4132.00   0.84910935   0.02505768
4134.00   0.92144871   0.02579467
4136.00   0.84327686   0.02450464
4138.00   0.82846153   0.02491994
4140.00   0.91110682   0.02556806
4142.00   0.91397196   0.02497414
4144.00   0.88805372   0.02418300
4146.00   0.89824599   0.02427547
4148.00   0.86786830   0.02391980
4150.00   0.90492392   0.02485599
4152.00   0.88981640   0.02530724
4154.00   0.86610329   0.02490220
4156.00   0.90607339   0.02450232
4158.00   0.93152940   0.02444811
4160.00   0.89876181   0.02436899
4162.00   0.94945228   0.02527355
4164.00   0.93352008   0.02629682
4166.00   0.91250789   0.02606315
4168.00   0.90425390   0.02482809
4170.00   0.88895798   0.02415710
4172.00   0.91343164   0.02406221
4174.00   0.90447015   0.02375129
4176.00   0.92669582   0.02386971
4178.00   0.89798146   0.02380500
4180.00   0.89298397   0.02366244
4182.00   0.89757907   0.02341391
4184.00   0.87633103   0.02303789
4186.00   0.85955989   0.02306161
4188.00   0.86001700   0.02297132
4190.00   0.89693373   0.02322252
4192.00   0.90286881   0.02334357
4194.00   0.90751642   0.02335340
4196.00   0.86476564   0.02274015
4198.00   0.87107629   0.02271178
4200.00   0.88038111   0.02282146
4202.00   0.87058657   0.02262433
4204.00   0.87842202   0.02286176
4206.00   0.87018591   0.02279971
4208.00   0.88403237   0.02307308
4210.00   0.86028981   0.02315578
4212.00   0.86732453   0.02305860
4214.00   0.91561770   0.02330776
4216.00   0.84488994   0.02250372
4218.00   0.86758804   0.02276944
4220.00   0.88276756   0.02284788
4222.00   0.87133467   0.02260890
4224.00   0.88997430   0.02267823
4226.00   0.91067678   0.02285576
4228.00   0.88551396   0.02286885
4230.00   0.88101429   0.02286076
4232.00   0.84999740   0.02284311
4234.00   0.86278796   0.02312431
4236.00   0.84997708   0.02325993
4238.00   0.85122693   0.02324565
4240.00   0.86374009   0.02286827
4242.00   0.84439927   0.02223298
4244.00   0.85357410   0.02372749
4246.00   0.85379088   0.02534785
4248.00   0.94330794   0.02549522
4250.00   0.91445607   0.02350946
4252.00   0.89796621   0.02276790
4254.00   0.85429227   0.02245035
4256.00   0.84278321   0.02234622
4258.00   0.90397471   0.02273910
4260.00   0.88041139   0.02238435
4262.00   0.89498723   0.02250982
4264.00   0.91640532   0.02246861
4266.00   0.84592527   0.02196985
4268.00   0.86319232   0.02212699
4270.00   0.87626922   0.02227470
4272.00   0.86656648   0.02217717
4274.00   0.86547083   0.02228972
4276.00   0.83004916   0.02215268
4278.00   0.85370773   0.02226946
4280.00   0.86109841   0.02223293
4282.00   0.85874712   0.02224343
4284.00   0.81392682   0.02182797
4286.00   0.88155848   0.02202611
4288.00   0.87994534   0.02194575
4290.00   0.90447825   0.02206495
4292.00   0.88010895   0.02201740
4294.00   0.87503183   0.02204295
4296.00   0.90750349   0.02218851
4298.00   0.85829425   0.02171536
4300.00   0.81247580   0.02122784
4302.00   0.84087175   0.02137795
4304.00   0.85250837   0.02163728
4306.00   0.84563708   0.02175844
4308.00   0.89759797   0.02216308
4310.00   0.86960465   0.02212199
4312.00   0.88221884   0.02344667
4314.00   0.81752497   0.02337306
4316.00   0.86765707   0.02301382
4318.00   0.85945845   0.02287973
4320.00   0.87404883   0.02323694
4322.00   0.81952906   0.02299596
4324.00   0.80237401   0.02249073
4326.00   0.86553025   0.02251219
4328.00   0.82482427   0.02161981
4330.00   0.81214511   0.02130237
4332.00   0.82267213   0.02137040
4334.00   0.84825563   0.02155294
4336.00   0.84364980   0.02183367
4338.00   0.85195762   0.02219847
4340.00   0.80720013   0.02179204
4342.00   0.83637780   0.02208797
4344.00   0.81461954   0.02225417
4346.00   0.83564538   0.02312566
4348.00   0.81352866   0.02320150
4350.00   0.84982282   0.02291746
4352.00   0.83011121   0.02242453
4354.00   0.84149534   0.02556655
4356.00   0.84651268   0.03954821
4358.00   0.90309387   0.04676156
4360.00   0.75514662   0.04054454
4362.00   0.77344722   0.02984570
4364.00   0.81913388   0.02445465
4366.00   0.86322021   0.02333011
4368.00   0.85886437   0.02288844
4370.00   0.81962448   0.02247761
4372.00   0.87200129   0.02334769
4374.00   0.89534014   0.02385090
4376.00   0.88266319   0.02332775
4378.00   0.85912710   0.02241982
4380.00   0.83603120   0.02185330
4382.00   0.82678741   0.02162115
4384.00   0.87291783   0.02178834
4386.00   0.82349116   0.02142549
4388.00   0.83728456   0.02154547
4390.00   0.82680404   0.02146254
4392.00   0.82312810   0.02137146
4394.00   0.83378261   0.02138626
4396.00   0.86331344   0.02152388
4398.00   0.85912740   0.02192802
4400.00   0.86277360   0.02235142
4402.00   0.88190019   0.02226468
4404.00   0.86651349   0.02174711
4406.00   0.82973468   0.02149191
4408.00   0.84378707   0.02160763
4410.00   0.82676256   0.02140445
4412.00   0.83520567   0.02158901
4414.00   0.83550215   0.02192610
4416.00   0.81335461   0.02185125
4418.00   0.80558968   0.02136548
4420.00   0.76891083   0.02098834
4422.00   0.79708642   0.02100609
4424.00   0.74900877   0.02063231
4426.00   0.74464464   0.02056113
4428.00   0.74970448   0.02046842
4430.00   0.79723316   0.02071558
4432.00   0.79099250   0.02078969
4434.00   0.74763054   0.02037770
4436.00   0.75532782   0.02046172
4438.00   0.78434229   0.02066180
4440.00   0.79970932   0.02077585
4442.00   0.80657136   0.02074282
4444.00   0.85369015   0.02113722
4446.00   0.84146738   0.02094920
4448.00   0.84101778   0.02086229
4450.00   0.85186982   0.02094968
4452.00   0.86333507   0.02095209
4454.00   0.84781784   0.02071713
4456.00   0.87407601   0.02099248
4458.00   0.88742495   0.02106161
4460.00   0.85289788   0.02083008
4462.00   0.84015030   0.02067736
4464.00   0.85023004   0.02072747
4466.00   0.83929318   0.02053727
4468.00   0.84962463   0.02057066
4470.00   0.81646383   0.02028312
4472.00   0.76764435   0.02004391
4474.00   0.79784542   0.02010646
4476.00   0.81168163   0.02036259
4478.00   0.81427419   0.02028726
4480.00   0.86983478   0.02070535
4482.00   0.84059268   0.02050213
4484.00   0.87543291   0.02081574
4486.00   0.84841084   0.02067487
4488.00   0.93170893   0.02129300
4490.00   0.93685371   0.02129585
4492.00   0.91520751   0.02130731
4494.00   0.94221216   0.02151734
4496.00   0.98217022   0.02177675
4498.00   0.97513169   0.02163669
4500.00   0.93727100   0.02138412
4502.00   0.92478108   0.02109999
4504.00   0.91557068   0.02099339
4506.00   0.91743714   0.02094748
4508.00   0.93052334   0.02099030
4510.00   0.87143785   0.02060814
4512.00   0.90756011   0.02078338
4514.00   0.91352516   0.02083076
4516.00   0.98030323   0.02101937
4518.00   0.87010908   0.02036099
4520.00   0.90789717   0.02069025
4522.00   0.94542390   0.02089645
4524.00   0.95120221   0.02071530
4526.00   0.92395902   0.02051146
4528.00   0.90384871   0.02047891
4530.00   0.92445207   0.02059805
4532.00   0.93002743   0.02065590
4534.00   0.93646687   0.02074786
4536.00   0.90666914   0.02043675
4538.00   0.88200408   0.02014591
4540.00   0.90325385   0.02038801
4542.00   0.90003490   0.02051107
4544.00   0.93260407   0.02083837
4546.00   0.90505576   0.02052815
4548.00   0.91578096   0.02033102
4550.00   0.94176370   0.02040133
4552.00   0.91564751   0.02017654
4554.00   0.92197746   0.02030028
4556.00   0.95374221   0.02060967
4558.00   0.88426858   0.02010127
4560.00   0.91122228   0.02016761
4562.00   0.90980870   0.01998759
4564.00   0.87817937   0.01963466
4566.00   0.87626541   0.01965619
4568.00   0.94724703   0.02012545
4570.00   0.91636914   0.01979055
4572.00   0.88739544   0.01981919
4574.00   0.94306558   0.02028277
4576.00   0.91137391   0.01984875
4578.00   0.93673491   0.01994198
4580.00   0.89673251   0.01960711
4582.00   0.87018043   0.01931348
4584.00   0.90847379   0.01946077
4586.00   0.91561222   0.01961033
4588.00   0.87893665   0.01932887
4590.00   0.92056072   0.01962148
4592.00   0.94390303   0.01978605
4594.00   0.86066628   0.01932015
4596.00   0.88601297   0.01953099
4598.00   0.87275463   0.01928527
4600.00   0.90731144   0.01942466
4602.00   0.87872034   0.01909661
4604.00   0.88816035   0.01916553
4606.00   0.90567189   0.01931659
4608.00   0.87252569   0.01923118
4610.00   0.89065158   0.01933184
4612.00   0.85251415   0.01897421
4614.00   0.88317883   0.01907399
4616.00   0.89905900   0.01904017
4618.00   0.90094393   0.01907219
4620.00   0.94564158   0.01943121
4622.00   0.90730125   0.01904923
4624.00   0.88408816   0.01901164
4626.00   0.86312532   0.01882968
4628.00   0.89860046   0.01915593
4630.00   0.91694850   0.01928306
4632.00   0.89709336   0.01913553
4634.00   0.92626309   0.01924654
4636.00   0.90806311   0.01905996
4638.00   0.91032392   0.01907191
4640.00   0.88628340   0.01898035
4642.00   0.89886463   0.01907079
4644.00   0.92820084   0.01919893
4646.00   0.92565429   0.01923381
4648.00   0.91423130   0.01920055
4650.00   0.90023351   0.01909927
4652.00   0.91673011   0.01929169
4654.00   0.91085410   0.01928598
4656.00   0.91321254   0.01931536
4658.00   0.90952772   0.01952393
4660.00   0.86208642   0.01938241
4662.00   0.87644601   0.01965396
4664.00   0.89474255   0.01995202
4666.00   0.89704227   0.02021616
4668.00   0.88209593   0.02037618
4670.00   0.91263282   0.02059546
4672.00   0.91699499   0.02048982
4674.00   0.90666652   0.02015092
4676.00   0.88099951   0.01973155
4678.00   0.89359432   0.01960203
4680.00   0.89767337   0.01959574
4682.00   0.86981809   0.01920997
4684.00   0.90303260   0.01932615
4686.00   0.93028599   0.01937716
4688.00   0.88761562   0.01901047
4690.00   0.92088336   0.01916607
4692.00   0.89616895   0.01903976
4694.00   0.93601578   0.01929080
4696.00   0.90378231   0.01893260
4698.00   0.91350013   0.01892306
4700.00   0.87092227   0.01856692
4702.00   0.90072668   0.01891075
4704.00   0.92628157   0.01924832
4706.00   0.88446754   0.01905370
4708.00   0.90441835   0.01927966
4710.00   0.88087833   0.01908335
4712.00   0.86601168   0.01889537
4714.00   0.87930208   0.01886666
4716.00   0.89621228   0.01887932
4718.00   0.87432325   0.01863121
4720.00   0.88245970   0.01875246
4722.00   0.88130665   0.01861987
4724.00   0.89763862   0.01879669
4726.00   0.89114708   0.01921930
4728.00   0.85570508   0.01960976
4730.00   0.93530726   0.02019083
4732.00   0.91449726   0.02013809
4734.00   0.92262453   0.02040331
4736.00   0.87213540   0.02023913
4738.00   0.87642723   0.02060046
4740.00   0.89726198   0.02104199
4742.00   0.88000339   0.02134849
4744.00   0.84918219   0.02071955
4746.00   0.88243198   0.01978863
4748.00   0.90530354   0.01921270
4750.00   0.85854757   0.01891879
4752.00   0.80234861   0.01873410
4754.00   0.86952066   0.01896500
4756.00   0.88039798   0.01858958
4758.00   0.81772691   0.01785031
4760.00   0.83603120   0.01773369
4762.00   0.84920758   0.01779141
4764.00   0.83252579   0.01757930
4766.00   0.81485814   0.01736246
4768.00   0.84075356   0.01752155
4770.00   0.84703690   0.01755134
4772.00   0.85785776   0.01754023
4774.00   0.81932652   0.01736022
4776.00   0.80056018   0.01752949
4778.00   0.83085138   0.01800196
4780.00   0.82327133   0.01795901
4782.00   0.83531153   0.01766646
4784.00   0.83781165   0.01747590
4786.00   0.80756366   0.01716876
4788.00   0.81924552   0.01733767
4790.00   0.84095418   0.01755665
4792.00   0.82462621   0.01748288
4794.00   0.82756829   0.01728611
4796.00   0.80962867   0.01707848
4798.00   0.84213150   0.01727252
4800.00   0.83609486   0.01724860
4802.00   0.84342605   0.01726223
4804.00   0.81780565   0.01708602
4806.00   0.84130210   0.01732078
4808.00   0.81579709   0.01722118
4810.00   0.79795820   0.01700982
4812.00   0.82866973   0.01725880
4814.00   0.85050976   0.01742062
4816.00   0.84882224   0.01740775
4818.00   0.83555377   0.01738944
4820.00   0.82701898   0.01738607
4822.00   0.83528811   0.01757685
4824.00   0.86294055   0.01775539
4826.00   0.83096874   0.01754977
4828.00   0.88770485   0.01798428
4830.00   0.88399464   0.01800075
4832.00   0.84148359   0.01779375
4834.00   0.83519572   0.01764146
4836.00   0.86226547   0.01783523
4838.00   0.86849052   0.01814463
4840.00   0.81943309   0.01791421
4842.00   0.82162255   0.01767769
4844.00   0.83943349   0.01762381
4846.00   0.83368462   0.01756518
4848.00   0.81601971   0.01743219
4850.00   0.85583556   0.01773531
4852.00   0.82491797   0.01749107
4854.00   0.84751505   0.01750144
4856.00   0.84044927   0.01734671
4858.00   0.82642537   0.01732215
4860.00   0.78275090   0.01716648
4862.00   0.79504377   0.01734760
4864.00   0.83947116   0.01760176
4866.00   0.81855196   0.01729942
4868.00   0.80939835   0.01717897
4870.00   0.80897373   0.01714429
4872.00   0.79657495   0.01702920
4874.00   0.79754847   0.01704569
4876.00   0.85661733   0.01749548
4878.00   0.83932906   0.01751339
4880.00   0.83309364   0.01744214
4882.00   0.86410815   0.01760694
4884.00   0.84033448   0.01730285
4886.00   0.87970394   0.01750276
4888.00   0.82047033   0.01702404
4890.00   0.83282650   0.01714195
4892.00   0.84540838   0.01733264
4894.00   0.83417732   0.01728132
4896.00   0.83347875   0.01727303
4898.00   0.85688978   0.01718904
4900.00   0.87317520   0.01727428
4902.00   0.86494231   0.01718396
4904.00   0.85621870   0.01717855
4906.00   0.88873917   0.01750429
4908.00   0.85411984   0.01732530
4910.00   0.88973373   0.01754084
4912.00   0.86423916   0.01736130
4914.00   0.87543815   0.01747133
4916.00   0.88202286   0.01748453
4918.00   0.81874502   0.01703754
4920.00   0.87224698   0.01738819
4922.00   0.84604722   0.01726495
4924.00   0.85878283   0.01717056
4926.00   0.83590567   0.01683892
4928.00   0.86576986   0.01711361
4930.00   0.86550874   0.01691321
4932.00   0.90832448   0.01722065
4934.00   0.91275012   0.01740038
4936.00   0.90264630   0.01734854
4938.00   0.90777171   0.01747866
4940.00   0.89738017   0.01743052
4942.00   0.86280876   0.01712063
4944.00   0.91383964   0.01731418
4946.00   0.90128917   0.01724007
4948.00   0.90728134   0.01725386
4950.00   0.87119180   0.01715753
4952.00   0.86525893   0.01727496
4954.00   0.85034811   0.01715738
4956.00   0.87235618   0.01731853
4958.00   0.88489705   0.01729524
4960.00   0.85713524   0.01707857
4962.00   0.85656071   0.01709349
4964.00   0.86724973   0.01730491
4966.00   0.84416324   0.01725451
4968.00   0.83691388   0.01731660
4970.00   0.87485850   0.01782236
4972.00   0.88955301   0.01831895
4974.00   0.86458981   0.01847488
4976.00   0.89486676   0.01919780
4978.00   0.86468118   0.01973598
4980.00   0.84639853   0.02019185
4982.00   0.88917953   0.02081399
4984.00   0.85924137   0.02058798
4986.00   0.87450314   0.02014692
4988.00   0.91981965   0.01985046
4990.00   0.94425935   0.01957864
4992.00   0.87978750   0.01883538
4994.00   0.93397152   0.01864025
4996.00   0.91025442   0.01813746
4998.00   0.89483732   0.01770339
5000.00   0.91453069   0.01756782
5002.00   0.91542488   0.01754524
5004.00   0.95094967   0.01766652
5006.00   0.94783223   0.01750418
5008.00   0.90498012   0.01713681
5010.00   0.91574758   0.01713412
5012.00   0.89694303   0.01703952
5014.00   0.90527445   0.01708117
5016.00   0.93005276   0.01726344
5018.00   0.91850924   0.01740814
5020.00   0.91296017   0.01736157
5022.00   0.88158226   0.01704275
5024.00   0.95009941   0.01730286
5026.00   0.95778733   0.01731571
5028.00   0.97180611   0.01758313
5030.00   0.95797741   0.01763158
5032.00   0.99190390   0.01777676
5034.00   1.00125051   0.01767818
5036.00   1.00652897   0.01761198
5038.00   0.98053634   0.01741937
5040.00   0.95264751   0.01716195
5042.00   0.97300661   0.01731570
5044.00   0.95257670   0.01722765
5046.00   0.97334075   0.01735733
5048.00   0.96308362   0.01730073
5050.00   0.97122687   0.01729978
5052.00   0.99365032   0.01742163
5054.00   0.93351680   0.01705848
5056.00   0.96669847   0.01726093
5058.00   0.96289468   0.01720270
5060.00   0.97652400   0.01742880
5062.00   0.95128441   0.01753787
5064.00   0.97154599   0.01788557
5066.00   0.92238319   0.01774477
5068.00   0.93966752   0.01826853
5070.00   0.94518661   0.01833558
5072.00   0.92805272   0.01795204
5074.00   0.93847692   0.01786447
5076.00   0.94847840   0.01778921
5078.00   0.94963014   0.01820122
5080.00   0.88728529   0.01898834
5082.00   0.92330950   0.02032392
5084.00   0.89032984   0.02076503
5086.00   0.90274751   0.02074981
5088.00   0.88267434   0.01963834
5090.00   0.92581195   0.01896096
5092.00   0.90097713   0.01803637
5094.00   0.89637983   0.01762979
5096.00   0.86344105   0.01773460
5098.00   0.87211955   0.01820281
5100.00   0.87185347   0.01813265
5102.00   0.88756847   0.01781420
5104.00   0.90627438   0.01748815
5106.00   0.89753109   0.01726318
5108.00   0.88500494   0.01710736
5110.00   0.91199023   0.01733077
5112.00   0.89667690   0.01729285
5114.00   0.88835257   0.01739833
5116.00   0.87847573   0.01734321
5118.00   0.86777925   0.01714412
5120.00   0.87901610   0.01706338
5122.00   0.90135711   0.01713598
5124.00   0.88873261   0.01705782
5126.00   0.87760615   0.01684242
5128.00   0.88943464   0.01700245
5130.00   0.89052516   0.01704633
5132.00   0.88711250   0.01707301
5134.00   0.88616627   0.01704237
5136.00   0.88623720   0.01706914
5138.00   0.89338350   0.01719629
5140.00   0.90288365   0.01726815
5142.00   0.91564971   0.01731989
5144.00   0.88284189   0.01726605
5146.00   0.89110255   0.01754289
5148.00   0.90147084   0.01791743
5150.00   0.89089328   0.01817723
5152.00   0.88277012   0.01854001
5154.00   0.90467632   0.01874680
5156.00   0.90429503   0.01852779
5158.00   0.88130850   0.01804942
5160.00   0.88974267   0.01779617
5162.00   0.86721408   0.01746785
5164.00   0.87455899   0.01733474
5166.00   0.87155885   0.01720192
5168.00   0.90741920   0.01741290
5170.00   0.89727569   0.01732528
5172.00   0.91215301   0.01742293
5174.00   0.89319509   0.01735590
5176.00   0.88821393   0.01746908
5178.00   0.90317172   0.01753157
5180.00   0.90830714   0.01759687
5182.00   0.88738859   0.01740729
5184.00   0.90762544   0.01761542
5186.00   0.88227642   0.01746647
5188.00   0.90785795   0.01768548
5190.00   0.92206419   0.01784551
5192.00   0.87987971   0.01752180
5194.00   0.88588220   0.01768010
5196.00   0.89589667   0.01797116
5198.00   0.91112435   0.01821892
5200.00   0.86597383   0.01791340
5202.00   0.90302140   0.01805284
5204.00   0.91100192   0.01799632
5206.00   0.89495826   0.01794375
5208.00   0.89855719   0.01813481
5210.00   0.92874140   0.01850747
5212.00   0.91372740   0.01835122
5214.00   0.87458426   0.01801496
5216.00   0.89291865   0.01828578
5218.00   0.89516950   0.01841094
5220.00   0.89759028   0.01837914
5222.00   0.91171366   0.01839718
5224.00   0.89210063   0.01823790
5226.00   0.91707230   0.01826128
5228.00   0.92895073   0.01832875
5230.00   0.88614357   0.01819687
5232.00   0.90201992   0.01837093
5234.00   0.88067001   0.01812685
5236.00   0.88061523   0.01824986
5238.00   0.91232687   0.01864650
5240.00   0.89229375   0.01850924
5242.00   0.87887681   0.01830609
5244.00   0.91652906   0.01849317
5246.00   0.91156948   0.01852163
5248.00   0.87504971   0.01832158
5250.00   0.89184213   0.01846305
5252.00   0.91791940   0.01864883
5254.00   0.88339674   0.01857377
5256.00   0.89637649   0.01890139
5258.00   0.91829967   0.01923067
5260.00   0.89640516   0.01900691
5262.00   0.89619011   0.01884552
5264.00   0.88721114   0.01859562
5266.00   0.91670364   0.01888946
5268.00   0.89041030   0.01881436
5270.00   0.87590200   0.01866880
5272.00   0.90736407   0.01897961
5274.00   0.87548876   0.01883521
5276.00   0.88854623   0.01893544
5278.00   0.90855384   0.01920777
5280.00   0.87917739   0.01896276
5282.00   0.95054442   0.01995487
5284.00   0.92715687   0.01960694
5286.00   0.91136140   0.01958298
5288.00   0.91152459   0.01950522
5290.00   0.89419049   0.01937748
5292.00   0.89755446   0.01935306
5294.00   0.92321146   0.01963581
5296.00   0.90498954   0.01954005
5298.00   0.91266316   0.01973451
5300.00   0.88808662   0.01971241
5302.00   0.87086874   0.01953920
5304.00   0.88873518   0.01971880
5306.00   0.89973283   0.01975029
5308.00   0.87949181   0.01969060
5310.00   0.90269411   0.01998269
5312.00   0.94847989   0.02046223
5314.00   0.91201472   0.02029219
5316.00   0.90006864   0.02007810
5318.00   0.90615278   0.02016289
5320.00   0.94084221   0.02050305
5322.00   0.89323097   0.02014414
5324.00   0.89309365   0.02037584
5326.00   0.91513306   0.02054090
5328.00   0.93649673   0.02080772
5330.00   0.92664611   0.02080278
5332.00   0.89482397   0.02059094
5334.00   0.90092939   0.02081331
5336.00   0.86906981   0.02063691
5338.00   0.90459281   0.02115425
5340.00   0.88716584   0.02125466
5342.00   0.91645199   0.02158580
5344.00   0.90624046   0.02152311
5346.00   0.88746464   0.02157583
5348.00   0.88095433   0.02207175
5350.00   0.89605117   0.02208517
5352.00   0.92507648   0.02233299
5354.00   0.87435716   0.02238310
5356.00   0.87867320   0.02242071
5358.00   0.89118850   0.02210174
5360.00   0.87216538   0.02181648
5362.00   0.83906651   0.02137086
5364.00   0.87836361   0.02143410
5366.00   0.90322512   0.02161432
5368.00   0.89742827   0.02168082
5370.00   0.86990255   0.02155137
5372.00   0.89193141   0.02207458
5374.00   0.88047957   0.02227446
5376.00   0.87905478   0.02233399
5378.00   0.90685892   0.02242397
5380.00   0.87517613   0.02216903
5382.00   0.89274174   0.02234898
5384.00   0.86685002   0.02219217
5386.00   0.86856604   0.02222019
5388.00   0.85781509   0.02243551
5390.00   0.83409989   0.02253597
5392.00   0.80029953   0.02239876
5394.00   0.87647039   0.02296884
5396.00   0.86354053   0.02274766
5398.00   0.81019610   0.02252711
5400.00   0.88166261   0.02303353
5402.00   0.88316345   0.02302689
5404.00   0.85290200   0.02304068
5406.00   0.85893923   0.02309604
5408.00   0.85610843   0.02326388
5410.00   0.83649343   0.02334758
5412.00   0.84173977   0.02364855
5414.00   0.82801592   0.02397926
5416.00   0.82900083   0.02425129
5418.00   0.85607189   0.02466006
5420.00   0.87003785   0.02479253
5422.00   0.83591551   0.02462494
5424.00   0.86815596   0.02485790
5426.00   0.82486993   0.02442500
5428.00   0.84865320   0.02468344
5430.00   0.85611248   0.02484403
5432.00   0.84566033   0.02478420
5434.00   0.82362330   0.02468603
5436.00   0.88662899   0.02524729
5438.00   0.84735584   0.02497173
5440.00   0.85903960   0.02520192
5442.00   0.87727255   0.02544604
5444.00   0.80793113   0.02516016
5446.00   0.80449218   0.02521538
5448.00   0.84177393   0.02548362
5450.00   0.83184421   0.00933026
5452.00   0.84286040   0.00992345
5454.00   0.84017080   0.01095603
5456.00   0.82816660   0.01249958
5458.00   0.81940633   0.01303036
5460.00   0.80383956   0.01306310
5462.00   0.79991794   0.01283233
5464.00   0.80938828   0.01212071
5466.00   0.82360655   0.01126986
5468.00   0.83762115   0.01063459
5470.00   0.85468841   0.01004004
5472.00   0.86119545   0.00989071
5474.00   0.85792887   0.01051882
5476.00   0.85703498   0.01049690
5478.00   0.85565650   0.00982327
5480.00   0.85469782   0.00918956
5482.00   0.85628051   0.00906035
5484.00   0.85870206   0.00918219
5486.00   0.85282868   0.00906879
5488.00   0.83390158   0.00881976
5490.00   0.82887214   0.00867134
5492.00   0.83392042   0.00856755
5494.00   0.83875865   0.00848690
5496.00   0.84208608   0.00843871
5498.00   0.84432089   0.00840663
5500.00   0.84108901   0.00832262
5502.00   0.83049560   0.00810531
5504.00   0.82766199   0.00820403
5506.00   0.83011431   0.00862677
5508.00   0.83158219   0.00891928
5510.00   0.82855994   0.00908113
5512.00   0.82827628   0.00916359
5514.00   0.84212518   0.00914140
5516.00   0.87061542   0.00897763
5518.00   0.87842393   0.00898752
5520.00   0.87170273   0.00921673
5522.00   0.86645192   0.00921177
5524.00   0.86124843   0.00886607
5526.00   0.85455388   0.00854607
5528.00   0.84583658   0.00859458
5530.00   0.83525825   0.00886792
5532.00   0.82484454   0.00897760
5534.00   0.80729502   0.00904063
5536.00   0.80399889   0.00911112
5538.00   0.81817603   0.00927605
5540.00   0.82963604   0.00928369
5542.00   0.82823938   0.00888536
5544.00   0.82087475   0.00825430
5546.00   0.81772900   0.00826656
5548.00   0.81512296   0.00898492
5550.00   0.81304449   0.00913667
5552.00   0.80666339   0.00907110
5554.00   0.80931187   0.00889465
5556.00   0.82904673   0.00853626
5558.00   0.85443890   0.00809920
5560.00   0.86342168   0.00793108
5562.00   0.86235613   0.00785774
5564.00   0.86138827   0.00812000
5566.00   0.85395110   0.00858879
5568.00   0.85014790   0.00931666
5570.00   0.85021520   0.01036655
5572.00   0.85278082   0.01143065
5574.00   0.85936719   0.01234240
5576.00   0.87283134   0.01336465
5578.00   0.86709064   0.01330702
5580.00   0.83822578   0.01212059
5582.00   0.82466811   0.01110320
5584.00   0.82670981   0.00994341
5586.00   0.83038002   0.00887114
5588.00   0.82550687   0.00830331
5590.00   0.81674927   0.00816892
5592.00   0.81982231   0.00801848
5594.00   0.83613354   0.00811571
5596.00   0.84352952   0.00814444
5598.00   0.84813648   0.00824229
5600.00   0.84748584   0.00824431
5602.00   0.83687049   0.00802143
5604.00   0.82114458   0.00767568
5606.00   0.81961590   0.00755947
5608.00   0.83016849   0.00758625
5610.00   0.83541709   0.00763656
5612.00   0.84411305   0.00779353
5614.00   0.84624654   0.00791871
5616.00   0.83647794   0.00802489
5618.00   0.82297349   0.00808075
5620.00   0.82019120   0.00795535
5622.00   0.82542747   0.00759065
5624.00   0.82415873   0.00747593
5626.00   0.81965727   0.00749956
5628.00   0.81562406   0.00756164
5630.00   0.81126326   0.00770328
5632.00   0.80776006   0.00784669
5634.00   0.80765694   0.00789784
5636.00   0.81092435   0.00790354
5638.00   0.80826712   0.00783716
5640.00   0.79780406   0.00762078
5642.00   0.79495543   0.00751740
5644.00   0.80108768   0.00752579
5646.00   0.80690765   0.00755463
5648.00   0.80559659   0.00755560
5650.00   0.80060750   0.00755380
5652.00   0.80229443   0.00753923
5654.00   0.81371236   0.00716330
5656.00   0.81303191   0.00758034
5658.00   0.79838616   0.00894547
5660.00   0.78881842   0.00977541
5662.00   0.79380822   0.00967479
5664.00   0.80501157   0.00910255
5666.00   0.80597520   0.00877526
5668.00   0.80093151   0.00827547
5670.00   0.79672474   0.00815097
5672.00   0.79005003   0.00836312
5674.00   0.78445256   0.00859544
5676.00   0.78021419   0.00863793
5678.00   0.77705729   0.00885071
5680.00   0.77588063   0.00987962
5682.00   0.77814215   0.01171782
5684.00   0.77448034   0.01209513
5686.00   0.76150489   0.01145573
5688.00   0.75818950   0.01096531
5690.00   0.76955861   0.01060929
5692.00   0.78145421   0.01024077
5694.00   0.77927458   0.00980875
5696.00   0.76777011   0.00931086
5698.00   0.76546198   0.00891730
5700.00   0.76825857   0.00857696
5702.00   0.76976335   0.00830933
5704.00   0.77066350   0.00813967
5706.00   0.77207285   0.00802393
5708.00   0.77555150   0.00794821
5710.00   0.78015608   0.00792115
5712.00   0.77803302   0.00784786
5714.00   0.76557213   0.00772134
5716.00   0.76384389   0.00767288
5718.00   0.76948202   0.00766976
5720.00   0.77688342   0.00771144
5722.00   0.78630900   0.00784124
5724.00   0.79638493   0.00799601
5726.00   0.79851651   0.00796552
5728.00   0.79513925   0.00766818
5730.00   0.78929907   0.00771772
5732.00   0.77306026   0.00819957
5734.00   0.76645571   0.00832402
5736.00   0.77668601   0.00782632
5738.00   0.79087722   0.00715046
5740.00   0.79074991   0.00707322
5742.00   0.77999544   0.00740713
5744.00   0.77985311   0.00757934
5746.00   0.78594011   0.00790752
5748.00   0.79118192   0.00797230
5750.00   0.79652691   0.00766409
5752.00   0.80143642   0.00731271
5754.00   0.80475104   0.00725042
5756.00   0.80695075   0.00734518
5758.00   0.80873501   0.00746220
5760.00   0.81111926   0.00766218
5762.00   0.81012458   0.00787939
5764.00   0.80452722   0.00818161
5766.00   0.79927027   0.00842210
5768.00   0.79766297   0.00854171
5770.00   0.79767436   0.00857937
5772.00   0.79402441   0.00847667
5774.00   0.78528959   0.00813142
5776.00   0.78246492   0.00793073
5778.00   0.78244132   0.00772220
5780.00   0.78553271   0.00764469
5782.00   0.79360819   0.00777099
5784.00   0.80398321   0.00801769
5786.00   0.80896997   0.00824625
5788.00   0.81254190   0.00860694
5790.00   0.81046647   0.00869034
5792.00   0.79951376   0.00857715
5794.00   0.79272079   0.00841324
5796.00   0.79170686   0.00815765
5798.00   0.79317749   0.00787555
5800.00   0.79478908   0.00771841
5802.00   0.79788882   0.00764051
5804.00   0.80023444   0.00757704
5806.00   0.80095071   0.00757066
5808.00   0.80489820   0.00755868
5810.00   0.81505805   0.00742381
5812.00   0.82340711   0.00744787
5814.00   0.82112134   0.00798831
5816.00   0.81103313   0.00887238
5818.00   0.81476176   0.00897014
5820.00   0.82955104   0.00834741
5822.00   0.84087265   0.00810359
5824.00   0.85520130   0.00813133
5826.00   0.86386275   0.00816799
5828.00   0.85995620   0.00809590
5830.00   0.84839660   0.00798723
5832.00   0.84493273   0.00792787
5834.00   0.84055066   0.00786656
5836.00   0.84660310   0.00787475
5838.00   0.86617756   0.00796289
5840.00   0.88202453   0.00804590
5842.00   0.88979816   0.00810161
5844.00   0.89368808   0.00815302
5846.00   0.89617288   0.00822155
5848.00   0.89455545   0.00831649
5850.00   0.89627326   0.00836136
5852.00   0.89833003   0.00832488
5854.00   0.90281379   0.00836866
5856.00   0.91473877   0.00850835
5858.00   0.92399740   0.00869813
5860.00   0.91453904   0.00892081
5862.00   0.88779044   0.00921732
5864.00   0.88033509   0.00933410
5866.00   0.88995004   0.00937441
5868.00   0.88717514   0.00929002
5870.00   0.86805403   0.00900067
5872.00   0.85084879   0.00868854
5874.00   0.85012764   0.00846678
5876.00   0.85950869   0.00826804
5878.00   0.86192721   0.00848860
5880.00   0.85870945   0.00854956
5882.00   0.86435586   0.00977889
5884.00   0.88285011   0.01205448
5886.00   0.89574963   0.01392573
5888.00   0.89367831   0.01528367
5890.00   0.88318926   0.01635419
5892.00   0.87469882   0.01656798
5894.00   0.84414029   0.01591891
5896.00   0.86051208   0.01531417
5898.00   0.93002522   0.01435947
5900.00   0.97916901   0.01326082
5902.00   0.98778093   0.01188364
5904.00   0.98002928   0.01034285
5906.00   0.98302943   0.00933930
5908.00   0.98762667   0.00884323
5910.00   0.98711658   0.00847781
5912.00   0.98407501   0.00861244
5914.00   0.97701830   0.00865611
5916.00   0.96187091   0.00858052
5918.00   0.94714707   0.00850292
5920.00   0.94394112   0.00849515
5922.00   0.94852734   0.00853384
5924.00   0.95254630   0.00856252
5926.00   0.96067601   0.00860947
5928.00   0.96681011   0.00864335
5930.00   0.97258347   0.00868565
5932.00   0.97631341   0.00869721
5934.00   0.97636914   0.00862630
5936.00   0.97354025   0.00849299
5938.00   0.96921700   0.00848691
5940.00   0.96226752   0.00857822
5942.00   0.95482886   0.00865267
5944.00   0.94742870   0.00880531
5946.00   0.93738687   0.00885814
5948.00   0.92142141   0.00870748
5950.00   0.90289438   0.00843494
5952.00   0.89422721   0.00824748
5954.00   0.89477652   0.00799619
5956.00   0.89067477   0.00794461
5958.00   0.88542950   0.00814072
5960.00   0.88077253   0.00823939
5962.00   0.87676913   0.00816787
5964.00   0.87346542   0.00802556
5966.00   0.87144631   0.00790523
5968.00   0.87002194   0.00773590
5970.00   0.87140960   0.00767853
5972.00   0.87762278   0.00774743
5974.00   0.88061351   0.00775719
5976.00   0.88062257   0.00769929
5978.00   0.87827116   0.00761733
5980.00   0.87351602   0.00752570
5982.00   0.86663055   0.00739565
5984.00   0.85538960   0.00741623
5986.00   0.83379620   0.00765437
5988.00   0.82296014   0.00770220
5990.00   0.82352644   0.00756698
5992.00   0.82550162   0.00739719
5994.00   0.82331371   0.00725456
5996.00   0.81986934   0.00710622
5998.00   0.81477487   0.00713352
6000.00   0.80669481   0.00741592
6002.00   0.80047590   0.00747965
6004.00   0.79374659   0.00741287
6006.00   0.78956735   0.00730274
6008.00   0.78887856   0.00712305
6010.00   0.79109174   0.00691795
6012.00   0.79693741   0.00696048
6014.00   0.81300086   0.00732832
6016.00   0.81389105   0.00735027
6018.00   0.79971629   0.00712451
6020.00   0.79171944   0.00694584
6022.00   0.79598379   0.00679165
6024.00   0.80272663   0.00673022
6026.00   0.79886490   0.00702522
6028.00   0.78650779   0.00774574
6030.00   0.78230953   0.00779393
6032.00   0.78341639   0.00725371
6034.00   0.78267699   0.00693661
6036.00   0.77954161   0.00689587
6038.00   0.77652091   0.00692477
6040.00   0.77600038   0.00682640
6042.00   0.77742469   0.00661806
6044.00   0.77530843   0.00701382
6046.00   0.76750594   0.00810981
6048.00   0.76655400   0.00860102
6050.00   0.77117628   0.00875299
6052.00   0.77891284   0.00869185
6054.00   0.79109293   0.00838011
6056.00   0.80669540   0.00781556
6058.00   0.80886680   0.00746221
6060.00   0.79946572   0.00714914
6062.00   0.79195035   0.00694561
6064.00   0.78094941   0.00693265
6066.00   0.77137756   0.00687963
6068.00   0.76442486   0.00667953
6070.00   0.75939173   0.00642729
6072.00   0.75757325   0.00630951
6074.00   0.75959331   0.00629347
6076.00   0.76113439   0.00625837
6078.00   0.76412475   0.00623066
6080.00   0.76678067   0.00624064
6082.00   0.76904011   0.00629154
6084.00   0.77098638   0.00637661
6086.00   0.77267849   0.00651168
6088.00   0.77521789   0.00675280
6090.00   0.77221918   0.00672529
6092.00   0.76000136   0.00632278
6094.00   0.75586832   0.00621743
6096.00   0.76180941   0.00642736
6098.00   0.76944363   0.00676919
6100.00   0.77160424   0.00719360
6102.00   0.77105951   0.00774486
6104.00   0.77511686   0.00785622
6106.00   0.78265029   0.00749093
6108.00   0.78946239   0.00743332
6110.00   0.80049843   0.00767211
6112.00   0.80552226   0.00785554
6114.00   0.79572368   0.00781962
6116.00   0.77694935   0.00766303
6118.00   0.77172077   0.00747660
6120.00   0.77609193   0.00716712
6122.00   0.77653062   0.00691195
6124.00   0.77604645   0.00661938
6126.00   0.77655369   0.00640732
6128.00   0.77905226   0.00634347
6130.00   0.78235418   0.00636560
6132.00   0.78402895   0.00634971
6134.00   0.78508937   0.00634647
6136.00   0.78518873   0.00634258
6138.00   0.78413713   0.00634329
6140.00   0.78278953   0.00634517
6142.00   0.78001875   0.00634058
6144.00   0.77799630   0.00634443
6146.00   0.78071290   0.00638041
6148.00   0.78801399   0.00644358
6150.00   0.79044145   0.00649970
6152.00   0.79218459   0.00653128
6154.00   0.78967482   0.00662483
6156.00   0.78089672   0.00684190
6158.00   0.77140296   0.00700957
6160.00   0.76541293   0.00696800
6162.00   0.76076669   0.00677671
6164.00   0.75984806   0.00673864
6166.00   0.76506633   0.00673559
6168.00   0.76607835   0.00682378
6170.00   0.76475972   0.00711138
6172.00   0.76189774   0.00728044
6174.00   0.75647110   0.00716507
6176.00   0.74953312   0.00687380
6178.00   0.74845421   0.00662371
6180.00   0.75246358   0.00624878
6182.00   0.75524104   0.00602248
6184.00   0.76015079   0.00589478
6186.00   0.76294369   0.00582305
6188.00   0.76178956   0.00581508
6190.00   0.75896084   0.00585510
6192.00   0.75837916   0.00588039
6194.00   0.75923783   0.00592485
6196.00   0.75845349   0.00594618
6198.00   0.75476599   0.00590880
6200.00   0.75462592   0.00595520
6202.00   0.75903350   0.00614927
6204.00   0.76557553   0.00634350
6206.00   0.77291709   0.00637087
6208.00   0.78364319   0.00629248
6210.00   0.78382099   0.00620799
6212.00   0.77313274   0.00603505
6214.00   0.76644146   0.00592051
6216.00   0.76324427   0.00577901
6218.00   0.75996256   0.00576845
6220.00   0.75299305   0.00610685
6222.00   0.74353534   0.00667527
6224.00   0.74606031   0.00672674
6226.00   0.76276404   0.00633380
6228.00   0.77051950   0.00613003
6230.00   0.77567357   0.00596733
6232.00   0.77532089   0.00587617
6234.00   0.76549697   0.00591518
6236.00   0.74982637   0.00603240
6238.00   0.74238944   0.00602994
6240.00   0.73660088   0.00580394
6242.00   0.73749930   0.00595685
6244.00   0.74972647   0.00657420
6246.00   0.75628543   0.00685556
6248.00   0.75163215   0.00658194
6250.00   0.74301225   0.00607117
6252.00   0.74059987   0.00587135
6254.00   0.74189860   0.00581185
6256.00   0.73998243   0.00577316
6258.00   0.73659271   0.00586054
6260.00   0.73291939   0.00587808
6262.00   0.72881973   0.00580181
6264.00   0.72446281   0.00570135
6266.00   0.72001219   0.00563638
6268.00   0.71504152   0.00557568
6270.00   0.71232671   0.00556481
6272.00   0.71123099   0.00556683
6274.00   0.71092343   0.00565162
6276.00   0.71341366   0.00591152
6278.00   0.71425253   0.00608756
6280.00   0.70904303   0.00596730
6282.00   0.69981474   0.00564333
6284.00   0.69695407   0.00558065
6286.00   0.69576401   0.00552421
6288.00   0.69991404   0.00580285
6290.00   0.71156138   0.00656915
6292.00   0.72280681   0.00707363
6294.00   0.73240715   0.00704497
6296.00   0.74028975   0.00676955
6298.00   0.73798734   0.00681639
6300.00   0.72489560   0.00694747
6302.00   0.71430880   0.00725463
6304.00   0.69451118   0.00809085
6306.00   0.68724793   0.00830795
6308.00   0.70218217   0.00749303
6310.00   0.72428280   0.00615139
6312.00   0.72937328   0.00557377
6314.00   0.72401702   0.00552232
6316.00   0.72346753   0.00538529
6318.00   0.72131288   0.00543890
6320.00   0.72247332   0.00547064
6322.00   0.72845465   0.00548249
6324.00   0.73532450   0.00550264
6326.00   0.73912483   0.00553290
6328.00   0.74145961   0.00556405
6330.00   0.74379933   0.00566954
6332.00   0.74627048   0.00592439
6334.00   0.74695718   0.00600357
6336.00   0.74499434   0.00592597
6338.00   0.74325049   0.00579061
6340.00   0.74345356   0.00562498
6342.00   0.74469596   0.00540929
6344.00   0.74696672   0.00533191
6346.00   0.75001866   0.00537915
6348.00   0.75467962   0.00539800
6350.00   0.76419860   0.00543242
6352.00   0.76944602   0.00546791
6354.00   0.76522446   0.00549485
6356.00   0.75657821   0.00552261
6358.00   0.75496608   0.00557146
6360.00   0.75923193   0.00563132
6362.00   0.75773466   0.00570949
6364.00   0.75191540   0.00577122
6366.00   0.74760485   0.00590595
6368.00   0.74559772   0.00620567
6370.00   0.74473208   0.00648674
6372.00   0.74428344   0.00646842
6374.00   0.74389172   0.00621745
6376.00   0.74703163   0.00600357
6378.00   0.75490183   0.00554973
6380.00   0.76060027   0.00540614
6382.00   0.76380688   0.00572430
6384.00   0.76655585   0.00608748
6386.00   0.77055168   0.00619385
6388.00   0.77531010   0.00620451
6390.00   0.77765644   0.00602727
6392.00   0.78020293   0.00545082
6394.00   0.77800328   0.00516161
6396.00   0.76668805   0.00515256
6398.00   0.75921977   0.00521546
6400.00   0.76540160   0.00526013
6402.00   0.77947980   0.00533315
6404.00   0.78304160   0.00536320
6406.00   0.78848058   0.00540004
6408.00   0.77612847   0.00536337
6410.00   0.73219496   0.00519434
6412.00   0.70752960   0.00510129
6414.00   0.72647911   0.00520463
6416.00   0.76388812   0.00537475
6418.00   0.77165729   0.00534983
6420.00   0.76148438   0.00508275
6422.00   0.75874883   0.00514350
6424.00   0.75517201   0.00538471
6426.00   0.75246084   0.00570772
6428.00   0.75005716   0.00625969
6430.00   0.74903369   0.00671282
6432.00   0.75222826   0.00657604
6434.00   0.76076329   0.00587604
6436.00   0.76137817   0.00556344
6438.00   0.75549805   0.00537509
6440.00   0.75158715   0.00526743
6442.00   0.74977660   0.00532635
6444.00   0.74775583   0.00538514
6446.00   0.74368113   0.00525265
6448.00   0.73813522   0.00498067
6450.00   0.73490083   0.00495853
6452.00   0.73251146   0.00515763
6454.00   0.73160797   0.00526192
6456.00   0.73356634   0.00535750
6458.00   0.73463523   0.00539345
6460.00   0.73262227   0.00530798
6462.00   0.72886097   0.00514133
6464.00   0.72538280   0.00509605
6466.00   0.71904409   0.00514232
6468.00   0.71795505   0.00514660
6470.00   0.72296578   0.00515362
6472.00   0.72567552   0.00514259
6474.00   0.72403973   0.00510292
6476.00   0.71976584   0.00504628
6478.00   0.71275002   0.00499373
6480.00   0.69884986   0.00492075
6482.00   0.69536263   0.00489474
6484.00   0.69942284   0.00491580
6486.00   0.70403618   0.00492592
6488.00   0.71013755   0.00488967
6490.00   0.71610755   0.00487813
6492.00   0.71827567   0.00498671
6494.00   0.71821934   0.00517357
6496.00   0.71573973   0.00540730
6498.00   0.70787054   0.00581929
6500.00   0.70390511   0.00600428
6502.00   0.70332873   0.00600182
6504.00   0.70468086   0.00587978
6506.00   0.70806938   0.00561773
6508.00   0.71382773   0.00517520
6510.00   0.71498084   0.00501102
6512.00   0.71073431   0.00508407
6514.00   0.71125102   0.00509198
6516.00   0.71526819   0.00512074
6518.00   0.72046393   0.00511761
6520.00   0.72716832   0.00499440
6522.00   0.73470455   0.00482161
6524.00   0.73578799   0.00496819
6526.00   0.72836918   0.00549824
6528.00   0.72821623   0.00567688
6530.00   0.73120230   0.00572759
6532.00   0.73613691   0.00567398
6534.00   0.74483889   0.00543735
6536.00   0.75423193   0.00512583
6538.00   0.75585109   0.00509370
6540.00   0.75096917   0.00531471
6542.00   0.74841899   0.00533562
6544.00   0.74378371   0.00523209
6546.00   0.74204141   0.00519382
6548.00   0.74471366   0.00525351
6550.00   0.74837166   0.00533294
6552.00   0.74928951   0.00536283
6554.00   0.74922955   0.00537838
6556.00   0.74704546   0.00534574
6558.00   0.74083877   0.00523149
6560.00   0.73763126   0.00516941
6562.00   0.73780817   0.00517156
6564.00   0.73816609   0.00516950
6566.00   0.73575324   0.00507612
6568.00   0.73175406   0.00491776
6570.00   0.73397428   0.00506870
6572.00   0.74261039   0.00561460
6574.00   0.74836022   0.00579161
6576.00   0.75346231   0.00574553
6578.00   0.75762105   0.00560900
6580.00   0.76058531   0.00537427
6582.00   0.76252419   0.00505390
6584.00   0.76357496   0.00493755
6586.00   0.76340568   0.00489385
6588.00   0.76299119   0.00505439
6590.00   0.76298380   0.00554382
6592.00   0.76076841   0.00583971
6594.00   0.75430226   0.00587555
6596.00   0.74673557   0.00577018
6598.00   0.74432397   0.00558079
6600.00   0.74598098   0.00517628
6602.00   0.74526191   0.00498734
6604.00   0.74268740   0.00493466
6606.00   0.74263066   0.00490228
6608.00   0.74662828   0.00487284
6610.00   0.75098538   0.00489745
6612.00   0.75129151   0.00505138
6614.00   0.74862444   0.00534127
6616.00   0.74987340   0.00536679
6618.00   0.75468189   0.00507670
6620.00   0.75714982   0.00504940
6622.00   0.75851089   0.00531817
6624.00   0.75804079   0.00557980
6626.00   0.75374407   0.00569397
6628.00   0.74648619   0.00574423
6630.00   0.74635041   0.00562210
6632.00   0.75256461   0.00515399
6634.00   0.75626010   0.00498251
6636.00   0.75985265   0.00507443
6638.00   0.76263297   0.00515966
6640.00   0.76442242   0.00514970
6642.00   0.76525658   0.00510521
6644.00   0.76430118   0.00503475
6646.00   0.75881517   0.00488162
6648.00   0.75979477   0.00483216
6650.00   0.76658738   0.00486407
6652.00   0.77179915   0.00488981
6654.00   0.77430695   0.00489644
6656.00   0.77551550   0.00490031
6658.00   0.77617490   0.00490243
6660.00   0.77713883   0.00487979
6662.00   0.77263713   0.00494505
6664.00   0.76195091   0.00515683
6666.00   0.75261945   0.00522488
6668.00   0.74384874   0.00511361
6670.00   0.73613840   0.00495090
6672.00   0.73074210   0.00484989
6674.00   0.72697312   0.00475468
6676.00   0.72599548   0.00472850
6678.00   0.72628701   0.00457487
6680.00   0.73143566   0.00485029
6682.00   0.74362767   0.00575670
6684.00   0.75607401   0.00635249
6686.00   0.76448721   0.00618289
6688.00   0.77114588   0.00552164
6690.00   0.77792168   0.00520709
6692.00   0.78261894   0.00492849
6694.00   0.79033440   0.00480855
6696.00   0.80269665   0.00491429
6698.00   0.81195480   0.00501985
6700.00   0.81492782   0.00503844
6702.00   0.81437260   0.00504675
6704.00   0.81427681   0.00514800
6706.00   0.81405079   0.00530989
6708.00   0.81029570   0.00549096
6710.00   0.80092883   0.00581708
6712.00   0.79477894   0.00595160
6714.00   0.79188728   0.00581008
6716.00   0.79254109   0.00554838
6718.00   0.80104291   0.00538075
6720.00   0.82156855   0.00521404
6722.00   0.82210565   0.00508893
6724.00   0.80563599   0.00498809
6726.00   0.79361808   0.00493588
6728.00   0.78330320   0.00496035
6730.00   0.77635300   0.00499877
6732.00   0.77698803   0.00498704
6734.00   0.78393823   0.00494997
6736.00   0.78969783   0.00493903
6738.00   0.80238998   0.00495021
6740.00   0.80413055   0.00494225
6742.00   0.79277647   0.00491303
6744.00   0.78189123   0.00488660
6746.00   0.77954435   0.00487753
6748.00   0.78110695   0.00487756
6750.00   0.77925974   0.00487213
6752.00   0.77637208   0.00486867
6754.00   0.77314633   0.00485952
6756.00   0.76694375   0.00484029
6758.00   0.76434141   0.00482816
6760.00   0.77057928   0.00483496
6762.00   0.77931523   0.00484685
6764.00   0.77432609   0.00483035
6766.00   0.75522584   0.00478492
6768.00   0.74791086   0.00476208
6770.00   0.74687326   0.00474233
6772.00   0.74537343   0.00473725
6774.00   0.74437088   0.00469284
6776.00   0.74202377   0.00471221
6778.00   0.73293769   0.00499995
6780.00   0.71621859   0.00556037
6782.00   0.71030384   0.00566028
6784.00   0.71150792   0.00538564
6786.00   0.71319652   0.00524708
6788.00   0.71680850   0.00527620
6790.00   0.72076344   0.00529312
6792.00   0.72363287   0.00512836
6794.00   0.72642362   0.00481509
6796.00   0.72439110   0.00484019
6798.00   0.71435010   0.00527469
6800.00   0.71160060   0.00535856
6802.00   0.71513188   0.00501812
6804.00   0.71969897   0.00483940
6806.00   0.72430444   0.00530739
6808.00   0.72912300   0.00601221
6810.00   0.72599393   0.00597286
6812.00   0.71437746   0.00518250
6814.00   0.70584702   0.00482872
6816.00   0.69375443   0.00462478
6818.00   0.68737119   0.00454639
6820.00   0.69194579   0.00463447
6822.00   0.70094532   0.00482445
6824.00   0.70098549   0.00494228
6826.00   0.69479799   0.00507320
6828.00   0.69246209   0.00514398
6830.00   0.69186789   0.00518722
6832.00   0.69019485   0.00518044
6834.00   0.68596697   0.00510300
6836.00   0.68219912   0.00499392
6838.00   0.68331659   0.00489832
6840.00   0.68888247   0.00476929
6842.00   0.68958706   0.00478544
6844.00   0.68489289   0.00496966
6846.00   0.68563026   0.00507125
6848.00   0.69499129   0.00513705
6850.00   0.70249569   0.00514191
6852.00   0.69890159   0.00500607
6854.00   0.68803263   0.00473665
6856.00   0.68256485   0.00475709
6858.00   0.67983204   0.00492910
6860.00   0.67457914   0.00522852
6862.00   0.66369152   0.00580378
6864.00   0.65799141   0.00620341
6866.00   0.66534042   0.00626543
6868.00   0.67969859   0.00613446
6870.00   0.68226093   0.00596945
6872.00   0.67572457   0.00559523
6874.00   0.67390782   0.00536627
6876.00   0.67281401   0.00518682
6878.00   0.67235094   0.00506000
6880.00   0.67365694   0.00500079
6882.00   0.67487878   0.00499363
6884.00   0.67096412   0.00499729
6886.00   0.66014087   0.00504931
6888.00   0.65900218   0.00505439
6890.00   0.66766202   0.00503717
6892.00   0.67077905   0.00501170
6894.00   0.66556901   0.00497335
6896.00   0.65892291   0.00492991
6898.00   0.65768695   0.00488959
6900.00   0.65916324   0.00483979
6902.00   0.66149783   0.00484639
6904.00   0.66877908   0.00483176
6906.00   0.67019135   0.00496962
6908.00   0.66421092   0.00539651
6910.00   0.65805334   0.00568785
6912.00   0.65688604   0.00552562
6914.00   0.65823680   0.00503708
6916.00   0.65880883   0.00486257
6918.00   0.66222835   0.00486491
6920.00   0.66036099   0.00483441
6922.00   0.65157276   0.00483892
6924.00   0.64493370   0.00483051
6926.00   0.64517891   0.00477155
6928.00   0.64866489   0.00469293
6930.00   0.64827693   0.00468628
6932.00   0.64325595   0.00470789
6934.00   0.64530754   0.00479475
6936.00   0.65579516   0.00501335
6938.00   0.66124690   0.00513438
6940.00   0.65686512   0.00503907
6942.00   0.64940119   0.00491645
6944.00   0.64912003   0.00514868
6946.00   0.65440428   0.00575551
6948.00   0.65368855   0.00578629
6950.00   0.65089387   0.00527597
6952.00   0.64504784   0.00501241
6954.00   0.63051683   0.00515777
6956.00   0.61919522   0.00534228
6958.00   0.62735307   0.00520989
6960.00   0.65151232   0.00482810
6962.00   0.66112691   0.00484107
6964.00   0.66679299   0.00528536
6966.00   0.66657555   0.00538284
6968.00   0.65543926   0.00513345
6970.00   0.64612544   0.00485296
6972.00   0.64880997   0.00476527
6974.00   0.65841115   0.00476800
6976.00   0.66084880   0.00475634
6978.00   0.65980506   0.00479591
6980.00   0.65917218   0.00479115
6982.00   0.65591919   0.00468303
6984.00   0.65549135   0.00468679
6986.00   0.66183335   0.00498036
6988.00   0.67110872   0.00535384
6990.00   0.67269987   0.00530024
6992.00   0.66619736   0.00478274
6994.00   0.66738302   0.00459740
6996.00   0.67471087   0.00456837
6998.00   0.67924017   0.00457003
7000.00   0.67896813   0.00459736
7002.00   0.67682600   0.00464964
7004.00   0.67539936   0.00469003
7006.00   0.67156291   0.00474236
7008.00   0.67589843   0.00476049
7010.00   0.69130033   0.00474487
7012.00   0.69917989   0.00473850
7014.00   0.69803661   0.00469357
7016.00   0.69420707   0.00470562
7018.00   0.69149578   0.00492807
7020.00   0.68687576   0.00532753
7022.00   0.69305682   0.00535334
7024.00   0.71441048   0.00503584
7026.00   0.72392339   0.00486978
7028.00   0.72123629   0.00479953
7030.00   0.71878028   0.00477018
7032.00   0.72441465   0.00476919
7034.00   0.73386019   0.00480326
7036.00   0.73797250   0.00483351
7038.00   0.73873633   0.00489184
7040.00   0.74015772   0.00491674
7042.00   0.74258345   0.00490785
7044.00   0.74235404   0.00490919
7046.00   0.73619366   0.00493014
7048.00   0.72786295   0.00496602
7050.00   0.72816682   0.00503697
7052.00   0.73857915   0.00520916
7054.00   0.73804718   0.00519542
7056.00   0.72806436   0.00498750
7058.00   0.72245324   0.00484955
7060.00   0.72548270   0.00484484
7062.00   0.72971660   0.00487950
7064.00   0.72451448   0.00485241
7066.00   0.71013153   0.00478827
7068.00   0.70907408   0.00477627
7070.00   0.71781838   0.00480237
7072.00   0.72552526   0.00482469
7074.00   0.73335224   0.00483973
7076.00   0.74105281   0.00486410
7078.00   0.74766630   0.00490485
7080.00   0.75381809   0.00495356
7082.00   0.75737184   0.00506487
7084.00   0.75908488   0.00533917
7086.00   0.75880986   0.00538531
7088.00   0.75360268   0.00517202
7090.00   0.75080413   0.00496444
7092.00   0.75616521   0.00488867
7094.00   0.76611996   0.00488793
7096.00   0.76848948   0.00512679
7098.00   0.76473922   0.00585903
7100.00   0.76433212   0.00593479
7102.00   0.76428753   0.00542580
7104.00   0.76574993   0.00500059
7106.00   0.77244461   0.00487543
7108.00   0.77915746   0.00494398
7110.00   0.76975608   0.00531512
7112.00   0.73845261   0.00624091
7114.00   0.73300481   0.00629415
7116.00   0.74794543   0.00558907
7118.00   0.75723755   0.00507754
7120.00   0.75863361   0.00496000
7122.00   0.75660092   0.00500289
7124.00   0.75241548   0.00505235
7126.00   0.74444956   0.00522331
7128.00   0.73927808   0.00519671
7130.00   0.73652595   0.00498453
7132.00   0.73094612   0.00485214
7134.00   0.72024655   0.00479216
7136.00   0.71093470   0.00476524
7138.00   0.70976394   0.00475939
7140.00   0.71445644   0.00478362
7142.00   0.71117473   0.00479282
7144.00   0.70316684   0.00471541
7146.00   0.69493103   0.00482949
7148.00   0.68286580   0.00525045
7150.00   0.67368704   0.00550058
7152.00   0.67233068   0.00532380
7154.00   0.67540687   0.00488509
7156.00   0.67278272   0.00469274
7158.00   0.66626537   0.00456747
7160.00   0.66195202   0.00455009
7162.00   0.66143030   0.00456148
7164.00   0.65568316   0.00478981
7166.00   0.63785434   0.00544440
7168.00   0.61717135   0.00610357
7170.00   0.61457366   0.00603317
7172.00   0.62794328   0.00514764
7174.00   0.63210154   0.00502988
7176.00   0.63262087   0.00550004
7178.00   0.63572085   0.00574134
7180.00   0.64495414   0.00573991
7182.00   0.65298581   0.00561861
7184.00   0.64912289   0.00538698
7186.00   0.63459200   0.00494843
7188.00   0.63137192   0.00477724
7190.00   0.63581675   0.00482843
7192.00   0.63740158   0.00483224
7194.00   0.63456821   0.00480690
7196.00   0.63407916   0.00479269
7198.00   0.64237165   0.00481522
7200.00   0.65702116   0.00486545
7202.00   0.66299570   0.00486426
7204.00   0.66554737   0.00483243
7206.00   0.66418993   0.00478956
7208.00   0.65657318   0.00471564
7210.00   0.64896429   0.00464876
7212.00   0.64336234   0.00460517
7214.00   0.63885528   0.00457646
7216.00   0.63941628   0.00457129
7218.00   0.64914304   0.00460498
7220.00   0.64929301   0.00461551
7222.00   0.64068210   0.00459327
7224.00   0.63626701   0.00461528
7226.00   0.63842285   0.00465857
7228.00   0.64493674   0.00476821
7230.00   0.65664572   0.00508757
7232.00   0.67847967   0.00562835
7234.00   0.68682528   0.00592643
7236.00   0.68928558   0.00615290
7238.00   0.68493503   0.00629232
7240.00   0.66910672   0.00635129
7242.00   0.65142012   0.00633233
7244.00   0.64448458   0.00621550
7246.00   0.64367694   0.00597158
7248.00   0.64274693   0.00583496
7250.00   0.64550591   0.00568461
7252.00   0.64641088   0.00567183
7254.00   0.64517468   0.00591214
7256.00   0.64439559   0.00607653
7258.00   0.64582568   0.00590687
7260.00   0.64861751   0.00550669
7262.00   0.65161234   0.00529562
7264.00   0.65368438   0.00490832
7266.00   0.65980136   0.00509798
7268.00   0.67343158   0.00599557
7270.00   0.68258715   0.00660964
7272.00   0.68172723   0.00667770
7274.00   0.67493290   0.00648252
7276.00   0.66776109   0.00634365
7278.00   0.65548158   0.00609123
7280.00   0.64757556   0.00588765
7282.00   0.64158928   0.00567448
7284.00   0.63650692   0.00547989
7286.00   0.63107049   0.00530534
7288.00   0.62734061   0.00515694
7290.00   0.62942296   0.00505578
7292.00   0.63617128   0.00499210
7294.00   0.64526284   0.00499184
7296.00   0.66241473   0.00507944
7298.00   0.67279047   0.00515818
7300.00   0.67532682   0.00524988
7302.00   0.67422795   0.00532161
7304.00   0.67167234   0.00530623
7306.00   0.66530716   0.00520321
7308.00   0.66697890   0.00527151
7310.00   0.68081284   0.00551315
7312.00   0.68173301   0.00564049
7314.00   0.66668677   0.00570866
7316.00   0.65281254   0.00571250
7318.00   0.65180784   0.00561585
7320.00   0.65768814   0.00543170
7322.00   0.65892541   0.00532813
7324.00   0.66238499   0.00524977
7326.00   0.65862763   0.00519466
7328.00   0.64207315   0.00513684
7330.00   0.63350558   0.00514891
7332.00   0.64482033   0.00528038
7334.00   0.66495293   0.00547523
7336.00   0.66847336   0.00560354
7338.00   0.66148633   0.00571986
7340.00   0.65620476   0.00580875
7342.00   0.64753997   0.00594471
7344.00   0.63953424   0.00593507
7346.00   0.63180232   0.00567980
7348.00   0.62528914   0.00532367
7350.00   0.62288278   0.00513176
7352.00   0.62316680   0.00497346
7354.00   0.62743223   0.00503375
7356.00   0.63849509   0.00540871
7358.00   0.64669305   0.00560929
7360.00   0.65293163   0.00563383
7362.00   0.65696555   0.00560908
7364.00   0.65739989   0.00559395
7366.00   0.65465277   0.00553136
7368.00   0.65086609   0.00572181
7370.00   0.64382315   0.00635951
7372.00   0.63829434   0.00644920
7374.00   0.63327074   0.00598362
7376.00   0.62912488   0.00541342
7378.00   0.62682420   0.00501846
7380.00   0.62578726   0.00466953
7382.00   0.62166059   0.00453731
7384.00   0.61352086   0.00470927
7386.00   0.60948098   0.00477365
7388.00   0.60774016   0.00482481
7390.00   0.60747498   0.00489723
7392.00   0.60862654   0.00498748
7394.00   0.61114192   0.00510317
7396.00   0.61429322   0.00529501
7398.00   0.61765289   0.00561990
7400.00   0.62392050   0.00575274
7402.00   0.63570827   0.00582959
7404.00   0.64322823   0.00577105
7406.00   0.64507371   0.00549104
7408.00   0.64361900   0.00511731
7410.00   0.64033163   0.00490215
7412.00   0.63372344   0.00475983
7414.00   0.62874126   0.00466847
7416.00   0.62158436   0.00467402
7418.00   0.61902165   0.00467520
7420.00   0.62361634   0.00464000
7422.00   0.62820452   0.00466185
7424.00   0.62577504   0.00485499
7426.00   0.61893010   0.00518052
7428.00   0.61565900   0.00527017
7430.00   0.60968614   0.00513922
7432.00   0.61252320   0.00516218
7434.00   0.62793523   0.00534016
7436.00   0.64104313   0.00548251
7438.00   0.64357716   0.00550211
7440.00   0.64032531   0.00545279
7442.00   0.63602239   0.00536708
7444.00   0.62744129   0.00511164
7446.00   0.61975944   0.00508104
7448.00   0.60770929   0.00530261
7450.00   0.60169548   0.00541632
7452.00   0.60676640   0.00530170
7454.00   0.61728209   0.00508069
7456.00   0.62272906   0.00493835
7458.00   0.62867683   0.00476863
7460.00   0.62878525   0.00472242
7462.00   0.62071365   0.00474916
7464.00   0.61678833   0.00487199
7466.00   0.61904174   0.00513185
7468.00   0.62337130   0.00542264
7470.00   0.62625682   0.00562901
7472.00   0.63011175   0.00584228
7474.00   0.62917781   0.00584170
7476.00   0.62247789   0.00559601
7478.00   0.61861646   0.00541546
7480.00   0.61775243   0.00527793
7482.00   0.61723536   0.00516008
7484.00   0.61509156   0.00506596
7486.00   0.61209810   0.00499699
7488.00   0.61085469   0.00493196
7490.00   0.60977668   0.00480684
7492.00   0.61114383   0.00485270
7494.00   0.61561561   0.00511658
7496.00   0.62033051   0.00533816
7498.00   0.62432116   0.00542978
7500.00   0.62803167   0.00544869
7502.00   0.62937927   0.00532578
7504.00   0.62831014   0.00484476
7506.00   0.62751716   0.00477225
7508.00   0.62455797   0.00504236
7510.00   0.62401152   0.00526296
7512.00   0.62934709   0.00537562
7514.00   0.63581562   0.00543655
7516.00   0.63276237   0.00540338
7518.00   0.62059140   0.00520832
7520.00   0.61520523   0.00520600
7522.00   0.61039072   0.00530849
7524.00   0.61004621   0.00545459
7526.00   0.61805046   0.00572140
7528.00   0.62644744   0.00594432
7530.00   0.62376571   0.00588987
7532.00   0.61239284   0.00560126
7534.00   0.60930836   0.00545715
7536.00   0.61043519   0.00531902
7538.00   0.61148417   0.00524721
7540.00   0.61357284   0.00531385
7542.00   0.61545533   0.00534008
7544.00   0.61542517   0.00513721
7546.00   0.61412549   0.00475617
7548.00   0.61602360   0.00469694
7550.00   0.62132084   0.00492880
7552.00   0.62444103   0.00503212
7554.00   0.62777191   0.00512408
7556.00   0.62838668   0.00515179
7558.00   0.62408912   0.00505346
7560.00   0.61663347   0.00487841
7562.00   0.61116952   0.00483310
7564.00   0.60578769   0.00477251
7566.00   0.60063267   0.00494439
7568.00   0.59605318   0.00542615
7570.00   0.59096622   0.00573052
7572.00   0.58366865   0.00578877
7574.00   0.57684368   0.00571919
7576.00   0.57666332   0.00558803
7578.00   0.58320051   0.00526114
7580.00   0.58510685   0.00519091
7582.00   0.58831686   0.00536732
7584.00   0.58568060   0.00542771
7586.00   0.57397169   0.00521652
7588.00   0.56052548   0.00509027
7590.00   0.55282110   0.00543036
7592.00   0.54628450   0.00596462
7594.00   0.55100763   0.00701483
7596.00   0.57102698   0.00851719
7598.00   0.58357722   0.00968344
7600.00   0.59405470   0.01103710
7602.00   0.59785682   0.01182596
7604.00   0.58625585   0.01148933
7606.00   0.56280828   0.01027734
7608.00   0.56431633   0.00945287
7610.00   0.58916354   0.00840729
7612.00   0.60131818   0.00763876
7614.00   0.61076766   0.00716808
7616.00   0.61372256   0.00685142
7618.00   0.60665256   0.00664488
7620.00   0.59280902   0.00659827
7622.00   0.58168197   0.00668185
7624.00   0.56657463   0.00702988
7626.00   0.55888778   0.00718095
7628.00   0.55871910   0.00732115
7630.00   0.55629736   0.00732989
7632.00   0.54674989   0.00714044
7634.00   0.53763413   0.00684718
7636.00   0.54202938   0.00662483
7638.00   0.55820423   0.00637670
7640.00   0.56923008   0.00623915
7642.00   0.58421099   0.00624717
7644.00   0.59175515   0.00619187
7646.00   0.59023952   0.00603360
7648.00   0.58470929   0.00587916
7650.00   0.57907128   0.00583476
7652.00   0.57085800   0.00585693
7654.00   0.56649935   0.00594190
7656.00   0.56704825   0.00623388
7658.00   0.56258088   0.00627110
7660.00   0.55085653   0.00603810
7662.00   0.54124093   0.00575396
7664.00   0.54057539   0.00556607
7666.00   0.54531240   0.00540270
7668.00   0.54605997   0.00519851
7670.00   0.54623115   0.00490925
7672.00   0.54532641   0.00474333
7674.00   0.53938723   0.00466262
7676.00   0.53916895   0.00466017
7678.00   0.55148506   0.00475694
7680.00   0.56962430   0.00491973
7682.00   0.57701129   0.00503772
7684.00   0.57845843   0.00521640
7686.00   0.57897204   0.00521970
7688.00   0.57578617   0.00501074
7690.00   0.57248020   0.00489313
7692.00   0.57025677   0.00496340
7694.00   0.56713980   0.00507547
7696.00   0.55942756   0.00504222
7698.00   0.54431450   0.00488924
7700.00   0.54434621   0.00487451
7702.00   0.56011707   0.00488252
7704.00   0.56853938   0.00501885
7706.00   0.57088238   0.00529565
7708.00   0.56868726   0.00563049
7710.00   0.55933523   0.00599133
7712.00   0.54181725   0.00641353
7714.00   0.53907913   0.00658658
7716.00   0.55076718   0.00663791
7718.00   0.55395645   0.00655043
7720.00   0.54957968   0.00623990
7722.00   0.54559064   0.00588838
7724.00   0.54652631   0.00560795
7726.00   0.54984885   0.00534400
7728.00   0.55115694   0.00517353
7730.00   0.55032891   0.00510474
7732.00   0.55289698   0.00505823
7734.00   0.56037813   0.00508788
7736.00   0.56484163   0.00511061
7738.00   0.55967844   0.00502963
7740.00   0.55267608   0.00496403
7742.00   0.56496418   0.00525862
7744.00   0.60021865   0.00581835
7746.00   0.61317158   0.00632225
7748.00   0.61625600   0.00713951
7750.00   0.61305743   0.00744800
7752.00   0.60236824   0.00706595
7754.00   0.58651865   0.00638721
7756.00   0.56946832   0.00602251
7758.00   0.54706621   0.00575238
7760.00   0.53363812   0.00553108
7762.00   0.52273929   0.00542641
7764.00   0.52014416   0.00531633
7766.00   0.53034174   0.00519532
7768.00   0.54203027   0.00510579
7770.00   0.54417843   0.00505988
7772.00   0.54115790   0.00503830
7774.00   0.54293132   0.00523879
7776.00   0.54826450   0.00577770
7778.00   0.55046904   0.00599391
7780.00   0.54796350   0.00598708
7782.00   0.54796594   0.00589952
7784.00   0.55587941   0.00571585
7786.00   0.56817675   0.00545333
7788.00   0.57284093   0.00560740
7790.00   0.57271111   0.00630373
7792.00   0.57256055   0.00645224
7794.00   0.57028836   0.00623527
7796.00   0.56802565   0.00603363
7798.00   0.56652868   0.00596837
7800.00   0.56503469   0.00593578
7802.00   0.56237262   0.00584705
7804.00   0.55693108   0.00572069
7806.00   0.55714476   0.00561316
7808.00   0.56330669   0.00546272
7810.00   0.56713229   0.00539855
7812.00   0.56753588   0.00543288
7814.00   0.56681758   0.00554355
7816.00   0.56690621   0.00573331
7818.00   0.56714386   0.00602595
7820.00   0.56658250   0.00620405
7822.00   0.56441253   0.00645876
7824.00   0.56404161   0.00643620
7826.00   0.56480515   0.00602027
7828.00   0.56727362   0.00552722
7830.00   0.57266563   0.00526946
7832.00   0.58068734   0.00512525
7834.00   0.58639586   0.00508292
7836.00   0.59309751   0.00519892
7838.00   0.59551668   0.00531844
7840.00   0.59173554   0.00548083
7842.00   0.58942693   0.00565979
7844.00   0.59395283   0.00583095
7846.00   0.60142958   0.00601195
7848.00   0.60016578   0.00626208
7850.00   0.58847588   0.00667864
7852.00   0.58619702   0.00683435
7854.00   0.59404725   0.00685607
7856.00   0.59445417   0.00677153
7858.00   0.57935965   0.00652037
7860.00   0.55899847   0.00618138
7862.00   0.55130905   0.00601962
7864.00   0.54854637   0.00596268
7866.00   0.55414408   0.00592715
7868.00   0.57305980   0.00596467
7870.00   0.58771527   0.00600322
7872.00   0.59885448   0.00602055
7874.00   0.60611546   0.00606594
7876.00   0.60508424   0.00621891
7878.00   0.59519762   0.00649334
7880.00   0.59348541   0.00651024
7882.00   0.59629875   0.00629035
7884.00   0.59793633   0.00615294
7886.00   0.60022235   0.00608669
7888.00   0.60075343   0.00602384
7890.00   0.59701967   0.00592031
7892.00   0.59012908   0.00579350
7894.00   0.58337897   0.00571444
7896.00   0.57543385   0.00564595
7898.00   0.56698096   0.00563553
7900.00   0.55544764   0.00567798
7902.00   0.54703856   0.00575948
7904.00   0.54511476   0.00587598
7906.00   0.54720813   0.00602595
7908.00   0.54868662   0.00619473
7910.00   0.55001825   0.00620038
7912.00   0.55537623   0.00667121
7914.00   0.56781495   0.00778898
7916.00   0.57544154   0.00830552
7918.00   0.57563210   0.00798341
7920.00   0.57138127   0.00723681
7922.00   0.56445140   0.00667347
7924.00   0.55112845   0.00584321
7926.00   0.54533994   0.00563424
7928.00   0.54154617   0.00621653
7930.00   0.54336911   0.00642965
7932.00   0.55636537   0.00620796
7934.00   0.56865621   0.00586155
7936.00   0.56457269   0.00564132
7938.00   0.54824114   0.00540443
7940.00   0.54103172   0.00545124
7942.00   0.53097373   0.00587918
7944.00   0.53370053   0.00605870
7946.00   0.55521327   0.00606854
7948.00   0.57559490   0.00599054
7950.00   0.58092225   0.00580192
7952.00   0.57814437   0.00549342
7954.00   0.57404685   0.00549654
7956.00   0.55902755   0.00567066
7958.00   0.55686247   0.00599081
7960.00   0.56857055   0.00657131
7962.00   0.57667011   0.00703556
7964.00   0.57373482   0.00734506
7966.00   0.56535786   0.00752989
7968.00   0.55842388   0.00732962
7970.00   0.54710752   0.00653745
7972.00   0.54319149   0.00610082
7974.00   0.54600286   0.00575467
7976.00   0.54757464   0.00552495
7978.00   0.54591370   0.00541835
7980.00   0.54383862   0.00545700
7982.00   0.54466516   0.00569061
7984.00   0.54780173   0.00617491
7986.00   0.54962552   0.00641170
7988.00   0.55311942   0.00661497
7990.00   0.55276054   0.00665711
7992.00   0.54788828   0.00648922
7994.00   0.54073936   0.00623229
7996.00   0.53229100   0.00601768
7998.00   0.52088761   0.00578470
8000.00   0.51760852   0.00553153
8002.00   0.51889676   0.00507300
8004.00   0.52449220   0.00497890
8006.00   0.53935200   0.00535760
8008.00   0.55163294   0.00572485
8010.00   0.55131531   0.00582141
8012.00   0.54370308   0.00580424
8014.00   0.54852414   0.00591873
8016.00   0.56536204   0.00604284
8018.00   0.57294339   0.00628325
8020.00   0.57884133   0.00679873
8022.00   0.57724392   0.00705520
8024.00   0.56230271   0.00683217
8026.00   0.54051888   0.00633470
8028.00   0.53108698   0.00602706
8030.00   0.52938479   0.00574684
8032.00   0.52592736   0.00547509
8034.00   0.52365083   0.00516303
8036.00   0.52230996   0.00497585
8038.00   0.52299660   0.00495479
8040.00   0.52370924   0.00506201
8042.00   0.52012628   0.00528481
8044.00   0.51147664   0.00569517
8046.00   0.51121676   0.00583908
8048.00   0.51840973   0.00585260
8050.00   0.52311635   0.00580057
8052.00   0.52656764   0.00561997
8054.00   0.52802014   0.00542487
8056.00   0.52508807   0.00535421
8058.00   0.51810908   0.00535401
8060.00   0.51525497   0.00537862
8062.00   0.51319778   0.00550993
8064.00   0.51389825   0.00553360
8066.00   0.51903921   0.00548953
8068.00   0.52359796   0.00537888
8070.00   0.52404952   0.00512353
8072.00   0.52243912   0.00475606
8074.00   0.52405989   0.00479715
8076.00   0.52593470   0.00522354
8078.00   0.53176993   0.00548612
8080.00   0.54632217   0.00588598
8082.00   0.55422348   0.00601370
8084.00   0.54745072   0.00561906
8086.00   0.53457803   0.00493589
8088.00   0.53321093   0.00475595
8090.00   0.53861696   0.00488919
8092.00   0.54325223   0.00507843
8094.00   0.55276918   0.00543003
8096.00   0.55750519   0.00579951
8098.00   0.55592364   0.00633445
8100.00   0.55084348   0.00673604
8102.00   0.54458982   0.00651123
8104.00   0.53574294   0.00559948
8106.00   0.52695388   0.00529562
8108.00   0.51240104   0.00529070
8110.00   0.50722241   0.00543563
8112.00   0.51515454   0.00595578
8114.00   0.52422786   0.00632418
8116.00   0.52345848   0.00603160
8118.00   0.51709288   0.00517410
8120.00   0.51738572   0.00499211
8122.00   0.52304250   0.00540950
8124.00   0.52508062   0.00548463
8126.00   0.52278632   0.00527181
8128.00   0.52243519   0.00512049
8130.00   0.52886355   0.00524761
8132.00   0.53878492   0.00551181
8134.00   0.54017055   0.00564185
8136.00   0.53447378   0.00580072
8138.00   0.53116643   0.00578061
8140.00   0.52573532   0.00551089
8142.00   0.52328938   0.00532911
8144.00   0.52702743   0.00539340
8146.00   0.53295559   0.00553851
8148.00   0.53236729   0.00549660
8150.00   0.52609730   0.00530500
8152.00   0.52450830   0.00522617
8154.00   0.52777773   0.00519245
8156.00   0.52621925   0.00517443
8158.00   0.51669484   0.00515167
8160.00   0.50565177   0.00516555
8162.00   0.50057620   0.00529550
8164.00   0.49775982   0.00556441
8166.00   0.50072747   0.00556732
8168.00   0.51349419   0.00524266
8170.00   0.52027708   0.00517813
8172.00   0.52279794   0.00525250
8174.00   0.52162439   0.00558250
8176.00   0.51270276   0.00636243
8178.00   0.49616840   0.00740628
8180.00   0.50528520   0.00780253
8182.00   0.55077434   0.00790533
8184.00   0.56178647   0.00785001
8186.00   0.54084742   0.00743677
8188.00   0.52014893   0.00707084
8190.00   0.51396203   0.00702531
8192.00   0.51342797   0.00713528
8194.00   0.51292604   0.00709063
8196.00   0.51444429   0.00703250
8198.00   0.51810259   0.00685653
8200.00   0.52445006   0.00647057
8202.00   0.53188294   0.00617452
8204.00   0.54196370   0.00609048
8206.00   0.55195975   0.00610280
8208.00   0.55364776   0.00604085
8210.00   0.54473537   0.00591082
8212.00   0.54931211   0.00597450
8214.00   0.56760734   0.00631161
8216.00   0.57723200   0.00643510
8218.00   0.57593954   0.00628022
8220.00   0.56990653   0.00602785
8222.00   0.56370258   0.00586188
8224.00   0.55493724   0.00570208
8226.00   0.54664111   0.00556934
8228.00   0.53190374   0.00544374
8230.00   0.52908629   0.00537372
8232.00   0.54053593   0.00536261
8234.00   0.55472690   0.00539244
8236.00   0.56524330   0.00547841
8238.00   0.57565320   0.00561822
8240.00   0.57489133   0.00558387
8242.00   0.55915374   0.00536199
8244.00   0.55309713   0.00524059
8246.00   0.55592895   0.00510798
8248.00   0.55517012   0.00509082
8250.00   0.54183459   0.00530718
8252.00   0.52366537   0.00563355
8254.00   0.52468926   0.00572993
8256.00   0.54638213   0.00564943
8258.00   0.55332667   0.00567188
8260.00   0.55381602   0.00578234
8262.00   0.55396849   0.00579086
8264.00   0.55640388   0.00556564
8266.00   0.55737662   0.00529489
8268.00   0.55048507   0.00537974
8270.00   0.53604305   0.00565802
8272.00   0.52439487   0.00610747
8274.00   0.50760818   0.00672578
8276.00   0.49966171   0.00738225
8278.00   0.50137240   0.00828782
8280.00   0.50941771   0.00897041
8282.00   0.52391881   0.00890904
8284.00   0.54866666   0.00821939
8286.00   0.55260664   0.00804217
8288.00   0.53298193   0.00815184
8290.00   0.53003395   0.00813763
8292.00   0.54299265   0.00804966
8294.00   0.55859429   0.00792115
8296.00   0.57163525   0.00775455
8298.00   0.58502740   0.00754465
8300.00   0.58181155   0.00731064
8302.00   0.55673045   0.00702443
8304.00   0.54619950   0.00673940
8306.00   0.54414034   0.00638757
8308.00   0.54339308   0.00610432
8310.00   0.54261053   0.00598655
8312.00   0.54218078   0.00596766
8314.00   0.53749692   0.00587401
8316.00   0.52830017   0.00581055
8318.00   0.52166510   0.00562540
8320.00   0.51751137   0.00504726
8322.00   0.51012409   0.00492389
8324.00   0.49546397   0.00567950
8326.00   0.48022085   0.00652752
8328.00   0.47594452   0.00663647
8330.00   0.47834131   0.00627212
8332.00   0.48570949   0.00609887
8334.00   0.50444233   0.00544095
8336.00   0.51702315   0.00568931
8338.00   0.52293020   0.00709718
8340.00   0.52607995   0.00840553
8342.00   0.52888900   0.00901159
8344.00   0.53028309   0.00937937
8346.00   0.53016657   0.00926318
8348.00   0.52673703   0.00840004
8350.00   0.52577186   0.00778691
8352.00   0.52912688   0.00731845
8354.00   0.52988458   0.00689823
8356.00   0.52244467   0.00649250
8358.00   0.50984454   0.00612878
8360.00   0.50365436   0.00587208
8362.00   0.49804425   0.00576352
8364.00   0.49894223   0.00565569
8366.00   0.50908154   0.00562825
8368.00   0.51721406   0.00558029
8370.00   0.52027237   0.00539688
8372.00   0.52019060   0.00520401
8374.00   0.51496655   0.00541944
8376.00   0.50041133   0.00600081
8378.00   0.49519140   0.00638475
8380.00   0.49429944   0.00694540
8382.00   0.49600044   0.00711878
8384.00   0.50160140   0.00668637
8386.00   0.50863165   0.00601808
8388.00   0.51241428   0.00579599
8390.00   0.51542151   0.00575443
8392.00   0.51460016   0.00603367
8394.00   0.50794172   0.00673092
8396.00   0.50441289   0.00726101
8398.00   0.50212073   0.00779516
8400.00   0.50337911   0.00814019
8402.00   0.51350379   0.00806165
8404.00   0.53223091   0.00764375
8406.00   0.53491241   0.00719739
8408.00   0.52196264   0.00622660
8410.00   0.51808572   0.00582877
8412.00   0.52360147   0.00616184
8414.00   0.52623701   0.00652531
8416.00   0.51781845   0.00659678
8418.00   0.50323117   0.00657091
8420.00   0.49664268   0.00654364
8422.00   0.49290639   0.00623898
8424.00   0.49252301   0.00646014
8426.00   0.49853432   0.00727223
8428.00   0.50241399   0.00778542
8430.00   0.50086170   0.00783875
8432.00   0.49708906   0.00763362
8434.00   0.49570635   0.00724796
8436.00   0.49444076   0.00639817
8438.00   0.49538162   0.00586415
8440.00   0.49756941   0.00529754
8442.00   0.50194085   0.00513062
8444.00   0.51215506   0.00554394
8446.00   0.52123815   0.00618975
8448.00   0.51662380   0.00679349
8450.00   0.49846908   0.00763894
8452.00   0.49664828   0.00760422
8454.00   0.50896567   0.00641007
8456.00   0.51315993   0.00594110
8458.00   0.51026446   0.00638045
8460.00   0.50350851   0.00706937
8462.00   0.49244630   0.00777236
8464.00   0.47607952   0.00863877
8466.00   0.47171897   0.00855968
8468.00   0.47544825   0.00735861
8470.00   0.48120889   0.00671341
8472.00   0.49332020   0.00658323
8474.00   0.50405473   0.00644440
8476.00   0.50988388   0.00596668
8478.00   0.51271129   0.00530689
8480.00   0.51011294   0.00501728
8482.00   0.49731851   0.00496589
8484.00   0.49323866   0.00510962
8486.00   0.49292821   0.00551215
8488.00   0.49542931   0.00596020
8490.00   0.50204271   0.00654491
8492.00   0.51063651   0.00707077
8494.00   0.51499403   0.00701120
8496.00   0.51825052   0.00624839
8498.00   0.51727849   0.00613527
8500.00   0.51189244   0.00649118
8502.00   0.50541013   0.00668830
8504.00   0.49543175   0.00672437
8506.00   0.48655593   0.00665784
8508.00   0.48685947   0.00643945
8510.00   0.49508294   0.00601581
8512.00   0.49717268   0.00574840
8514.00   0.49641490   0.00554313
8516.00   0.49657214   0.00536241
8518.00   0.49791101   0.00521055
8520.00   0.49871379   0.00509992
8522.00   0.49697247   0.00504315
8524.00   0.49326861   0.00503945
8526.00   0.49533242   0.00504587
8528.00   0.50573391   0.00508177
8530.00   0.50770944   0.00513112
8532.00   0.50244319   0.00520477
8534.00   0.49620819   0.00528193
8536.00   0.49123454   0.00534778
8538.00   0.48629683   0.00541391
8540.00   0.48298830   0.00551425
8542.00   0.48276654   0.00568063
8544.00   0.47875747   0.00575791
8546.00   0.46779981   0.00577139
8548.00   0.46412519   0.00578360
8550.00   0.47377780   0.00583948
8552.00   0.48886436   0.00587413
8554.00   0.49633986   0.00574627
8556.00   0.50164431   0.00541801
8558.00   0.50321108   0.00525776
8560.00   0.50001991   0.00516929
8562.00   0.49648401   0.00512539
8564.00   0.49110776   0.00515574
8566.00   0.48657015   0.00520454
8568.00   0.48817009   0.00518656
8570.00   0.49592581   0.00511981
8572.00   0.49303204   0.00513975
8574.00   0.47826672   0.00519384
8576.00   0.47229668   0.00530648
8578.00   0.47539636   0.00555948
8580.00   0.47991225   0.00573820
8582.00   0.48069531   0.00566486
8584.00   0.48017499   0.00541667
8586.00   0.48289031   0.00534284
8588.00   0.49036831   0.00535195
8590.00   0.49257571   0.00536512
8592.00   0.48932591   0.00542026
8594.00   0.48710015   0.00546595
8596.00   0.48923171   0.00548396
8598.00   0.49314058   0.00548532
8600.00   0.49370974   0.00545926
8602.00   0.48882052   0.00536162
8604.00   0.49239668   0.00535861
8606.00   0.50558412   0.00539680
8608.00   0.51367533   0.00548762
8610.00   0.51200169   0.00563461
8612.00   0.50699300   0.00582473
8614.00   0.50746500   0.00602484
8616.00   0.51066911   0.00616247
8618.00   0.51308483   0.00661963
8620.00   0.51740915   0.00751007
8622.00   0.51888818   0.00797590
8624.00   0.51825768   0.00803948
8626.00   0.51457345   0.00791847
8628.00   0.50423062   0.00769403
8630.00   0.48582542   0.00721165
8632.00   0.48424950   0.00732510
8634.00   0.49990705   0.00819937
8636.00   0.50608605   0.00838275
8638.00   0.50533807   0.00791900
8640.00   0.50184542   0.00730379
8642.00   0.49537751   0.00680193
8644.00   0.48589286   0.00626857
8646.00   0.48877713   0.00625786
8648.00   0.50676018   0.00687583
8650.00   0.51340908   0.00716674
8652.00   0.51295871   0.00737390
8654.00   0.51127434   0.00751291
8656.00   0.50991172   0.00757617
8658.00   0.50797862   0.00757806
8660.00   0.50682205   0.00756120
8662.00   0.50719672   0.00751111
8664.00   0.50453550   0.00742185
8666.00   0.49785265   0.00726838
8668.00   0.49377742   0.00711953
8670.00   0.49360368   0.00698726
8672.00   0.49548715   0.00685661
8674.00   0.49821410   0.00671920
8676.00   0.50410181   0.00657917
8678.00   0.50384778   0.00643074
8680.00   0.49847856   0.00625779
8682.00   0.49364907   0.00611169
8684.00   0.48652169   0.00600852
8686.00   0.48223481   0.00591058
8688.00   0.48924929   0.00570756
8690.00   0.50666589   0.00534662
8692.00   0.50610030   0.00573082
8694.00   0.49002323   0.00684659
8696.00   0.48017877   0.00745472
8698.00   0.46750084   0.00799206
8700.00   0.46467212   0.00814056
8702.00   0.48609650   0.00748994
8704.00   0.52361667   0.00609435
8706.00   0.53249443   0.00552245
8708.00   0.52130502   0.00565302
8710.00   0.51342666   0.00557161
8712.00   0.49767894   0.00554049
8714.00   0.48774779   0.00550300
8716.00   0.49099782   0.00542298
8718.00   0.50010699   0.00533413
8720.00   0.49976075   0.00530454
8722.00   0.49141970   0.00531120
8724.00   0.49142522   0.00534853
8726.00   0.49719179   0.00544604
8728.00   0.50204873   0.00552118
8730.00   0.50701421   0.00558056
8732.00   0.50998902   0.00561167
8734.00   0.50456053   0.00556225
8736.00   0.48917970   0.00541212
8738.00   0.48682940   0.00538051
8740.00   0.49402571   0.00544324
8742.00   0.49934468   0.00546799
8744.00   0.50465518   0.00539097
8746.00   0.50828320   0.00538150
8748.00   0.50749087   0.00557830
8750.00   0.50340068   0.00589119
8752.00   0.49769232   0.00641725
8754.00   0.48940876   0.00716886
8756.00   0.47981626   0.00781620
8758.00   0.46648368   0.00840301
8760.00   0.45481810   0.00900824
8762.00   0.44558546   0.00981719
8764.00   0.43882510   0.01065784
8766.00   0.44905755   0.01057182
8768.00   0.48749289   0.00927285
8770.00   0.49962229   0.00879932
8772.00   0.49226028   0.00889497
8774.00   0.48674318   0.00893610
8776.00   0.49052659   0.00869832
8778.00   0.49640346   0.00839198
8780.00   0.49430060   0.00831865
8782.00   0.47863850   0.00820213
8784.00   0.48718566   0.00870925
8786.00   0.52724302   0.01036590
8788.00   0.54470569   0.01077879
8790.00   0.52507263   0.00936244
8792.00   0.49657977   0.00705883
8794.00   0.49314728   0.00616914
8796.00   0.50324559   0.00638811
8798.00   0.51116687   0.00623089
8800.00   0.53140849   0.00631219
8802.00   0.53500754   0.00624344
8804.00   0.51703835   0.00597168
8806.00   0.49608031   0.00569555
8808.00   0.48691034   0.00559769
8810.00   0.48285472   0.00560950
8812.00   0.47890756   0.00562654
8814.00   0.47576085   0.00541426
8816.00   0.47659436   0.00583381
8818.00   0.48711595   0.00631798
8820.00   0.49133760   0.00753683
8822.00   0.47450921   0.00973013
8824.00   0.44756272   0.01208508
8826.00   0.45507267   0.01338579
8828.00   0.50855911   0.01497806
8830.00   0.51572937   0.01476215
8832.00   0.48882264   0.01226728
8834.00   0.46558475   0.00983705
8836.00   0.45476812   0.00876820
8838.00   0.44857758   0.00843576
8840.00   0.44417334   0.00801685
8842.00   0.43757689   0.00799771
8844.00   0.45029858   0.00790029
8846.00   0.49296796   0.00795726
8848.00   0.51544583   0.00793069
8850.00   0.50774741   0.00781612
8852.00   0.49211106   0.00762893
8854.00   0.49149922   0.00730902
8856.00   0.49654508   0.00676298
8858.00   0.50465965   0.00664719
8860.00   0.52261090   0.00688862
8862.00   0.53211993   0.00711552
8864.00   0.53675354   0.00747688
8866.00   0.53384984   0.00772865
8868.00   0.51731884   0.00765448
8870.00   0.48888817   0.00734942
8872.00   0.47518495   0.00706848
8874.00   0.46668464   0.00628360
8876.00   0.46495506   0.00638203
8878.00   0.47463652   0.00732233
8880.00   0.48300534   0.00825485
8882.00   0.48493630   0.00908614
8884.00   0.48340982   0.00984497
8886.00   0.47673571   0.00990150
8888.00   0.46213090   0.00930201
8890.00   0.45109358   0.00874416
8892.00   0.43295446   0.00764178
8894.00   0.42781866   0.00685276
8896.00   0.44623917   0.00671358
8898.00   0.47349659   0.00705842
8900.00   0.48292407   0.00784765
8902.00   0.48465046   0.00943772
8904.00   0.48004249   0.00961413
8906.00   0.45954886   0.00858983
8908.00   0.45002943   0.00794330
8910.00   0.45697272   0.00776365
8912.00   0.46671459   0.00792364
8914.00   0.46488240   0.00855271
8916.00   0.45624399   0.00964930
8918.00   0.45173600   0.01007339
8920.00   0.44683275   0.01026536
8922.00   0.44457281   0.01019849
8924.00   0.44531947   0.00981923
8926.00   0.44716036   0.00922595
8928.00   0.44858575   0.00837256
8930.00   0.45029214   0.00713950
8932.00   0.45459375   0.00652549
8934.00   0.46221429   0.00637006
8936.00   0.46820325   0.00652238
8938.00   0.47938555   0.00730034
8940.00   0.48108786   0.00786236
8942.00   0.46266007   0.00795218
8944.00   0.43358251   0.00781190
8946.00   0.42114240   0.00766116
8948.00   0.41552460   0.00691008
8950.00   0.41609925   0.00731893
8952.00   0.42985314   0.00869985
8954.00   0.43779328   0.00971213
8956.00   0.43510625   0.01046155
8958.00   0.42823219   0.01091753
8960.00   0.42400742   0.01057237
8962.00   0.41814351   0.00925174
8964.00   0.41819420   0.00841716
8966.00   0.42318749   0.00757314
8968.00   0.42902455   0.00688747
8970.00   0.43689051   0.00640978
8972.00   0.44484216   0.00616611
8974.00   0.45084417   0.00621712
8976.00   0.45682928   0.00659325
8978.00   0.45395803   0.00683512
8980.00   0.43910393   0.00708553
8982.00   0.43113726   0.00735987
8984.00   0.42585146   0.00770524
8986.00   0.42588821   0.00799333
8988.00   0.43683335   0.00815127
8990.00   0.45593894   0.00822729
8992.00   0.45871836   0.00825055
8994.00   0.44669789   0.00801023
8996.00   0.44276905   0.00816927
8998.00   0.44146985   0.00877104
9000.00   0.44225827   0.00920554
9002.00   0.44630140   0.00933833
9004.00   0.45208973   0.00928193
9006.00   0.45345089   0.00894107
9008.00   0.44818190   0.00804076
9010.00   0.45281127   0.00754617
9012.00   0.46855360   0.00722540
9014.00   0.47798738   0.00702587
9016.00   0.47898272   0.00702026
9018.00   0.47428757   0.00709518
9020.00   0.46301648   0.00700282
9022.00   0.44053996   0.00680356
9024.00   0.43262628   0.00668430
9026.00   0.43278185   0.00656449
9028.00   0.43622178   0.00651538
9030.00   0.44469723   0.00651688
9032.00   0.45528024   0.00660286
9034.00   0.46478477   0.00683942
9036.00   0.47505012   0.00721282
9038.00   0.48208037   0.00740730
9040.00   0.48846516   0.00751390
9042.00   0.49019143   0.00760444
9044.00   0.48531136   0.00766026
9046.00   0.48033288   0.00769948
9048.00   0.47990164   0.00776042
9050.00   0.48141667   0.00781960
9052.00   0.47798195   0.00769197
9054.00   0.47030434   0.00735259
9056.00   0.46404964   0.00706530
9058.00   0.45700681   0.00667736
9060.00   0.45113423   0.00640029
9062.00   0.44705677   0.00635940
9064.00   0.44429943   0.00645423
9066.00   0.44279110   0.00649003
9068.00   0.44385010   0.00657241
9070.00   0.44249523   0.00657503
9072.00   0.44059435   0.00652046
9074.00   0.43710738   0.00645317
9076.00   0.42985800   0.00634987
9078.00   0.42288268   0.00625350
9080.00   0.42350832   0.00625259
9082.00   0.43126193   0.00631430
9084.00   0.43192527   0.00642211
9086.00   0.42550907   0.00662856
9088.00   0.42561477   0.00677813
9090.00   0.43570432   0.00686442
9092.00   0.44508958   0.00694439
9094.00   0.44263935   0.00703772
9096.00   0.43172285   0.00711831
9098.00   0.43460184   0.00738859
9100.00   0.44951048   0.00790051
9102.00   0.45840251   0.00821157
9104.00   0.46861765   0.00850749
9106.00   0.47067884   0.00858423
9108.00   0.45514458   0.00824754
9110.00   0.42827535   0.00758707
9112.00   0.41697714   0.00714409
9114.00   0.40701362   0.00664562
9116.00   0.41409829   0.00639672
9118.00   0.44598177   0.00643343
9120.00   0.47016627   0.00651200
9122.00   0.47804889   0.00651920
9124.00   0.47674957   0.00658049
9126.00   0.46783817   0.00693357
9128.00   0.44315645   0.00764843
9130.00   0.43338871   0.00791821
9132.00   0.43239981   0.00809094
9134.00   0.43094122   0.00796230
9136.00   0.42635655   0.00728384
9138.00   0.42392671   0.00641499
9140.00   0.43155771   0.00613411
9142.00   0.45061713   0.00626527
9144.00   0.45240927   0.00634944
9146.00   0.43343714   0.00653078
9148.00   0.43240544   0.00679850
9150.00   0.45169580   0.00718745
9152.00   0.47555780   0.00758529
9154.00   0.49472514   0.00791289
9156.00   0.51462024   0.00821452
9158.00   0.51900470   0.00849528
9160.00   0.50415772   0.00897124
9162.00   0.49962708   0.00895404
9164.00   0.50464106   0.00835562
9166.00   0.50554675   0.00771180
9168.00   0.49307504   0.00732356
9170.00   0.47385415   0.00704864
9172.00   0.46871340   0.00690454
9174.00   0.47074378   0.00683755
9176.00   0.47807276   0.00705117
9178.00   0.49957359   0.00778832
9180.00   0.51244986   0.00813778
9182.00   0.50917190   0.00783068
9184.00   0.49814284   0.00720761
9186.00   0.49011078   0.00688234
9188.00   0.47872460   0.00661609
9190.00   0.47340626   0.00648958
9192.00   0.47207904   0.00654078
9194.00   0.47236869   0.00661746
9196.00   0.47568762   0.00675424
9198.00   0.47935054   0.00688669
9200.00   0.47865722   0.00689063
9202.00   0.47424611   0.00678034
9204.00   0.47542125   0.00682874
9206.00   0.48267874   0.00700171
9208.00   0.48524180   0.00712600
9210.00   0.47971919   0.00710404
9212.00   0.47731987   0.00722062
9214.00   0.48784027   0.00776924
9216.00   0.50711000   0.00857233
9218.00   0.52025384   0.00881455
9220.00   0.53416955   0.00869423
9222.00   0.54290271   0.00860163
9224.00   0.54694062   0.00839965
9226.00   0.54844230   0.00820773
9228.00   0.54696947   0.00807528
9230.00   0.54337108   0.00798011
9232.00   0.54488432   0.00798558
9234.00   0.55609173   0.00823572
9236.00   0.55242330   0.00816131
9238.00   0.53967011   0.00765687
9240.00   0.52189380   0.00745315
9242.00   0.49338445   0.00791167
9244.00   0.46409637   0.00851686
9246.00   0.45971790   0.00854718
9248.00   0.47715360   0.00821813
9250.00   0.48455015   0.00791042
9252.00   0.49571332   0.00730706
9254.00   0.49898288   0.00693228
9256.00   0.49135748   0.00692903
9258.00   0.48017463   0.00703406
9260.00   0.47311810   0.00698192
9262.00   0.46705374   0.00687503
9264.00   0.46036109   0.00680608
9266.00   0.45231137   0.00672676
9268.00   0.44681269   0.00669486
9270.00   0.44310236   0.00668619
9272.00   0.44158021   0.00673863
9274.00   0.44346604   0.00689094
9276.00   0.44828466   0.00711925
9278.00   0.44974384   0.00732706
9280.00   0.44958439   0.00760939
9282.00   0.44918525   0.00775910
9284.00   0.44445941   0.00770966
9286.00   0.44517556   0.00777968
9288.00   0.45933715   0.00808614
9290.00   0.47937268   0.00852641
9292.00   0.48163831   0.00903604
9294.00   0.46220234   0.00949265
9296.00   0.46587753   0.01032951
9298.00   0.47996217   0.01125805
9300.00   0.50266463   0.01249564
9302.00   0.54624653   0.01407189
9304.00   0.58926570   0.01573137
9306.00   0.58424413   0.01720790
9308.00   0.53617638   0.01860276
9310.00   0.51298982   0.02008089
9312.00   0.49745291   0.02223764
9314.00   0.47780657   0.02311704
9316.00   0.44670108   0.02251620
9318.00   0.42136642   0.02140480
9320.00   0.42260620   0.02073490
9322.00   0.44492728   0.02008299
9324.00   0.45505849   0.01951610
9326.00   0.48033160   0.01947341
9328.00   0.46918717   0.01853424
9330.00   0.40101522   0.01594918
9332.00   0.34611735   0.01343613
9334.00   0.35731632   0.01313900
9336.00   0.40714854   0.01429482
9338.00   0.41928214   0.01440039
9340.00   0.40637636   0.01410959
9342.00   0.41407305   0.01415704
9344.00   0.44062895   0.01441000
9346.00   0.46053311   0.01472457
9348.00   0.46492222   0.01520001
9350.00   0.46043676   0.01567012
9352.00   0.45124748   0.01545291
9354.00   0.43065432   0.01452600
9356.00   0.41777989   0.01382233
9358.00   0.40173385   0.01267982
9360.00   0.39710945   0.01212848
9362.00   0.41064113   0.01174843
9364.00   0.43092924   0.01251918
9366.00   0.44191909   0.01618025
9368.00   0.45440364   0.02155740
9370.00   0.44588342   0.02409410
9372.00   0.40622851   0.02597417
9374.00   0.38716501   0.02692978
9376.00   0.39557090   0.02724819
9378.00   0.40682700   0.02661248
9380.00   0.39624608   0.02419646
9382.00   0.37036338   0.01932261
9384.00   0.37854031   0.01604721
9386.00   0.42257482   0.01348097
9388.00   0.44501743   0.01137375
9390.00   0.45504507   0.01061206
9392.00   0.45593730   0.01044290
9394.00   0.44165319   0.01020212
9396.00   0.41632310   0.01028551
9398.00   0.42428541   0.01111162
9400.00   0.47856483   0.01340955
9402.00   0.48422402   0.01373420
9404.00   0.45407423   0.01245876
9406.00   0.42061374   0.01122396
9408.00   0.38715178   0.01047423
9410.00   0.35490605   0.01012603
9412.00   0.35033217   0.01113946
9414.00   0.37912959   0.01372860
9416.00   0.38023853   0.01455628
9418.00   0.36097792   0.01459382
9420.00   0.35326350   0.01452241
9422.00   0.36291468   0.01439566
9424.00   0.37950018   0.01411755
9426.00   0.39268187   0.01358044
9428.00   0.40579095   0.01244983
9430.00   0.42414695   0.01267709
9432.00   0.46216729   0.01354522
9434.00   0.47097433   0.01517751
9436.00   0.44706622   0.01797683
9438.00   0.40956840   0.02029273
9440.00   0.36630642   0.02131641
9442.00   0.30873457   0.02176628
9444.00   0.30043620   0.02066928
9446.00   0.34016839   0.01607781
9448.00   0.36402494   0.01388620
9450.00   0.39240929   0.01468625
9452.00   0.40603295   0.01588314
9454.00   0.38416272   0.01645297
9456.00   0.34102100   0.01698650
9458.00   0.33835816   0.01719728
9460.00   0.37416482   0.01735260
9462.00   0.38178712   0.01694547
9464.00   0.36609831   0.01558430
9466.00   0.36360642   0.01452744
9468.00   0.38929802   0.01411185
9470.00   0.42677549   0.01425435
9472.00   0.44978637   0.01539684
9474.00   0.47850776   0.01765464
9476.00   0.47131073   0.01898636
9478.00   0.41795447   0.02065007
9480.00   0.38480559   0.02106806
9482.00   0.38006657   0.01984122
9484.00   0.38616982   0.01773880
9486.00   0.39027116   0.01578005
9488.00   0.40008280   0.01302486
9490.00   0.40109769   0.01162319
9492.00   0.39528108   0.01148387
9494.00   0.39082724   0.01199823
9496.00   0.38114566   0.01337652
9498.00   0.37894613   0.01496570
9500.00   0.40162703   0.01664596
9502.00   0.44426134   0.01856476
9504.00   0.44801426   0.01825533
9506.00   0.42182329   0.01526295
9508.00   0.40085778   0.01331633
9510.00   0.37344855   0.01169258
9512.00   0.35021520   0.01069352
9514.00   0.33333868   0.01074762
9516.00   0.32277328   0.01168192
9518.00   0.33824229   0.01293965
9520.00   0.39434806   0.01571225
9522.00   0.41795671   0.01602961
9524.00   0.42636111   0.01440590
9526.00   0.42979994   0.01282255
9528.00   0.42760542   0.01184478
9530.00   0.42229018   0.01115767
9532.00   0.42532855   0.01098753
9534.00   0.43616325   0.01157061
9536.00   0.43789074   0.01168213
9538.00   0.42962721   0.01155254
9540.00   0.42914769   0.01162098
9542.00   0.43868631   0.01182674
9544.00   0.45258424   0.01224725
9546.00   0.46850389   0.01310990
9548.00   0.49286291   0.01439354
9550.00   0.48791552   0.01499826
9552.00   0.44640684   0.01535317
9554.00   0.42841119   0.01542163
9556.00   0.43610054   0.01492594
9558.00   0.44508439   0.01451967
9560.00   0.43720764   0.01481516
9562.00   0.42051241   0.01552043
9564.00   0.41876209   0.01598183
9566.00   0.42934585   0.01675005
9568.00   0.43443567   0.01677135
9570.00   0.44174087   0.01608502
9572.00   0.44182724   0.01517504
9574.00   0.42772150   0.01414455
9576.00   0.40514126   0.01291255
9578.00   0.39050445   0.01201854
9580.00   0.37161553   0.01126333
9582.00   0.36987492   0.01086607
9584.00   0.38933659   0.01101733
9586.00   0.40118861   0.01114716
9588.00   0.39889058   0.01121335
9590.00   0.39005002   0.01122435
9592.00   0.37987930   0.01093887
9594.00   0.35995868   0.01014371
9596.00   0.35970932   0.01016154
9598.00   0.38004783   0.01083923
9600.00   0.39133996   0.01140112
9602.00   0.39232323   0.01199071
9604.00   0.38882786   0.01242121
9606.00   0.38399890   0.01234906
9608.00   0.37632027   0.01183313
9610.00   0.36690268   0.01163058
9612.00   0.34414169   0.01137145
9614.00   0.34309787   0.01145859
9616.00   0.36918563   0.01205758
9618.00   0.39671239   0.01258521
9620.00   0.41061819   0.01270691
9622.00   0.41873416   0.01261326
9624.00   0.41185960   0.01235102
9626.00   0.38104630   0.01171943
9628.00   0.36595780   0.01125677
9630.00   0.36227736   0.01088571
9632.00   0.35646194   0.01049063
9634.00   0.33975783   0.00994768
9636.00   0.32026955   0.00936402
9638.00   0.32042703   0.00919967
9640.00   0.34105188   0.00943656
9642.00   0.34959957   0.00962064
9644.00   0.35442537   0.00997404
9646.00   0.35931629   0.01023213
9648.00   0.36254123   0.01027467
9650.00   0.36744484   0.01030953
9652.00   0.38365746   0.01067865
9654.00   0.41579562   0.01130235
9656.00   0.42196429   0.01176765
9658.00   0.40712756   0.01236649
9660.00   0.39551759   0.01262774
9662.00   0.38044244   0.01238173
9664.00   0.37244475   0.01209824
9666.00   0.38978329   0.01232963
9668.00   0.42956525   0.01289438
9670.00   0.44366199   0.01307695
9672.00   0.44208193   0.01291662
9674.00   0.44309196   0.01306133
9676.00   0.44784084   0.01358991
9678.00   0.44602749   0.01401317
9680.00   0.42880726   0.01404742
9682.00   0.40089262   0.01385517
9684.00   0.38515937   0.01369737
9686.00   0.37043959   0.01336700
9688.00   0.36730441   0.01323702
9690.00   0.38442147   0.01328991
9692.00   0.39181808   0.01333389
9694.00   0.37491149   0.01331390
9696.00   0.34713408   0.01326658
9698.00   0.33406571   0.01317702
9700.00   0.32865146   0.01303706
9702.00   0.32157344   0.01289372
9704.00   0.31487384   0.01259125
9706.00   0.31070453   0.01252855
9708.00   0.30462918   0.01279418
9710.00   0.30484381   0.01323755
9712.00   0.33072194   0.01369148
9714.00   0.39037591   0.01414428
9716.00   0.39846101   0.01495417
9718.00   0.35861024   0.01636275
9720.00   0.34085944   0.01713149
9722.00   0.34581238   0.01742080
9724.00   0.35838485   0.01731130
9726.00   0.37089181   0.01656656
9728.00   0.38798118   0.01500320
9730.00   0.39729851   0.01480498
9732.00   0.39823002   0.01597063
9734.00   0.40572459   0.01633661
9736.00   0.42805117   0.01619651
9738.00   0.43807551   0.01589511
9740.00   0.41201708   0.01539049
9742.00   0.36434853   0.01471130
9744.00   0.35749546   0.01515531
9746.00   0.39219064   0.01706607
9748.00   0.39293048   0.01754047
9750.00   0.36813098   0.01746648
9752.00   0.34898141   0.01673212
9754.00   0.34586436   0.01471631
9756.00   0.34956554   0.01168302
9758.00   0.35067862   0.01033370
9760.00   0.35637540   0.01070463
9762.00   0.35241884   0.01052349
9764.00   0.33833268   0.01039784
9766.00   0.32785979   0.01060726
9768.00   0.31968182   0.01150312
9770.00   0.31640473   0.01231694
9772.00   0.32742229   0.01197111
9774.00   0.35574347   0.01044545
9776.00   0.36129773   0.01016774
9778.00   0.34511223   0.01010761
9780.00   0.34277225   0.01122096
9782.00   0.35134205   0.01358714
9784.00   0.36879060   0.01584361
9786.00   0.40314898   0.01749988
9788.00   0.45602515   0.01903685
9790.00   0.45386767   0.01936589
9792.00   0.38848525   0.01830594
9794.00   0.36489519   0.01786566
9796.00   0.37424114   0.01797846
9798.00   0.38593891   0.01785752
9800.00   0.38835278   0.01697771
9802.00   0.38765982   0.01558963
9804.00   0.37408993   0.01474430
9806.00   0.33081278   0.01408502
9808.00   0.32589018   0.01373452
9810.00   0.35833877   0.01393130
9812.00   0.37948218   0.01402240
9814.00   0.37128145   0.01376001
9816.00   0.35320377   0.01340805
9818.00   0.35510710   0.01340057
9820.00   0.37646917   0.01361196
9822.00   0.37195361   0.01388241
9824.00   0.34300643   0.01468466
9826.00   0.32558328   0.01475949
9828.00   0.32292077   0.01358577
9830.00   0.32750350   0.01208045
9832.00   0.33609450   0.01191580
9834.00   0.35316968   0.01274380
9836.00   0.35883701   0.01285079
9838.00   0.35181373   0.01229716
9840.00   0.35559899   0.01260405
9842.00   0.37122178   0.01396876
9844.00   0.38960522   0.01526291
9846.00   0.40558708   0.01589185
9848.00   0.42209843   0.01623362
9850.00   0.43094480   0.01626367
9852.00   0.43972296   0.01595505
9854.00   0.43286642   0.01543287
9856.00   0.40246701   0.01428819
9858.00   0.37708837   0.01335771
9860.00   0.37110376   0.01305808
9862.00   0.37521082   0.01325167
9864.00   0.37836283   0.01436993
9866.00   0.39038864   0.01657048
9868.00   0.39152905   0.01804993
9870.00   0.38473544   0.01977666
9872.00   0.37764168   0.02070094
9874.00   0.37243333   0.02063916
9876.00   0.36665499   0.01992424
9878.00   0.35718471   0.01881470
9880.00   0.34222537   0.01652835
9882.00   0.33501738   0.01542935
9884.00   0.32301775   0.01498476
9886.00   0.33104402   0.01509575
9888.00   0.37770617   0.01610198
9890.00   0.42351732   0.01721730
9892.00   0.41413382   0.01757584
9894.00   0.36088139   0.01758818
9896.00   0.34976804   0.01734877
9898.00   0.37098345   0.01660023
9900.00   0.36880228   0.01598149
9902.00   0.34206402   0.01507114
9904.00   0.31194088   0.01464637
9906.00   0.29071254   0.01538542
9908.00   0.27206954   0.01686155
9910.00   0.26226741   0.01882291
9912.00   0.26371461   0.02243010
9914.00   0.26162693   0.02346401
9916.00   0.25255385   0.02257483
9918.00   0.25410977   0.02128956
9920.00   0.27529079   0.02004356
9922.00   0.30938211   0.01859225
9924.00   0.34451282   0.01793865
9926.00   0.40591052   0.01826010
9928.00   0.42112714   0.01796175
9930.00   0.39519280   0.01697586
9932.00   0.37382829   0.01676854
9934.00   0.36409315   0.01756609
9936.00   0.35905263   0.01908403
9938.00   0.36092991   0.02137840
9940.00   0.37352228   0.02462239
9942.00   0.37493271   0.02656041
9944.00   0.38117614   0.02831685
9946.00   0.36495674   0.02921264
9948.00   0.30647823   0.02880768
9950.00   0.25015908   0.02826865
9952.00   0.25101185   0.02913507
9954.00   0.29344633   0.03098388
9956.00   0.30791149   0.03121957
9958.00   0.32048103   0.03050780
9960.00   0.32057983   0.02950826
9962.00   0.30391306   0.02779846
9964.00   0.28467023   0.02594054
9966.00   0.26997229   0.02442034
9968.00   0.25594747   0.02302385
9970.00   0.25855964   0.02193883
9972.00   0.27831933   0.02132904
9974.00   0.29548454   0.02065587
9976.00   0.31918398   0.02011434
9978.00   0.33807740   0.01957076
9980.00   0.34797639   0.01894325
9982.00   0.35169280   0.01829402
9984.00   0.34926608   0.01775255
9986.00   0.33121738   0.01717599
9988.00   0.33177871   0.01694454
9990.00   0.33892834   0.01683602
9992.00   0.35772356   0.01719720
9994.00   0.39851850   0.01814912
9996.00   0.44339985   0.01938405
9998.00   0.45795873   0.02049994
10000.00   0.45289078   0.02153229
10002.00   0.44383875   0.02305591
10004.00   0.42648581   0.02494803
10006.00   0.39910534   0.02677794
10008.00   0.35822663   0.02852752
10010.00   0.31154948   0.03032223
10012.00   0.25967443   0.03247284
10014.00   0.19269359   0.03505894
10016.00   0.20168628   0.03549630
10018.00   0.30271521   0.03433543
10020.00   0.35066506   0.03279923
10022.00   0.35953999   0.02994897
10024.00   0.35660157   0.02709961
10026.00   0.34969506   0.02561835
10028.00   0.33486429   0.02502108
10030.00   0.34195742   0.02396829
10032.00   0.38138020   0.02275958
10034.00   0.38432619   0.02195663
10036.00   0.35722035   0.02136006
10038.00   0.32964903   0.02123843
10040.00   0.30912340   0.02202523
10042.00   0.29109272   0.02314175
10044.00   0.28117827   0.02295413
10046.00   0.27439541   0.02110577
10048.00   0.28165853   0.02121341
10050.00   0.30694675   0.02271865
10052.00   0.32959184   0.02402781
10054.00   0.34624368   0.02517010
10056.00   0.36226541   0.02612063
10058.00   0.38334501   0.02646898
10060.00   0.41267619   0.02628490
10062.00   0.42032918   0.02628754
10064.00   0.41829473   0.02626605
10066.00   0.39888498   0.02617229
10068.00   0.34171230   0.02574787
10070.00   0.29305065   0.02556445
10072.00   0.30571565   0.02630622
10074.00   0.36307108   0.02771540
10076.00   0.37796542   0.02852766
10078.00   0.37984443   0.02916287
10080.00   0.36718023   0.02969816
10082.00   0.32064742   0.03039871
10084.00   0.28857222   0.03059738
10086.00   0.30362520   0.02976886
10088.00   0.34660053   0.02817235
10090.00   0.37443149   0.02697079
10092.00   0.41465336   0.02538708
10094.00   0.42615655   0.02463886
10096.00   0.41069221   0.02461666
10098.00   0.39317647   0.02492033
10100.00   0.37581727   0.02563585
10102.00   0.35985446   0.02652823
10104.00   0.36549109   0.02671769
10106.00   0.39725691   0.02630287
10108.00   0.40665996   0.02628650
10110.00   0.40673384   0.02607289
10112.00   0.40230593   0.02650148
10114.00   0.39095300   0.02769915
10116.00   0.37729761   0.02929147
10118.00   0.36779338   0.03102576
10120.00   0.35386491   0.03318974
10122.00   0.37039995   0.03439490
10124.00   0.44200015   0.03559194
10126.00   0.45988420   0.03549159
10128.00   0.41068271   0.03349632
10130.00   0.35165048   0.03108159
10132.00   0.32489082   0.02977235
10134.00   0.30976370   0.02896926
10136.00   0.31750038   0.02850290
10138.00   0.36559412   0.02879360
10140.00   0.38590112   0.02877912
10142.00   0.38093323   0.02835206
10144.00   0.37921718   0.02832379
10146.00   0.39990318   0.02907964
10148.00   0.42993790   0.03034867
10150.00   0.42812094   0.03200114
10152.00   0.39030606   0.03470180
10154.00   0.37975967   0.03606389
10156.00   0.39851442   0.03718590
10158.00   0.39275840   0.03720650
10160.00   0.32398123   0.03476550
10162.00   0.24287452   0.03151969
10164.00   0.26565114   0.03299624
10166.00   0.39631093   0.03786623
10168.00   0.43047565   0.04145286
10170.00   0.42804062   0.04659655
10172.00   0.39658496   0.04901822
10174.00   0.29140833   0.04841834
10176.00   0.20040473   0.04633976
10178.00   0.26909152   0.04402642
10180.00   0.48040631   0.04010660
10182.00   0.54327661   0.03896330
10184.00   0.54522192   0.04052379
10186.00   0.50444907   0.04125401
10188.00   0.37707010   0.04169749
10190.00   0.25834084   0.04171357
10192.00   0.23250817   0.04065452
10194.00   0.26160890   0.03860715
10196.00   0.28789371   0.03870256
10198.00   0.36951911   0.04116788
10200.00   0.38180050   0.04182121
10202.00   0.31411716   0.04056438
10204.00   0.26273656   0.04008755
10206.00   0.28004837   0.04222845
10208.00   0.32938024   0.04538697
10210.00   0.33893958   0.04583405
10212.00   0.31861538   0.04427799
10214.00   0.32263520   0.04317808
10216.00   0.33742675   0.04119421
10218.00   0.35669836   0.03993124
10220.00   0.38420159   0.03994859
10222.00   0.41300872   0.04069504
10224.00   0.42503032   0.04160310
10226.00   0.43710715   0.04343632
10228.00   0.40568462   0.04363535
10230.00   0.30714756   0.04289924
10232.00   0.25028956   0.04154022
10234.00   0.24728031   0.03895015
10236.00   0.26429349   0.03604501
10238.00   0.27260491   0.03441510
10240.00   0.28302208   0.03348610
10242.00   0.30724975   0.03361225
10244.00   0.36311695   0.03557490
10246.00   0.38354981   0.03654801
10248.00   0.36576885   0.03702380
10250.00   0.33913204   0.03694736
10252.00   0.31919071   0.03577420
10254.00   0.29749230   0.03358153
10256.00   0.29674271   0.03357129
10258.00   0.32574040   0.03592099
10260.00   0.33049595   0.03651380
10262.00   0.30830058   0.03565310
10264.00   0.29851088   0.03514075
10266.00   0.31805003   0.03579247
10268.00   0.35503370   0.03700414
10270.00   0.39746806   0.03807241
10272.00   0.47998205   0.03866372
10274.00   0.49683505   0.04078069
10276.00   0.43056279   0.04138980
10278.00   0.41734576   0.04675710
10280.00   0.51518112   0.05846918
10282.00   0.63908482   0.06994427
10284.00   0.65407211   0.07555477
10286.00   0.61413646   0.07986896
10288.00   0.51688421   0.07852142
10290.00   0.27689067   0.06838650
10292.00   0.14977571   0.06127308
10294.00   0.15936972   0.05923351
10296.00   0.22344276   0.05895853
10298.00   0.28732017   0.05794729
10300.00   0.39171380   0.05759323
10302.00   0.39801240   0.05561813
10304.00   0.30120239   0.05155788
10306.00   0.25876197   0.04866000
10308.00   0.24746321   0.04654901
10310.00   0.26197568   0.04527441
10312.00   0.31332520   0.04479476
10314.00   0.39647219   0.04517614
10316.00   0.44505018   0.04806389
10318.00   0.48586726   0.05554571
10320.00   0.50628716   0.05742500
10322.00   0.51532501   0.05581234
10324.00   0.49747673   0.05276847
10326.00   0.42857397   0.04761395
10328.00   0.33594429   0.04070752
10330.00   0.31629062   0.03935696
10332.00   0.35722104   0.04343227
10334.00   0.37332562   0.04551759
10336.00   0.39093378   0.04847839
10338.00   0.40784863   0.05035043
10340.00   0.43745452   0.05074240
10342.00   0.45574769   0.05048968
10344.00   0.40745375   0.05060791
10346.00   0.27653950   0.05081442
10348.00   0.25827435   0.05046375
10350.00   0.34807649   0.04916417
10352.00   0.37633383   0.04865661
10354.00   0.30756712   0.04864432
10356.00   0.24695696   0.04951092
10358.00   0.31123859   0.05220716
10360.00   0.47427255   0.05654113
10362.00   0.47629783   0.05773739
10364.00   0.35883856   0.05649533
10366.00   0.26131356   0.05610763
10368.00   0.11390100   0.05597723
10370.00   0.02621145   0.05615758
10372.00   0.09914602   0.05720401
10374.00   0.27624413   0.05874887
10376.00   0.32966664   0.05778903
10378.00   0.30698305   0.05375581
10380.00   0.31447035   0.05161741
10382.00   0.32494688   0.05043513
10384.00   0.33770469   0.04960009
10386.00   0.36755902   0.04881550
10388.00   0.39443946   0.04840298
10390.00   0.34568796   0.04905533
10392.00   0.18562494   0.05100410
10394.00   0.15488675   0.05221397
10396.00   0.21873498   0.05410999
10398.00   0.26934272   0.05441299
10400.00   0.29558372   0.05205457
10402.00   0.31476507   0.04879304
10404.00   0.32815906   0.04762049
10406.00   0.32664645   0.04732515
10408.00   0.35768926   0.04852655
10410.00   0.44947612   0.05163945
10412.00   0.47138783   0.05438574
10414.00   0.39215806   0.05707447
10416.00   0.30874774   0.05956686
10418.00   0.31830415   0.06206999
10420.00   0.38911897   0.06490419
10422.00   0.36411947   0.06330247
10424.00   0.21269932   0.05522766
10426.00   0.19883280   0.05092251
10428.00   0.35062304   0.05022204
10430.00   0.47304749   0.05023916
10432.00   0.44970378   0.04947130
10434.00   0.34929478   0.04877743
10436.00   0.29639882   0.04907789
10438.00   0.22924823   0.05168516
10440.00   0.20694964   0.05108151
10442.00   0.22053932   0.04657631
10444.00   0.25104871   0.04360837
10446.00   0.31575406   0.04511508
10448.00   0.38608053   0.04828416
10450.00   0.35931227   0.04890202
10452.00   0.21353641   0.04834574
10454.00   0.19391169   0.04783413
10456.00   0.26355690   0.04566642
10458.00   0.31402773   0.04562355
10460.00   0.34987199   0.04850124
10462.00   0.36328229   0.05242988
10464.00   0.30723906   0.05613541
10466.00   0.16372497   0.06106222
10468.00   0.15983620   0.06132612
10470.00   0.30650982   0.05688849
10472.00   0.34935659   0.05377435
10474.00   0.25780529   0.05195271
10476.00   0.16686948   0.05029947
10478.00   0.19239187   0.04803744
10480.00   0.28934067   0.04536850
10482.00   0.30578277   0.04398515
10484.00   0.26583940   0.04342877
10486.00   0.25608513   0.04370977
10488.00   0.25829121   0.04527475
10490.00   0.27324241   0.04690532
10492.00   0.31050542   0.04841992
10494.00   0.36195517   0.04981671
10496.00   0.38020989   0.04907729
10498.00   0.37424031   0.04488975
10500.00   0.37086418   0.04376635
10502.00   0.36505818   0.04498788
10504.00   0.34982321   0.04583054
10506.00   0.31374225   0.04546793
10508.00   0.27352539   0.04482104
10510.00   0.27279630   0.04512386
10512.00   0.31709740   0.04622883
10514.00   0.31142902   0.04669834
10516.00   0.26102298   0.04678999
10518.00   0.23541339   0.04706279
10520.00   0.24438000   0.04735847
10522.00   0.26504049   0.04795521
10524.00   0.27763075   0.04943619
10526.00   0.29196280   0.05176176
10528.00   0.29862025   0.05305519
10530.00   0.28646913   0.05459557
10532.00   0.29913586   0.05445485
10534.00   0.35720125   0.05187874
10536.00   0.39996558   0.04900653
10538.00   0.36781034   0.04774271
10540.00   0.28397655   0.04729191
10542.00   0.27554443   0.04736513
10544.00   0.33546597   0.04875520
10546.00   0.34685597   0.04920383
10548.00   0.32768002   0.04898801
10550.00   0.29804447   0.04871331
10552.00   0.25319567   0.04857270
10554.00   0.20121807   0.04846589
10556.00   0.20999849   0.04860620
10558.00   0.30625743   0.04889248
10560.00   0.31621677   0.04939814
10562.00   0.26078504   0.04969332
10564.00   0.22369848   0.05087993
10566.00   0.22131014   0.05375625
10568.00   0.23743536   0.05688675
10570.00   0.27042064   0.05784255
10572.00   0.33714682   0.05736163
10574.00   0.36440635   0.05696255
10576.00   0.37406352   0.05577213
10578.00   0.36830613   0.05493923
10580.00   0.34081939   0.05450709
10582.00   0.30432993   0.05431968
10584.00   0.27110136   0.05434712
10586.00   0.22788565   0.05461873
10588.00   0.23420331   0.05501454
10590.00   0.30620944   0.05600068
10592.00   0.33366504   0.05623217
10594.00   0.32140234   0.05556047
10596.00   0.29665118   0.05481302
10598.00   0.26638043   0.05448487
10600.00   0.22547114   0.05432200
10602.00   0.23605368   0.05479170
10604.00   0.30888826   0.05620931
10606.00   0.33929953   0.05696373
10608.00   0.35274002   0.05752344
10610.00   0.34693441   0.05769526
10612.00   0.31302828   0.05723647
10614.00   0.26039812   0.05637668
10616.00   0.22656089   0.05596439
10618.00   0.19386862   0.05576507
10620.00   0.17608094   0.05552842
10622.00   0.16116001   0.05507751
10624.00   0.17131181   0.05511701
10626.00   0.22172514   0.05595041
10628.00   0.28836697   0.05709758
10630.00   0.32819933   0.05786144
10632.00   0.35833108   0.05862611
10634.00   0.37876979   0.05891408
10636.00   0.39815569   0.05887627
10638.00   0.39079821   0.05852889
10640.00   0.34163356   0.05770006
10642.00   0.28585857   0.05672394
10644.00   0.26333016   0.05600061
10646.00   0.25990999   0.05534526
10648.00   0.24523814   0.05487162
10650.00   0.21988380   0.05464594
10652.00   0.21323247   0.05436315
10654.00   0.22876154   0.05414864
10656.00   0.24653168   0.05382290
10658.00   0.25134179   0.05310905
10660.00   0.25094464   0.05213085
10662.00   0.27151313   0.05202984
10664.00   0.31852186   0.05298097
10666.00   0.34411171   0.05312598
10668.00   0.36724401   0.05291053
10670.00   0.36927915   0.05238237
10672.00   0.33276242   0.05139120
10674.00   0.27618349   0.05009843
10676.00   0.25416374   0.04924415
10678.00   0.23405097   0.04838329
10680.00   0.26146817   0.04820066
10682.00   0.35941797   0.04901496
10684.00   0.42424411   0.04936568
10686.00   0.44758403   0.04919546
10688.00   0.43819079   0.04853322
10690.00   0.37701446   0.04689544
10692.00   0.24429032   0.04387760
10694.00   0.18226837   0.04195286
10696.00   0.13752988   0.04029477
10698.00   0.13635863   0.03927635
10700.00   0.20399989   0.03927627
10702.00   0.28118327   0.03953947
10704.00   0.30695340   0.03932897
10706.00   0.30697039   0.03900781
10708.00   0.30132949   0.03824963
10710.00   0.27262840   0.03669428
10712.00   0.25489694   0.03571565
10714.00   0.24050261   0.03528063
10716.00   0.23308580   0.03495924
10718.00   0.23630497   0.03459633
10720.00   0.24812894   0.03426974
10722.00   0.26460987   0.03351432
10724.00   0.30489880   0.03230504
10726.00   0.31008744   0.03116277
10728.00   0.27593452   0.02970656
10730.00   0.25470018   0.02854744
10732.00   0.27260154   0.02807651
10734.00   0.30304211   0.02796927
10736.00   0.29183802   0.02746871
10738.00   0.24529879   0.02654340
10740.00   0.21775690   0.02637833
10742.00   0.17794785   0.02703552
10744.00   0.16833374   0.02734330
10746.00   0.20816332   0.02719532
10748.00   0.26244169   0.02678286
10750.00   0.28237930   0.02613261
10752.00   0.28954506   0.02511955
10754.00   0.27546638   0.02422780
10756.00   0.21889542   0.02313937
10758.00   0.19234481   0.02233363
10760.00   0.19902514   0.02188321
10762.00   0.21556932   0.02160199
10764.00   0.22893299   0.02137599
10766.00   0.24787302   0.02129444
10768.00   0.23877832   0.02097195
10770.00   0.19213445   0.02014960
10772.00   0.17405319   0.02003602
10774.00   0.17946963   0.02080957
10776.00   0.18889904   0.02144035
10778.00   0.19239925   0.02141423
10780.00   0.19584824   0.02104926
10782.00   0.20761114   0.02072693
10784.00   0.23331514   0.01996802
10786.00   0.24424963   0.01989921
10788.00   0.25490108   0.02059611
10790.00   0.24734485   0.02102691
10792.00   0.20158979   0.02094837
10794.00   0.14416602   0.02057849
10796.00   0.14309278   0.01991514
10798.00   0.17538297   0.01804568
10800.00   0.22906019   0.01850029
10802.00   0.34897348   0.02161103
10804.00   0.41608509   0.02290661
10806.00   0.40960097   0.02195504
10808.00   0.37178805   0.02015760
10810.00   0.34350488   0.01916600
10812.00   0.30697513   0.01843216
10814.00   0.26631147   0.01730944
10816.00   0.18517439   0.01524516
10818.00   0.17068480   0.01435209
10820.00   0.24883792   0.01520696
10822.00   0.33194160   0.01628522
10824.00   0.35057691   0.01658747
10826.00   0.33698881   0.01662621
10828.00   0.30534169   0.01651754
10830.00   0.23970070   0.01604942
10832.00   0.17596281   0.01575894
10834.00   0.07109219   0.01567429
10836.00   0.01461010   0.01545362
10838.00   0.07052485   0.01471084
10840.00   0.19357787   0.01369239
10842.00   0.25126222   0.01387473
10844.00   0.29685333   0.01575072
10846.00   0.31092995   0.01579411
10848.00   0.27726546   0.01441949
10850.00   0.25539553   0.01320407
10852.00   0.26665005   0.01275009
10854.00   0.28634101   0.01258329
10856.00   0.27911612   0.01217839
10858.00   0.26301098   0.01159550
10860.00   0.21927488   0.01142416
