# File created by shivutils (I.Shivvers)
# wl(A)   flm    er(optional)
3650.00   0.35787958   0.04063562
3652.00   0.43726438   0.03811957
3654.00   0.39710617   0.03534862
3656.00   0.39775962   0.03278107
3658.00   0.42742890   0.02999484
3660.00   0.39298773   0.03103258
3662.00   0.38561592   0.03312924
3664.00   0.43401223   0.03197400
3666.00   0.45779869   0.02896564
3668.00   0.42298818   0.02726922
3670.00   0.43235496   0.02727438
3672.00   0.41792649   0.02704786
3674.00   0.43270254   0.02701379
3676.00   0.40607703   0.02666297
3678.00   0.41427773   0.02616905
3680.00   0.44743532   0.02622707
3682.00   0.43492237   0.02579562
3684.00   0.41068700   0.02538487
3686.00   0.39159673   0.02472037
3688.00   0.38252756   0.02487101
3690.00   0.36179280   0.02478918
3692.00   0.38283277   0.02525616
3694.00   0.38861594   0.02511328
3696.00   0.38803062   0.02525915
3698.00   0.37342694   0.02530798
3700.00   0.39388096   0.02548135
3702.00   0.36517194   0.02506277
3704.00   0.36950797   0.02463470
3706.00   0.32051906   0.02376835
3708.00   0.42169794   0.02491472
3710.00   0.41375062   0.02454444
3712.00   0.45471382   0.02531908
3714.00   0.42911655   0.02476884
3716.00   0.43988723   0.02458027
3718.00   0.40209806   0.02426414
3720.00   0.43358514   0.02432301
3722.00   0.43954709   0.02463928
3724.00   0.42094520   0.02397060
3726.00   0.38432226   0.02354605
3728.00   0.35151824   0.02315767
3730.00   0.38250595   0.02371504
3732.00   0.43220463   0.02428540
3734.00   0.40647665   0.02408110
3736.00   0.40339178   0.02411551
3738.00   0.38526732   0.02413620
3740.00   0.38840023   0.02417023
3742.00   0.40882859   0.02412106
3744.00   0.41417611   0.02367856
3746.00   0.46424031   0.02389973
3748.00   0.42308277   0.02340582
3750.00   0.44637582   0.02370408
3752.00   0.45869240   0.02401106
3754.00   0.40572104   0.02316132
3756.00   0.43872839   0.02320626
3758.00   0.47368780   0.02331227
3760.00   0.49568701   0.02365508
3762.00   0.48743474   0.02335032
3764.00   0.47485545   0.02283871
3766.00   0.44494948   0.02247884
3768.00   0.47828501   0.02275783
3770.00   0.48066992   0.02300140
3772.00   0.52915239   0.02370977
3774.00   0.50063580   0.02324284
3776.00   0.56264955   0.02421065
3778.00   0.57777512   0.02380301
3780.00   0.54359680   0.02321922
3782.00   0.58736646   0.02397391
3784.00   0.56866151   0.02368673
3786.00   0.56879574   0.02356827
3788.00   0.56135923   0.02358370
3790.00   0.57593912   0.02378874
3792.00   0.59113103   0.02372743
3794.00   0.54025704   0.02299294
3796.00   0.58790386   0.02319414
3798.00   0.61675864   0.02355804
3800.00   0.57122606   0.02286635
3802.00   0.57351673   0.02323417
3804.00   0.54714429   0.02262313
3806.00   0.52857625   0.02223954
3808.00   0.55199182   0.02251884
3810.00   0.50568122   0.02174188
3812.00   0.51497674   0.02201248
3814.00   0.53911543   0.02242351
3816.00   0.54860806   0.02232006
3818.00   0.55805510   0.02215165
3820.00   0.55101538   0.02211588
3822.00   0.57295549   0.02228708
3824.00   0.55452359   0.02194275
3826.00   0.48115784   0.02136339
3828.00   0.50106561   0.02189288
3830.00   0.45638171   0.02144589
3832.00   0.49506548   0.02165142
3834.00   0.50592095   0.02156220
3836.00   0.53087419   0.02182533
3838.00   0.51147634   0.02122349
3840.00   0.49833986   0.02134511
3842.00   0.47449166   0.02069290
3844.00   0.45544735   0.02042167
3846.00   0.46920016   0.02031038
3848.00   0.49103028   0.02047331
3850.00   0.52937347   0.02076583
3852.00   0.54485470   0.02098568
3854.00   0.51650923   0.02053399
3856.00   0.44869253   0.01952799
3858.00   0.41205564   0.01886136
3860.00   0.44252867   0.01920624
3862.00   0.48531169   0.02015692
3864.00   0.49726078   0.01997274
3866.00   0.47490403   0.01949912
3868.00   0.45996270   0.01919872
3870.00   0.42155692   0.01881418
3872.00   0.41365829   0.01904270
3874.00   0.40245229   0.01913016
3876.00   0.46524349   0.01964352
3878.00   0.46598449   0.01928699
3880.00   0.47115564   0.01910803
3882.00   0.44281083   0.01864471
3884.00   0.45534876   0.01884702
3886.00   0.47326872   0.01911777
3888.00   0.47922176   0.01898751
3890.00   0.44847658   0.01851528
3892.00   0.45356134   0.01886830
3894.00   0.45526963   0.01901711
3896.00   0.45364413   0.01891187
3898.00   0.46648350   0.01908855
3900.00   0.47951174   0.01925173
3902.00   0.49949446   0.01963524
3904.00   0.48841998   0.02019357
3906.00   0.52771097   0.02201594
3908.00   0.55971968   0.02294010
3910.00   0.48750022   0.02243882
3912.00   0.47696996   0.02207104
3914.00   0.48302782   0.02102344
3916.00   0.46459255   0.01971329
3918.00   0.43464944   0.01893098
3920.00   0.41315132   0.01821904
3922.00   0.43528795   0.01824031
3924.00   0.41011912   0.01776229
3926.00   0.43169639   0.01796543
3928.00   0.43735790   0.01780891
3930.00   0.45695177   0.01824890
3932.00   0.46060967   0.01881764
3934.00   0.46135026   0.01865770
3936.00   0.54030901   0.01876616
3938.00   0.50876695   0.01847418
3940.00   0.48586160   0.01839022
3942.00   0.44740042   0.01858374
3944.00   0.45469335   0.01887158
3946.00   0.44924322   0.01823885
3948.00   0.47415280   0.01831549
3950.00   0.44136417   0.01767918
3952.00   0.41347659   0.01723998
3954.00   0.45321178   0.01761612
3956.00   0.45124367   0.01745770
3958.00   0.46045899   0.01774775
3960.00   0.46952137   0.01850466
3962.00   0.44625875   0.01795373
3964.00   0.45315668   0.01731989
3966.00   0.45723936   0.01706201
3968.00   0.48398381   0.01735113
3970.00   0.49346986   0.01739297
3972.00   0.51751149   0.01798822
3974.00   0.53671974   0.01808553
3976.00   0.54072613   0.01800557
3978.00   0.54488432   0.01811686
3980.00   0.58503592   0.01848311
3982.00   0.55344230   0.01816434
3984.00   0.58118409   0.01817420
3986.00   0.56811190   0.01822323
3988.00   0.57755011   0.01835911
3990.00   0.62075114   0.01864281
3992.00   0.62178153   0.01869700
3994.00   0.62626511   0.01923336
3996.00   0.63565177   0.01978035
3998.00   0.61538047   0.01919885
4000.00   0.63798225   0.01877876
4002.00   0.63076341   0.01869966
4004.00   0.64962381   0.01874356
4006.00   0.67362928   0.01922548
4008.00   0.66602612   0.01932410
4010.00   0.67232883   0.01941640
4012.00   0.69228458   0.01952820
4014.00   0.62750065   0.01882548
4016.00   0.65221810   0.01933225
4018.00   0.65811139   0.02041452
4020.00   0.73781705   0.02216616
4022.00   0.71613806   0.02211349
4024.00   0.72271466   0.02168436
4026.00   0.74528748   0.02082456
4028.00   0.73749292   0.02053552
4030.00   0.74232745   0.02033643
4032.00   0.73631412   0.02011510
4034.00   0.76617283   0.02020079
4036.00   0.77152026   0.02005593
4038.00   0.78658283   0.02012270
4040.00   0.79303128   0.02025399
4042.00   0.80324429   0.02134756
4044.00   0.79805273   0.02807737
4046.00   0.82726157   0.03156545
4048.00   0.84688622   0.02760366
4050.00   0.80466509   0.02168091
4052.00   0.76202565   0.02058077
4054.00   0.76190466   0.02064584
4056.00   0.72982043   0.02004871
4058.00   0.75656289   0.01958966
4060.00   0.75692630   0.01932487
4062.00   0.65104932   0.01842884
4064.00   0.59533203   0.01788974
4066.00   0.63283163   0.01824080
4068.00   0.72473556   0.01898793
4070.00   0.78273845   0.01921926
4072.00   0.79930454   0.01930203
4074.00   0.77218914   0.01957781
4076.00   0.80484635   0.02100556
4078.00   0.82893640   0.02142824
4080.00   0.81076360   0.02070635
4082.00   0.80981153   0.02042531
4084.00   0.78066617   0.02003097
4086.00   0.80243725   0.02000785
4088.00   0.78007120   0.01929794
4090.00   0.78034627   0.01877577
4092.00   0.75826490   0.01852707
4094.00   0.69923043   0.01805645
4096.00   0.68637401   0.01782222
4098.00   0.63284290   0.01739340
4100.00   0.59167659   0.01691398
4102.00   0.59503907   0.01667554
4104.00   0.64630240   0.01712814
4106.00   0.67034751   0.01753591
4108.00   0.71138769   0.01782851
4110.00   0.72150284   0.01798380
4112.00   0.72040921   0.01786270
4114.00   0.70300376   0.01782360
4116.00   0.74000496   0.01795809
4118.00   0.71814102   0.01760496
4120.00   0.69380343   0.01727551
4122.00   0.71542466   0.01756128
4124.00   0.72747082   0.01777517
4126.00   0.70921183   0.01764813
4128.00   0.70169377   0.01760162
4130.00   0.65962982   0.01742325
4132.00   0.67079139   0.01799783
4134.00   0.70372313   0.01808318
4136.00   0.68937159   0.01757068
4138.00   0.63744617   0.01749557
4140.00   0.63895458   0.01755999
4142.00   0.65416837   0.01724181
4144.00   0.68191451   0.01734485
4146.00   0.64144886   0.01689135
4148.00   0.65408444   0.01698795
4150.00   0.65985698   0.01757992
4152.00   0.66835421   0.01798129
4154.00   0.66855687   0.01761430
4156.00   0.66477251   0.01728906
4158.00   0.65895361   0.01711566
4160.00   0.63520896   0.01708527
4162.00   0.66574711   0.01769902
4164.00   0.68077081   0.01840984
4166.00   0.62205619   0.01771610
4168.00   0.58983445   0.01671733
4170.00   0.63721049   0.01696270
4172.00   0.64530444   0.01689170
4174.00   0.64303452   0.01671131
4176.00   0.63678187   0.01662044
4178.00   0.64874673   0.01683098
4180.00   0.63711160   0.01658162
4182.00   0.66583103   0.01667545
4184.00   0.66349101   0.01665758
4186.00   0.66326517   0.01669457
4188.00   0.63815808   0.01628886
4190.00   0.64324212   0.01638252
4192.00   0.65174735   0.01652903
4194.00   0.67234385   0.01665301
4196.00   0.66262770   0.01642128
4198.00   0.64999253   0.01623529
4200.00   0.64441198   0.01625223
4202.00   0.63967639   0.01629430
4204.00   0.68442094   0.01662162
4206.00   0.70191872   0.01686039
4208.00   0.70696771   0.01703581
4210.00   0.68215019   0.01690860
4212.00   0.66785729   0.01678079
4214.00   0.65362024   0.01650552
4216.00   0.65391266   0.01649174
4218.00   0.68894345   0.01667139
4220.00   0.69633400   0.01670780
4222.00   0.70968133   0.01676784
4224.00   0.70772845   0.01668360
4226.00   0.73198116   0.01687253
4228.00   0.69652712   0.01668834
4230.00   0.67066872   0.01667581
4232.00   0.69039202   0.01681899
4234.00   0.66671401   0.01663665
4236.00   0.65190727   0.01664162
4238.00   0.63944852   0.01661315
4240.00   0.66384923   0.01651306
4242.00   0.66451943   0.01629177
4244.00   0.67326015   0.01743747
4246.00   0.70480281   0.01844062
4248.00   0.70514870   0.01785862
4250.00   0.71061653   0.01700868
4252.00   0.73738462   0.01685759
4254.00   0.74782115   0.01699597
4256.00   0.71089947   0.01681658
4258.00   0.71140748   0.01678864
4260.00   0.69918686   0.01644208
4262.00   0.68997186   0.01636128
4264.00   0.71123123   0.01640650
4266.00   0.69750804   0.01630856
4268.00   0.66881084   0.01619518
4270.00   0.68682373   0.01631883
4272.00   0.68140650   0.01626454
4274.00   0.72524166   0.01662955
4276.00   0.73783410   0.01684697
4278.00   0.72794122   0.01672117
4280.00   0.70570725   0.01662701
4282.00   0.68050170   0.01639513
4284.00   0.69667709   0.01646530
4286.00   0.73183542   0.01661791
4288.00   0.71341985   0.01639410
4290.00   0.70695800   0.01635763
4292.00   0.71019089   0.01645879
4294.00   0.74004269   0.01675793
4296.00   0.72965944   0.01656190
4298.00   0.74865717   0.01662866
4300.00   0.73134965   0.01650311
4302.00   0.75256604   0.01660535
4304.00   0.72642881   0.01642154
4306.00   0.72800773   0.01656837
4308.00   0.75865322   0.01676866
4310.00   0.74803668   0.01696964
4312.00   0.73741180   0.01757534
4314.00   0.73213512   0.01767927
4316.00   0.75660515   0.01740093
4318.00   0.76168162   0.01743816
4320.00   0.72190040   0.01731806
4322.00   0.74372083   0.01736082
4324.00   0.72724956   0.01718693
4326.00   0.74155617   0.01695227
4328.00   0.75118703   0.01681655
4330.00   0.75873858   0.01673851
4332.00   0.77274954   0.01687454
4334.00   0.77346265   0.01690874
4336.00   0.76226497   0.01690634
4338.00   0.74916577   0.01695383
4340.00   0.74396163   0.01692589
4342.00   0.74406391   0.01693397
4344.00   0.78545791   0.01746190
4346.00   0.76711756   0.01779077
4348.00   0.75928026   0.01777677
4350.00   0.76321155   0.01745080
4352.00   0.75452346   0.01733452
4354.00   0.75162798   0.01976578
4356.00   0.73369384   0.02844698
4358.00   0.79686016   0.03178306
4360.00   0.79248339   0.02659379
4362.00   0.78947711   0.02036696
4364.00   0.74473619   0.01789232
4366.00   0.70324731   0.01723984
4368.00   0.69467074   0.01708024
4370.00   0.72734106   0.01724378
4372.00   0.74259663   0.01756874
4374.00   0.73386097   0.01769617
4376.00   0.75849187   0.01747879
4378.00   0.75524873   0.01721258
4380.00   0.75743359   0.01700625
4382.00   0.76980782   0.01695742
4384.00   0.75741380   0.01687283
4386.00   0.78316575   0.01687623
4388.00   0.76464248   0.01679857
4390.00   0.74920702   0.01675631
4392.00   0.77012211   0.01685417
4394.00   0.72790337   0.01649502
4396.00   0.70500129   0.01643249
4398.00   0.74439770   0.01698708
4400.00   0.74147296   0.01701997
4402.00   0.76365077   0.01702699
4404.00   0.73392624   0.01673834
4406.00   0.76826513   0.01696888
4408.00   0.72427553   0.01667776
4410.00   0.70877105   0.01661058
4412.00   0.69452715   0.01658236
4414.00   0.68198550   0.01663279
4416.00   0.71196717   0.01671195
4418.00   0.69469506   0.01655482
4420.00   0.72802168   0.01664992
4422.00   0.72104496   0.01655911
4424.00   0.71699101   0.01649413
4426.00   0.71537197   0.01638165
4428.00   0.70532161   0.01629880
4430.00   0.67294782   0.01612529
4432.00   0.68582004   0.01627731
4434.00   0.65945601   0.01604081
4436.00   0.64192277   0.01591351
4438.00   0.69319779   0.01616961
4440.00   0.67152697   0.01604989
4442.00   0.65643007   0.01591541
4444.00   0.66171461   0.01590956
4446.00   0.63359058   0.01567836
4448.00   0.64089030   0.01569304
4450.00   0.64723969   0.01566192
4452.00   0.60834926   0.01540383
4454.00   0.64108694   0.01553228
4456.00   0.65011448   0.01568087
4458.00   0.63277161   0.01566127
4460.00   0.68246752   0.01595922
4462.00   0.68678135   0.01590939
4464.00   0.68295062   0.01591854
4466.00   0.65151912   0.01569348
4468.00   0.63067490   0.01551117
4470.00   0.61114913   0.01540466
4472.00   0.63829952   0.01556893
4474.00   0.65510547   0.01566118
4476.00   0.66166830   0.01564312
4478.00   0.66552335   0.01573952
4480.00   0.64473414   0.01556081
4482.00   0.59790403   0.01524052
4484.00   0.59128344   0.01526844
4486.00   0.60335672   0.01536734
4488.00   0.60920906   0.01529650
4490.00   0.60785758   0.01532465
4492.00   0.61001170   0.01542926
4494.00   0.63299072   0.01559777
4496.00   0.60409659   0.01538457
4498.00   0.56252104   0.01515350
4500.00   0.60999238   0.01535127
4502.00   0.63127530   0.01546269
4504.00   0.58463293   0.01516622
4506.00   0.59451509   0.01513098
4508.00   0.60714316   0.01511780
4510.00   0.60191172   0.01517057
4512.00   0.59343839   0.01501097
4514.00   0.59532678   0.01497195
4516.00   0.59980857   0.01506793
4518.00   0.57515717   0.01471209
4520.00   0.55108404   0.01461889
4522.00   0.54748887   0.01455836
4524.00   0.54993230   0.01459455
4526.00   0.53254449   0.01434975
4528.00   0.54389066   0.01439002
4530.00   0.53382415   0.01430514
4532.00   0.51240766   0.01418620
4534.00   0.53642792   0.01432405
4536.00   0.54264301   0.01432382
4538.00   0.52654880   0.01417469
4540.00   0.51983589   0.01416874
4542.00   0.54693699   0.01444686
4544.00   0.56479323   0.01456164
4546.00   0.55344152   0.01434494
4548.00   0.52759558   0.01407493
4550.00   0.53527796   0.01395728
4552.00   0.53521061   0.01396659
4554.00   0.51892149   0.01386334
4556.00   0.54366988   0.01407928
4558.00   0.55676126   0.01410925
4560.00   0.53984416   0.01395115
4562.00   0.56331700   0.01403137
4564.00   0.57696998   0.01405185
4566.00   0.55824369   0.01387213
4568.00   0.57754487   0.01397371
4570.00   0.56510711   0.01387809
4572.00   0.58258277   0.01398325
4574.00   0.58501595   0.01403081
4576.00   0.56547296   0.01387470
4578.00   0.56327873   0.01377185
4580.00   0.57318914   0.01377271
4582.00   0.56885707   0.01363576
4584.00   0.58120465   0.01367831
4586.00   0.60220307   0.01384383
4588.00   0.58990616   0.01377925
4590.00   0.59003401   0.01367465
4592.00   0.60992932   0.01381397
4594.00   0.59482980   0.01379487
4596.00   0.64354300   0.01395628
4598.00   0.63557643   0.01387362
4600.00   0.61431015   0.01371687
4602.00   0.60684818   0.01362694
4604.00   0.62286919   0.01366667
4606.00   0.62427408   0.01363906
4608.00   0.65197480   0.01390501
4610.00   0.63884860   0.01385558
4612.00   0.66191787   0.01397653
4614.00   0.66455227   0.01386672
4616.00   0.65864468   0.01377793
4618.00   0.67863548   0.01386055
4620.00   0.68941325   0.01386773
4622.00   0.71405059   0.01407033
4624.00   0.74031180   0.01426247
4626.00   0.70454901   0.01403657
4628.00   0.72856694   0.01414402
4630.00   0.72444344   0.01403864
4632.00   0.72598535   0.01407798
4634.00   0.75654930   0.01423867
4636.00   0.75319147   0.01422075
4638.00   0.72821039   0.01404542
4640.00   0.75224167   0.01419616
4642.00   0.76504886   0.01428545
4644.00   0.75319022   0.01418563
4646.00   0.76325166   0.01427916
4648.00   0.77173567   0.01434366
4650.00   0.77005541   0.01435912
4652.00   0.82278991   0.01470842
4654.00   0.82631093   0.01471353
4656.00   0.83251148   0.01476593
4658.00   0.85878962   0.01493546
4660.00   0.83718032   0.01488111
4662.00   0.82796258   0.01495032
4664.00   0.83391511   0.01504038
4666.00   0.83699340   0.01524042
4668.00   0.86865896   0.01539748
4670.00   0.85311174   0.01534083
4672.00   0.88566571   0.01550649
4674.00   0.84909946   0.01517383
4676.00   0.84469366   0.01498625
4678.00   0.85817939   0.01490610
4680.00   0.83465230   0.01477690
4682.00   0.88575304   0.01500171
4684.00   0.87686783   0.01487692
4686.00   0.91908741   0.01508977
4688.00   0.91237700   0.01503803
4690.00   0.91714782   0.01497409
4692.00   0.95805717   0.01515629
4694.00   0.97388583   0.01530642
4696.00   0.94472146   0.01507878
4698.00   0.98069739   0.01520102
4700.00   0.95763254   0.01504204
4702.00   0.94626111   0.01509730
4704.00   0.99509078   0.01542223
4706.00   0.97278082   0.01537632
4708.00   0.99516803   0.01543000
4710.00   0.99704129   0.01552820
4712.00   1.02075374   0.01556473
4714.00   1.02721786   0.01558806
4716.00   1.01612306   0.01552341
4718.00   1.02597237   0.01554366
4720.00   1.03495693   0.01555602
4722.00   1.03737235   0.01556423
4724.00   1.05734384   0.01567498
4726.00   1.05111349   0.01587070
4728.00   1.05585456   0.01624300
4730.00   1.05515683   0.01628403
4732.00   1.03917491   0.01620071
4734.00   1.02813482   0.01626001
4736.00   1.02481771   0.01629456
4738.00   1.04727983   0.01659954
4740.00   1.04199457   0.01673399
4742.00   1.05877662   0.01700844
4744.00   1.04802299   0.01665860
4746.00   1.02426088   0.01597026
4748.00   1.01553786   0.01561470
4750.00   1.00819194   0.01556567
4752.00   1.01295030   0.01569922
4754.00   1.03781700   0.01568532
4756.00   1.04150343   0.01549222
4758.00   1.01222444   0.01531383
4760.00   1.02878582   0.01524290
4762.00   1.02835798   0.01524616
4764.00   1.04157031   0.01527725
4766.00   1.04271936   0.01525404
4768.00   1.06093597   0.01531191
4770.00   1.06793463   0.01531622
4772.00   0.99856502   0.01497018
4774.00   0.99279165   0.01491305
4776.00   0.99269742   0.01510882
4778.00   0.98898977   0.01521111
4780.00   0.98612428   0.01516595
4782.00   0.98773903   0.01501846
4784.00   0.95694673   0.01475498
4786.00   0.95332801   0.01471391
4788.00   0.96065599   0.01475470
4790.00   0.92811537   0.01458912
4792.00   0.95460355   0.01471838
4794.00   0.90759337   0.01445297
4796.00   0.92466068   0.01446882
4798.00   0.95500439   0.01460824
4800.00   0.89554083   0.01427360
4802.00   0.89050794   0.01421508
4804.00   0.87776649   0.01417280
4806.00   0.87487692   0.01415800
4808.00   0.88609886   0.01427444
4810.00   0.86397523   0.01410949
4812.00   0.87149346   0.01421712
4814.00   0.89149433   0.01429726
4816.00   0.88179177   0.01426306
4818.00   0.81314427   0.01387197
4820.00   0.81950974   0.01394479
4822.00   0.80661398   0.01388138
4824.00   0.79994023   0.01387630
4826.00   0.80216682   0.01396513
4828.00   0.80633235   0.01395428
4830.00   0.81525970   0.01400384
4832.00   0.80050063   0.01396796
4834.00   0.77339637   0.01380833
4836.00   0.79316306   0.01390903
4838.00   0.78069335   0.01397047
4840.00   0.75479740   0.01388671
4842.00   0.77592653   0.01385028
4844.00   0.77987456   0.01382608
4846.00   0.76922709   0.01374961
4848.00   0.76329988   0.01373782
4850.00   0.75070894   0.01362394
4852.00   0.76116765   0.01368433
4854.00   0.74719501   0.01346544
4856.00   0.73060906   0.01336577
4858.00   0.71135002   0.01333008
4860.00   0.73529977   0.01346039
4862.00   0.72679895   0.01345456
4864.00   0.72403377   0.01345918
4866.00   0.72961837   0.01347120
4868.00   0.70693165   0.01322490
4870.00   0.72005498   0.01331130
4872.00   0.72380942   0.01336408
4874.00   0.73320246   0.01341369
4876.00   0.70464808   0.01330492
4878.00   0.73632848   0.01354816
4880.00   0.71779174   0.01348710
4882.00   0.74833667   0.01360062
4884.00   0.71256638   0.01329065
4886.00   0.71264565   0.01320201
4888.00   0.69013369   0.01304490
4890.00   0.69114363   0.01306845
4892.00   0.70871037   0.01315450
4894.00   0.70784819   0.01319669
4896.00   0.68898588   0.01308630
4898.00   0.68568856   0.01301811
4900.00   0.67681777   0.01295634
4902.00   0.68250656   0.01290676
4904.00   0.70406383   0.01309787
4906.00   0.71370268   0.01316984
4908.00   0.71118069   0.01320907
4910.00   0.71882200   0.01323847
4912.00   0.70790380   0.01319727
4914.00   0.69546372   0.01317317
4916.00   0.66776198   0.01298631
4918.00   0.67274541   0.01298813
4920.00   0.67135221   0.01291950
4922.00   0.70446765   0.01307609
4924.00   0.68409050   0.01293733
4926.00   0.68693739   0.01288270
4928.00   0.68494844   0.01285696
4930.00   0.69426006   0.01283650
4932.00   0.70280665   0.01291404
4934.00   0.69024348   0.01290529
4936.00   0.69537729   0.01298327
4938.00   0.71330225   0.01308790
4940.00   0.70581251   0.01301436
4942.00   0.71224666   0.01307159
4944.00   0.65564674   0.01257690
4946.00   0.67194015   0.01270675
4948.00   0.68400729   0.01279471
4950.00   0.68480808   0.01286692
4952.00   0.68155509   0.01296899
4954.00   0.72253871   0.01328573
4956.00   0.70061707   0.01305196
4958.00   0.71671063   0.01305082
4960.00   0.70823139   0.01302277
4962.00   0.70885170   0.01301096
4964.00   0.71228951   0.01312560
4966.00   0.70140421   0.01305995
4968.00   0.69897473   0.01311076
4970.00   0.70165491   0.01331836
4972.00   0.68738472   0.01342294
4974.00   0.69821817   0.01364940
4976.00   0.73222697   0.01408117
4978.00   0.74756998   0.01452173
4980.00   0.70844579   0.01459406
4982.00   0.70607060   0.01469435
4984.00   0.69984722   0.01466247
4986.00   0.71475971   0.01446861
4988.00   0.69626439   0.01411491
4990.00   0.71853483   0.01404379
4992.00   0.70329463   0.01375314
4994.00   0.69450092   0.01338820
4996.00   0.68983459   0.01325165
4998.00   0.68724459   0.01307147
5000.00   0.68139172   0.01294213
5002.00   0.69209009   0.01288556
5004.00   0.68278432   0.01286754
5006.00   0.68343818   0.01277080
5008.00   0.66329581   0.01260970
5010.00   0.69648081   0.01278335
5012.00   0.70088488   0.01275854
5014.00   0.67350125   0.01267712
5016.00   0.68398660   0.01279169
5018.00   0.66044569   0.01274755
5020.00   0.64783543   0.01271212
5022.00   0.65093619   0.01258177
5024.00   0.61484444   0.01227423
5026.00   0.63630682   0.01236795
5028.00   0.65236080   0.01258833
5030.00   0.66588718   0.01276144
5032.00   0.63704920   0.01253982
5034.00   0.65891743   0.01256139
5036.00   0.66345203   0.01250753
5038.00   0.66467595   0.01250486
5040.00   0.70356315   0.01266080
5042.00   0.69850355   0.01274319
5044.00   0.68505168   0.01269745
5046.00   0.68925977   0.01274918
5048.00   0.70876706   0.01274888
5050.00   0.69270557   0.01275450
5052.00   0.66897517   0.01259698
5054.00   0.69575644   0.01278810
5056.00   0.68863809   0.01270178
5058.00   0.72037935   0.01287394
5060.00   0.74270135   0.01305180
5062.00   0.73515803   0.01331737
5064.00   0.74159825   0.01341532
5066.00   0.74706346   0.01355941
5068.00   0.72371554   0.01369307
5070.00   0.74342328   0.01375969
5072.00   0.75852656   0.01365371
5074.00   0.72850990   0.01341968
5076.00   0.72282243   0.01331087
5078.00   0.74162084   0.01370371
5080.00   0.74171466   0.01430679
5082.00   0.70914996   0.01483870
5084.00   0.72871107   0.01525432
5086.00   0.72489882   0.01513486
5088.00   0.72515213   0.01455294
5090.00   0.75406057   0.01414812
5092.00   0.76513290   0.01376311
5094.00   0.75880122   0.01365677
5096.00   0.76065844   0.01377456
5098.00   0.72460532   0.01380634
5100.00   0.71707767   0.01369067
5102.00   0.73674911   0.01351003
5104.00   0.73974741   0.01332837
5106.00   0.74985576   0.01329061
5108.00   0.75158590   0.01323489
5110.00   0.77008796   0.01329339
5112.00   0.74180025   0.01321262
5114.00   0.75646657   0.01337048
5116.00   0.77372402   0.01348553
5118.00   0.75632167   0.01325496
5120.00   0.74490386   0.01311263
5122.00   0.72660446   0.01292301
5124.00   0.72553909   0.01291578
5126.00   0.72160995   0.01278101
5128.00   0.72290421   0.01285466
5130.00   0.71271276   0.01275790
5132.00   0.68704921   0.01268870
5134.00   0.68864602   0.01273444
5136.00   0.70084262   0.01274499
5138.00   0.70178396   0.01277423
5140.00   0.69207096   0.01273929
5142.00   0.70160347   0.01277761
5144.00   0.69889987   0.01281436
5146.00   0.66458523   0.01270530
5148.00   0.67221159   0.01288597
5150.00   0.63914192   0.01287072
5152.00   0.67279214   0.01323415
5154.00   0.67575681   0.01319753
5156.00   0.66715997   0.01299986
5158.00   0.68528652   0.01299858
5160.00   0.66439974   0.01270730
5162.00   0.64266986   0.01250498
5164.00   0.66335917   0.01249226
5166.00   0.64898473   0.01242033
5168.00   0.67855996   0.01247169
5170.00   0.65062255   0.01233536
5172.00   0.65663141   0.01239007
5174.00   0.65014702   0.01237765
5176.00   0.67286140   0.01253451
5178.00   0.66089308   0.01241415
5180.00   0.65423572   0.01233579
5182.00   0.62350488   0.01227178
5184.00   0.64338136   0.01318986
5186.00   0.65867317   0.01279410
5188.00   0.63106275   0.01218993
5190.00   0.64192456   0.01230578
5192.00   0.62929660   0.01223816
5194.00   0.64902824   0.01247921
5196.00   0.66583478   0.01273978
5198.00   0.66043776   0.01286579
5200.00   0.65584773   0.01284149
5202.00   0.65210736   0.01268371
5204.00   0.65677327   0.01253021
5206.00   0.62886351   0.01229289
5208.00   0.62282848   0.01240826
5210.00   0.62010419   0.01247743
5212.00   0.64535004   0.01247050
5214.00   0.67009777   0.01254949
5216.00   0.65111804   0.01254100
5218.00   0.65521079   0.01258898
5220.00   0.63198668   0.01245308
5222.00   0.65152764   0.01255090
5224.00   0.67194057   0.01259544
5226.00   0.68249685   0.01255999
5228.00   0.67639893   0.01259539
5230.00   0.68135947   0.01258423
5232.00   0.68404740   0.01256777
5234.00   0.67285103   0.01248873
5236.00   0.66021943   0.01245551
5238.00   0.67271090   0.01261556
5240.00   0.66659349   0.01251019
5242.00   0.67389399   0.01247826
5244.00   0.69521874   0.01258878
5246.00   0.64475924   0.01227721
5248.00   0.64241451   0.01219964
5250.00   0.64791518   0.01224887
5252.00   0.64177144   0.01223885
5254.00   0.67049158   0.01249349
5256.00   0.66791868   0.01254122
5258.00   0.67033172   0.01260620
5260.00   0.68225551   0.01256003
5262.00   0.68912309   0.01252607
5264.00   0.67466986   0.01236405
5266.00   0.68600279   0.01237601
5268.00   0.67818999   0.01233833
5270.00   0.66638201   0.01227214
5272.00   0.67876405   0.01237824
5274.00   0.69037825   0.01242205
5276.00   0.70959228   0.01253636
5278.00   0.66683304   0.01232774
5280.00   0.68004143   0.01235882
5282.00   0.68856168   0.01243020
5284.00   0.69012380   0.01247379
5286.00   0.71046436   0.01266056
5288.00   0.69070256   0.01253389
5290.00   0.69132358   0.01252390
5292.00   0.70261073   0.01257405
5294.00   0.68142986   0.01243026
5296.00   0.69025201   0.01245167
5298.00   0.68644792   0.01247296
5300.00   0.69402158   0.01248084
5302.00   0.70475322   0.01257805
5304.00   0.72118455   0.01267315
5306.00   0.72002256   0.01262251
5308.00   0.69584900   0.01253965
5310.00   0.71516162   0.01263604
5312.00   0.71354371   0.01261969
5314.00   0.71187586   0.01264117
5316.00   0.73237425   0.01269489
5318.00   0.75510120   0.01282210
5320.00   0.71780962   0.01262362
5322.00   0.72619039   0.01275609
5324.00   0.75010592   0.01289744
5326.00   0.74466825   0.01290878
5328.00   0.74620098   0.01289874
5330.00   0.76451385   0.01301831
5332.00   0.76063460   0.01300193
5334.00   0.75109291   0.01297661
5336.00   0.77162588   0.01306918
5338.00   0.75353575   0.01299642
5340.00   0.71356475   0.01289906
5342.00   0.72863603   0.01296475
5344.00   0.71093690   0.01286552
5346.00   0.73194236   0.01311864
5348.00   0.74640059   0.01341126
5350.00   0.76389921   0.01345160
5352.00   0.78572810   0.01360453
5354.00   0.78004992   0.01364645
5356.00   0.76688290   0.01358628
5358.00   0.77735007   0.01347018
5360.00   0.79867995   0.01348167
5362.00   0.77674884   0.01330760
5364.00   0.80478448   0.01340404
5366.00   0.80884784   0.01339187
5368.00   0.81989080   0.01339185
5370.00   0.84202027   0.01353945
5372.00   0.81689292   0.01362208
5374.00   0.82370329   0.01377450
5376.00   0.83921939   0.01389022
5378.00   0.83296263   0.01382359
5380.00   0.84900904   0.01386692
5382.00   0.82478213   0.01372000
5384.00   0.82752943   0.01374506
5386.00   0.86260378   0.01396874
5388.00   0.88013589   0.01420124
5390.00   0.85910553   0.01429964
5392.00   0.89903623   0.01464864
5394.00   0.90982789   0.01461613
5396.00   0.89033544   0.01458943
5398.00   0.90916067   0.01470590
5400.00   0.85304618   0.01442308
5402.00   0.87642390   0.01460373
5404.00   0.87442082   0.01467135
5406.00   0.89237875   0.01490844
5408.00   0.90729392   0.01507029
5410.00   0.90023816   0.01517288
5412.00   0.89874047   0.01532112
5414.00   0.90397465   0.01562548
5416.00   0.92530215   0.01589571
5418.00   0.90824646   0.01597559
5420.00   0.91592020   0.01605151
5422.00   0.86634487   0.01590369
5424.00   0.85523301   0.01582973
5426.00   0.87660205   0.01601019
5428.00   0.88154179   0.01605950
5430.00   0.90618664   0.01624569
5432.00   0.88288254   0.01619350
5434.00   0.89085639   0.01634522
5436.00   0.89773571   0.01645158
5438.00   0.84340936   0.01626841
5440.00   0.82467449   0.01625898
5442.00   0.80790329   0.01620294
5444.00   0.81685740   0.01647686
5446.00   0.83431762   0.01659049
5448.00   0.81035638   0.01660053
5450.00   0.82251912   0.01666366
5452.00   0.85207856   0.01688344
5454.00   0.85200155   0.01703439
5456.00   0.83990455   0.01853212
5458.00   0.85838717   0.02221134
5460.00   0.81329781   0.02396812
5462.00   0.81864733   0.02318009
5464.00   0.82986933   0.02147896
5466.00   0.86735272   0.02030678
5468.00   0.87210530   0.01928081
5470.00   0.83046216   0.01823700
5472.00   0.78740191   0.01745027
5474.00   0.77979451   0.01705873
5476.00   0.79205656   0.01707776
5478.00   0.81128544   0.01726752
5480.00   0.83694929   0.01767492
5482.00   0.82432342   0.01790163
5484.00   0.80803025   0.01782623
5486.00   0.83709866   0.01780605
5488.00   0.82666105   0.01754055
5490.00   0.84673196   0.01748653
5492.00   0.84793723   0.01740107
5494.00   0.81259996   0.01711240
5496.00   0.81746453   0.01703137
5498.00   0.83737534   0.01709132
5500.00   0.81738937   0.01702668
5502.00   0.79787868   0.01695857
5504.00   0.78327888   0.01686163
5506.00   0.76836872   0.01670734
5508.00   0.78003073   0.01681001
5510.00   0.79424769   0.01708111
5512.00   0.80523461   0.01731565
5514.00   0.83893234   0.01762768
5516.00   0.82510763   0.01753635
5518.00   0.83417159   0.01775413
5520.00   0.80604196   0.01771395
5522.00   0.77379686   0.01739292
5524.00   0.81606394   0.01761323
5526.00   0.80245417   0.01743833
5528.00   0.80032140   0.01737058
5530.00   0.80301684   0.01726598
5532.00   0.81371838   0.01733970
5534.00   0.80896747   0.01719959
5536.00   0.83979362   0.01738192
5538.00   0.82786703   0.01733598
5540.00   0.83087814   0.01741056
5542.00   0.81862342   0.01743763
5544.00   0.82160336   0.01747300
5546.00   0.80004293   0.01735558
5548.00   0.82802284   0.01754696
5550.00   0.81760448   0.01740869
5552.00   0.80477685   0.01749452
5554.00   0.81406695   0.01744809
5556.00   0.81682026   0.01749585
5558.00   0.81688583   0.01760001
5560.00   0.82533729   0.01780583
5562.00   0.84006196   0.01791686
5564.00   0.80501944   0.01774100
5566.00   0.84154892   0.01789134
5568.00   0.81074029   0.01783369
5570.00   0.81313723   0.01803564
5572.00   0.79781914   0.01976059
5574.00   0.82797831   0.02699708
5576.00   0.84342158   0.03130672
5578.00   0.77318466   0.02984792
5580.00   0.73238111   0.03348371
5582.00   0.72894365   0.03144919
5584.00   0.73813945   0.02863524
5586.00   0.75700879   0.02533104
5588.00   0.74985433   0.02341201
5590.00   0.74060982   0.02281634
5592.00   0.75076628   0.02281526
5594.00   0.75350159   0.02257120
5596.00   0.76137972   0.02248042
5598.00   0.74372202   0.02219636
5600.00   0.74168807   0.02201359
5602.00   0.74397951   0.02180334
5604.00   0.74604779   0.02172148
5606.00   0.74578285   0.02162554
5608.00   0.74200439   0.02140464
5610.00   0.72698909   0.02111001
5612.00   0.71011931   0.02083313
5614.00   0.72567099   0.02072571
5616.00   0.73229337   0.02058236
5618.00   0.73082596   0.02041415
5620.00   0.72871226   0.02026503
5622.00   0.73966724   0.02022368
5624.00   0.72611421   0.01995422
5626.00   0.71877664   0.01969584
5628.00   0.71053094   0.01945909
5630.00   0.70743006   0.01933338
5632.00   0.68863392   0.01918711
5634.00   0.67492986   0.01895102
5636.00   0.66874409   0.01871930
5638.00   0.66845959   0.01860588
5640.00   0.67909116   0.01862548
5642.00   0.67177016   0.01854399
5644.00   0.67072469   0.01850060
5646.00   0.67912793   0.01847194
5648.00   0.67640465   0.01851525
5650.00   0.66297501   0.01850985
5652.00   0.65891194   0.01840489
5654.00   0.64666909   0.01818197
5656.00   0.63896471   0.01805567
5658.00   0.64566851   0.01810650
5660.00   0.65098196   0.01825429
5662.00   0.66090566   0.01845448
5664.00   0.65399367   0.01860015
5666.00   0.65747041   0.01887522
5668.00   0.66293144   0.01918790
5670.00   0.66275454   0.01945508
5672.00   0.66439706   0.01971706
5674.00   0.65401119   0.01981224
5676.00   0.65770370   0.02000098
5678.00   0.66462380   0.02028197
5680.00   0.66728896   0.02066796
5682.00   0.66649294   0.02095732
5684.00   0.67590022   0.02126382
5686.00   0.68410450   0.02146940
5688.00   0.68335652   0.02140467
5690.00   0.68563646   0.02099635
5692.00   0.66123360   0.02021112
5694.00   0.65312845   0.01949150
5696.00   0.66252166   0.01888420
5698.00   0.67110062   0.01837551
5700.00   0.67390823   0.01794040
5702.00   0.67372340   0.01757868
5704.00   0.66755968   0.01729548
5706.00   0.66321677   0.01711297
5708.00   0.66188264   0.01696698
5710.00   0.67028123   0.01689669
5712.00   0.67035049   0.01695124
5714.00   0.66587788   0.01687282
5716.00   0.66045791   0.01658186
5718.00   0.65516931   0.01623794
5720.00   0.65991569   0.01618345
5722.00   0.66129786   0.01605731
5724.00   0.66113776   0.01593181
5726.00   0.66430658   0.01584914
5728.00   0.67610025   0.01583355
5730.00   0.67535716   0.01574781
5732.00   0.66753125   0.01564218
5734.00   0.66294074   0.01554451
5736.00   0.66123539   0.01546853
5738.00   0.65564203   0.01539625
5740.00   0.66169333   0.01543091
5742.00   0.66505438   0.01544567
5744.00   0.65654558   0.01535393
5746.00   0.64988893   0.01525805
5748.00   0.65654027   0.01531796
5750.00   0.66424543   0.01545525
5752.00   0.65712410   0.01543701
5754.00   0.65037292   0.01543650
5756.00   0.65705252   0.01559798
5758.00   0.66220719   0.01578156
5760.00   0.65261513   0.01591377
5762.00   0.65232652   0.01614496
5764.00   0.64961869   0.01641279
5766.00   0.64784330   0.01668161
5768.00   0.64650053   0.01683321
5770.00   0.63726926   0.01673452
5772.00   0.62898797   0.01651517
5774.00   0.62535858   0.01622996
5776.00   0.62829590   0.01591170
5778.00   0.62670153   0.01562205
5780.00   0.63177919   0.01557811
5782.00   0.63033491   0.01564690
5784.00   0.62252158   0.01581593
5786.00   0.61647207   0.01609896
5788.00   0.62821430   0.01642769
5790.00   0.63813788   0.01655520
5792.00   0.63639385   0.01645614
5794.00   0.62396860   0.01619083
5796.00   0.61846286   0.01583078
5798.00   0.61605579   0.01540073
5800.00   0.61981106   0.01514896
5802.00   0.62053466   0.01501984
5804.00   0.61519682   0.01495557
5806.00   0.60831887   0.01486559
5808.00   0.60537404   0.01480046
5810.00   0.60673338   0.01475897
5812.00   0.61145383   0.01478931
5814.00   0.60959607   0.01478242
5816.00   0.61108071   0.01475783
5818.00   0.61213475   0.01476337
5820.00   0.60578424   0.01477056
5822.00   0.59544045   0.01475794
5824.00   0.59821445   0.01479795
5826.00   0.61035568   0.01487742
5828.00   0.60428494   0.01485795
5830.00   0.60367703   0.01487836
5832.00   0.60789716   0.01491151
5834.00   0.60102016   0.01488515
5836.00   0.60037786   0.01493719
5838.00   0.60197783   0.01498759
5840.00   0.60162425   0.01502176
5842.00   0.59546131   0.01500130
5844.00   0.58993435   0.01500382
5846.00   0.59214520   0.01503376
5848.00   0.59109902   0.01506988
5850.00   0.57836175   0.01505756
5852.00   0.57079643   0.01507513
5854.00   0.58403510   0.01518261
5856.00   0.59749788   0.01524749
5858.00   0.59665871   0.01554740
5860.00   0.59779662   0.01601515
5862.00   0.60716671   0.01646499
5864.00   0.61024785   0.01681748
5866.00   0.59911972   0.01695072
5868.00   0.59382659   0.01694034
5870.00   0.59761834   0.01687341
5872.00   0.60576791   0.01683967
5874.00   0.60536069   0.01702841
5876.00   0.60140896   0.01726677
5878.00   0.59773946   0.01822934
5880.00   0.58849430   0.01975124
5882.00   0.58007294   0.02136972
5884.00   0.57715613   0.02338916
5886.00   0.56291676   0.02596754
5888.00   0.57532519   0.02812856
5890.00   0.58188218   0.02913093
5892.00   0.55830342   0.02890951
5894.00   0.57472849   0.02868737
5896.00   0.58413094   0.02712101
5898.00   0.57355577   0.02467330
5900.00   0.57410568   0.02229465
5902.00   0.59704638   0.02030475
5904.00   0.57828212   0.01856833
5906.00   0.58488923   0.01749337
5908.00   0.59743804   0.01679230
5910.00   0.58841038   0.01598122
5912.00   0.58077317   0.01557290
5914.00   0.57598066   0.01553454
5916.00   0.57392305   0.01556482
5918.00   0.57703859   0.01559009
5920.00   0.57583791   0.01559063
5922.00   0.56999803   0.01551472
5924.00   0.56623071   0.01549456
5926.00   0.57428521   0.01557336
5928.00   0.58558834   0.01567423
5930.00   0.58467907   0.01567310
5932.00   0.58498544   0.01564980
5934.00   0.59216219   0.01562007
5936.00   0.59361148   0.01553605
5938.00   0.58337611   0.01537903
5940.00   0.57333118   0.01521945
5942.00   0.58037281   0.01510390
5944.00   0.58571428   0.01505096
5946.00   0.58056015   0.01500065
5948.00   0.57268912   0.01496882
5950.00   0.56734490   0.01494457
5952.00   0.57454318   0.01493886
5954.00   0.57719588   0.01491296
5956.00   0.57878274   0.01489789
5958.00   0.58099288   0.01486707
5960.00   0.57690561   0.01471587
5962.00   0.57303768   0.01459664
5964.00   0.57129025   0.01455894
5966.00   0.57496881   0.01458638
5968.00   0.59116870   0.01464011
5970.00   0.57352549   0.01449952
5972.00   0.56176519   0.01441237
5974.00   0.56660825   0.01439570
5976.00   0.57457703   0.01440711
5978.00   0.56869292   0.01435834
5980.00   0.57399464   0.01433002
5982.00   0.57657319   0.01431134
5984.00   0.60176563   0.01424002
5986.00   0.63251871   0.01420360
#5988.00   -0.06566733   0.01435983
5990.00   0.60052174   0.01431796
5992.00   0.60281777   0.01434332
5994.00   0.61343187   0.01441127
5996.00   0.62448645   0.01445528
5998.00   0.61275697   0.01434937
6000.00   0.61875981   0.01433472
6002.00   0.61450583   0.01427682
6004.00   0.60837591   0.01422435
6006.00   0.61216825   0.01422345
6008.00   0.62288177   0.01421476
#6010.00   1.20628345   0.01413820
#6012.00   0.10417841   0.01416071
#6014.00   0.71533662   0.01365033
6016.00   0.62514251   0.01403874
6018.00   0.62548280   0.01401748
6020.00   0.62636304   0.01397603
6022.00   0.62591529   0.01397879
6024.00   0.63136029   0.01398572
6026.00   0.63910085   0.01401953
6028.00   0.64345354   0.01403731
6030.00   0.63367802   0.01394501
6032.00   0.62632400   0.01387704
6034.00   0.63572371   0.01394682
6036.00   0.65025115   0.01404053
6038.00   0.64161086   0.01395870
6040.00   0.63231879   0.01386067
6042.00   0.62919515   0.01380430
6044.00   0.64035624   0.01386247
6046.00   0.64179724   0.01384617
6048.00   0.65115714   0.01391850
6050.00   0.64425403   0.01386375
6052.00   0.63414907   0.01377210
6054.00   0.63539320   0.01376012
6056.00   0.65261954   0.01386703
6058.00   0.65111327   0.01383689
6060.00   0.64248824   0.01376711
6062.00   0.63912344   0.01374894
6064.00   0.64746827   0.01381566
6066.00   0.65319568   0.01384097
6068.00   0.65767980   0.01386059
6070.00   0.65586728   0.01385863
6072.00   0.64655590   0.01383061
6074.00   0.64092737   0.01379245
6076.00   0.64640975   0.01377253
6078.00   0.64827454   0.01372181
6080.00   0.63302827   0.01357548
6082.00   0.60610837   0.01337701
6084.00   0.58306956   0.01325147
6086.00   0.56920296   0.01314904
6088.00   0.56004697   0.01306185
6090.00   0.56452209   0.01309383
6092.00   0.57656199   0.01322123
6094.00   0.59225696   0.01339706
6096.00   0.60718083   0.01358306
6098.00   0.63170832   0.01383194
6100.00   0.65289670   0.01407346
6102.00   0.65332872   0.01421725
6104.00   0.64330715   0.01435545
6106.00   0.63855880   0.01454129
6108.00   0.63947344   0.01476736
6110.00   0.64492136   0.01498497
6112.00   0.65124220   0.01514913
6114.00   0.65731007   0.01521660
6116.00   0.65588903   0.01509281
6118.00   0.65619737   0.01486558
6120.00   0.66291475   0.01463036
6122.00   0.65156442   0.01431781
6124.00   0.64386588   0.01414204
6126.00   0.64443880   0.01398634
6128.00   0.64091897   0.01386016
6130.00   0.63264805   0.01377004
6132.00   0.64163226   0.01378927
6134.00   0.64258742   0.01377127
6136.00   0.63920164   0.01373707
6138.00   0.64139336   0.01376625
6140.00   0.64081633   0.01379851
6142.00   0.63789910   0.01378229
6144.00   0.62741995   0.01370027
6146.00   0.62395400   0.01367867
6148.00   0.62367016   0.01370982
6150.00   0.62121576   0.01377088
6152.00   0.61643785   0.01379817
6154.00   0.61271888   0.01383301
6156.00   0.61405569   0.01393770
6158.00   0.61854690   0.01404345
6160.00   0.62015581   0.01402122
6162.00   0.63768774   0.01398899
6164.00   0.63639516   0.01382214
6166.00   0.62862319   0.01360539
6168.00   0.61896449   0.01337775
6170.00   0.61674643   0.01319870
6172.00   0.62323189   0.01313220
6174.00   0.62357873   0.01308934
6176.00   0.61549753   0.01300298
6178.00   0.60260659   0.01287220
6180.00   0.60717350   0.01285664
6182.00   0.60887480   0.01283133
6184.00   0.60061550   0.01278462
6186.00   0.59456748   0.01276109
6188.00   0.60232598   0.01280864
6190.00   0.60504550   0.01280895
6192.00   0.60171562   0.01279740
6194.00   0.59419048   0.01274854
6196.00   0.58564001   0.01270630
6198.00   0.58391625   0.01270958
6200.00   0.59106213   0.01275904
6202.00   0.58780581   0.01273512
6204.00   0.58371919   0.01271818
6206.00   0.57968110   0.01270634
6208.00   0.57939845   0.01272246
6210.00   0.58820242   0.01276337
6212.00   0.57737494   0.01268212
6214.00   0.57170528   0.01261871
6216.00   0.57727796   0.01262901
6218.00   0.57643127   0.01251245
6220.00   0.57303542   0.01243332
6222.00   0.57278776   0.01237898
6224.00   0.57695299   0.01239224
6226.00   0.57621455   0.01242664
6228.00   0.57102400   0.01240616
6230.00   0.57024795   0.01251397
6232.00   0.57810718   0.01272596
6234.00   0.58369893   0.01291102
6236.00   0.57652807   0.01295701
6238.00   0.56895977   0.01293082
6240.00   0.56950784   0.01293186
6242.00   0.58112413   0.01290239
6244.00   0.58889890   0.01278969
6246.00   0.58173925   0.01259856
6248.00   0.57064134   0.01245284
6250.00   0.57112426   0.01244642
6252.00   0.56893921   0.01250505
6254.00   0.56093007   0.01258084
6256.00   0.54885060   0.01263263
6258.00   0.55553985   0.01271006
6260.00   0.55091834   0.01268173
6262.00   0.53708643   0.01250551
6264.00   0.52520615   0.01226177
6266.00   0.53247815   0.01213713
6268.00   0.53250504   0.01208134
6270.00   0.53491503   0.01206993
6272.00   0.53414339   0.01207663
6274.00   0.53229970   0.01211347
6276.00   0.52912623   0.01214384
6278.00   0.52019411   0.01210750
6280.00   0.51130414   0.01203898
6282.00   0.50276631   0.01194743
6284.00   0.49966419   0.01189968
6286.00   0.49134645   0.01191933
6288.00   0.48799077   0.01202845
6290.00   0.49554005   0.01232652
6292.00   0.49541226   0.01286443
6294.00   0.48627293   0.01379657
6296.00   0.49636212   0.01532276
6298.00   0.49553767   0.01634942
6300.00   0.49412736   0.01667389
6302.00   0.49609742   0.01645557
6304.00   0.48628220   0.01577969
6306.00   0.48742726   0.01449901
6308.00   0.48048711   0.01303182
6310.00   0.47514394   0.01205105
6312.00   0.48043141   0.01170195
6314.00   0.47764596   0.01143872
6316.00   0.47821304   0.01133337
6318.00   0.46689662   0.01120801
6320.00   0.45752099   0.01112966
6322.00   0.45358288   0.01111657
6324.00   0.46211633   0.01124740
6326.00   0.45882335   0.01128168
6328.00   0.46194506   0.01131879
6330.00   0.46337309   0.01131169
6332.00   0.46143618   0.01124372
6334.00   0.45328411   0.01106413
6336.00   0.45819339   0.01102805
6338.00   0.45555821   0.01092543
6340.00   0.44725689   0.01080438
6342.00   0.45164335   0.01083336
6344.00   0.46102884   0.01090844
6346.00   0.46794626   0.01098511
6348.00   0.46250179   0.01093071
6350.00   0.44927564   0.01083523
6352.00   0.44067356   0.01085543
6354.00   0.45036986   0.01103567
6356.00   0.45450988   0.01129481
6358.00   0.45218626   0.01173247
6360.00   0.44578031   0.01220242
6362.00   0.44748893   0.01249522
6364.00   0.44467929   0.01244389
6366.00   0.43295467   0.01219171
6368.00   0.42501736   0.01174671
6370.00   0.42486453   0.01117179
6372.00   0.43040147   0.01069257
6374.00   0.43330637   0.01054284
6376.00   0.44443226   0.01061789
6378.00   0.45320621   0.01072041
6380.00   0.45385846   0.01075139
6382.00   0.45195755   0.01075541
6384.00   0.46026227   0.01079429
6386.00   0.46599123   0.01080895
6388.00   0.46514592   0.01076149
6390.00   0.45989886   0.01066273
6392.00   0.45578492   0.01058390
6394.00   0.45531479   0.01056422
6396.00   0.46047032   0.01061134
6398.00   0.46413174   0.01067811
6400.00   0.46486363   0.01072324
6402.00   0.46853176   0.01077374
6404.00   0.47339049   0.01079999
6406.00   0.47587231   0.01079703
6408.00   0.47737184   0.01075740
6410.00   0.47605228   0.01069530
6412.00   0.48493055   0.01075486
6414.00   0.49611726   0.01085788
6416.00   0.49793935   0.01087413
6418.00   0.49372220   0.01081434
6420.00   0.49007955   0.01072026
6422.00   0.48625335   0.01065897
6424.00   0.49042138   0.01067781
6426.00   0.49755844   0.01071869
6428.00   0.50089210   0.01071471
6430.00   0.50291008   0.01070627
6432.00   0.50152516   0.01070105
6434.00   0.50216419   0.01068703
6436.00   0.50510007   0.01069433
6438.00   0.51335686   0.01077291
6440.00   0.51406384   0.01080808
6442.00   0.51778644   0.01081764
6444.00   0.51989979   0.01080687
6446.00   0.51710075   0.01078476
6448.00   0.51544428   0.01077673
6450.00   0.51712221   0.01081567
6452.00   0.51619941   0.01081795
6454.00   0.52140731   0.01091667
6456.00   0.52950257   0.01110287
6458.00   0.53333151   0.01123873
6460.00   0.52414030   0.01102105
6462.00   0.53069466   0.01111136
6464.00   0.53367621   0.01117949
6466.00   0.53067684   0.01117310
6468.00   0.52904302   0.01117599
6470.00   0.53538883   0.01118281
6472.00   0.53528863   0.01111761
6474.00   0.53439122   0.01103383
6476.00   0.53925604   0.01099127
6478.00   0.54356527   0.01096157
6480.00   0.54641181   0.01094037
6482.00   0.55357891   0.01096737
6484.00   0.55691695   0.01097714
6486.00   0.54959619   0.01090221
6488.00   0.54383641   0.01084426
6490.00   0.55407566   0.01094760
6492.00   0.55907911   0.01108769
6494.00   0.55811805   0.01123627
6496.00   0.55985135   0.01139331
6498.00   0.56751126   0.01151529
6500.00   0.57090253   0.01156445
6502.00   0.56888348   0.01165244
6504.00   0.56940538   0.01170893
6506.00   0.57966608   0.01159263
6508.00   0.57328254   0.01144867
6510.00   0.56545186   0.01145394
6512.00   0.56492877   0.01143296
6514.00   0.57180029   0.01144366
6516.00   0.57452303   0.01172094
6518.00   0.57794875   0.01186805
6520.00   0.57080609   0.01185617
6522.00   0.56849980   0.01171618
6524.00   0.57745552   0.01149552
6526.00   0.57466972   0.01122127
6528.00   0.57030088   0.01122038
6530.00   0.56790739   0.01128420
6532.00   0.57152480   0.01135539
6534.00   0.57778114   0.01139543
6536.00   0.57836491   0.01136593
6538.00   0.57513285   0.01126430
6540.00   0.57402223   0.01117383
6542.00   0.57667309   0.01114295
6544.00   0.58052379   0.01117177
6546.00   0.57606012   0.01114591
6548.00   0.57416517   0.01120140
6550.00   0.57013947   0.01124592
6552.00   0.57259828   0.01129410
6554.00   0.58647960   0.01139531
6556.00   0.58433586   0.01139684
6558.00   0.58089876   0.01140672
6560.00   0.58128524   0.01142226
6562.00   0.58583087   0.01141969
6564.00   0.58759570   0.01140860
6566.00   0.57756263   0.01131020
6568.00   0.56808019   0.01114848
6570.00   0.56469965   0.01102908
6572.00   0.56571096   0.01102331
6574.00   0.56420439   0.01105573
6576.00   0.56174093   0.01104119
6578.00   0.56390136   0.01105338
6580.00   0.56960970   0.01107832
6582.00   0.57360607   0.01104867
6584.00   0.57093459   0.01093229
6586.00   0.57530266   0.01106061
6588.00   0.58259213   0.01111972
6590.00   0.58843106   0.01098561
6592.00   0.58398670   0.01097154
6594.00   0.58194417   0.01096269
6596.00   0.58900958   0.01099536
6598.00   0.58339101   0.01096625
6600.00   0.57564086   0.01094320
6602.00   0.57459247   0.01093404
6604.00   0.57192570   0.01088211
6606.00   0.57096052   0.01085126
6608.00   0.57464671   0.01085004
6610.00   0.57816410   0.01082036
6612.00   0.57818699   0.01073184
6614.00   0.58121949   0.01074696
6616.00   0.58427054   0.01078342
6618.00   0.58823729   0.01081529
6620.00   0.58793455   0.01080810
6622.00   0.57518816   0.01070597
6624.00   0.57109183   0.01068422
6626.00   0.56953400   0.01068886
6628.00   0.56880754   0.01068296
6630.00   0.57251006   0.01071068
6632.00   0.57361901   0.01072910
6634.00   0.57272893   0.01069693
6636.00   0.57701343   0.01071637
6638.00   0.58221531   0.01074991
6640.00   0.57329875   0.01065609
6642.00   0.56952327   0.01059441
6644.00   0.57512784   0.01062973
6646.00   0.58419460   0.01069284
6648.00   0.58700818   0.01070140
6650.00   0.58271927   0.01067369
6652.00   0.58232015   0.01066445
6654.00   0.58232468   0.01065817
6656.00   0.57845044   0.01063618
6658.00   0.57617420   0.01064183
6660.00   0.57517648   0.01064556
6662.00   0.57505709   0.01064337
6664.00   0.57331222   0.01063026
6666.00   0.57138491   0.01061162
6668.00   0.56763840   0.01056395
6670.00   0.56787187   0.01053981
6672.00   0.57248795   0.01055618
6674.00   0.57338864   0.01057015
6676.00   0.57248342   0.01057553
6678.00   0.57369834   0.01058725
6680.00   0.57518518   0.01060949
6682.00   0.57411814   0.01057461
6684.00   0.57654458   0.01055989
6686.00   0.58191532   0.01057859
6688.00   0.57644022   0.01053894
6690.00   0.56934983   0.01049801
6692.00   0.57102740   0.01050945
6694.00   0.57475513   0.01053392
6696.00   0.57123417   0.01051901
6698.00   0.56466454   0.01050667
6700.00   0.56389856   0.01052347
6702.00   0.57019234   0.01062721
6704.00   0.57248235   0.01071413
6706.00   0.56880391   0.01073022
6708.00   0.56012064   0.01068113
6710.00   0.55313653   0.01061729
6712.00   0.54103804   0.01047952
6714.00   0.53583390   0.01037479
6716.00   0.54573572   0.01037337
6718.00   0.55299163   0.01038117
6720.00   0.55353683   0.01038887
6722.00   0.55947167   0.01040734
6724.00   0.56516922   0.01042578
6726.00   0.56325406   0.01040195
6728.00   0.56604820   0.01040788
6730.00   0.55903250   0.01035161
6732.00   0.55561966   0.01032423
6734.00   0.55402875   0.01031833
6736.00   0.55084747   0.01030246
6738.00   0.55390072   0.01032506
6740.00   0.55518395   0.01032910
6742.00   0.56089503   0.01034591
6744.00   0.56575817   0.01035503
6746.00   0.55361766   0.01028366
6748.00   0.55065852   0.01025228
6750.00   0.55281740   0.01024134
6752.00   0.55407208   0.01024248
6754.00   0.55106115   0.01022822
6756.00   0.54356295   0.01017384
6758.00   0.54850793   0.01018596
6760.00   0.54636699   0.01017375
6762.00   0.54197162   0.01015003
6764.00   0.54362887   0.01014658
6766.00   0.53555751   0.01008969
6768.00   0.53658003   0.01007486
6770.00   0.53842455   0.01007316
6772.00   0.53772575   0.01005590
6774.00   0.53051257   0.01000690
6776.00   0.52444547   0.00997488
6778.00   0.51322842   0.00987946
6780.00   0.50552493   0.00981944
6782.00   0.50940734   0.00985213
6784.00   0.51713187   0.00991559
6786.00   0.51283640   0.00988508
6788.00   0.50878525   0.00984884
6790.00   0.51088077   0.00986106
6792.00   0.51239008   0.00986704
6794.00   0.51206416   0.00983778
6796.00   0.51821536   0.00988430
6798.00   0.51835448   0.01001753
6800.00   0.51693505   0.01016011
6802.00   0.51614898   0.01012688
6804.00   0.52141339   0.01007858
6806.00   0.52337623   0.00996636
6808.00   0.52252609   0.00989525
6810.00   0.51416397   0.00983245
6812.00   0.50629622   0.00976652
6814.00   0.49882397   0.00971565
6816.00   0.50286722   0.00975277
6818.00   0.50449759   0.00977809
6820.00   0.50392228   0.00982514
6822.00   0.50613767   0.00995826
6824.00   0.49943390   0.01013935
6826.00   0.49795744   0.01035723
6828.00   0.49689707   0.01058648
6830.00   0.49850059   0.01078535
6832.00   0.50683033   0.01090153
6834.00   0.50690961   0.01073873
6836.00   0.50645196   0.01056276
6838.00   0.50259119   0.01035506
6840.00   0.49800280   0.01013760
6842.00   0.49131957   0.00991423
6844.00   0.49481240   0.00985850
6846.00   0.50155252   0.00984097
6848.00   0.50140542   0.00977969
6850.00   0.48881134   0.00965125
6852.00   0.48099521   0.00955486
6854.00   0.49276960   0.00962551
6856.00   0.49817935   0.00977812
6858.00   0.49020252   0.01002678
6860.00   0.47565958   0.01037758
6862.00   0.47972894   0.01082516
6864.00   0.48240209   0.01128864
6866.00   0.49329326   0.01194541
6868.00   0.50584120   0.01240534
6870.00   0.50261021   0.01218917
6872.00   0.48385239   0.01139379
6874.00   0.47508803   0.01086266
6876.00   0.47084379   0.01050232
6878.00   0.47161666   0.01024331
6880.00   0.48233333   0.01013422
6882.00   0.47817221   0.01008152
6884.00   0.47103655   0.01014985
6886.00   0.46990335   0.01029268
6888.00   0.47384477   0.01039444
6890.00   0.47345528   0.01037759
6892.00   0.47747159   0.01036699
6894.00   0.47600910   0.01029586
6896.00   0.46572408   0.01016367
6898.00   0.45501968   0.01004552
6900.00   0.46623662   0.01013278
6902.00   0.47087499   0.01013726
6904.00   0.46214589   0.01000490
6906.00   0.45539436   0.00990474
6908.00   0.45753875   0.00994311
6910.00   0.46462592   0.01003092
6912.00   0.46317530   0.00998926
6914.00   0.46035528   0.00992004
6916.00   0.45851147   0.00990066
6918.00   0.45694992   0.00995966
6920.00   0.44956353   0.01001797
6922.00   0.45211771   0.01008304
6924.00   0.46081296   0.01013189
6926.00   0.46274832   0.01006654
6928.00   0.45185861   0.00983650
6930.00   0.44402981   0.00954705
6932.00   0.45059609   0.00948953
6934.00   0.45733762   0.00959603
6936.00   0.45762232   0.00972550
6938.00   0.45218194   0.00972855
6940.00   0.44836774   0.00968000
6942.00   0.44793817   0.00976539
6944.00   0.45321116   0.00996375
6946.00   0.45803449   0.01011862
6948.00   0.45307621   0.01007424
6950.00   0.45211470   0.01002552
6952.00   0.44857118   0.00991581
6954.00   0.44561779   0.00972036
6956.00   0.44753113   0.00950256
6958.00   0.45104146   0.00939686
6960.00   0.44537053   0.00931025
6962.00   0.44507650   0.00928955
6964.00   0.44739154   0.00932676
6966.00   0.44339964   0.00934744
6968.00   0.44046032   0.00934043
6970.00   0.43692616   0.00933398
6972.00   0.43775722   0.00940988
6974.00   0.43920720   0.00951133
6976.00   0.43875280   0.00957080
6978.00   0.43654934   0.00954492
6980.00   0.44142067   0.00956514
6982.00   0.44600251   0.00955106
6984.00   0.45048591   0.00950694
6986.00   0.45182064   0.00943189
6988.00   0.44594932   0.00933926
6990.00   0.44302705   0.00929300
6992.00   0.44113335   0.00925357
6994.00   0.43621698   0.00918718
6996.00   0.43448257   0.00916679
6998.00   0.43946028   0.00924067
7000.00   0.44154453   0.00930057
7002.00   0.43971238   0.00931284
7004.00   0.43761837   0.00930569
7006.00   0.43477741   0.00931350
7008.00   0.43413839   0.00932070
7010.00   0.42932773   0.00926953
7012.00   0.42617258   0.00922375
7014.00   0.42533424   0.00921439
7016.00   0.42799917   0.00920646
7018.00   0.42372778   0.00909788
7020.00   0.42260623   0.00901095
7022.00   0.42220843   0.00897696
7024.00   0.42214870   0.00901099
7026.00   0.42885599   0.00909455
7028.00   0.43376306   0.00917713
7030.00   0.43500558   0.00918809
7032.00   0.43179885   0.00913295
7034.00   0.42853585   0.00910486
7036.00   0.42537987   0.00911254
7038.00   0.42908502   0.00913201
7040.00   0.43475857   0.00915587
7042.00   0.43339095   0.00915801
7044.00   0.42595014   0.00917663
7046.00   0.42541090   0.00923664
7048.00   0.42634633   0.00927870
7050.00   0.43225276   0.00932236
7052.00   0.43809876   0.00933990
7054.00   0.43611526   0.00925715
7056.00   0.42944607   0.00913098
7058.00   0.43113956   0.00911887
7060.00   0.43271962   0.00912734
7062.00   0.43147036   0.00911754
7064.00   0.42057648   0.00908686
7066.00   0.42336348   0.00911307
7068.00   0.42464909   0.00912508
7070.00   0.42235231   0.00912265
7072.00   0.42431101   0.00915474
7074.00   0.42462990   0.00909540
7076.00   0.42697358   0.00910342
7078.00   0.43047750   0.00914743
7080.00   0.42989743   0.00915123
7082.00   0.42071882   0.00907732
7084.00   0.41693214   0.00905661
7086.00   0.41695443   0.00909182
7088.00   0.42039645   0.00913703
7090.00   0.42320713   0.00914364
7092.00   0.43054107   0.00916692
7094.00   0.43069398   0.00912775
7096.00   0.42984888   0.00908450
7098.00   0.43017599   0.00905108
7100.00   0.43189278   0.00902926
7102.00   0.43490076   0.00902592
7104.00   0.43260360   0.00902320
7106.00   0.43504667   0.00904783
7108.00   0.43559918   0.00904132
7110.00   0.42963421   0.00897282
7112.00   0.42848337   0.00896873
7114.00   0.43051687   0.00899579
7116.00   0.42597389   0.00896886
7118.00   0.42375138   0.00896322
7120.00   0.42683196   0.00899776
7122.00   0.43182531   0.00906279
7124.00   0.43281063   0.00908205
7126.00   0.43597555   0.00911390
7128.00   0.43546060   0.00911949
7130.00   0.43215445   0.00909752
7132.00   0.43178093   0.00905882
7134.00   0.43559563   0.00908064
7136.00   0.43818820   0.00911914
7138.00   0.43752488   0.00913337
7140.00   0.43597829   0.00915436
7142.00   0.43103245   0.00914579
7144.00   0.42708814   0.00911994
7146.00   0.42451406   0.00908031
7148.00   0.42514646   0.00905513
7150.00   0.43145108   0.00906931
7152.00   0.42879105   0.00905245
7154.00   0.43022045   0.00904285
7156.00   0.42946944   0.00900605
7158.00   0.42271724   0.00895283
7160.00   0.42422310   0.00900895
7162.00   0.43075874   0.00907050
7164.00   0.43380216   0.00916701
7166.00   0.43122053   0.00925742
7168.00   0.42843163   0.00931589
7170.00   0.43358216   0.00942920
7172.00   0.43862477   0.00950909
7174.00   0.43962392   0.00952764
7176.00   0.44011497   0.00952925
7178.00   0.43242994   0.00946304
7180.00   0.42963806   0.00942759
7182.00   0.42624769   0.00943359
7184.00   0.42878887   0.00951835
7186.00   0.43478736   0.00958332
7188.00   0.42879617   0.00945235
7190.00   0.43446365   0.00944437
7192.00   0.44125161   0.00951303
7194.00   0.44478798   0.00954578
7196.00   0.44197378   0.00947423
7198.00   0.43782398   0.00946539
7200.00   0.44026908   0.00955041
7202.00   0.44095659   0.00953898
7204.00   0.43355331   0.00939474
7206.00   0.42459527   0.00921922
7208.00   0.41839921   0.00901847
7210.00   0.41683641   0.00892498
7212.00   0.41960135   0.00891317
7214.00   0.42692676   0.00895546
7216.00   0.43172631   0.00899114
7218.00   0.42694440   0.00898141
7220.00   0.42394730   0.00896884
7222.00   0.42432252   0.00900568
7224.00   0.42443886   0.00905902
7226.00   0.42488304   0.00911774
7228.00   0.42129207   0.00911627
7230.00   0.42579541   0.00923916
7232.00   0.43223500   0.00955851
7234.00   0.43073490   0.01006943
7236.00   0.42784896   0.01070662
7238.00   0.42849040   0.01130587
7240.00   0.42779908   0.01189834
7242.00   0.42945957   0.01226333
7244.00   0.43240714   0.01215222
7246.00   0.42407119   0.01153234
7248.00   0.41602871   0.01095838
7250.00   0.41545835   0.01046614
7252.00   0.42136899   0.01007378
7254.00   0.42400157   0.00978129
7256.00   0.42216578   0.00958620
7258.00   0.42174706   0.00941405
7260.00   0.42013821   0.00927560
7262.00   0.42137930   0.00924118
7264.00   0.42692599   0.00931069
7266.00   0.42634389   0.00932297
7268.00   0.42404744   0.00942442
7270.00   0.42161295   0.01003101
7272.00   0.42136249   0.01099346
7274.00   0.43168297   0.01175974
7276.00   0.44359025   0.01202906
7278.00   0.44851601   0.01204792
7280.00   0.44324982   0.01168808
7282.00   0.42984986   0.01096988
7284.00   0.42469046   0.01033589
7286.00   0.43117127   0.01021055
7288.00   0.42796358   0.01011674
7290.00   0.41985536   0.00989281
7292.00   0.41653356   0.00963767
7294.00   0.41521069   0.00950052
7296.00   0.41261402   0.00942856
7298.00   0.41059497   0.00947997
7300.00   0.41198251   0.00967667
7302.00   0.41730547   0.00987524
7304.00   0.41237625   0.00985398
7306.00   0.42235366   0.00983861
7308.00   0.42720023   0.00988514
7310.00   0.42701063   0.01010057
7312.00   0.42132059   0.01054158
7314.00   0.40886632   0.01079939
7316.00   0.40877390   0.01091493
7318.00   0.41041359   0.01080599
7320.00   0.40571412   0.01037115
7322.00   0.40896499   0.00970201
7324.00   0.39922342   0.00931940
7326.00   0.39799449   0.00936501
7328.00   0.39846113   0.00949091
7330.00   0.39737466   0.00950206
7332.00   0.39227822   0.00945700
7334.00   0.39593974   0.00961692
7336.00   0.40421310   0.01011701
7338.00   0.40535858   0.01058364
7340.00   0.39540139   0.01073944
7342.00   0.39311564   0.01074817
7344.00   0.39768422   0.01057566
7346.00   0.40222558   0.00996390
7348.00   0.40134513   0.00919401
7350.00   0.39945975   0.00882325
7352.00   0.39939234   0.00894734
7354.00   0.39893076   0.00921375
7356.00   0.40083861   0.00939529
7358.00   0.39746991   0.00940903
7360.00   0.39645708   0.00940455
7362.00   0.39660466   0.00949153
7364.00   0.39421204   0.00978493
7366.00   0.38999403   0.01005850
7368.00   0.39062190   0.01020485
7370.00   0.39383960   0.01020812
7372.00   0.38615894   0.01003207
7374.00   0.38262323   0.00953954
7376.00   0.38168213   0.00897027
7378.00   0.38551846   0.00864179
7380.00   0.38537490   0.00860361
7382.00   0.39173850   0.00866473
7384.00   0.39213419   0.00868557
7386.00   0.39014444   0.00876812
7388.00   0.38578698   0.00891620
7390.00   0.38430211   0.00903788
7392.00   0.38205504   0.00903880
7394.00   0.38628408   0.00914065
7396.00   0.39135793   0.00933620
7398.00   0.39013013   0.00950509
7400.00   0.39099991   0.00955342
7402.00   0.38784909   0.00953122
7404.00   0.38697734   0.00946360
7406.00   0.39069906   0.00928828
7408.00   0.39933762   0.00897800
7410.00   0.40028027   0.00872368
7412.00   0.39786211   0.00863014
7414.00   0.39559022   0.00862468
7416.00   0.39096728   0.00858868
7418.00   0.38601089   0.00853970
7420.00   0.38300905   0.00849869
7422.00   0.38742343   0.00855416
7424.00   0.39050412   0.00865299
7426.00   0.38874623   0.00873596
7428.00   0.38011906   0.00872199
7430.00   0.38086364   0.00875257
7432.00   0.38949490   0.00891345
7434.00   0.39614716   0.00909401
7436.00   0.39666608   0.00916960
7438.00   0.39654732   0.00913968
7440.00   0.39382482   0.00910789
7442.00   0.38978791   0.00896841
7444.00   0.38687739   0.00874769
7446.00   0.38329470   0.00852225
7448.00   0.38420916   0.00846193
7450.00   0.38252369   0.00844717
7452.00   0.38920882   0.00849980
7454.00   0.39636669   0.00857068
7456.00   0.39567241   0.00874437
7458.00   0.39610946   0.00892367
7460.00   0.39887515   0.00902481
7462.00   0.39975536   0.00905334
7464.00   0.39785722   0.00910683
7466.00   0.39604831   0.00920406
7468.00   0.39393303   0.00933094
7470.00   0.39791167   0.00944595
7472.00   0.40352345   0.00953366
7474.00   0.40335655   0.00956546
7476.00   0.40276876   0.00957827
7478.00   0.40342200   0.00972063
7480.00   0.40616238   0.00982755
7482.00   0.40579733   0.00981975
7484.00   0.40189448   0.00977233
7486.00   0.39366317   0.00968966
7488.00   0.39464262   0.00944890
7490.00   0.40154532   0.00919454
7492.00   0.40778598   0.00911760
7494.00   0.40449062   0.00927552
7496.00   0.39856282   0.00935952
7498.00   0.39990494   0.00934059
7500.00   0.40626124   0.00934192
7502.00   0.41062272   0.00935817
7504.00   0.40806398   0.00916008
7506.00   0.40243414   0.00895679
7508.00   0.39972612   0.00880334
7510.00   0.40036428   0.00870942
7512.00   0.40117976   0.00864644
7514.00   0.40215588   0.00871927
7516.00   0.40215495   0.00887385
7518.00   0.39839229   0.00931746
7520.00   0.39637670   0.00982046
7522.00   0.39703384   0.01014023
7524.00   0.39875999   0.01021532
7526.00   0.39696336   0.01026910
7528.00   0.39589894   0.01001403
7530.00   0.39361373   0.00951376
7532.00   0.39075348   0.00905155
7534.00   0.39435664   0.00896791
7536.00   0.40202856   0.00891447
7538.00   0.40487981   0.00883175
7540.00   0.40549347   0.00877410
7542.00   0.40610591   0.00876215
7544.00   0.40908408   0.00875332
7546.00   0.40773702   0.00869603
7548.00   0.40491650   0.00866990
7550.00   0.40084720   0.00868643
7552.00   0.40076670   0.00877540
7554.00   0.40170527   0.00889656
7556.00   0.40114507   0.00894773
7558.00   0.40155888   0.00894328
7560.00   0.40399560   0.00892678
7562.00   0.40582398   0.00889529
7564.00   0.40555587   0.00893258
7566.00   0.40326032   0.00919576
7568.00   0.39981532   0.00952475
7570.00   0.39699388   0.00973393
7572.00   0.39553794   0.00974970
7574.00   0.39908051   0.00969913
7576.00   0.40583840   0.00946583
7578.00   0.40602231   0.00908752
7580.00   0.40040779   0.00877452
7582.00   0.40512636   0.00888340
7584.00   0.40403271   0.00893866
7586.00   0.40047726   0.00889647
7588.00   0.39263511   0.00884860
7590.00   0.37952948   0.00898601
7592.00   0.37101161   0.00954060
7594.00   0.38404655   0.01108970
7596.00   0.40760374   0.01359771
7598.00   0.42549768   0.01634555
7600.00   0.41846958   0.01861707
7602.00   0.42180538   0.02046308
7604.00   0.42807782   0.02043071
7606.00   0.43744275   0.01908675
7608.00   0.43408325   0.01697035
7610.00   0.41439390   0.01487563
7612.00   0.41005167   0.01317038
7614.00   0.40972352   0.01184406
7616.00   0.39918080   0.01083656
7618.00   0.37707245   0.01024012
7620.00   0.37870708   0.01055939
7622.00   0.40594208   0.01169537
7624.00   0.41469908   0.01266172
7626.00   0.40882370   0.01314751
7628.00   0.40436646   0.01324252
7630.00   0.40157044   0.01315799
7632.00   0.40429762   0.01281665
7634.00   0.40430164   0.01227661
7636.00   0.40590766   0.01178328
7638.00   0.40968046   0.01148595
7640.00   0.40994421   0.01126430
7642.00   0.41005597   0.01103835
7644.00   0.40665737   0.01079270
7646.00   0.40178528   0.01056754
7648.00   0.40056166   0.01043162
7650.00   0.39894581   0.01026907
7652.00   0.40146187   0.01009853
7654.00   0.39982918   0.00996004
7656.00   0.39686564   0.00992285
7658.00   0.39659810   0.00996162
7660.00   0.38438344   0.00972336
7662.00   0.38203433   0.00958004
7664.00   0.38768587   0.00952464
7666.00   0.39055729   0.00942178
7668.00   0.38983646   0.00919054
7670.00   0.38284743   0.00892392
7672.00   0.38380587   0.00880916
7674.00   0.39137271   0.00881624
7676.00   0.39469364   0.00882923
7678.00   0.39235678   0.00882242
7680.00   0.38880876   0.00878567
7682.00   0.39312634   0.00883815
7684.00   0.39781180   0.00891329
7686.00   0.39597359   0.00892343
7688.00   0.39544085   0.00892950
7690.00   0.39301863   0.00895395
7692.00   0.38641644   0.00893187
7694.00   0.38514897   0.00895888
7696.00   0.39105490   0.00907177
7698.00   0.39200428   0.00910132
7700.00   0.39490747   0.00908909
7702.00   0.39201248   0.00900011
7704.00   0.38570872   0.00893517
7706.00   0.38917518   0.00918083
7708.00   0.39047244   0.00997232
7710.00   0.39224863   0.01079779
7712.00   0.39165029   0.01155275
7714.00   0.38966718   0.01206242
7716.00   0.39675140   0.01210064
7718.00   0.40164915   0.01165899
7720.00   0.40179607   0.01105434
7722.00   0.39651871   0.01035012
7724.00   0.38758096   0.00963351
7726.00   0.37976611   0.00933223
7728.00   0.39358136   0.00929275
7730.00   0.39593413   0.00915439
7732.00   0.39157701   0.00895217
7734.00   0.39784345   0.00889780
7736.00   0.39088559   0.00885200
7738.00   0.38719955   0.00880196
7740.00   0.38718322   0.00874458
7742.00   0.38685533   0.00887288
7744.00   0.39086810   0.00954819
7746.00   0.39929286   0.01080185
7748.00   0.39851204   0.01144514
7750.00   0.39804998   0.01165619
7752.00   0.39999452   0.01166678
7754.00   0.39444053   0.01152524
7756.00   0.39266077   0.01080466
7758.00   0.38987711   0.01009599
7760.00   0.39227104   0.00977896
7762.00   0.39475444   0.00976248
7764.00   0.39203724   0.00951516
7766.00   0.39195576   0.00910523
7768.00   0.39117852   0.00895949
7770.00   0.38973498   0.00902352
7772.00   0.38626006   0.00911700
7774.00   0.38458946   0.00928690
7776.00   0.39174947   0.00950654
7778.00   0.38842034   0.00948871
7780.00   0.38494119   0.00938057
7782.00   0.39108232   0.00936541
7784.00   0.39247653   0.00931022
7786.00   0.39810911   0.00930068
7788.00   0.40108892   0.00980574
7790.00   0.39938608   0.01056896
7792.00   0.40501830   0.01107484
7794.00   0.40273285   0.01106759
7796.00   0.40120980   0.01093879
7798.00   0.40004385   0.01040486
7800.00   0.40064061   0.00960481
7802.00   0.39637074   0.00916978
7804.00   0.39513168   0.00936890
7806.00   0.39964601   0.00961407
7808.00   0.40004161   0.00972968
7810.00   0.39740026   0.00970733
7812.00   0.39923790   0.00957284
7814.00   0.39731506   0.00960857
7816.00   0.39320800   0.01021598
7818.00   0.39288864   0.01095206
7820.00   0.39800981   0.01134323
7822.00   0.38943991   0.01142679
7824.00   0.38645089   0.01171133
7826.00   0.39180925   0.01140936
7828.00   0.40115866   0.01055097
7830.00   0.40269747   0.00976915
7832.00   0.40045047   0.00950549
7834.00   0.39304253   0.00948604
7836.00   0.39007959   0.00982744
7838.00   0.38621405   0.01019353
7840.00   0.37898707   0.00974532
7842.00   0.37735319   0.00974484
7844.00   0.38060179   0.00997385
7846.00   0.37969410   0.01020654
7848.00   0.37636098   0.01034491
7850.00   0.37461793   0.01105127
7852.00   0.37567517   0.01138107
7854.00   0.38064685   0.01163736
7856.00   0.38669434   0.01165592
7858.00   0.38595724   0.01120932
7860.00   0.38473940   0.01039286
7862.00   0.38322178   0.01007992
7864.00   0.38376257   0.01017740
7866.00   0.38302597   0.01031462
7868.00   0.37927487   0.01028318
7870.00   0.37660739   0.01020432
7872.00   0.37814736   0.01021835
7874.00   0.37888205   0.01017479
7876.00   0.37802455   0.00999732
7878.00   0.38034475   0.00975453
7880.00   0.38638318   0.00976257
7882.00   0.38972166   0.00987121
7884.00   0.38525584   0.01002311
7886.00   0.37955108   0.01017463
7888.00   0.37863564   0.01026436
7890.00   0.38304719   0.01026164
7892.00   0.38267592   0.01015568
7894.00   0.38235271   0.00980531
7896.00   0.38116017   0.00924949
7898.00   0.38284919   0.00880326
7900.00   0.38489521   0.00875173
7902.00   0.38563880   0.00873572
7904.00   0.37851343   0.00876480
7906.00   0.36629537   0.00916525
7908.00   0.36840415   0.01040801
7910.00   0.37108457   0.01167661
7912.00   0.36743453   0.01215944
7914.00   0.36614886   0.01232437
7916.00   0.37438297   0.01254589
7918.00   0.36043969   0.01210307
7920.00   0.35591149   0.01091814
7922.00   0.36291710   0.01020736
7924.00   0.36815730   0.01005986
7926.00   0.36704743   0.00992698
7928.00   0.37056348   0.00974615
7930.00   0.37063107   0.00966180
7932.00   0.36812350   0.00960427
7934.00   0.36913753   0.00948167
7936.00   0.36540580   0.00915703
7938.00   0.36069539   0.00873837
7940.00   0.36227405   0.00855498
7942.00   0.36848250   0.00867346
7944.00   0.37263885   0.00900665
7946.00   0.37624887   0.00934101
7948.00   0.36760700   0.00936561
7950.00   0.36443320   0.00933313
7952.00   0.36761269   0.00920850
7954.00   0.37672797   0.00899750
7956.00   0.38273132   0.00883395
7958.00   0.38040376   0.00941891
7960.00   0.37293807   0.01043727
7962.00   0.37041020   0.01115707
7964.00   0.37243566   0.01127064
7966.00   0.36503586   0.01121521
7968.00   0.36275554   0.01080736
7970.00   0.36070600   0.00990917
7972.00   0.35735503   0.00910793
7974.00   0.36305058   0.00920145
7976.00   0.37123311   0.00966943
7978.00   0.36804914   0.00978532
7980.00   0.37003389   0.00976868
7982.00   0.37269959   0.00962582
7984.00   0.37728617   0.00938867
7986.00   0.37452540   0.00937826
7988.00   0.37892583   0.01029904
7990.00   0.38261080   0.01116503
7992.00   0.37938419   0.01150494
7994.00   0.37619540   0.01145520
7996.00   0.36807737   0.01164723
7998.00   0.37292758   0.01104995
8000.00   0.37876201   0.00999583
8002.00   0.37526569   0.00923464
8004.00   0.36675072   0.00915214
8006.00   0.36850178   0.00908773
8008.00   0.38116458   0.00929900
8010.00   0.38755873   0.00961472
8012.00   0.38206628   0.00978444
8014.00   0.38821957   0.00976394
8016.00   0.38447246   0.00968431
8018.00   0.37656000   0.00967000
8020.00   0.37433925   0.00992930
8022.00   0.38109183   0.01048475
8024.00   0.37830266   0.01076558
8026.00   0.37666556   0.01080162
8028.00   0.37694338   0.01065750
8030.00   0.37964213   0.01023586
8032.00   0.38231781   0.00946499
8034.00   0.37843695   0.00892568
8036.00   0.37630320   0.00875191
8038.00   0.38214207   0.00876487
8040.00   0.38534608   0.00873874
8042.00   0.37395835   0.00859410
8044.00   0.37016201   0.00856491
8046.00   0.37605080   0.00875270
8048.00   0.37796393   0.00894241
8050.00   0.37342918   0.00901008
8052.00   0.37339818   0.00901605
8054.00   0.38170910   0.00911193
8056.00   0.38490355   0.00928993
8058.00   0.38449588   0.00949357
8060.00   0.38093826   0.00960600
8062.00   0.38173202   0.00962036
8064.00   0.38222244   0.00958815
8066.00   0.38284707   0.00935639
8068.00   0.38169098   0.00896070
8070.00   0.38286936   0.00866269
8072.00   0.38825083   0.00870821
8074.00   0.39242896   0.00874917
8076.00   0.39378139   0.00874718
8078.00   0.39133748   0.00873244
8080.00   0.38463959   0.00873163
8082.00   0.38318181   0.00872033
8084.00   0.38716698   0.00873069
8086.00   0.38812652   0.00874607
8088.00   0.38658842   0.00877774
8090.00   0.38647684   0.00881192
8092.00   0.38035241   0.00878533
8094.00   0.37885070   0.00881020
8096.00   0.38175645   0.00891736
8098.00   0.38644683   0.00905150
8100.00   0.38249359   0.00907009
8102.00   0.38240337   0.00908389
8104.00   0.38617674   0.00911937
8106.00   0.38840127   0.00909008
8108.00   0.38520941   0.00895240
8110.00   0.38616502   0.00882159
8112.00   0.37794510   0.00868544
8114.00   0.37818918   0.00867266
8116.00   0.38414380   0.00873247
8118.00   0.38963595   0.00878068
8120.00   0.38896921   0.00878545
8122.00   0.38857737   0.00876663
8124.00   0.38764963   0.00873154
8126.00   0.38535765   0.00871707
8128.00   0.38005519   0.00874908
8130.00   0.38570678   0.00890100
8132.00   0.39396822   0.00908501
8134.00   0.39532551   0.00916951
8136.00   0.38796744   0.00913172
8138.00   0.38277897   0.00909094
8140.00   0.38567814   0.00915632
8142.00   0.38582847   0.00921319
8144.00   0.38968858   0.00927231
8146.00   0.39527878   0.00932246
8148.00   0.39635924   0.00937539
8150.00   0.39095616   0.00931526
8152.00   0.39464390   0.00925330
8154.00   0.39405921   0.00916639
8156.00   0.38359645   0.00907821
8158.00   0.37433314   0.00904683
8160.00   0.38181493   0.00923836
8162.00   0.38729927   0.00938789
8164.00   0.39244595   0.00942993
8166.00   0.38852355   0.00930559
8168.00   0.38033798   0.00921304
8170.00   0.38126221   0.00924663
8172.00   0.38296792   0.00931477
8174.00   0.38438654   0.00951162
8176.00   0.38713577   0.01001140
8178.00   0.38914672   0.01064186
8180.00   0.38362464   0.01098000
8182.00   0.37995204   0.01113422
8184.00   0.38337061   0.01126480
8186.00   0.39133134   0.01144010
8188.00   0.38714036   0.01152478
8190.00   0.38105795   0.01165917
8192.00   0.37400484   0.01173775
8194.00   0.37047482   0.01172281
8196.00   0.37717769   0.01171619
8198.00   0.37268126   0.01147682
8200.00   0.37510476   0.01088307
8202.00   0.38053754   0.01019069
8204.00   0.37701938   0.00967858
8206.00   0.37084523   0.00945782
8208.00   0.37010244   0.00936898
8210.00   0.37154469   0.00932201
8212.00   0.37261376   0.00925555
8214.00   0.37035263   0.00911377
8216.00   0.36992100   0.00900674
8218.00   0.37662959   0.00902912
8220.00   0.37819979   0.00907562
8222.00   0.37773898   0.00919681
8224.00   0.38531342   0.00948819
8226.00   0.39453113   0.00985624
8228.00   0.40213147   0.01000602
8230.00   0.40313676   0.00982982
8232.00   0.39164686   0.00939703
8234.00   0.38036540   0.00907339
8236.00   0.38221630   0.00898348
8238.00   0.38553691   0.00898409
8240.00   0.38477337   0.00899735
8242.00   0.38485846   0.00900807
8244.00   0.38753435   0.00897102
8246.00   0.38474098   0.00885533
8248.00   0.37873808   0.00877555
8250.00   0.37465230   0.00878273
8252.00   0.37553561   0.00886246
8254.00   0.38272515   0.00892996
8256.00   0.38963231   0.00899305
8258.00   0.38690639   0.00892599
8260.00   0.37624553   0.00875872
8262.00   0.36910000   0.00863787
8264.00   0.37279621   0.00864768
8266.00   0.37697658   0.00868191
8268.00   0.37474361   0.00870741
8270.00   0.37434927   0.00883301
8272.00   0.38172650   0.00918630
8274.00   0.38902196   0.00985636
8276.00   0.38469338   0.01046626
8278.00   0.38661408   0.01095310
8280.00   0.39409843   0.01134052
8282.00   0.39011976   0.01172023
8284.00   0.38216820   0.01214756
8286.00   0.38038036   0.01212155
8288.00   0.38404432   0.01185363
8290.00   0.38242754   0.01169334
8292.00   0.36868325   0.01184276
8294.00   0.37561905   0.01212891
8296.00   0.38512400   0.01217150
8298.00   0.38483477   0.01204692
8300.00   0.37082991   0.01182800
8302.00   0.38243207   0.01145235
8304.00   0.38759705   0.01059356
8306.00   0.38628444   0.00993822
8308.00   0.38288227   0.00968564
8310.00   0.37701496   0.00962439
8312.00   0.37397647   0.00965926
8314.00   0.37986651   0.00965368
8316.00   0.37810650   0.00939188
8318.00   0.37635282   0.00908239
8320.00   0.37989807   0.00901278
8322.00   0.38393059   0.00893333
8324.00   0.38228822   0.00879849
8326.00   0.38312224   0.00873748
8328.00   0.38375437   0.00874675
8330.00   0.37599674   0.00871234
8332.00   0.38049242   0.00877470
8334.00   0.37760958   0.00879840
8336.00   0.37714258   0.00934453
8338.00   0.38683605   0.01093764
8340.00   0.38754115   0.01328712
8342.00   0.37882328   0.01418006
8344.00   0.37461951   0.01440678
8346.00   0.37587664   0.01452211
8348.00   0.37765363   0.01439722
8350.00   0.37876734   0.01282806
8352.00   0.37605917   0.01144471
8354.00   0.37280312   0.01082711
8356.00   0.37139872   0.01056754
8358.00   0.37004361   0.01000870
8360.00   0.36149135   0.00956647
8362.00   0.36066318   0.00948252
8364.00   0.36512733   0.00949616
8366.00   0.36448345   0.00940731
8368.00   0.35522094   0.00917926
8370.00   0.36083519   0.00886532
8372.00   0.36427975   0.00861993
8374.00   0.36503610   0.00868541
8376.00   0.36689067   0.00916905
8378.00   0.36665058   0.00984399
8380.00   0.36340490   0.01010666
8382.00   0.35938907   0.01009009
8384.00   0.36160854   0.00997537
8386.00   0.36530188   0.00970647
8388.00   0.36653915   0.00909406
8390.00   0.36810526   0.00870751
8392.00   0.36672035   0.00959857
8394.00   0.36491016   0.01121256
8396.00   0.36581340   0.01254275
8398.00   0.36132130   0.01277782
8400.00   0.36024868   0.01280337
8402.00   0.36243105   0.01227106
8404.00   0.36370444   0.01099065
8406.00   0.36292422   0.00929508
8408.00   0.36558902   0.00886809
8410.00   0.36757171   0.00948503
8412.00   0.36615717   0.01004452
8414.00   0.36439657   0.01022582
8416.00   0.36427245   0.01020533
8418.00   0.36210525   0.01003987
8420.00   0.35835710   0.00946101
8422.00   0.36046657   0.00940465
8424.00   0.36457571   0.01051315
8426.00   0.36606550   0.01237982
8428.00   0.36479047   0.01311460
8430.00   0.36688340   0.01328217
8432.00   0.36915967   0.01301106
8434.00   0.37008154   0.01213624
8436.00   0.36350012   0.01025166
8438.00   0.36230454   0.00882178
8440.00   0.36586058   0.00838070
8442.00   0.37006962   0.00845940
8444.00   0.37273252   0.00860823
8446.00   0.37391528   0.00906500
8448.00   0.37272441   0.00965732
8450.00   0.36573908   0.00989994
8452.00   0.35844111   0.00986490
8454.00   0.36031136   0.00979878
8456.00   0.35953546   0.00956035
8458.00   0.35314527   0.00953674
8460.00   0.34940287   0.01036834
8462.00   0.35446274   0.01142962
8464.00   0.36642626   0.01177834
8466.00   0.36170113   0.01176287
8468.00   0.34920847   0.01136925
8470.00   0.33985087   0.01036837
8472.00   0.34135970   0.00903186
8474.00   0.34873918   0.00838565
8476.00   0.35421935   0.00833855
8478.00   0.35297379   0.00833233
8480.00   0.34995282   0.00828000
8482.00   0.35103977   0.00823265
8484.00   0.35445133   0.00825397
8486.00   0.34309700   0.00827673
8488.00   0.34266636   0.00866373
8490.00   0.34532413   0.00906672
8492.00   0.34666196   0.00919831
8494.00   0.34209612   0.00916323
8496.00   0.34576902   0.00920699
8498.00   0.35038874   0.00943304
8500.00   0.34931365   0.00978129
8502.00   0.35012683   0.01012165
8504.00   0.36317733   0.01027451
8506.00   0.36369991   0.01023283
8508.00   0.35550317   0.00983484
8510.00   0.34855154   0.00912505
8512.00   0.35114136   0.00842137
8514.00   0.35143885   0.00820818
8516.00   0.35761020   0.00825832
8518.00   0.35606351   0.00827049
8520.00   0.34550810   0.00818158
8522.00   0.34703723   0.00819783
8524.00   0.34833148   0.00818927
8526.00   0.34958398   0.00816885
8528.00   0.35035253   0.00814678
8530.00   0.34927288   0.00814196
8532.00   0.35128808   0.00826029
8534.00   0.35519943   0.00846868
8536.00   0.35569522   0.00859005
8538.00   0.35514736   0.00862710
8540.00   0.35899699   0.00868174
8542.00   0.35816145   0.00880911
8544.00   0.35348949   0.00894547
8546.00   0.35117912   0.00903668
8548.00   0.35167766   0.00906488
8550.00   0.34714261   0.00898637
8552.00   0.34931147   0.00882853
8554.00   0.35203815   0.00852996
8556.00   0.35087332   0.00824336
8558.00   0.34841767   0.00809436
8560.00   0.34940341   0.00808929
8562.00   0.34348273   0.00800754
8564.00   0.33917597   0.00797037
8566.00   0.34271863   0.00802853
8568.00   0.34972706   0.00813153
8570.00   0.35110590   0.00816698
8572.00   0.34781122   0.00815297
8574.00   0.34333917   0.00813413
8576.00   0.34031919   0.00811018
8578.00   0.33670112   0.00805430
8580.00   0.33744714   0.00803962
8582.00   0.33790269   0.00809149
8584.00   0.33744088   0.00816180
8586.00   0.33725104   0.00821726
8588.00   0.33828199   0.00825516
8590.00   0.34324571   0.00835279
8592.00   0.33906707   0.00838950
8594.00   0.34049773   0.00840446
8596.00   0.34750196   0.00843065
8598.00   0.35010934   0.00843234
8600.00   0.34433711   0.00834532
8602.00   0.34755182   0.00825760
8604.00   0.34555066   0.00813169
8606.00   0.33791623   0.00804942
8608.00   0.33436275   0.00812388
8610.00   0.34382382   0.00834710
8612.00   0.34383687   0.00856674
8614.00   0.34371099   0.00885234
8616.00   0.34314081   0.00917500
8618.00   0.34150505   0.00950764
8620.00   0.34873867   0.00996537
8622.00   0.34872380   0.01033160
8624.00   0.34694174   0.01061658
8626.00   0.34738648   0.01083562
8628.00   0.35131964   0.01100282
8630.00   0.34744564   0.01099698
8632.00   0.34954095   0.01092861
8634.00   0.35146818   0.01074011
8636.00   0.34513953   0.01037045
8638.00   0.34961542   0.00998482
8640.00   0.35376284   0.00962267
8642.00   0.35273793   0.00937941
8644.00   0.35361019   0.00937954
8646.00   0.35548890   0.00963250
8648.00   0.35427114   0.00993743
8650.00   0.34880638   0.01035403
8652.00   0.34871760   0.01071587
8654.00   0.35203424   0.01093291
8656.00   0.34869573   0.01098954
8658.00   0.35136724   0.01101497
8660.00   0.34511426   0.01089434
8662.00   0.34283927   0.01076110
8664.00   0.34809098   0.01066840
8666.00   0.34626484   0.01051278
8668.00   0.34113845   0.01028721
8670.00   0.34134129   0.01006402
8672.00   0.34934676   0.00989915
8674.00   0.36190811   0.00979059
8676.00   0.36586559   0.00961156
8678.00   0.36582518   0.00942501
8680.00   0.36231196   0.00920960
8682.00   0.36008108   0.00903787
8684.00   0.35561287   0.00886998
8686.00   0.35087419   0.00868609
8688.00   0.35185859   0.00857888
8690.00   0.35584423   0.00852154
8692.00   0.35978183   0.00848426
8694.00   0.36256981   0.00847657
8696.00   0.36326170   0.00848860
8698.00   0.35925874   0.00844023
8700.00   0.35660398   0.00838570
8702.00   0.35837743   0.00846140
8704.00   0.36297679   0.00873751
8706.00   0.36779794   0.00892017
8708.00   0.37178031   0.00897397
8710.00   0.37036371   0.00902327
8712.00   0.36319932   0.00901745
8714.00   0.35537049   0.00880315
8716.00   0.35028389   0.00883175
8718.00   0.34837660   0.00910859
8720.00   0.34989238   0.00917062
8722.00   0.35279235   0.00882109
8724.00   0.34963107   0.00821587
8726.00   0.35707486   0.00817118
8728.00   0.36391875   0.00836259
8730.00   0.36657992   0.00848604
8732.00   0.36530265   0.00841346
8734.00   0.36562240   0.00823030
8736.00   0.36528826   0.00822649
8738.00   0.36218402   0.00822822
8740.00   0.36159673   0.00824994
8742.00   0.36228999   0.00827322
8744.00   0.36022720   0.00822951
8746.00   0.36247388   0.00822855
8748.00   0.35945344   0.00818487
8750.00   0.35619044   0.00818925
8752.00   0.36061454   0.00846517
8754.00   0.36141405   0.00924962
8756.00   0.36440289   0.01031448
8758.00   0.36603227   0.01114666
8760.00   0.37322351   0.01185008
8762.00   0.36476862   0.01272231
8764.00   0.35788521   0.01325954
8766.00   0.36434436   0.01294654
8768.00   0.37872097   0.01242738
8770.00   0.38016126   0.01225814
8772.00   0.36587700   0.01239862
8774.00   0.36000469   0.01248045
8776.00   0.35573170   0.01246652
8778.00   0.35357609   0.01236723
8780.00   0.35409877   0.01204296
8782.00   0.35414314   0.01105167
8784.00   0.35547850   0.00975357
8786.00   0.35626212   0.00924499
8788.00   0.36190477   0.00948394
8790.00   0.36733615   0.00968975
8792.00   0.37491605   0.00974904
8794.00   0.37565872   0.00957432
8796.00   0.37242618   0.00907697
8798.00   0.37117878   0.00849807
8800.00   0.37482044   0.00825351
8802.00   0.37766227   0.00822297
8804.00   0.37555790   0.00828190
8806.00   0.37307343   0.00835041
8808.00   0.37103558   0.00837540
8810.00   0.36792219   0.00835882
8812.00   0.36971906   0.00840576
8814.00   0.37061724   0.00836202
8816.00   0.36827770   0.00824423
8818.00   0.35912302   0.00853804
8820.00   0.34765258   0.01024323
8822.00   0.34782574   0.01307920
8824.00   0.33710071   0.01483046
8826.00   0.31967363   0.01541955
8828.00   0.31513664   0.01536648
8830.00   0.33748785   0.01534513
8832.00   0.35739663   0.01414211
8834.00   0.36671665   0.01260202
8836.00   0.37023297   0.01158964
8838.00   0.36958539   0.01139466
8840.00   0.37473747   0.01076255
8842.00   0.38414502   0.00984100
8844.00   0.39172697   0.00934071
8846.00   0.39469406   0.00945883
8848.00   0.39701501   0.00978063
8850.00   0.40484118   0.00986996
8852.00   0.40829349   0.00979289
8854.00   0.40658918   0.00945216
8856.00   0.40207231   0.00897941
8858.00   0.40227374   0.00878258
8860.00   0.40128502   0.00908194
8862.00   0.39913324   0.00976708
8864.00   0.39540318   0.01038241
8866.00   0.38931251   0.01061878
8868.00   0.39765248   0.01064790
8870.00   0.39446744   0.01037162
8872.00   0.38487056   0.00965949
8874.00   0.38282874   0.00881302
8876.00   0.39289936   0.00843663
8878.00   0.39433229   0.00916491
8880.00   0.39846936   0.01124652
8882.00   0.39618489   0.01300027
8884.00   0.39346156   0.01383619
8886.00   0.39201152   0.01386415
8888.00   0.39378321   0.01359719
8890.00   0.39902410   0.01231103
8892.00   0.39958498   0.01034303
8894.00   0.39293802   0.00876548
8896.00   0.39526162   0.00899355
8898.00   0.39593673   0.01007040
8900.00   0.40022525   0.01076739
8902.00   0.40637109   0.01105046
8904.00   0.40793219   0.01102513
8906.00   0.40062240   0.01073405
8908.00   0.39765105   0.00981451
8910.00   0.40185317   0.00910686
8912.00   0.40691447   0.00974773
8914.00   0.41101661   0.01176421
8916.00   0.41144213   0.01378251
8918.00   0.39949417   0.01430104
8920.00   0.39231804   0.01432876
8922.00   0.38972911   0.01387175
8924.00   0.38890377   0.01256552
8926.00   0.39678547   0.01023779
8928.00   0.40294394   0.00901941
8930.00   0.40610632   0.00873555
8932.00   0.40454331   0.00873809
8934.00   0.39833561   0.00862674
8936.00   0.40068719   0.00891242
8938.00   0.40124893   0.00972284
8940.00   0.39696845   0.01034678
8942.00   0.38777018   0.01054333
8944.00   0.37757885   0.01042904
8946.00   0.36238170   0.01021383
8948.00   0.35072327   0.00945896
8950.00   0.35205236   0.00933822
8952.00   0.35945797   0.01055733
8954.00   0.36249018   0.01243043
8956.00   0.36681131   0.01316437
8958.00   0.37236738   0.01340264
8960.00   0.38208756   0.01334719
8962.00   0.39721385   0.01271693
8964.00   0.40694630   0.01084794
8966.00   0.39705011   0.00939099
8968.00   0.39778629   0.00904278
8970.00   0.40805855   0.00926970
8972.00   0.41207412   0.00930662
8974.00   0.40027761   0.00910563
8976.00   0.39540982   0.00893781
8978.00   0.39660776   0.00893904
8980.00   0.39934039   0.00919206
8982.00   0.40089607   0.00970939
8984.00   0.40635777   0.01053604
8986.00   0.42561150   0.01145064
8988.00   0.44221196   0.01200494
8990.00   0.44454995   0.01187007
8992.00   0.42852470   0.01088967
8994.00   0.41212717   0.01022570
8996.00   0.40856948   0.01077258
8998.00   0.41420412   0.01186733
9000.00   0.42625284   0.01276325
9002.00   0.43436715   0.01304687
9004.00   0.42931047   0.01261075
9006.00   0.42497608   0.01141134
9008.00   0.42085782   0.00999658
9010.00   0.41703141   0.00909931
9012.00   0.41646108   0.00897796
9014.00   0.41438150   0.00895982
9016.00   0.41159669   0.00898716
9018.00   0.41240725   0.00902769
9020.00   0.41637015   0.00904598
9022.00   0.41827527   0.00909091
9024.00   0.41256884   0.00908054
9026.00   0.41110948   0.00895842
9028.00   0.41194260   0.00880942
9030.00   0.40650383   0.00874258
9032.00   0.39850271   0.00879179
9034.00   0.39613307   0.00896851
9036.00   0.40026355   0.00911938
9038.00   0.40657529   0.00920055
9040.00   0.41002882   0.00929199
9042.00   0.41259703   0.00940227
9044.00   0.40348971   0.00953571
9046.00   0.40203300   0.00974705
9048.00   0.41011491   0.00995675
9050.00   0.40655577   0.01001861
9052.00   0.40393671   0.00991194
9054.00   0.40344343   0.00945902
9056.00   0.40471241   0.00893628
9058.00   0.40295184   0.00864635
9060.00   0.40241143   0.00871179
9062.00   0.40502015   0.00884920
9064.00   0.40323329   0.00889988
9066.00   0.39991140   0.00892584
9068.00   0.40504432   0.00907845
9070.00   0.41089711   0.00921346
9072.00   0.41588235   0.00916838
9074.00   0.41315499   0.00900105
9076.00   0.41097784   0.00890493
9078.00   0.41376850   0.00900031
9080.00   0.41153470   0.00907664
9082.00   0.40900707   0.00903148
9084.00   0.41040304   0.00902099
9086.00   0.41275072   0.00910391
9088.00   0.40928757   0.00920289
9090.00   0.40226248   0.00917476
9092.00   0.40056065   0.00917037
9094.00   0.40043569   0.00923206
9096.00   0.39735332   0.00935367
9098.00   0.39555183   0.00955086
9100.00   0.39588520   0.00964091
9102.00   0.39388445   0.00960094
9104.00   0.39732739   0.00956680
9106.00   0.40735599   0.00951905
9108.00   0.40947878   0.00915591
9110.00   0.40289593   0.00868390
9112.00   0.39466420   0.00844774
9114.00   0.39089349   0.00848832
9116.00   0.39607644   0.00868374
9118.00   0.40919271   0.00884877
9120.00   0.40508404   0.00870112
9122.00   0.39988339   0.00854417
9124.00   0.39669386   0.00852718
9126.00   0.39901575   0.00870097
9128.00   0.40838471   0.00902063
9130.00   0.41112283   0.00923533
9132.00   0.40853587   0.00928558
9134.00   0.40770248   0.00923695
9136.00   0.41488621   0.00920552
9138.00   0.40095791   0.00883212
9140.00   0.39414445   0.00853874
9142.00   0.39725900   0.00846492
9144.00   0.40370086   0.00858191
9146.00   0.39881673   0.00870577
9148.00   0.39184794   0.00897399
9150.00   0.40165874   0.00947215
9152.00   0.40438601   0.00981695
9154.00   0.39206910   0.00981180
9156.00   0.39053181   0.00961045
9158.00   0.38275561   0.00926605
9160.00   0.37552395   0.00897735
9162.00   0.37392747   0.00880255
9164.00   0.37631169   0.00870125
9166.00   0.37807593   0.00861208
9168.00   0.37552392   0.00856219
9170.00   0.37674177   0.00865691
9172.00   0.38316870   0.00887751
9174.00   0.39359245   0.00910279
9176.00   0.38894355   0.00892065
9178.00   0.37399745   0.00856027
9180.00   0.36834887   0.00838302
9182.00   0.37637568   0.00845321
9184.00   0.37947169   0.00845795
9186.00   0.37699971   0.00833449
9188.00   0.37360585   0.00824623
9190.00   0.37059426   0.00824004
9192.00   0.37197030   0.00832583
9194.00   0.38073418   0.00842676
9196.00   0.37967262   0.00837337
9198.00   0.37392601   0.00825865
9200.00   0.37050745   0.00818836
9202.00   0.37229010   0.00821992
9204.00   0.38153645   0.00837470
9206.00   0.38617542   0.00847401
9208.00   0.38310230   0.00848130
9210.00   0.37886730   0.00853580
9212.00   0.37896383   0.00873946
9214.00   0.38294587   0.00898977
9216.00   0.39344248   0.00922956
9218.00   0.39834699   0.00934878
9220.00   0.39193186   0.00925574
9222.00   0.38109446   0.00901351
9224.00   0.38059342   0.00889517
9226.00   0.38372186   0.00886380
9228.00   0.38263616   0.00876490
9230.00   0.37702084   0.00858784
9232.00   0.36868641   0.00839357
9234.00   0.36519229   0.00831003
9236.00   0.36227134   0.00826222
9238.00   0.36339149   0.00826270
9240.00   0.36574998   0.00829530
9242.00   0.36976656   0.00839523
9244.00   0.36956573   0.00846141
9246.00   0.36653057   0.00846119
9248.00   0.36436716   0.00846004
9250.00   0.36662981   0.00849195
9252.00   0.36460444   0.00841075
9254.00   0.36001286   0.00828754
9256.00   0.36467990   0.00830601
9258.00   0.37315655   0.00840129
9260.00   0.37200126   0.00840191
9262.00   0.36319983   0.00829921
9264.00   0.35915592   0.00818780
9266.00   0.35660362   0.00811130
9268.00   0.35706675   0.00811086
9270.00   0.36031032   0.00818197
9272.00   0.35727021   0.00823634
9274.00   0.35682926   0.00834241
9276.00   0.36303082   0.00855462
9278.00   0.37295142   0.00879116
9280.00   0.37152722   0.00885061
9282.00   0.35912618   0.00878671
9284.00   0.36437953   0.00894620
9286.00   0.36705634   0.00908712
9288.00   0.35915327   0.00910634
9290.00   0.35741606   0.00916471
9292.00   0.35958099   0.00925625
9294.00   0.36205539   0.00937640
9296.00   0.36313531   0.00955212
9298.00   0.36425456   0.00996024
9300.00   0.36013746   0.01097327
9302.00   0.35850286   0.01277062
9304.00   0.35273579   0.01445286
9306.00   0.36045337   0.01655328
9308.00   0.37315604   0.01905878
9310.00   0.34969911   0.02044802
9312.00   0.34456071   0.02059851
9314.00   0.35655728   0.02096035
9316.00   0.37306085   0.02138824
9318.00   0.37358144   0.02100275
9320.00   0.33419335   0.01979714
9322.00   0.33913174   0.01963249
9324.00   0.36714783   0.01956867
9326.00   0.37276861   0.01844385
9328.00   0.34044537   0.01561649
9330.00   0.32483375   0.01309626
9332.00   0.34664810   0.01322469
9334.00   0.37390479   0.01468050
9336.00   0.38183057   0.01570841
9338.00   0.35783696   0.01562553
9340.00   0.36672461   0.01625424
9342.00   0.40029645   0.01616792
9344.00   0.42013252   0.01478679
9346.00   0.39392889   0.01236514
9348.00   0.35355398   0.01083402
9350.00   0.34974018   0.01087555
9352.00   0.36699608   0.01202355
9354.00   0.38657930   0.01296014
9356.00   0.39207220   0.01277362
9358.00   0.37509736   0.01161128
9360.00   0.35342488   0.01070428
9362.00   0.34656218   0.01048510
9364.00   0.35833159   0.01113990
9366.00   0.37568429   0.01301888
9368.00   0.39350185   0.01749825
9370.00   0.39888310   0.02392638
9372.00   0.38974437   0.02794159
9374.00   0.37474215   0.02934397
9376.00   0.38294426   0.02986975
9378.00   0.41416880   0.03081222
9380.00   0.41190028   0.02656013
9382.00   0.39047751   0.01920803
9384.00   0.37277260   0.01256010
9386.00   0.37805983   0.01116357
9388.00   0.36575842   0.01017559
9390.00   0.35307583   0.00945264
9392.00   0.34733519   0.00917392
9394.00   0.34840736   0.00949455
9396.00   0.35216925   0.01038775
9398.00   0.35955235   0.01158934
9400.00   0.36279562   0.01216818
9402.00   0.36150065   0.01215815
9404.00   0.35387865   0.01184251
9406.00   0.34931216   0.01128204
9408.00   0.36577883   0.01069254
9410.00   0.36929679   0.01029998
9412.00   0.35617289   0.01041543
9414.00   0.34064397   0.01120225
9416.00   0.34544626   0.01261594
9418.00   0.35407737   0.01351798
9420.00   0.34214774   0.01386272
9422.00   0.32633558   0.01394356
9424.00   0.32802123   0.01395330
9426.00   0.36876991   0.01334210
9428.00   0.38823080   0.01220067
9430.00   0.38416684   0.01129384
9432.00   0.36329213   0.01184933
9434.00   0.35207915   0.01492117
9436.00   0.36723825   0.01991630
9438.00   0.37590709   0.02472889
9440.00   0.38848424   0.02678762
9442.00   0.40086010   0.02478777
9444.00   0.36481157   0.01894485
9446.00   0.34664091   0.01358448
9448.00   0.34055534   0.01068854
9450.00   0.33923754   0.01082816
9452.00   0.34516278   0.01279462
9454.00   0.35943350   0.01598480
9456.00   0.35650840   0.01789679
9458.00   0.36376831   0.01845357
9460.00   0.37551141   0.01777087
9462.00   0.36996457   0.01586144
9464.00   0.35246804   0.01287519
9466.00   0.34760380   0.01102563
9468.00   0.34897852   0.01109878
9470.00   0.35255113   0.01315682
9472.00   0.35464096   0.01636432
9474.00   0.34840918   0.01888852
9476.00   0.35741830   0.02038889
9478.00   0.36916053   0.02122325
9480.00   0.38129497   0.02063445
9482.00   0.37392020   0.01650024
9484.00   0.35223898   0.01207701
9486.00   0.33727136   0.00972441
9488.00   0.32957309   0.00940234
9490.00   0.32764205   0.00977831
9492.00   0.33719000   0.01060552
9494.00   0.35347125   0.01207557
9496.00   0.35626745   0.01431930
9498.00   0.36041334   0.01640228
9500.00   0.37235132   0.01720207
9502.00   0.36928090   0.01552371
9504.00   0.35394356   0.01366497
9506.00   0.33596945   0.01198049
9508.00   0.32572833   0.01060559
9510.00   0.32511154   0.00972352
9512.00   0.32959101   0.01023948
9514.00   0.33657131   0.01228865
9516.00   0.34835467   0.01465572
9518.00   0.35541213   0.01617935
9520.00   0.35838106   0.01622398
9522.00   0.36290327   0.01552411
9524.00   0.35967460   0.01387425
9526.00   0.35357258   0.01200596
9528.00   0.36073148   0.01093331
9530.00   0.37009588   0.01085853
9532.00   0.36157560   0.01083498
9534.00   0.35982451   0.01098341
9536.00   0.35319421   0.01099251
9538.00   0.33857504   0.01076765
9540.00   0.34117949   0.01070480
9542.00   0.35685658   0.01081492
9544.00   0.35888603   0.01094808
9546.00   0.34310138   0.01131701
9548.00   0.32806939   0.01212682
9550.00   0.35537216   0.01237451
#9552.00   0.25630072   0.01252978
#9554.00   -0.36496079   0.01414436
9556.00   0.34898949   0.01352603
9558.00   0.34626329   0.01230673
9560.00   0.33921015   0.01214661
9562.00   0.34707135   0.01451010
#9564.00   -0.10475504   0.01837519
#9566.00   0.38144207   0.01622225
9568.00   0.33674645   0.01620042
9570.00   0.34115028   0.01477260
9572.00   0.34010684   0.01264931
9574.00   0.33284977   0.01063554
9576.00   0.32959434   0.00966464
9578.00   0.34397492   0.00985541
9580.00   0.35313204   0.01005675
9582.00   0.34078541   0.00980998
9584.00   0.32853922   0.00961369
9586.00   0.33614871   0.00999654
9588.00   0.35562339   0.01071398
9590.00   0.36659840   0.01105935
9592.00   0.35576975   0.01072392
9594.00   0.34042415   0.01015331
9596.00   0.33873954   0.00984935
9598.00   0.34881675   0.00976516
9600.00   0.34031734   0.00978743
9602.00   0.32848725   0.01023166
9604.00   0.32476571   0.01090956
9606.00   0.33413503   0.01136204
9608.00   0.32709029   0.01108579
9610.00   0.32689029   0.01070184
9612.00   0.33087716   0.01043327
9614.00   0.33296704   0.01052007
9616.00   0.33146408   0.01111680
9618.00   0.33535552   0.01188291
9620.00   0.33884573   0.01229779
9622.00   0.34008834   0.01227818
9624.00   0.34375688   0.01183659
9626.00   0.35102215   0.01099069
9628.00   0.34397009   0.01003057
9630.00   0.32510033   0.00939943
9632.00   0.31138456   0.00927774
9634.00   0.31847957   0.00961273
9636.00   0.33707473   0.01002983
9638.00   0.33670947   0.00989896
9640.00   0.32672271   0.00961848
9642.00   0.32584333   0.00953982
9644.00   0.33368692   0.00968980
9646.00   0.33673906   0.00972288
9648.00   0.33228624   0.00959025
9650.00   0.33416975   0.00957767
9652.00   0.33375776   0.00963069
9654.00   0.32663405   0.00964831
9656.00   0.32084447   0.00974274
9658.00   0.31887886   0.01000008
9660.00   0.32727218   0.01041679
9662.00   0.33305764   0.01085001
9664.00   0.32454136   0.01119715
9666.00   0.31774420   0.01139582
9668.00   0.31959099   0.01141735
9670.00   0.31934586   0.01118018
9672.00   0.31470397   0.01082581
9674.00   0.31166318   0.01065904
9676.00   0.31122136   0.01109001
9678.00   0.31929436   0.01188589
9680.00   0.32761642   0.01236941
9682.00   0.32638928   0.01226110
9684.00   0.32860309   0.01196182
9686.00   0.31879476   0.01134512
9688.00   0.31504902   0.01064082
9690.00   0.32112101   0.01036699
9692.00   0.32859182   0.01091023
9694.00   0.31392446   0.01185758
9696.00   0.30694714   0.01260692
9698.00   0.31104270   0.01300576
9700.00   0.31734240   0.01299909
9702.00   0.31764695   0.01255239
9704.00   0.31200179   0.01155274
9706.00   0.31134287   0.01078728
9708.00   0.31183574   0.01059319
9710.00   0.30683607   0.01085449
9712.00   0.30502978   0.01151292
9714.00   0.31802616   0.01304789
9716.00   0.31149513   0.01396714
9718.00   0.30235270   0.01419933
9720.00   0.30728611   0.01412997
9722.00   0.32476985   0.01409963
9724.00   0.32139620   0.01307906
9726.00   0.30967429   0.01143554
9728.00   0.29845265   0.01018172
9730.00   0.28968957   0.01008797
9732.00   0.29851326   0.01094898
9734.00   0.32255051   0.01201323
9736.00   0.32131174   0.01239796
9738.00   0.31019869   0.01223885
9740.00   0.31182551   0.01194216
9742.00   0.32478797   0.01168079
9744.00   0.32117143   0.01117716
9746.00   0.31262651   0.01069738
9748.00   0.30835745   0.01035939
9750.00   0.30571106   0.01009372
9752.00   0.29701710   0.00968509
9754.00   0.29945230   0.00954222
9756.00   0.30376410   0.00953116
9758.00   0.30343080   0.00950227
9760.00   0.29911748   0.00942690
9762.00   0.30794224   0.00951991
9764.00   0.31329158   0.00944342
9766.00   0.30933082   0.00919805
9768.00   0.29958653   0.00897104
9770.00   0.29827005   0.00899762
9772.00   0.30454299   0.00916403
9774.00   0.30357441   0.00924607
9776.00   0.29933968   0.00929405
9778.00   0.29986075   0.00942929
9780.00   0.30804715   0.00978986
9782.00   0.32020155   0.01084548
9784.00   0.32175681   0.01291376
9786.00   0.31555709   0.01547154
9788.00   0.31474110   0.01774691
9790.00   0.33109012   0.01880967
9792.00   0.33231252   0.01899062
9794.00   0.31696877   0.01828469
9796.00   0.29929343   0.01673566
9798.00   0.29412422   0.01471737
9800.00   0.30995652   0.01377313
9802.00   0.32063511   0.01326238
9804.00   0.31498221   0.01249722
9806.00   0.30756131   0.01164001
9808.00   0.31108412   0.01138755
9810.00   0.31833526   0.01164961
9812.00   0.30947426   0.01165372
9814.00   0.30388716   0.01147838
9816.00   0.30893108   0.01120183
9818.00   0.30874777   0.01079367
9820.00   0.30495477   0.01042536
9822.00   0.31044129   0.01038917
9824.00   0.31047258   0.01039800
9826.00   0.30244648   0.01029082
9828.00   0.30945110   0.01028399
9830.00   0.31962976   0.01029993
9832.00   0.31688070   0.01011984
9834.00   0.30859986   0.00987016
9836.00   0.31283316   0.00982499
9838.00   0.31250736   0.00986891
9840.00   0.31462297   0.01026561
9842.00   0.31407967   0.01117040
9844.00   0.31332812   0.01225223
9846.00   0.30731601   0.01297646
9848.00   0.31213894   0.01324033
9850.00   0.31823155   0.01315375
9852.00   0.31793529   0.01255035
9854.00   0.31438741   0.01148462
9856.00   0.30570066   0.01037546
9858.00   0.31034067   0.01005147
9860.00   0.30145520   0.00993042
9862.00   0.29457316   0.01031397
9864.00   0.30559683   0.01189800
9866.00   0.32016656   0.01482695
9868.00   0.30559197   0.01766234
9870.00   0.29436994   0.01920580
9872.00   0.29750407   0.01963613
9874.00   0.30615607   0.01909529
9876.00   0.31160662   0.01736632
9878.00   0.30607900   0.01432648
9880.00   0.30921438   0.01201141
9882.00   0.30899575   0.01106658
9884.00   0.29782286   0.01097035
9886.00   0.29829991   0.01119270
9888.00   0.30392194   0.01210596
9890.00   0.30389923   0.01331652
9892.00   0.30633622   0.01427514
9894.00   0.31392029   0.01462559
9896.00   0.30403510   0.01450633
9898.00   0.29617032   0.01383374
9900.00   0.29992309   0.01269127
9902.00   0.30879256   0.01155960
9904.00   0.30856824   0.01124247
9906.00   0.29764727   0.01210652
9908.00   0.30218410   0.01468911
9910.00   0.31596205   0.01758752
9912.00   0.32345456   0.01964173
9914.00   0.31911191   0.02022482
9916.00   0.31269273   0.02000876
9918.00   0.30169630   0.01844455
9920.00   0.29322195   0.01577761
9922.00   0.28722727   0.01285005
9924.00   0.29239690   0.01143780
9926.00   0.30501196   0.01118285
9928.00   0.30936655   0.01114223
9930.00   0.30273584   0.01111637
9932.00   0.29641733   0.01140283
9934.00   0.29718637   0.01240732
9936.00   0.30076876   0.01433710
9938.00   0.30861065   0.01700577
9940.00   0.31782568   0.01985699
9942.00   0.31512472   0.02228047
9944.00   0.30651566   0.02354386
9946.00   0.30600384   0.02345186
9948.00   0.30356726   0.02268146
9950.00   0.29743317   0.02184460
9952.00   0.29489681   0.02138968
9954.00   0.30166864   0.02137742
9956.00   0.32465589   0.02226642
9958.00   0.33941570   0.02315815
9960.00   0.33789703   0.02309398
9962.00   0.31173575   0.02139173
9964.00   0.30846980   0.01953145
9966.00   0.30651671   0.01785390
9968.00   0.30417892   0.01639154
9970.00   0.29415902   0.01528884
9972.00   0.29887483   0.01517661
9974.00   0.29236081   0.01501927
9976.00   0.28956261   0.01455004
9978.00   0.28981537   0.01376310
9980.00   0.29653451   0.01296832
9982.00   0.30634475   0.01264230
9984.00   0.29246315   0.01217550
9986.00   0.29165122   0.01193156
9988.00   0.29479343   0.01183778
9990.00   0.28637236   0.01181324
9992.00   0.28865805   0.01215003
9994.00   0.29657984   0.01279785
9996.00   0.29169905   0.01337936
9998.00   0.28094986   0.01376664
10000.00   0.28805721   0.01407728
10002.00   0.29727009   0.01455601
10004.00   0.30441070   0.01595838
10006.00   0.30091873   0.01909347
10008.00   0.27878869   0.02301217
10010.00   0.25789800   0.02598275
10012.00   0.27139103   0.02723390
10014.00   0.28831258   0.02712275
10016.00   0.28876081   0.02551122
10018.00   0.28475308   0.02256951
10020.00   0.28995848   0.01995982
10022.00   0.29232350   0.01922177
10024.00   0.28529942   0.01909820
10026.00   0.27401361   0.01884747
10028.00   0.27540150   0.01809102
10030.00   0.29397228   0.01664436
10032.00   0.29414263   0.01488357
10034.00   0.29105711   0.01406029
10036.00   0.28982219   0.01441181
10038.00   0.28467914   0.01469061
10040.00   0.28140494   0.01500145
10042.00   0.27549168   0.01507300
10044.00   0.28006831   0.01514946
10046.00   0.29204819   0.01502593
10048.00   0.29505467   0.01441290
10050.00   0.29307643   0.01370665
10052.00   0.27948147   0.01372942
10054.00   0.28147110   0.01484579
10056.00   0.28691712   0.01638458
10058.00   0.28208819   0.01740696
10060.00   0.29041693   0.01807736
10062.00   0.29530296   0.01846121
10064.00   0.28815642   0.01826937
10066.00   0.27300343   0.01745342
10068.00   0.27318677   0.01678981
10070.00   0.27935582   0.01652939
10072.00   0.28261665   0.01645656
10074.00   0.28922546   0.01733688
10076.00   0.29947910   0.01965149
10078.00   0.27794433   0.02254141
10080.00   0.27196234   0.02443162
10082.00   0.27755466   0.02522724
10084.00   0.28183243   0.02479457
10086.00   0.27666572   0.02296061
10088.00   0.28671876   0.01973071
10090.00   0.26956567   0.01679726
10092.00   0.24883826   0.01532323
10094.00   0.24596737   0.01547940
10096.00   0.26530665   0.01643149
10098.00   0.28358153   0.01802893
10100.00   0.28825292   0.01935977
10102.00   0.29239285   0.02010200
10104.00   0.30040517   0.02022155
10106.00   0.29803681   0.01975198
10108.00   0.27957332   0.01832045
10110.00   0.26988813   0.01664542
10112.00   0.27813795   0.01576471
10114.00   0.29196373   0.01642687
10116.00   0.29739758   0.01867392
10118.00   0.29780316   0.02268385
10120.00   0.30244181   0.02646551
10122.00   0.29906687   0.02866598
10124.00   0.29218122   0.02905473
10126.00   0.27719077   0.02845731
10128.00   0.27682140   0.02588602
10130.00   0.28281239   0.02214817
10132.00   0.28256264   0.01880541
10134.00   0.27576122   0.01770467
10136.00   0.27559361   0.01745585
10138.00   0.27654895   0.01760457
10140.00   0.28462720   0.01800098
10142.00   0.28241023   0.01842509
10144.00   0.27313492   0.01907116
10146.00   0.28676781   0.02039165
10148.00   0.28703478   0.02181384
10150.00   0.27405545   0.02292618
10152.00   0.28666013   0.02381177
10154.00   0.29048169   0.02418210
10156.00   0.27576551   0.02369648
10158.00   0.27160856   0.02265910
10160.00   0.26952261   0.02179918
10162.00   0.27615038   0.02212598
10164.00   0.29371461   0.02424384
10166.00   0.28944436   0.02805804
10168.00   0.30352759   0.03156506
10170.00   0.31121278   0.03362081
10172.00   0.28686467   0.03384170
10174.00   0.29550505   0.03322463
10176.00   0.25625291   0.03025963
10178.00   0.24499302   0.02672411
10180.00   0.27421248   0.02468081
10182.00   0.28138965   0.02530229
10184.00   0.29300901   0.02790347
10186.00   0.27698243   0.02971642
10188.00   0.26059768   0.03057744
10190.00   0.26933527   0.03072005
10192.00   0.29257444   0.03027171
10194.00   0.28016484   0.02812788
10196.00   0.28086829   0.02610736
10198.00   0.28063294   0.02541108
10200.00   0.27620742   0.02638318
10202.00   0.28355476   0.02859629
10204.00   0.31274024   0.03253645
10206.00   0.28479603   0.03583843
10208.00   0.26949212   0.03791656
10210.00   0.32258824   0.03875246
10212.00   0.34321347   0.03814371
10214.00   0.29574203   0.03523411
10216.00   0.27071276   0.03119400
10218.00   0.27749425   0.02826404
10220.00   0.28668207   0.02847852
10222.00   0.27213407   0.03020757
10224.00   0.25067821   0.03202053
10226.00   0.26994193   0.03366422
10228.00   0.29140025   0.03427418
10230.00   0.27916980   0.03313450
10232.00   0.26383400   0.03057490
10234.00   0.28558365   0.02826730
10236.00   0.30259344   0.02617715
10238.00   0.29791376   0.02433101
10240.00   0.28934571   0.02316787
10242.00   0.29258040   0.02299869
10244.00   0.28065059   0.02289351
10246.00   0.26378849   0.02272282
10248.00   0.26795366   0.02281993
10250.00   0.29528907   0.02331139
10252.00   0.28260982   0.02341202
10254.00   0.26779541   0.02348129
10256.00   0.26483035   0.02363184
10258.00   0.27098629   0.02393227
10260.00   0.26570371   0.02436876
10262.00   0.26714966   0.02508959
10264.00   0.27016497   0.02615286
10266.00   0.27230236   0.02746534
10268.00   0.26991323   0.02865955
10270.00   0.26728430   0.02935419
10272.00   0.26968405   0.02975896
10274.00   0.27077475   0.03018810
10276.00   0.27224079   0.03206493
10278.00   0.27447486   0.03750275
10280.00   0.29543504   0.04851231
10282.00   0.29106304   0.05941512
10284.00   0.27010897   0.06614660
10286.00   0.24157043   0.06870119
10288.00   0.25599864   0.06907635
10290.00   0.26922080   0.06588238
10292.00   0.29084265   0.05959596
10294.00   0.29062721   0.05309927
10296.00   0.29436538   0.04906812
10298.00   0.28855601   0.04677093
10300.00   0.26600224   0.04272933
10302.00   0.26379457   0.03868618
10304.00   0.27741849   0.03663165
10306.00   0.29037011   0.03706108
10308.00   0.29633036   0.03725298
10310.00   0.29364416   0.03695204
10312.00   0.28808460   0.03589826
10314.00   0.27793726   0.03417145
10316.00   0.26733321   0.03248959
10318.00   0.27389002   0.03184992
10320.00   0.28456438   0.03205909
10322.00   0.28569385   0.03270065
10324.00   0.28237084   0.03338539
10326.00   0.28726614   0.03387103
10328.00   0.27953190   0.03382556
10330.00   0.27997014   0.03389303
10332.00   0.29034445   0.03446094
10334.00   0.30019346   0.03522822
10336.00   0.28735039   0.03563368
10338.00   0.27832267   0.03730666
10340.00   0.29329067   0.04060776
10342.00   0.27587840   0.04415562
10344.00   0.23811577   0.04717222
10346.00   0.27383450   0.04947120
10348.00   0.30611181   0.05078770
10350.00   0.29495993   0.05014913
10352.00   0.28255841   0.04773783
10354.00   0.28028727   0.04446117
10356.00   0.28631303   0.04254463
10358.00   0.29035068   0.04186185
10360.00   0.29966232   0.04202740
10362.00   0.30112883   0.04332042
10364.00   0.26356277   0.04737858
10366.00   0.26826289   0.05808078
10368.00   0.24387689   0.06923129
10370.00   0.28538802   0.07726628
10372.00   0.29261589   0.08076192
10374.00   0.22242038   0.08030915
10376.00   0.20925850   0.07535231
10378.00   0.21977007   0.06492608
10380.00   0.24086928   0.05462546
10382.00   0.26178813   0.04921430
10384.00   0.31872115   0.04852046
10386.00   0.30070361   0.04879971
10388.00   0.30984324   0.05114442
10390.00   0.32621643   0.05603306
10392.00   0.33103284   0.06170046
10394.00   0.31105629   0.06515631
10396.00   0.28559402   0.06657886
10398.00   0.31578004   0.06684133
10400.00   0.32016900   0.06432328
10402.00   0.27255160   0.05900030
10404.00   0.27102783   0.05554361
10406.00   0.28282937   0.05504543
10408.00   0.29030624   0.05736577
10410.00   0.35051259   0.06583192
10412.00   0.40204191   0.07963435
10414.00   0.46599618   0.09354798
10416.00   0.46631590   0.10098803
10418.00   0.39182600   0.10339891
10420.00   0.35607800   0.10158175
10422.00   0.32278988   0.09410436
10424.00   0.27926779   0.07912084
10426.00   0.29822618   0.06887021
10428.00   0.32324103   0.06411565
10430.00   0.32324913   0.06205120
10432.00   0.30185869   0.05988043
10434.00   0.28026420   0.05853247
10436.00   0.26168370   0.05767899
10438.00   0.27761984   0.05809460
10440.00   0.32296750   0.06023539
10442.00   0.35374823   0.06308988
10444.00   0.27993894   0.06674359
10446.00   0.27274227   0.07143234
10448.00   0.31461006   0.07513055
10450.00   0.31829765   0.07668614
10452.00   0.23421109   0.07551666
10454.00   0.23012276   0.07237358
10456.00   0.27885002   0.06852407
10458.00   0.31831765   0.06650406
10460.00   0.29265672   0.06890409
10462.00   0.26039839   0.07790694
10464.00   0.27843764   0.08980671
10466.00   0.29353422   0.09758878
10468.00   0.32093295   0.10082512
10470.00   0.37712029   0.10092020
10472.00   0.26637426   0.09319597
10474.00   0.20785600   0.08162874
10476.00   0.23914461   0.07270946
10478.00   0.30321628   0.06899413
10480.00   0.29667264   0.06784181
10482.00   0.31191733   0.06786489
10484.00   0.34796283   0.06854884
10486.00   0.35064554   0.06875392
10488.00   0.31102535   0.06810012
10490.00   0.31445697   0.06717557
10492.00   0.37207222   0.06807536
10494.00   0.37441048   0.06826828
10496.00   0.33795246   0.06808355
10498.00   0.29641196   0.06817805
10500.00   0.25030747   0.06823248
10502.00   0.22771792   0.07005472
10504.00   0.25822151   0.07362530
10506.00   0.29956368   0.07714894
10508.00   0.31755006   0.07905085
10510.00   0.29875812   0.07936994
10512.00   0.28887504   0.07768006
10514.00   0.30947158   0.07616924
10516.00   0.33709320   0.07653283
10518.00   0.34793290   0.08034357
10520.00   0.29690146   0.08473843
10522.00   0.28612375   0.08776361
10524.00   0.25173256   0.08850805
10526.00   0.22347657   0.08743203
10528.00   0.23654942   0.08435702
10530.00   0.33268449   0.08052202
10532.00   0.30404639   0.07527605
10534.00   0.26353034   0.07160655
10536.00   0.27297089   0.07110765
10538.00   0.29092777   0.07178111
10540.00   0.28667572   0.07151920
10542.00   0.28381309   0.07104275
10544.00   0.28100631   0.07070232
10546.00   0.28074923   0.07107590
10548.00   0.31284285   0.07365343
10550.00   0.36150241   0.07486171
10552.00   0.37649772   0.07488833
10554.00   0.36157489   0.07482599
10556.00   0.33840799   0.07501340
10558.00   0.36209056   0.07524023
10560.00   0.31857222   0.07424015
10562.00   0.31020847   0.07410836
10564.00   0.33831432   0.07538605
10566.00   0.39283407   0.07883120
10568.00   0.34851816   0.07976118
10570.00   0.28180525   0.07996734
10572.00   0.24042702   0.07952172
10574.00   0.27815494   0.08023258
10576.00   0.39027849   0.08260884
10578.00   0.38365102   0.08343213
10580.00   0.35783696   0.08517379
10582.00   0.33572459   0.08679635
10584.00   0.35344657   0.08842766
10586.00   0.29893506   0.08887788
10588.00   0.35833871   0.08947861
10590.00   0.32046130   0.08624104
10592.00   0.27582964   0.08296111
10594.00   0.26497081   0.08314127
10596.00   0.28401068   0.08421221
10598.00   0.30572599   0.08302474
10600.00   0.31636369   0.08219904
10602.00   0.31568968   0.08299969
10604.00   0.30376923   0.08384669
10606.00   0.32965603   0.08470338
10608.00   0.23989403   0.08278642
10610.00   0.15019780   0.08087715
10612.00   0.16436933   0.08199447
10614.00   0.24455363   0.08456376
10616.00   0.29164132   0.08620355
10618.00   0.33172014   0.08702809
10620.00   0.36838365   0.08714107
10622.00   0.39944530   0.08719609
10624.00   0.31229708   0.08668435
10626.00   0.30562636   0.08769155
10628.00   0.36831978   0.09017464
10630.00   0.41195926   0.09162038
10632.00   0.36406744   0.09061989
10634.00   0.33644691   0.09114752
10636.00   0.19650646   0.08960030
10638.00   0.20406157   0.08986803
10640.00   0.25038323   0.09092208
10642.00   0.21171109   0.09042784
10644.00   0.23380880   0.08615859
10646.00   0.31015325   0.09472376
10648.00   0.32866979   0.09657768
10650.00   0.29644945   0.09642831
