# Converted from sn2016coj-20160612.214-ir.ms.fits
# wl (A)     fl (flam)   er (flam, opt)
5892.000000    22.493073    0.049064
5894.000000    22.161409    0.048551
5896.000000    21.980330    0.048352
5898.000000    22.276243    0.044743
5900.000000    22.290377    0.044065
5902.000000    22.843212    0.049022
5904.000000    22.710163    0.043310
5906.000000    22.935839    0.047166
5908.000000    22.810759    0.047743
5910.000000    22.323709    0.048924
5912.000000    22.312176    0.047984
5914.000000    22.315702    0.046110
5916.000000    22.166754    0.043556
5918.000000    21.858078    0.041800
5920.000000    21.913931    0.041967
5922.000000    21.901844    0.043776
5924.000000    22.010370    0.044567
5926.000000    22.291550    0.042895
5928.000000    22.357260    0.042682
5930.000000    22.355457    0.043722
5932.000000    22.237396    0.042541
5934.000000    22.117245    0.044987
5936.000000    22.057642    0.043644
5938.000000    22.138842    0.043397
5940.000000    21.782299    0.048073
5942.000000    21.983175    0.043419
5944.000000    22.168941    0.045265
5946.000000    22.066631    0.042427
5948.000000    21.893982    0.042940
5950.000000    22.410435    0.051927
5952.000000    22.419670    0.048916
5954.000000    22.182590    0.045990
5956.000000    22.175112    0.042124
5958.000000    22.077002    0.042283
5960.000000    22.198717    0.042271
5962.000000    22.276424    0.042421
5964.000000    22.107143    0.042205
5966.000000    22.306467    0.042867
5968.000000    21.968115    0.042437
5970.000000    22.171879    0.042170
5972.000000    22.287956    0.042423
5974.000000    22.149042    0.042245
5976.000000    21.966814    0.042042
5978.000000    22.100943    0.042244
5980.000000    22.138697    0.042989
5982.000000    21.845144    0.046433
5984.000000    22.002594    0.041632
5986.000000    22.002758    0.046596
5988.000000    21.974201    0.043706
5990.000000    21.770367    0.042612
5992.000000    21.873829    0.041824
5994.000000    21.823095    0.042393
5996.000000    21.850136    0.042153
5998.000000    21.698652    0.041740
6000.000000    21.918985    0.041822
6002.000000    21.291523    0.041797
6004.000000    21.477060    0.042450
6006.000000    21.446838    0.041513
6008.000000    21.196293    0.041634
6010.000000    20.886696    0.044781
6012.000000    21.035917    0.041650
6014.000000    21.081898    0.046535
6016.000000    20.678701    0.042534
6018.000000    20.451204    0.041186
6020.000000    20.026348    0.040789
6022.000000    19.922428    0.040540
6024.000000    19.600264    0.044307
6026.000000    19.251141    0.039999
6028.000000    19.121304    0.042309
6030.000000    18.746933    0.039380
6032.000000    18.318171    0.041544
6034.000000    17.723295    0.040790
6036.000000    17.336582    0.037068
6038.000000    16.632607    0.045976
6040.000000    16.165007    0.040796
6042.000000    15.708491    0.036272
6044.000000    15.327354    0.037592
6046.000000    14.821813    0.037360
6048.000000    14.200768    0.036380
6050.000000    13.547607    0.035017
6052.000000    13.009916    0.033434
6054.000000    12.627625    0.032532
6056.000000    12.015040    0.031850
6058.000000    11.480173    0.032851
6060.000000    10.998552    0.034560
6062.000000    10.636612    0.030563
6064.000000    10.224179    0.029718
6066.000000    9.957697    0.031124
6068.000000    9.654513    0.030230
6070.000000    9.330280    0.032036
6072.000000    9.108386    0.028832
6074.000000    8.642509    0.027706
6076.000000    8.318027    0.030553
6078.000000    8.238705    0.030952
6080.000000    8.040940    0.029098
6082.000000    7.723466    0.027122
6084.000000    7.530331    0.027006
6086.000000    7.415024    0.025944
6088.000000    7.339475    0.025866
6090.000000    7.152435    0.025684
6092.000000    6.968894    0.025472
6094.000000    6.818617    0.025661
6096.000000    6.709950    0.024907
6098.000000    6.560475    0.026910
6100.000000    6.424181    0.026766
6102.000000    6.383135    0.025288
6104.000000    6.265743    0.025382
6106.000000    6.352317    0.027426
6108.000000    6.347240    0.025985
6110.000000    6.191295    0.025337
6112.000000    6.045420    0.024831
6114.000000    6.004176    0.024955
6116.000000    5.997757    0.024532
6118.000000    5.885873    0.024135
6120.000000    5.847653    0.023843
6122.000000    5.898037    0.024055
6124.000000    5.866345    0.023933
6126.000000    5.822939    0.023534
6128.000000    5.795427    0.023510
6130.000000    5.761918    0.023468
6132.000000    5.893539    0.023934
6134.000000    5.800581    0.024373
6136.000000    5.787937    0.023714
6138.000000    5.724988    0.023595
6140.000000    5.869550    0.023611
6142.000000    5.816516    0.023637
6144.000000    5.933846    0.023705
6146.000000    5.899768    0.023629
6148.000000    5.964376    0.023617
6150.000000    5.986678    0.024263
6152.000000    6.087400    0.024222
6154.000000    6.171069    0.024669
6156.000000    6.254767    0.024311
6158.000000    6.284612    0.025696
6160.000000    6.492220    0.025121
6162.000000    6.488560    0.025358
6164.000000    6.772777    0.026081
6166.000000    6.792027    0.026972
6168.000000    6.844485    0.026766
6170.000000    6.948426    0.026739
6172.000000    7.075531    0.025428
6174.000000    7.200775    0.025518
6176.000000    7.391360    0.025539
6178.000000    7.499875    0.025521
6180.000000    7.668397    0.025571
6182.000000    7.952639    0.027561
6184.000000    8.168082    0.026665
6186.000000    8.383245    0.028329
6188.000000    8.335604    0.027211
6190.000000    8.518888    0.029930
6192.000000    8.902737    0.031253
6194.000000    8.997268    0.029006
6196.000000    9.230595    0.029069
6198.000000    9.655872    0.031029
6200.000000    9.672494    0.028166
6202.000000    9.997170    0.032047
6204.000000    10.233048    0.029434
6206.000000    10.332500    0.028856
6208.000000    10.639518    0.029257
6210.000000    10.750659    0.029503
6212.000000    11.115981    0.029882
6214.000000    11.267403    0.029896
6216.000000    11.514839    0.030497
6218.000000    11.842682    0.032377
6220.000000    12.095337    0.032897
6222.000000    12.377613    0.033655
6224.000000    12.783090    0.032657
6226.000000    12.944444    0.032455
6228.000000    12.979447    0.038861
6230.000000    13.336677    0.034983
6232.000000    13.668792    0.032663
6234.000000    13.813350    0.035867
6236.000000    14.084637    0.033361
6238.000000    14.230208    0.034322
6240.000000    14.575897    0.033425
6242.000000    14.760638    0.034786
6244.000000    15.064277    0.035506
6246.000000    15.197303    0.034733
6248.000000    15.465848    0.035817
6250.000000    15.530784    0.040580
6252.000000    15.661509    0.035535
6254.000000    15.967417    0.035339
6256.000000    16.304947    0.038578
6258.000000    16.403858    0.036522
6260.000000    16.451958    0.035562
6262.000000    16.578609    0.038400
6264.000000    16.687260    0.035984
6266.000000    16.965219    0.035626
6268.000000    17.065563    0.038891
6270.000000    17.238052    0.037359
6272.000000    17.440727    0.037026
6274.000000    17.581980    0.038085
6276.000000    17.698341    0.043341
6278.000000    17.889305    0.038684
6280.000000    18.052326    0.037079
6282.000000    18.026785    0.040649
6284.000000    18.022717    0.038988
6286.000000    18.293257    0.039505
6288.000000    18.546055    0.039641
6290.000000    18.426453    0.038936
6292.000000    18.508608    0.041569
6294.000000    18.572224    0.037440
6296.000000    18.681271    0.038312
6298.000000    18.642496    0.044804
6300.000000    18.758823    0.045253
6302.000000    18.945780    0.041302
6304.000000    18.745661    0.041702
6306.000000    18.840559    0.039249
6308.000000    18.857918    0.039391
6310.000000    18.886621    0.037920
6312.000000    19.156212    0.038224
6314.000000    19.135614    0.038263
6316.000000    19.237148    0.037374
6318.000000    19.360039    0.039920
6320.000000    19.252913    0.043090
6322.000000    19.187349    0.037754
6324.000000    19.213940    0.041196
6326.000000    19.295952    0.037494
6328.000000    19.453842    0.039989
6330.000000    19.266771    0.038722
6332.000000    19.350796    0.037602
6334.000000    19.606918    0.037500
6336.000000    19.387527    0.040742
6338.000000    19.320107    0.041082
6340.000000    19.487062    0.038804
6342.000000    19.348858    0.037339
6344.000000    19.196806    0.041472
6346.000000    19.493553    0.039144
6348.000000    19.524363    0.040316
6350.000000    19.221962    0.041182
6352.000000    19.197208    0.042003
6354.000000    19.256027    0.039596
6356.000000    19.310242    0.037307
6358.000000    19.353683    0.037290
6360.000000    19.155437    0.038676
6362.000000    19.277960    0.040654
6364.000000    19.464142    0.038876
6366.000000    19.419582    0.037804
6368.000000    19.377523    0.037160
6370.000000    19.401407    0.039601
6372.000000    19.250473    0.038508
6374.000000    19.141891    0.039333
6376.000000    19.338495    0.037434
6378.000000    19.330250    0.037230
6380.000000    19.434778    0.038250
6382.000000    19.242109    0.042276
6384.000000    19.543180    0.037307
6386.000000    19.152456    0.041668
6388.000000    19.037033    0.037763
6390.000000    19.049103    0.037964
6392.000000    19.121315    0.037714
6394.000000    19.078535    0.038264
6396.000000    19.255129    0.038896
6398.000000    19.307676    0.038143
6400.000000    19.118711    0.036816
6402.000000    19.282509    0.038713
6404.000000    19.045010    0.037461
6406.000000    18.795277    0.037828
6408.000000    18.611361    0.043519
6410.000000    18.910597    0.037374
6412.000000    18.858801    0.038451
6414.000000    18.871281    0.039794
6416.000000    18.992319    0.036606
6418.000000    18.907482    0.038611
6420.000000    18.803377    0.039404
6422.000000    18.822231    0.037490
6424.000000    18.624350    0.036660
6426.000000    19.040960    0.039083
6428.000000    18.834688    0.036736
6430.000000    18.960377    0.037413
6432.000000    18.832243    0.037205
6434.000000    18.657549    0.036581
6436.000000    18.718447    0.037396
6438.000000    18.587784    0.036374
6440.000000    18.385290    0.037928
6442.000000    18.486826    0.036511
6444.000000    18.292980    0.036457
6446.000000    18.631420    0.036342
6448.000000    18.552084    0.039527
6450.000000    18.366543    0.036954
6452.000000    18.165071    0.040513
6454.000000    18.279533    0.036226
6456.000000    18.237247    0.036576
6458.000000    18.120289    0.036062
6460.000000    18.059822    0.036219
6462.000000    18.124987    0.038220
6464.000000    17.722025    0.038554
6466.000000    17.746084    0.038972
6468.000000    17.660612    0.038925
6470.000000    17.570145    0.039382
6472.000000    17.683685    0.036596
6474.000000    17.184250    0.035820
6476.000000    17.199715    0.036764
6478.000000    17.377419    0.035995
6480.000000    17.043171    0.043963
6482.000000    17.068399    0.039746
6484.000000    17.227917    0.040656
6486.000000    17.424337    0.039016
6488.000000    17.182198    0.034810
6490.000000    17.061144    0.034966
6492.000000    17.014626    0.034940
6494.000000    17.209826    0.035095
6496.000000    17.072527    0.040530
6498.000000    17.024502    0.038332
6500.000000    17.084558    0.037361
6502.000000    17.016884    0.034721
6504.000000    16.876232    0.034902
6506.000000    16.730066    0.034804
6508.000000    16.902384    0.034765
6510.000000    16.825344    0.036310
6512.000000    16.587091    0.036566
6514.000000    16.228539    0.034046
6516.000000    16.087231    0.034306
6518.000000    16.168045    0.034435
6520.000000    16.212835    0.036161
6522.000000    16.013889    0.038619
6524.000000    16.160650    0.036238
6526.000000    16.360126    0.034128
6528.000000    16.349886    0.034128
6530.000000    16.178421    0.034093
6532.000000    15.887032    0.034622
6534.000000    15.959626    0.034297
6536.000000    15.909980    0.037231
6538.000000    16.042532    0.034079
6540.000000    15.993559    0.035064
6542.000000    15.746584    0.034506
6544.000000    15.531735    0.036272
6546.000000    15.843374    0.034885
6548.000000    15.590075    0.036593
6550.000000    15.674546    0.035062
6552.000000    15.404029    0.035266
6554.000000    15.555948    0.033746
6556.000000    15.548431    0.033554
6558.000000    15.429540    0.033277
6560.000000    15.447783    0.034145
6562.000000    15.343955    0.035559
6564.000000    15.143945    0.033209
6566.000000    15.238881    0.033139
6568.000000    15.118342    0.035291
6570.000000    14.900720    0.043029
6572.000000    14.929962    0.034600
6574.000000    14.771089    0.033382
6576.000000    15.044222    0.036913
6578.000000    15.065993    0.034859
6580.000000    14.909667    0.033015
6582.000000    14.676676    0.033164
6584.000000    14.800737    0.032921
6586.000000    14.669117    0.033512
6588.000000    14.459330    0.037108
6590.000000    14.727957    0.036110
6592.000000    14.706625    0.034946
6594.000000    14.529345    0.034973
6596.000000    14.619782    0.033874
6598.000000    14.610810    0.032948
6600.000000    14.367695    0.032367
6602.000000    14.456658    0.032667
6604.000000    14.297519    0.032369
6606.000000    14.340973    0.035401
6608.000000    14.120227    0.033209
6610.000000    14.216406    0.032587
6612.000000    14.074305    0.033077
6614.000000    14.081336    0.032536
6616.000000    14.211088    0.033092
6618.000000    14.175926    0.033713
6620.000000    13.979373    0.034722
6622.000000    13.940548    0.035262
6624.000000    13.880358    0.037178
6626.000000    14.125639    0.034855
6628.000000    13.873278    0.031648
6630.000000    13.795580    0.033070
6632.000000    13.679406    0.034955
6634.000000    13.682873    0.032241
6636.000000    13.867490    0.035981
6638.000000    13.563302    0.034973
6640.000000    13.556463    0.032363
6642.000000    13.459049    0.031637
6644.000000    13.399372    0.031611
6646.000000    13.495402    0.031656
6648.000000    13.484119    0.031763
6650.000000    13.351302    0.031835
6652.000000    13.391380    0.032535
6654.000000    13.448951    0.032683
6656.000000    13.315438    0.033805
6658.000000    13.274766    0.031635
6660.000000    13.280495    0.031486
6662.000000    13.055871    0.033927
6664.000000    13.059809    0.032060
6666.000000    13.190721    0.033330
6668.000000    13.099942    0.031129
6670.000000    12.918411    0.031945
6672.000000    12.822289    0.034004
6674.000000    12.862816    0.033037
6676.000000    12.756675    0.034378
6678.000000    12.611785    0.034771
6680.000000    12.841260    0.031444
6682.000000    12.783221    0.031489
6684.000000    12.735559    0.031342
6686.000000    12.892678    0.035804
6688.000000    12.753218    0.041559
6690.000000    12.426787    0.033056
6692.000000    12.335186    0.032371
6694.000000    12.442505    0.030271
6696.000000    12.405548    0.030890
6698.000000    12.182115    0.031032
6700.000000    12.135082    0.030502
6702.000000    11.995715    0.030052
6704.000000    12.077098    0.029928
6706.000000    11.941512    0.032637
6708.000000    12.138620    0.033037
6710.000000    11.867337    0.031767
6712.000000    11.885692    0.030952
6714.000000    11.919228    0.030255
6716.000000    11.904895    0.030015
6718.000000    11.875591    0.032745
6720.000000    11.742141    0.030671
6722.000000    11.794219    0.031061
6724.000000    11.965751    0.031713
6726.000000    11.799598    0.030000
6728.000000    11.612111    0.030224
6730.000000    11.572042    0.029443
6732.000000    11.664929    0.030632
6734.000000    11.599372    0.029924
6736.000000    11.537364    0.029634
6738.000000    11.375708    0.029994
6740.000000    11.574667    0.031179
6742.000000    11.321885    0.030535
6744.000000    11.395879    0.032816
6746.000000    11.418909    0.031833
6748.000000    11.472536    0.029211
6750.000000    11.471166    0.032014
6752.000000    11.352944    0.029998
6754.000000    11.276872    0.029322
6756.000000    11.312169    0.029463
6758.000000    11.370550    0.029646
6760.000000    11.321205    0.030978
6762.000000    11.217234    0.029575
6764.000000    11.158268    0.029391
6766.000000    11.208048    0.029445
6768.000000    10.974377    0.030633
6770.000000    10.958183    0.028922
6772.000000    10.976757    0.029001
6774.000000    11.021105    0.029009
6776.000000    10.961750    0.029261
6778.000000    11.036911    0.033293
6780.000000    11.024807    0.030172
6782.000000    11.011559    0.030742
6784.000000    11.263282    0.037938
6786.000000    11.011310    0.029500
6788.000000    10.775290    0.029569
6790.000000    10.959731    0.031850
6792.000000    10.921659    0.029689
6794.000000    10.851920    0.028944
6796.000000    10.739959    0.028897
6798.000000    10.759352    0.028770
6800.000000    10.738010    0.029804
6802.000000    10.890234    0.029609
6804.000000    10.739652    0.032987
6806.000000    10.853423    0.031385
6808.000000    10.693065    0.029243
6810.000000    10.595801    0.029323
6812.000000    10.732758    0.031678
6814.000000    10.695605    0.029377
6816.000000    10.612517    0.028818
6818.000000    10.686289    0.029503
6820.000000    10.747419    0.030528
6822.000000    10.667657    0.028618
6824.000000    10.593905    0.028794
6826.000000    10.549164    0.029493
6828.000000    10.597463    0.028824
6830.000000    10.603802    0.031430
6832.000000    10.590205    0.029049
6834.000000    10.722979    0.032138
6836.000000    10.536781    0.030261
6838.000000    10.548998    0.028792
6840.000000    10.475553    0.028593
6842.000000    10.426112    0.028505
6844.000000    10.413427    0.028461
6846.000000    10.558196    0.028624
6848.000000    10.502581    0.028529
6850.000000    10.419355    0.030860
6852.000000    10.321671    0.029701
6854.000000    10.671705    0.028783
6856.000000    10.574011    0.030299
6858.000000    10.391921    0.031639
6860.000000    10.442436    0.029060
6862.000000    10.587438    0.031616
6864.000000    10.375934    0.029809
6866.000000    10.242690    0.032244
6868.000000    10.363757    0.036025
6870.000000    10.405050    0.034756
6872.000000    10.389647    0.035186
6874.000000    10.159602    0.034014
6876.000000    10.132215    0.031936
6878.000000    10.344267    0.034458
6880.000000    10.253165    0.031181
6882.000000    10.122885    0.028458
6884.000000    9.942191    0.034457
6886.000000    9.894135    0.031097
6888.000000    9.859449    0.032877
6890.000000    10.097237    0.030979
6892.000000    9.830272    0.030577
6894.000000    10.231052    0.030617
6896.000000    10.108246    0.033357
6898.000000    10.083459    0.031837
6900.000000    9.908761    0.030105
6902.000000    10.004730    0.031547
6904.000000    9.856175    0.034856
6906.000000    10.089643    0.029242
6908.000000    9.906800    0.030008
6910.000000    9.920857    0.029232
6912.000000    9.709603    0.029643
6914.000000    9.854606    0.031346
6916.000000    9.604875    0.027788
6918.000000    9.504464    0.028238
6920.000000    9.663692    0.028326
6922.000000    9.484862    0.028758
6924.000000    9.544183    0.030699
6926.000000    9.464129    0.030168
6928.000000    9.530834    0.030951
6930.000000    9.583334    0.030462
6932.000000    9.563599    0.027935
6934.000000    9.537395    0.028393
6936.000000    9.505947    0.028111
6938.000000    9.518389    0.029735
6940.000000    9.748786    0.032104
6942.000000    9.719894    0.031898
6944.000000    9.584576    0.028010
6946.000000    9.504455    0.028311
6948.000000    9.626974    0.029197
6950.000000    9.399477    0.028368
6952.000000    9.366283    0.027744
6954.000000    9.371221    0.028079
6956.000000    9.427500    0.029419
6958.000000    9.252446    0.030506
6960.000000    9.313521    0.027971
6962.000000    9.260651    0.027848
6964.000000    9.296470    0.027656
6966.000000    9.201826    0.028565
6968.000000    9.149989    0.027647
6970.000000    9.245841    0.028577
6972.000000    9.235870    0.027924
6974.000000    9.170332    0.027684
6976.000000    9.071209    0.030269
6978.000000    9.201737    0.028651
6980.000000    9.098748    0.027663
6982.000000    9.019803    0.027379
6984.000000    8.993587    0.028901
6986.000000    8.782881    0.030662
6988.000000    8.864197    0.031561
6990.000000    8.935264    0.030743
6992.000000    8.911751    0.027447
6994.000000    9.069002    0.028629
6996.000000    9.021470    0.029613
6998.000000    8.896097    0.028340
7000.000000    8.955274    0.028800
7002.000000    8.840783    0.029479
7004.000000    8.790778    0.029007
7006.000000    8.848744    0.028643
7008.000000    8.607483    0.029855
7010.000000    8.717170    0.029410
7012.000000    8.586028    0.031481
7014.000000    8.737994    0.027779
7016.000000    8.776086    0.027786
7018.000000    8.850533    0.028717
7020.000000    8.810173    0.027571
7022.000000    8.746189    0.027347
7024.000000    8.577250    0.026898
7026.000000    8.519688    0.027698
7028.000000    8.536900    0.030131
7030.000000    8.574615    0.027977
7032.000000    8.595418    0.027618
7034.000000    8.630788    0.029942
7036.000000    8.457914    0.027014
7038.000000    8.609227    0.027071
7040.000000    8.683223    0.027188
7042.000000    8.507229    0.026637
7044.000000    8.349501    0.029497
7046.000000    8.242122    0.027630
7048.000000    8.327253    0.026377
7050.000000    8.297261    0.026436
7052.000000    8.545817    0.029085
7054.000000    8.403923    0.026650
7056.000000    8.278738    0.026721
7058.000000    8.324830    0.026447
7060.000000    8.503569    0.027362
7062.000000    8.421398    0.028692
7064.000000    8.421158    0.027902
7066.000000    8.345468    0.027059
7068.000000    8.122855    0.026416
7070.000000    8.228854    0.027038
7072.000000    8.341697    0.027803
7074.000000    8.232609    0.028011
7076.000000    8.343785    0.028232
7078.000000    8.306639    0.028580
7080.000000    8.151011    0.026126
7082.000000    8.052467    0.026635
7084.000000    8.177654    0.027698
7086.000000    8.167080    0.028809
7088.000000    8.148854    0.027957
7090.000000    8.152146    0.028612
7092.000000    8.156812    0.026427
7094.000000    8.134949    0.026026
7096.000000    8.043819    0.027017
7098.000000    8.144614    0.028026
7100.000000    7.983727    0.026709
7102.000000    7.947834    0.025797
7104.000000    7.939968    0.029096
7106.000000    8.013577    0.026217
7108.000000    7.956640    0.026669
7110.000000    8.101476    0.029562
7112.000000    8.079527    0.025972
7114.000000    8.003579    0.025844
7116.000000    8.062729    0.025974
7118.000000    8.020008    0.029225
7120.000000    7.883886    0.026386
7122.000000    7.901522    0.025838
7124.000000    7.821195    0.026113
7126.000000    7.967553    0.027879
7128.000000    7.917667    0.026538
7130.000000    8.032660    0.029260
7132.000000    7.769504    0.025647
7134.000000    7.734621    0.025626
7136.000000    7.796039    0.026337
7138.000000    7.788141    0.025809
7140.000000    7.848052    0.025963
7142.000000    7.849757    0.025905
7144.000000    7.748214    0.025784
7146.000000    7.859798    0.026350
7148.000000    7.890690    0.026107
7150.000000    7.878672    0.029922
7152.000000    7.779507    0.026562
7154.000000    7.821537    0.028186
7156.000000    7.789829    0.026427
7158.000000    7.800237    0.026802
7160.000000    7.884922    0.026280
7162.000000    7.639111    0.026953
7164.000000    7.873741    0.026671
7166.000000    7.885474    0.026876
7168.000000    7.900899    0.029262
7170.000000    7.976292    0.028365
7172.000000    7.939589    0.029101
7174.000000    7.910935    0.029073
7176.000000    8.015182    0.030579
7178.000000    7.964089    0.028209
7180.000000    7.987755    0.027774
7182.000000    7.795832    0.028937
7184.000000    7.930564    0.029193
7186.000000    8.027089    0.030589
7188.000000    7.754207    0.027693
7190.000000    7.722238    0.027666
7192.000000    7.828829    0.029850
7194.000000    7.937159    0.029981
7196.000000    7.846231    0.027696
7198.000000    7.714204    0.028583
7200.000000    7.742976    0.030434
7202.000000    7.816411    0.028910
7204.000000    7.632394    0.028359
7206.000000    7.457223    0.027588
7208.000000    7.698073    0.026998
7210.000000    7.586871    0.027860
7212.000000    7.493605    0.026802
7214.000000    7.463981    0.027674
7216.000000    7.384680    0.027839
7218.000000    7.653711    0.026489
7220.000000    7.591879    0.026081
7222.000000    7.512032    0.026503
7224.000000    7.573078    0.026691
7226.000000    7.737275    0.027535
7228.000000    7.544245    0.031759
7230.000000    7.662840    0.027312
7232.000000    7.717972    0.028817
7234.000000    7.517237    0.031402
7236.000000    7.662406    0.028720
7238.000000    7.588358    0.031388
7240.000000    7.506174    0.034440
7242.000000    7.543016    0.029868
7244.000000    7.574445    0.030230
7246.000000    7.511469    0.028858
7248.000000    7.605459    0.027600
7250.000000    7.598151    0.029272
7252.000000    7.532816    0.031800
7254.000000    7.511633    0.028404
7256.000000    7.341552    0.031956
7258.000000    7.505296    0.031238
7260.000000    7.465271    0.028143
7262.000000    7.365491    0.032169
7264.000000    7.405507    0.031707
7266.000000    7.531787    0.028991
7268.000000    7.504133    0.027912
7270.000000    7.532122    0.030285
7272.000000    7.368429    0.030379
7274.000000    7.543820    0.030295
7276.000000    7.573922    0.033093
7278.000000    7.555009    0.029720
7280.000000    7.343715    0.028520
7282.000000    7.373386    0.027741
