# File created by shivutils (I.Shivvers)
# wl(A)   flm    er(optional)
3334.00   1.89723539   0.38368446
3336.00   1.99761665   0.38351935
3338.00   1.76059651   0.37038898
3340.00   1.93325031   0.37997067
3342.00   1.86662531   0.36566305
3344.00   1.98578238   0.36430451
3346.00   2.17693663   0.36403736
3348.00   2.03455162   0.35296005
3350.00   2.11385846   0.35351184
3352.00   1.75977600   0.32830104
3354.00   2.13793659   0.34263349
3356.00   1.84330285   0.32717881
3358.00   1.97266281   0.31885502
3360.00   2.18362761   0.31554276
3362.00   2.33094192   0.30943999
3364.00   2.07202387   0.29524195
3366.00   1.71750808   0.28074449
3368.00   1.89392948   0.28100175
3370.00   1.77133477   0.27214658
3372.00   1.80751991   0.27324501
3374.00   2.24056220   0.26993889
3376.00   2.15405154   0.25889286
3378.00   2.20865750   0.24628009
3380.00   2.10952544   0.23199746
3382.00   2.22709608   0.22823261
3384.00   2.10645819   0.21582849
3386.00   2.29000711   0.21388085
3388.00   2.26792789   0.20811786
3390.00   2.10108876   0.19946398
3392.00   2.17088366   0.19833063
3394.00   2.15155029   0.19555613
3396.00   2.40195203   0.19689192
3398.00   2.53923535   0.19881646
3400.00   2.38449407   0.19575389
3402.00   2.63227725   0.20202354
3404.00   2.46961689   0.19316034
3406.00   2.53015828   0.19305740
3408.00   2.58453012   0.19138041
3410.00   2.79752755   0.19489317
3412.00   2.72886205   0.19201770
3414.00   2.61812735   0.18688872
3416.00   2.84811950   0.19009598
3418.00   3.00244164   0.19677132
3420.00   3.10335732   0.19549857
3422.00   2.64835525   0.18289590
3424.00   2.89105058   0.18564075
3426.00   3.02520490   0.18766041
3428.00   2.81183147   0.18435095
3430.00   2.96764779   0.18377504
3432.00   2.94974470   0.18230602
3434.00   3.45240784   0.19060570
3436.00   3.16249394   0.18377495
3438.00   3.26434374   0.18405078
3440.00   3.57349420   0.18798670
3442.00   3.56662798   0.18594767
3444.00   3.92780423   0.19151510
3446.00   4.05815411   0.19294466
3448.00   4.12737036   0.19383304
3450.00   4.70129395   0.20267425
3452.00   4.69282627   0.20100251
3454.00   4.71314526   0.19990066
3456.00   5.17438889   0.20407404
3458.00   5.02854538   0.20114392
3460.00   5.30419779   0.20337257
3462.00   5.32765770   0.20264913
3464.00   5.52050257   0.20391960
3466.00   5.76321316   0.20595430
3468.00   5.72298574   0.20462140
3470.00   5.89784813   0.20485523
3472.00   6.24783516   0.20793827
3474.00   6.32557869   0.20772980
3476.00   6.16406584   0.20623304
3478.00   6.25894260   0.20810056
3480.00   6.37011290   0.20805921
3482.00   6.44118500   0.20755528
3484.00   6.37120533   0.20558685
3486.00   6.28958178   0.20306887
3488.00   6.40562153   0.20386870
3490.00   6.37284660   0.20143998
3492.00   6.36719370   0.19981527
3494.00   6.58224201   0.20110270
3496.00   6.69091702   0.20075409
3498.00   6.66871405   0.20004436
3500.00   6.72426987   0.20027104
3502.00   6.71335268   0.19854392
3504.00   6.42513990   0.19340089
3506.00   6.51062393   0.19390705
3508.00   6.40167475   0.19288395
3510.00   6.37200689   0.19085434
3512.00   6.38780785   0.19006604
3514.00   6.20587778   0.18713182
3516.00   6.21291304   0.18659969
3518.00   6.25371170   0.18622099
3520.00   6.00287247   0.18214986
3522.00   6.03055906   0.18220788
3524.00   5.97504520   0.18083194
3526.00   5.92378426   0.17899124
3528.00   5.91489506   0.17882824
3530.00   5.86912203   0.17794129
3532.00   5.86004305   0.17732373
3534.00   5.68325567   0.17437945
3536.00   5.48932648   0.17120579
3538.00   5.52001905   0.17087868
3540.00   5.57846689   0.17211302
3542.00   5.57043219   0.17190833
3544.00   5.48183727   0.17092389
3546.00   5.27406931   0.16791603
3548.00   5.12965584   0.16500907
3550.00   5.28741407   0.16621405
3552.00   5.08109713   0.16345765
3554.00   4.87238646   0.16056523
3556.00   5.01970387   0.16159128
3558.00   4.97018194   0.15967590
3560.00   4.84162951   0.15730287
3562.00   4.69085264   0.15435618
3564.00   4.70027161   0.15402043
3566.00   4.57579088   0.15152124
3568.00   4.40132999   0.14841332
3570.00   4.58024931   0.15049060
3572.00   4.48768568   0.14996094
3574.00   4.34626770   0.14828473
3576.00   4.13360405   0.14294931
3578.00   4.14506865   0.14304432
3580.00   4.12658262   0.14151850
3582.00   3.98836493   0.13922793
3584.00   4.11937380   0.13996069
3586.00   3.75453067   0.13426003
3588.00   3.65612316   0.13290624
3590.00   3.71151328   0.13366811
3592.00   3.64141250   0.13170823
3594.00   3.71468878   0.13199079
3596.00   3.60249352   0.13014206
3598.00   3.52628136   0.12853952
3600.00   3.44875383   0.12641865
3602.00   3.28618717   0.12312675
3604.00   3.25154448   0.12217946
3606.00   3.14241266   0.11993580
3608.00   2.98675847   0.11706237
3610.00   3.13939023   0.11961932
3612.00   3.17046404   0.12026004
3614.00   3.00106478   0.11740116
3616.00   2.87018204   0.11521173
3618.00   2.84864807   0.11342450
3620.00   2.91343045   0.11386694
3622.00   2.86208296   0.11304322
3624.00   2.76570868   0.11102775
3626.00   2.67573190   0.10959334
3628.00   2.68755507   0.10969114
3630.00   2.75426769   0.11023182
3632.00   2.58693552   0.10721193
3634.00   2.54112172   0.10609949
3636.00   2.55246210   0.10580141
3638.00   2.62972522   0.10636450
3640.00   2.56124997   0.10511040
3642.00   2.54125333   0.10486952
3644.00   2.43225241   0.10414375
3646.00   2.32542419   0.10617893
3648.00   2.39787579   0.11368906
3650.00   2.26024723   0.11333316
3652.00   2.32319117   0.11297937
3654.00   2.19865632   0.10568830
3656.00   2.23793101   0.10255342
3658.00   2.24376035   0.09850673
3660.00   2.19099236   0.09875850
3662.00   2.05421543   0.09781919
3664.00   2.17689109   0.09764434
3666.00   2.08131027   0.09272302
3668.00   2.07641673   0.09031378
3670.00   2.01382089   0.08810042
3672.00   2.05510831   0.08852798
3674.00   2.21329689   0.08960436
3676.00   2.17874503   0.08852377
3678.00   2.02780366   0.08637687
3680.00   1.98348296   0.08488180
3682.00   2.19342804   0.08761600
3684.00   2.17863059   0.08708107
3686.00   2.11663055   0.08517264
3688.00   2.13967896   0.08541244
3690.00   2.27115035   0.08777019
3692.00   2.24286962   0.08668301
3694.00   2.27844214   0.08664896
3696.00   2.37272573   0.08780690
3698.00   2.32019567   0.08677026
3700.00   2.47455740   0.08897593
3702.00   2.39014316   0.08746555
3704.00   2.35273266   0.08652044
3706.00   2.41924763   0.08681819
3708.00   2.56232882   0.08864338
3710.00   2.59040856   0.08841013
3712.00   2.60559392   0.08838509
3714.00   2.75136495   0.09009722
3716.00   2.71405458   0.08952826
3718.00   2.82504725   0.09079111
3720.00   2.92395782   0.09093269
3722.00   2.97161651   0.09099561
3724.00   2.89851403   0.09008314
3726.00   2.89007211   0.09010240
3728.00   3.11478496   0.09256492
3730.00   3.15430880   0.09267195
3732.00   3.13779497   0.09222732
3734.00   3.28513265   0.09373923
3736.00   3.26999235   0.09324430
3738.00   3.36600256   0.09448384
3740.00   3.49023223   0.09583677
3742.00   3.54512978   0.09620294
3744.00   3.62440872   0.09607526
3746.00   3.69051623   0.09624858
3748.00   3.91763735   0.09865346
3750.00   4.02465725   0.09926087
3752.00   4.00540781   0.09889428
3754.00   4.05452585   0.09895871
3756.00   4.13029814   0.09922180
3758.00   4.34589529   0.10084711
3760.00   4.41579771   0.10118707
3762.00   4.53690004   0.10181513
3764.00   4.57605124   0.10184303
3766.00   4.61307001   0.10182896
3768.00   4.78257132   0.10326996
3770.00   4.94444942   0.10441131
3772.00   5.03367233   0.10503545
3774.00   5.19550800   0.10633137
3776.00   5.42715454   0.10769439
3778.00   5.35093594   0.10673060
3780.00   5.46695280   0.10757517
3782.00   5.59013796   0.10837370
3784.00   5.67995787   0.10862900
3786.00   5.78514194   0.10927207
3788.00   5.86504745   0.10959636
3790.00   5.91604519   0.10985557
3792.00   6.11674452   0.11106365
3794.00   6.19262457   0.11117581
3796.00   6.13689661   0.11026831
3798.00   6.38295746   0.11195327
3800.00   6.49017143   0.11281008
3802.00   6.59036207   0.11346533
3804.00   6.69268274   0.11369711
3806.00   6.74198866   0.11368341
3808.00   6.88723993   0.11439445
3810.00   7.05680466   0.11540242
3812.00   7.22097206   0.11630052
3814.00   7.27961540   0.11656948
3816.00   7.32871580   0.11641042
3818.00   7.52273083   0.11745285
3820.00   7.59281015   0.11767160
3822.00   7.76035023   0.11847460
3824.00   8.03122330   0.12018991
3826.00   8.16594124   0.12068569
3828.00   8.20407009   0.12089728
3830.00   8.26468372   0.12104642
3832.00   8.48016930   0.12205795
3834.00   8.56595421   0.12204217
3836.00   8.67396450   0.12240565
3838.00   8.83694649   0.12326331
3840.00   9.09311771   0.12449249
3842.00   9.05720997   0.12390969
3844.00   9.17425919   0.12419801
3846.00   9.34803772   0.12480977
3848.00   9.42731762   0.12498175
3850.00   9.72834492   0.12669019
3852.00   9.78830719   0.12671284
3854.00   9.92950630   0.12744853
3856.00   10.03801441   0.12779801
3858.00   10.06943607   0.12759131
3860.00   10.13922501   0.12768096
3862.00   10.03584671   0.12681647
3864.00   10.15694332   0.12725978
3866.00   10.22034264   0.12721242
3868.00   10.43447876   0.12799528
3870.00   10.52250481   0.12830922
3872.00   10.42089272   0.12754610
3874.00   10.46662426   0.12752002
3876.00   10.64098740   0.12813170
3878.00   10.69399166   0.12804794
3880.00   10.81720448   0.12831625
3882.00   10.75866795   0.12760912
3884.00   10.76782894   0.12723783
3886.00   10.78967667   0.12706979
3888.00   10.86826801   0.12724712
3890.00   10.96658325   0.12747288
3892.00   10.92365360   0.12710032
3894.00   10.88939571   0.12668328
3896.00   11.03859806   0.12720974
3898.00   11.02138329   0.12678941
3900.00   10.97413254   0.12636985
3902.00   10.89380169   0.12592682
3904.00   11.17097855   0.12756419
3906.00   11.20082855   0.12814613
3908.00   11.17432690   0.12827250
3910.00   11.15392399   0.12807208
3912.00   11.25876617   0.12799340
3914.00   11.34521770   0.12778744
3916.00   11.44087601   0.12734045
3918.00   11.55295277   0.12736169
3920.00   11.66039944   0.12742409
3922.00   11.64890480   0.12694669
3924.00   11.78379440   0.12725790
3926.00   11.88287544   0.12731507
3928.00   11.97356796   0.12718964
3930.00   11.66324520   0.12555726
3932.00   11.61191463   0.12515454
3934.00   11.66763687   0.12505206
3936.00   11.93373871   0.12569121
3938.00   12.24325466   0.12687220
3940.00   12.37033939   0.12746967
3942.00   12.31910133   0.12729733
3944.00   12.40364265   0.12754355
3946.00   12.49759388   0.12755415
3948.00   12.47589779   0.12699945
3950.00   12.46594048   0.12649368
3952.00   12.50341988   0.12640774
3954.00   11.97386742   0.12358810
3956.00   11.98509216   0.12336287
3958.00   12.22406292   0.12447792
3960.00   12.54550934   0.12594384
3962.00   12.59682846   0.12598963
3964.00   12.61549759   0.12556076
3966.00   12.39270973   0.12404058
3968.00   12.22942162   0.12295926
3970.00   12.13411331   0.12220123
3972.00   12.14220619   0.12218495
3974.00   12.05531693   0.12175154
3976.00   12.17714882   0.12201841
3978.00   12.11799335   0.12148510
3980.00   12.05292892   0.12109984
3982.00   11.94331837   0.12031407
3984.00   11.79835320   0.11931500
3986.00   11.89195442   0.11961894
3988.00   11.84589195   0.11918419
3990.00   11.54070187   0.11746133
3992.00   11.48343468   0.11716945
3994.00   11.58807850   0.11772950
3996.00   11.62168026   0.11772976
3998.00   11.51146603   0.11697867
4000.00   11.59575081   0.11697350
4002.00   11.53611755   0.11635748
4004.00   11.57228374   0.11625253
4006.00   11.53016376   0.11599579
4008.00   11.73778534   0.11685815
4010.00   11.70969391   0.11663773
4012.00   11.72226715   0.11643326
4014.00   11.72337055   0.11629029
4016.00   11.89322186   0.11727599
4018.00   11.96156883   0.11795838
4020.00   11.99933243   0.11872578
4022.00   12.02437592   0.11889795
4024.00   12.10811806   0.11871995
4026.00   12.04701519   0.11765946
4028.00   12.13711071   0.11734892
4030.00   12.14003754   0.11705890
4032.00   12.18058491   0.11700442
4034.00   12.32738113   0.11733202
4036.00   12.40742683   0.11736508
4038.00   12.38059425   0.11711118
4040.00   12.55219841   0.11792948
4042.00   12.51507187   0.12032275
4044.00   12.66925430   0.12510428
4046.00   12.83740902   0.12725608
4048.00   12.91307354   0.12564737
4050.00   12.90450954   0.12121549
4052.00   12.99483585   0.11938777
4054.00   12.99943256   0.11884949
4056.00   13.19633484   0.11925181
4058.00   13.11446190   0.11836007
4060.00   13.22550297   0.11845750
4062.00   13.30794334   0.11857651
4064.00   13.38101864   0.11870271
4066.00   13.37541199   0.11847711
4068.00   13.42797089   0.11851219
4070.00   13.37690926   0.11797631
4072.00   13.42225647   0.11798929
4074.00   13.49297333   0.11868255
4076.00   13.42987919   0.11879101
4078.00   13.45472908   0.11904959
4080.00   13.39242935   0.11857628
4082.00   13.40941048   0.11815621
4084.00   13.40467930   0.11781229
4086.00   13.26220703   0.11679755
4088.00   13.32031822   0.11659446
4090.00   13.29685020   0.11621132
4092.00   13.46501541   0.11669347
4094.00   13.29913521   0.11588979
4096.00   13.26149559   0.11552971
4098.00   13.24658585   0.11532856
4100.00   13.27880573   0.11515661
4102.00   13.16299915   0.11437732
4104.00   13.08214188   0.11389019
4106.00   13.11961460   0.11387245
4108.00   13.11847496   0.11380871
4110.00   13.05938148   0.11335956
4112.00   12.90331745   0.11252597
4114.00   12.81701183   0.11201188
4116.00   12.69773102   0.11125592
4118.00   12.50116920   0.11026829
4120.00   12.43957996   0.10977137
4122.00   12.30954170   0.10908800
4124.00   12.28404140   0.10889272
4126.00   12.36759472   0.10910134
4128.00   12.23555660   0.10846345
4130.00   12.09434319   0.10790354
4132.00   11.95623684   0.10727921
4134.00   11.93035030   0.10695498
4136.00   11.87733459   0.10657946
4138.00   11.82331753   0.10622407
4140.00   11.83959484   0.10604642
4142.00   11.60639381   0.10480998
4144.00   11.66105843   0.10470955
4146.00   11.54796314   0.10407317
4148.00   11.49136543   0.10391410
4150.00   11.33313179   0.10326593
4152.00   11.38795376   0.10340079
4154.00   11.44108677   0.10340500
4156.00   11.31659508   0.10260621
4158.00   11.38663197   0.10267756
4160.00   11.34530354   0.10255117
4162.00   11.28297138   0.10247081
4164.00   11.27955151   0.10245100
4166.00   11.26371765   0.10217460
4168.00   11.17721462   0.10142246
4170.00   11.17578697   0.10102686
4172.00   11.14923000   0.10045148
4174.00   11.11897850   0.10015089
4176.00   11.08481312   0.09988264
4178.00   10.96124363   0.09915457
4180.00   11.00554180   0.09927437
4182.00   10.88606167   0.09856449
4184.00   10.70765209   0.09765076
4186.00   10.64260864   0.09694436
4188.00   10.54629517   0.09634113
4190.00   10.51689148   0.09605000
4192.00   10.41483688   0.09547190
4194.00   10.18021297   0.09440991
4196.00   9.97264576   0.09331876
4198.00   9.90290642   0.09276950
4200.00   9.80433941   0.09219107
4202.00   9.71481991   0.09170619
4204.00   9.55755138   0.09097219
4206.00   9.39824867   0.09018831
4208.00   9.25441170   0.08958543
4210.00   9.09740448   0.08876164
4212.00   9.10518932   0.08870105
4214.00   8.99071407   0.08804477
4216.00   8.81276417   0.08700683
4218.00   8.79821396   0.08686084
4220.00   8.59870815   0.08576306
4222.00   8.51938438   0.08531754
4224.00   8.37243652   0.08448196
4226.00   8.18819046   0.08349574
4228.00   8.08623505   0.08297835
4230.00   8.08764648   0.08297857
4232.00   7.99205542   0.08252065
4234.00   7.87306070   0.08193688
4236.00   7.70415449   0.08107169
4238.00   7.62166309   0.08056164
4240.00   7.51260662   0.07973485
4242.00   7.45553589   0.07961029
4244.00   7.37810850   0.07981430
4246.00   7.31090593   0.07961718
4248.00   7.17732334   0.07873915
4250.00   7.04979897   0.07731082
4252.00   6.97127867   0.07654678
4254.00   6.86836147   0.07588214
4256.00   6.78944206   0.07546680
4258.00   6.75747585   0.07515301
4260.00   6.71295023   0.07468637
4262.00   6.65628910   0.07429579
4264.00   6.57614374   0.07376454
4266.00   6.44634962   0.07305948
4268.00   6.43228197   0.07285480
4270.00   6.39689636   0.07265202
4272.00   6.23696995   0.07172672
4274.00   6.12981367   0.07115148
4276.00   6.13992929   0.07115828
4278.00   6.07349157   0.07072367
4280.00   6.01737928   0.07053570
4282.00   6.06596899   0.07068830
4284.00   6.00691223   0.07016648
4286.00   5.96790457   0.06979301
4288.00   5.97069407   0.06977209
4290.00   6.08011341   0.07032291
4292.00   6.05887747   0.07017666
4294.00   6.00755548   0.06985303
4296.00   5.99212742   0.06960685
4298.00   6.01604986   0.06965175
4300.00   5.98388433   0.06936408
4302.00   6.03580189   0.06960031
4304.00   6.01389694   0.06949139
4306.00   6.03391933   0.06951177
4308.00   5.91340685   0.06891890
4310.00   5.95706224   0.06943390
4312.00   5.98933935   0.06993105
4314.00   6.09416628   0.07047921
4316.00   6.09282112   0.07041204
4318.00   6.15739918   0.07055353
4320.00   6.25486135   0.07104684
4322.00   6.34964800   0.07149124
4324.00   6.38404226   0.07141043
4326.00   6.43943501   0.07145340
4328.00   6.53871727   0.07163855
4330.00   6.50871086   0.07136791
4332.00   6.52442741   0.07130572
4334.00   6.59952068   0.07173315
4336.00   6.73967934   0.07236305
4338.00   6.78112698   0.07260488
4340.00   6.91030025   0.07321148
4342.00   6.90155697   0.07329501
4344.00   7.06048155   0.07420544
4346.00   7.16986704   0.07487126
4348.00   7.10737467   0.07460970
4350.00   7.24605370   0.07504725
4352.00   7.38446283   0.07641443
4354.00   7.44824219   0.08222704
4356.00   7.53590822   0.08784119
4358.00   7.72089195   0.09063516
4360.00   7.95271540   0.08829395
4362.00   7.81316614   0.08218522
4364.00   7.91065741   0.07917147
4366.00   8.00553799   0.07829762
4368.00   8.10816002   0.07852131
4370.00   8.19398975   0.07893471
4372.00   8.21032143   0.07910135
4374.00   8.18742275   0.07902568
4376.00   8.37748432   0.07955416
4378.00   8.44923592   0.07957933
4380.00   8.50273800   0.07956269
4382.00   8.57546234   0.07966813
4384.00   8.55059719   0.07946008
4386.00   8.66218758   0.07982641
4388.00   8.63067818   0.07962295
4390.00   8.50228500   0.07903425
4392.00   8.55485725   0.07917105
4394.00   8.61511898   0.07935286
4396.00   8.58105755   0.07924258
4398.00   8.56488037   0.07920477
4400.00   8.61795235   0.07938374
4402.00   8.53643131   0.07898206
4404.00   8.57667351   0.07894699
4406.00   8.58230019   0.07884476
4408.00   8.56457615   0.07861015
4410.00   8.43573093   0.07814246
4412.00   8.38954258   0.07803091
4414.00   8.47099781   0.07832887
4416.00   8.47866154   0.07826466
4418.00   8.35626221   0.07761275
4420.00   8.37891483   0.07759010
4422.00   8.36729527   0.07745647
4424.00   8.46295643   0.07773277
4426.00   8.42410088   0.07744673
4428.00   8.43992519   0.07739520
4430.00   8.48851585   0.07760434
4432.00   8.50601768   0.07762440
4434.00   8.55823421   0.07767972
4436.00   8.56766987   0.07768396
4438.00   8.67696190   0.07804958
4440.00   8.88423443   0.07882906
4442.00   8.87728405   0.07867532
4444.00   8.92038631   0.07882212
4446.00   9.01471043   0.07907927
4448.00   9.01773357   0.07897596
4450.00   9.13039398   0.07937056
4452.00   9.27586555   0.07988746
4454.00   9.39149857   0.08025477
4456.00   9.46360493   0.08043611
4458.00   9.52729130   0.08061973
4460.00   9.65586281   0.08111301
4462.00   9.78097630   0.08145996
4464.00   9.92038631   0.08186770
4466.00   9.80679321   0.08138718
4468.00   10.01045704   0.08194695
4470.00   10.01863956   0.08186520
4472.00   10.02730846   0.08188976
4474.00   10.11252022   0.08209662
4476.00   10.09958744   0.08200861
4478.00   10.09943962   0.08193699
4480.00   9.98723888   0.08146503
4482.00   10.04916096   0.08163841
4484.00   9.98335457   0.08127168
4486.00   9.99492168   0.08109812
4488.00   10.05503845   0.08133403
4490.00   10.07831573   0.08136172
4492.00   10.03178215   0.08118135
4494.00   9.98952293   0.08101931
4496.00   10.06544781   0.08119918
4498.00   10.13217258   0.08138792
4500.00   10.04934311   0.08097073
4502.00   10.04043674   0.08085500
4504.00   10.04200172   0.08082362
4506.00   10.10783195   0.08096617
4508.00   9.99881458   0.08048656
4510.00   10.09084797   0.08077506
4512.00   9.92543125   0.08007219
4514.00   9.93601513   0.08004393
4516.00   9.95554543   0.07997412
4518.00   9.94704533   0.07990135
4520.00   10.00598526   0.08013546
4522.00   9.83109379   0.07940784
4524.00   9.76952076   0.07910302
4526.00   9.78530598   0.07903642
4528.00   9.80351639   0.07903124
4530.00   9.72476959   0.07868773
4532.00   9.67697525   0.07849852
4534.00   9.64097309   0.07829678
4536.00   9.63075829   0.07820724
4538.00   9.57588196   0.07796836
4540.00   9.55113316   0.07788361
4542.00   9.47141743   0.07758077
4544.00   9.55482960   0.07786368
4546.00   9.51414490   0.07756453
4548.00   9.42401886   0.07714422
4550.00   9.42008495   0.07698295
4552.00   9.37902451   0.07679207
4554.00   9.29353905   0.07645279
4556.00   9.31565380   0.07649393
4558.00   9.31068420   0.07641429
4560.00   9.17140007   0.07579583
4562.00   9.21394062   0.07588559
4564.00   9.12506676   0.07543698
4566.00   9.04919910   0.07503977
4568.00   9.03176308   0.07499952
4570.00   8.92234802   0.07456474
4572.00   8.91871643   0.07446068
4574.00   8.88398075   0.07431861
4576.00   8.84094048   0.07402259
4578.00   8.71033192   0.07344469
4580.00   8.68218422   0.07324994
4582.00   8.65383148   0.07304135
4584.00   8.59637356   0.07279454
4586.00   8.49381828   0.07230785
4588.00   8.43244934   0.07204594
4590.00   8.47061825   0.07217190
4592.00   8.41193485   0.07189575
4594.00   8.37632084   0.07172494
4596.00   8.34669971   0.07154004
4598.00   8.26278019   0.07114603
4600.00   8.35503006   0.07136713
4602.00   8.28071404   0.07102916
4604.00   8.27240944   0.07103008
4606.00   8.30709934   0.07112546
4608.00   8.24964142   0.07078560
4610.00   8.21294022   0.07061026
4612.00   8.27618980   0.07080556
4614.00   8.27181530   0.07073747
4616.00   8.24375153   0.07052269
4618.00   8.29072571   0.07061676
4620.00   8.28786278   0.07055220
4622.00   8.22712612   0.07029643
4624.00   8.21051311   0.07017885
4626.00   8.12101841   0.06976371
4628.00   8.16804409   0.06984548
4630.00   8.07974911   0.06950176
4632.00   8.01836872   0.06921455
4634.00   8.01755047   0.06917153
4636.00   7.88320160   0.06856239
4638.00   7.92664003   0.06865277
4640.00   7.75965595   0.06796229
4642.00   7.73704147   0.06784330
4644.00   7.64318562   0.06740862
4646.00   7.54752398   0.06697049
4648.00   7.49410009   0.06674686
4650.00   7.49187708   0.06670948
4652.00   7.43726873   0.06647572
4654.00   7.35894871   0.06609172
4656.00   7.23003864   0.06559617
4658.00   7.25220633   0.06570116
4660.00   7.24471426   0.06569852
4662.00   7.05392885   0.06494271
4664.00   6.98263121   0.06473316
4666.00   6.90794373   0.06446324
4668.00   6.83364534   0.06419450
4670.00   6.74214363   0.06381037
4672.00   6.72530794   0.06362856
4674.00   6.71193743   0.06340216
4676.00   6.69145441   0.06320336
4678.00   6.64665461   0.06290022
4680.00   6.55945683   0.06236130
4682.00   6.47126579   0.06197259
4684.00   6.53245926   0.06211983
4686.00   6.50114155   0.06194307
4688.00   6.53079987   0.06200790
4690.00   6.51040697   0.06187660
4692.00   6.45939064   0.06161234
4694.00   6.49249983   0.06174547
4696.00   6.50524569   0.06187383
4698.00   6.47995043   0.06172384
4700.00   6.47941351   0.06171060
4702.00   6.42567444   0.06149161
4704.00   6.47176504   0.06172007
4706.00   6.50639772   0.06197326
4708.00   6.47150278   0.06185172
4710.00   6.53514957   0.06215849
4712.00   6.44316339   0.06182561
4714.00   6.49400473   0.06204972
4716.00   6.46639538   0.06190081
4718.00   6.47675467   0.06189550
4720.00   6.46765089   0.06188786
4722.00   6.46641302   0.06187126
4724.00   6.41739130   0.06181500
4726.00   6.48817778   0.06232954
4728.00   6.48909044   0.06246583
4730.00   6.48526478   0.06260706
4732.00   6.48151684   0.06268353
4734.00   6.47581053   0.06278304
4736.00   6.47784996   0.06292242
4738.00   6.39845991   0.06281343
4740.00   6.41402817   0.06311268
4742.00   6.42771292   0.06305399
4744.00   6.44114780   0.06294594
4746.00   6.40853834   0.06243515
4748.00   6.40650129   0.06212731
4750.00   6.39268208   0.06205618
4752.00   6.39550829   0.06201738
4754.00   6.37924480   0.06185723
4756.00   6.38330078   0.06179884
4758.00   6.40725279   0.06172349
4760.00   6.42848587   0.06178931
4762.00   6.44004488   0.06177685
4764.00   6.45047522   0.06180650
4766.00   6.46336937   0.06183226
4768.00   6.52401686   0.06208472
4770.00   6.54678202   0.06215406
4772.00   6.55621815   0.06216608
4774.00   6.61119413   0.06247222
4776.00   6.57253742   0.06245198
4778.00   6.63207102   0.06276286
4780.00   6.64171314   0.06277853
4782.00   6.62056923   0.06254448
4784.00   6.67419243   0.06272089
4786.00   6.64686394   0.06253085
4788.00   6.63725519   0.06242416
4790.00   6.63587570   0.06241920
4792.00   6.63054180   0.06240077
4794.00   6.57176256   0.06208773
4796.00   6.52737379   0.06185033
4798.00   6.55652714   0.06190221
4800.00   6.52306414   0.06172182
4802.00   6.49735117   0.06164917
4804.00   6.48194933   0.06158241
4806.00   6.38227129   0.06110669
4808.00   6.26041460   0.06053835
4810.00   6.23713398   0.06042486
4812.00   6.16759205   0.06011802
4814.00   6.09973240   0.05983590
4816.00   6.02263069   0.05947657
4818.00   5.91877079   0.05894180
4820.00   5.91630983   0.05895798
4822.00   5.85975599   0.05875881
4824.00   5.69823980   0.05798164
4826.00   5.57601213   0.05743374
4828.00   5.57782936   0.05750646
4830.00   5.52491093   0.05728076
4832.00   5.45347357   0.05685342
4834.00   5.38226128   0.05654627
4836.00   5.31905890   0.05619829
4838.00   5.22314501   0.05571273
4840.00   5.25916767   0.05583966
4842.00   5.20077419   0.05547751
4844.00   5.09702492   0.05495790
4846.00   5.00784254   0.05446695
4848.00   5.01554251   0.05454506
4850.00   4.94261360   0.05417718
4852.00   4.89655876   0.05388672
4854.00   4.89684391   0.05377471
4856.00   4.85695934   0.05349315
4858.00   4.81805038   0.05324924
4860.00   4.81381464   0.05322685
4862.00   4.81585455   0.05330076
4864.00   4.77296734   0.05312536
4866.00   4.79088497   0.05314342
4868.00   4.76626587   0.05292410
4870.00   4.77877140   0.05301630
4872.00   4.85108519   0.05339239
4874.00   4.77508879   0.05303083
4876.00   4.85743904   0.05343487
4878.00   4.82294750   0.05319104
4880.00   4.82504034   0.05323076
4882.00   4.90403843   0.05352648
4884.00   4.91755915   0.05359022
4886.00   4.92736006   0.05356525
4888.00   4.97371674   0.05381700
4890.00   5.00802374   0.05397736
4892.00   4.99402380   0.05380706
4894.00   5.08711958   0.05434059
4896.00   5.09565544   0.05438662
4898.00   5.08788490   0.05428515
4900.00   5.16516733   0.05460717
4902.00   5.14366674   0.05452899
4904.00   5.14542532   0.05453487
4906.00   5.18901587   0.05476877
4908.00   5.24882507   0.05507338
4910.00   5.23109913   0.05502595
4912.00   5.19890404   0.05485672
4914.00   5.26941586   0.05515253
4916.00   5.27826357   0.05519588
4918.00   5.31729364   0.05539163
4920.00   5.38727140   0.05571547
4922.00   5.41952610   0.05583236
4924.00   5.39557076   0.05570763
4926.00   5.50612926   0.05614783
4928.00   5.51899862   0.05614800
4930.00   5.47927952   0.05601227
4932.00   5.60660744   0.05659983
4934.00   5.65527439   0.05681150
4936.00   5.70082188   0.05710556
4938.00   5.74678516   0.05733426
4940.00   5.74668694   0.05727202
4942.00   5.77933836   0.05741510
4944.00   5.82537270   0.05760144
4946.00   5.81736326   0.05753805
4948.00   5.80434895   0.05747246
4950.00   5.85374498   0.05778535
4952.00   5.81784248   0.05769686
4954.00   5.83031940   0.05769243
4956.00   5.87695551   0.05785641
4958.00   5.93118858   0.05808143
4960.00   5.89191532   0.05790541
4962.00   5.81420708   0.05754141
4964.00   5.81342554   0.05759463
4966.00   5.90416288   0.05803125
4968.00   5.92930889   0.05819999
4970.00   5.99562550   0.05862126
4972.00   6.01214743   0.05884787
4974.00   6.01871204   0.05908443
4976.00   6.02226639   0.05935055
4978.00   6.09320164   0.05996014
4980.00   6.02918196   0.05991960
4982.00   6.05511093   0.06015606
4984.00   6.09113169   0.06016307
4986.00   6.14738798   0.06018268
4988.00   6.18002844   0.06012990
4990.00   6.22468424   0.06007218
4992.00   6.24710512   0.05999573
4994.00   6.26240110   0.05984288
4996.00   6.21935368   0.05940153
4998.00   6.36777353   0.06016235
5000.00   6.48237991   0.06052531
5002.00   6.43838406   0.06009305
5004.00   6.50249100   0.06035140
5006.00   6.45871210   0.06015854
5008.00   6.54743195   0.06048045
5010.00   6.61655998   0.06074178
5012.00   6.64403296   0.06087108
5014.00   6.60101986   0.06076754
5016.00   6.62295723   0.06093498
5018.00   6.68963718   0.06128628
5020.00   6.75179958   0.06162534
5022.00   6.74599457   0.06150363
5024.00   6.70738840   0.06135672
5026.00   6.75424910   0.06158070
5028.00   6.75713491   0.06162580
5030.00   6.88206244   0.06220765
5032.00   6.88360310   0.06221708
5034.00   6.90693378   0.06221885
5036.00   6.98967266   0.06251808
5038.00   7.01173973   0.06256489
5040.00   7.10086870   0.06291851
5042.00   7.10893822   0.06296324
5044.00   7.09401751   0.06294587
5046.00   7.13349390   0.06307248
5048.00   7.22286892   0.06340630
5050.00   7.28372288   0.06365879
5052.00   7.31560755   0.06378716
5054.00   7.29351330   0.06367238
5056.00   7.36163044   0.06395237
5058.00   7.36578751   0.06394102
5060.00   7.49469090   0.06455387
5062.00   7.53016996   0.06474418
5064.00   7.60844231   0.06516724
5066.00   7.56397533   0.06510198
5068.00   7.67617798   0.06563489
5070.00   7.67848539   0.06561536
5072.00   7.68143129   0.06559391
5074.00   7.80291271   0.06592937
5076.00   7.84701300   0.06616330
5078.00   7.84448862   0.06643501
5080.00   7.90456867   0.06713828
5082.00   7.92191076   0.06761780
5084.00   7.95420074   0.06794503
5086.00   7.96244860   0.06793787
5088.00   8.02264023   0.06774140
5090.00   7.98564625   0.06709865
5092.00   8.08905411   0.06720969
5094.00   8.28532124   0.06787892
5096.00   8.24900150   0.06778897
5098.00   8.25160980   0.06785049
5100.00   8.34009457   0.06817292
5102.00   8.25817394   0.06764752
5104.00   8.34982967   0.06787197
5106.00   8.31981754   0.06762950
5108.00   8.32170200   0.06762989
5110.00   8.30397415   0.06755612
5112.00   8.30495834   0.06759013
5114.00   8.42597485   0.06800494
5116.00   8.38112545   0.06784739
5118.00   8.25605488   0.06734801
5120.00   8.18827724   0.06701173
5122.00   8.26380444   0.06737912
5124.00   8.17662048   0.06701751
5126.00   8.12973404   0.06684361
5128.00   8.18664074   0.06705653
5130.00   8.18549728   0.06705125
5132.00   8.08949566   0.06668376
5134.00   8.07941151   0.06663211
5136.00   8.00094032   0.06631164
5138.00   8.05549622   0.06649373
5140.00   8.03205776   0.06648913
5142.00   7.99592304   0.06647466
5144.00   8.06015491   0.06675217
5146.00   7.97246075   0.06646722
5148.00   7.90065241   0.06634334
5150.00   7.93494892   0.06656303
5152.00   7.91559410   0.06651369
5154.00   7.92645502   0.06658437
5156.00   7.96220446   0.06663846
5158.00   7.97868061   0.06657659
5160.00   7.92370939   0.06628329
5162.00   7.89618826   0.06605677
5164.00   7.93860435   0.06617335
5166.00   7.98271036   0.06628317
5168.00   7.93018770   0.06601230
5170.00   7.98064756   0.06625152
5172.00   7.91572475   0.06599835
5174.00   7.96493006   0.06618311
5176.00   7.99895668   0.06638871
5178.00   8.00726414   0.06640520
5180.00   7.98006010   0.06626438
5182.00   8.01281166   0.06637461
5184.00   8.05835724   0.06654701
5186.00   8.05890560   0.06653430
5188.00   8.11731148   0.06677119
5190.00   8.10741520   0.06676402
5192.00   8.10069752   0.06678676
5194.00   8.11029625   0.06691025
5196.00   8.10488605   0.06700012
5198.00   8.14000893   0.06720806
5200.00   8.17579746   0.06734227
5202.00   8.11811447   0.06705753
5204.00   8.06559372   0.06669203
5206.00   8.08396816   0.06678012
5208.00   8.19946384   0.06717359
5210.00   8.09548759   0.06684078
5212.00   8.08829498   0.06677268
5214.00   8.03360081   0.06654694
5216.00   7.98565292   0.06636672
5218.00   7.82262993   0.06574056
5220.00   7.75303507   0.06544764
5222.00   7.74149799   0.06531837
5224.00   7.64347649   0.06491233
5226.00   7.63252640   0.06483227
5228.00   7.55157566   0.06449917
5230.00   7.43700361   0.06401505
5232.00   7.37588787   0.06373522
5234.00   7.27515268   0.06336570
5236.00   7.15129280   0.06290068
5238.00   7.15877771   0.06288493
5240.00   7.08154297   0.06255765
5242.00   6.98990488   0.06215372
5244.00   6.93960428   0.06191013
5246.00   6.72825289   0.06100586
5248.00   6.71480513   0.06091686
5250.00   6.61925220   0.06052843
5252.00   6.49377251   0.06002470
5254.00   6.48256779   0.06003641
5256.00   6.53339767   0.06027039
5258.00   6.36390781   0.05951384
5260.00   6.38913870   0.05961530
5262.00   6.36738300   0.05946972
5264.00   6.28917885   0.05905361
5266.00   6.23751879   0.05883140
5268.00   6.23029566   0.05879945
5270.00   6.17198515   0.05855834
5272.00   6.11447144   0.05825129
5274.00   6.05322266   0.05800977
5276.00   6.05853319   0.05803860
5278.00   6.04894114   0.05801291
5280.00   5.99859142   0.05783222
5282.00   6.02225828   0.05787853
5284.00   6.02867794   0.05793541
5286.00   6.01642704   0.05792365
5288.00   6.00832844   0.05788269
5290.00   6.07579136   0.05813105
5292.00   6.05917788   0.05806378
5294.00   6.08274794   0.05823790
5296.00   6.05136061   0.05810177
5298.00   6.09676170   0.05820022
5300.00   6.01013899   0.05784139
5302.00   6.04932880   0.05792709
5304.00   6.11453629   0.05822620
5306.00   6.02546740   0.05788329
5308.00   6.10950661   0.05824856
5310.00   6.07499552   0.05814836
5312.00   6.05943108   0.05806121
5314.00   6.09409475   0.05820904
5316.00   6.01757002   0.05785785
5318.00   5.95907450   0.05762957
5320.00   5.99627972   0.05785432
5322.00   6.07982922   0.05815875
5324.00   6.13601065   0.05834742
5326.00   6.13460541   0.05828760
5328.00   6.10609579   0.05820999
5330.00   6.11329460   0.05825577
5332.00   6.12779474   0.05831984
5334.00   6.21910858   0.05877987
5336.00   6.21346998   0.05875690
5338.00   6.27729893   0.05915694
5340.00   6.17380857   0.05873876
5342.00   6.24926138   0.05906574
5344.00   6.32180262   0.05942200
5346.00   6.32518291   0.05947531
5348.00   6.36002922   0.05971760
5350.00   6.32407236   0.05960259
5352.00   6.32639551   0.05967304
5354.00   6.27109766   0.05943079
5356.00   6.26542950   0.05938869
5358.00   6.22739601   0.05910403
5360.00   6.31333923   0.05930288
5362.00   6.19445515   0.05877022
5364.00   6.19107199   0.05871443
5366.00   6.14417839   0.05841835
5368.00   6.16287708   0.05853678
5370.00   6.20930624   0.05881557
5372.00   6.21580029   0.05898851
5374.00   6.13015604   0.05875138
5376.00   6.12451172   0.05884063
5378.00   6.17430305   0.05904386
5380.00   6.16620159   0.05909371
5382.00   6.12509251   0.05903557
5384.00   6.17202711   0.05922817
5386.00   6.12046289   0.05916370
5388.00   6.09398842   0.05929491
5390.00   6.07687044   0.05944707
5392.00   6.08223343   0.05965509
5394.00   6.07621288   0.05976009
5396.00   6.01252604   0.05968366
5398.00   5.98954773   0.05973924
5400.00   5.95712948   0.05976747
5402.00   5.96375656   0.06000215
5404.00   5.88554955   0.05985931
5406.00   5.89709044   0.06021104
5408.00   5.91225767   0.06059631
5410.00   5.82864285   0.06057979
5412.00   5.84493685   0.06109537
5414.00   5.92048979   0.06185178
5416.00   5.84145737   0.06187474
5418.00   5.77387524   0.06196830
5420.00   5.76413202   0.06228969
5422.00   5.68023300   0.06213013
5424.00   5.67208004   0.06233273
5426.00   5.70139980   0.06271880
5428.00   5.63512516   0.06270735
5430.00   5.54048014   0.06253046
5432.00   5.51340389   0.06266256
5434.00   5.46042490   0.06272500
5436.00   5.50111532   0.06329585
5438.00   5.45069361   0.06337719
5440.00   5.43450022   0.06365500
5442.00   5.40748215   0.06383661
5444.00   5.28833199   0.06363495
5446.00   5.34987211   0.06426802
5448.00   5.33833694   0.06442186
5450.00   5.24915075   0.06430022
5452.00   5.21780777   0.06443004
5454.00   5.23836088   0.06568499
5456.00   5.24298382   0.06885733
5458.00   5.20338964   0.07157701
5460.00   5.06363153   0.07271235
5462.00   5.10216379   0.07236572
5464.00   5.19533777   0.07101447
5466.00   5.16468191   0.06915817
5468.00   5.19812536   0.06801204
5470.00   5.26870155   0.06751087
5472.00   5.27208900   0.06730019
5474.00   5.19940615   0.06697425
5476.00   5.29293728   0.06766246
5478.00   5.27148819   0.06788032
5480.00   5.38640642   0.06896390
5482.00   5.36700583   0.06917813
5484.00   5.42573404   0.06968369
5486.00   5.44934464   0.06981306
5488.00   5.51226807   0.07017410
5490.00   5.54201460   0.07033445
5492.00   5.55382061   0.07047128
5494.00   5.62076139   0.07104293
5496.00   5.76951504   0.07201815
5498.00   5.70331860   0.07188274
5500.00   5.77783489   0.07239259
5502.00   5.79953146   0.07269984
5504.00   5.84755135   0.07320688
5506.00   5.89314651   0.07358745
5508.00   5.85624838   0.07365142
5510.00   5.96724892   0.07461878
5512.00   6.05585766   0.07536354
5514.00   6.06147289   0.07567701
5516.00   6.06536865   0.07598565
5518.00   6.08002138   0.07643601
5520.00   6.06766176   0.07651526
5522.00   6.09929657   0.07670426
5524.00   6.10222578   0.07688981
5526.00   6.10901642   0.07699634
5528.00   6.22740698   0.07776491
5530.00   6.15121603   0.07734197
5532.00   6.15142679   0.07742967
5534.00   6.23500776   0.07800763
5536.00   6.11569023   0.07755382
5538.00   6.21536064   0.07834870
5540.00   6.18212223   0.07829200
5542.00   6.14554834   0.07824177
5544.00   6.02678776   0.07770734
5546.00   6.06876278   0.07803033
5548.00   6.01795626   0.07786672
5550.00   5.97880363   0.07772394
5552.00   6.03241062   0.07817854
5554.00   6.00008774   0.07813766
5556.00   5.95887613   0.07805032
5558.00   5.90452433   0.07789379
5560.00   5.99328423   0.07862736
5562.00   5.91216326   0.07836147
5564.00   5.89311457   0.07827839
5566.00   5.98540783   0.07894403
5568.00   5.88698816   0.07852282
5570.00   5.97522640   0.07974408
5572.00   5.93168783   0.08355607
5574.00   5.94804096   0.08759175
5576.00   6.05756521   0.09078342
5578.00   5.94609308   0.08991309
5580.00   6.01641941   0.08796894
5582.00   6.05682278   0.08588850
5584.00   6.11300898   0.08388154
5586.00   6.12537146   0.08229717
5588.00   6.02855301   0.08073391
5590.00   6.07449150   0.06290558
5592.00   6.11577034   0.06264503
5594.00   6.15205431   0.06242892
5596.00   6.18038940   0.06204447
5598.00   6.12751532   0.06193540
5600.00   6.09035110   0.06284916
5602.00   6.14094114   0.06133306
5604.00   6.17551994   0.06051571
5606.00   6.19706106   0.06017162
5608.00   6.22879839   0.06000023
5610.00   6.17573214   0.05939321
5612.00   6.19948578   0.05915753
5614.00   6.20982933   0.05891777
5616.00   6.18296194   0.05848477
5618.00   6.18944407   0.05817056
5620.00   6.16317701   0.05774269
5622.00   6.17970037   0.05751682
5624.00   6.17271233   0.05718466
5626.00   6.10317421   0.05658323
5628.00   6.11861277   0.05635120
5630.00   6.11992884   0.05606933
5632.00   6.10799170   0.05576218
5634.00   6.07658625   0.05526724
5636.00   6.07914782   0.05503444
5638.00   6.09710741   0.05596264
5640.00   6.07286263   0.05541406
5642.00   6.02544260   0.05432193
5644.00   5.95191717   0.05338514
5646.00   5.87159109   0.05299940
5648.00   5.82667112   0.05256015
5650.00   5.79329729   0.05216989
5652.00   5.76638794   0.05184593
5654.00   5.72227287   0.05160021
5656.00   5.65840912   0.05224672
5658.00   5.68265963   0.05223547
5660.00   5.69399261   0.05198963
5662.00   5.68595362   0.05191723
5664.00   5.66725969   0.05166885
5666.00   5.65764618   0.05308557
5668.00   5.60600615   0.05607188
5670.00   5.61124468   0.05603687
5672.00   5.64763308   0.05476848
5674.00   5.72194815   0.05356314
5676.00   5.72303438   0.05424970
5678.00   5.84981585   0.05702696
5680.00   5.95904160   0.05913608
5682.00   5.99249220   0.05679227
5684.00   5.86223173   0.05469894
5686.00   5.86045599   0.05508840
5688.00   5.88575315   0.05281457
5690.00   5.91637468   0.05076462
5692.00   5.94368887   0.05047476
5694.00   5.95392609   0.04999779
5696.00   5.99320030   0.04956196
5698.00   6.00076342   0.04906838
5700.00   5.99755478   0.04862576
5702.00   6.00357437   0.04828890
5704.00   6.03048897   0.04808218
5706.00   6.01951599   0.04779583
5708.00   6.02053308   0.04757905
5710.00   6.01401663   0.04734971
5712.00   5.98211098   0.04704825
5714.00   5.98134375   0.04685427
5716.00   5.99304247   0.04672873
5718.00   5.96246862   0.04641217
5720.00   5.96899652   0.04620389
5722.00   5.96280527   0.04598705
5724.00   5.88422728   0.04553166
5726.00   5.86366653   0.04529169
5728.00   5.85852671   0.04511854
5730.00   5.83449364   0.04485229
5732.00   5.80124807   0.04455835
5734.00   5.74530792   0.04423411
5736.00   5.72423792   0.04404926
5738.00   5.68120337   0.04378656
5740.00   5.65543890   0.04357661
5742.00   5.63512468   0.04337773
5744.00   5.63043451   0.04325107
5746.00   5.57049942   0.04294869
5748.00   5.55246925   0.04278886
5750.00   5.53479004   0.04265293
5752.00   5.50400400   0.04250525
5754.00   5.49275589   0.04243922
5756.00   5.45014954   0.04229639
5758.00   5.42892218   0.04219666
5760.00   5.40375280   0.04211126
5762.00   5.38964701   0.04209287
5764.00   5.35354090   0.04205997
5766.00   5.34972525   0.04214831
5768.00   5.35676336   0.04227409
5770.00   5.32366610   0.04216290
5772.00   5.28441954   0.04189734
5774.00   5.32168913   0.04183562
5776.00   5.30003214   0.04147727
5778.00   5.27702665   0.04112372
5780.00   5.26779318   0.04090996
5782.00   5.24122858   0.04074149
5784.00   5.27073240   0.04087255
5786.00   5.30528116   0.04107612
5788.00   5.31910563   0.04124317
5790.00   5.33449936   0.04136149
5792.00   5.36303329   0.04139784
5794.00   5.37219381   0.04122518
5796.00   5.36440849   0.04092976
5798.00   5.38120604   0.04071282
5800.00   5.40204620   0.04052201
5802.00   5.39429855   0.04029125
5804.00   5.40606070   0.04021986
5806.00   5.41153860   0.04014771
5808.00   5.40948868   0.04007767
5810.00   5.41665316   0.04003315
5812.00   5.43099833   0.04000155
5814.00   5.45326757   0.04001835
5816.00   5.47368813   0.04002461
5818.00   5.46516848   0.03994380
5820.00   5.45488405   0.03987313
5822.00   5.49036407   0.03996163
5824.00   5.49189043   0.03992235
5826.00   5.52653122   0.04000609
5828.00   5.53843641   0.04003655
5830.00   5.53504801   0.04000286
5832.00   5.56784439   0.04007076
5834.00   5.59307337   0.04011325
5836.00   5.60179377   0.04012594
5838.00   5.59612656   0.04011021
5840.00   5.60235167   0.04011082
5842.00   5.62049818   0.04015408
5844.00   5.62568903   0.04018163
5846.00   5.62042952   0.04014735
5848.00   5.61853743   0.04010947
5850.00   5.62804270   0.04013150
5852.00   5.64883614   0.04021039
5854.00   5.65304613   0.04022148
5856.00   5.65624237   0.04022457
5858.00   5.68025160   0.04029416
5860.00   5.69213724   0.04036678
5862.00   5.71286631   0.04045266
5864.00   5.70630503   0.04044928
5866.00   5.70004511   0.04043819
5868.00   5.68947983   0.04040685
5870.00   5.69232035   0.04040214
5872.00   5.67463923   0.04040189
5874.00   5.68571329   0.04050767
5876.00   5.66422701   0.04060809
5878.00   5.62169647   0.04081594
5880.00   5.59484625   0.04126815
5882.00   5.55698776   0.04181979
5884.00   5.48341370   0.04261400
5886.00   5.40447283   0.04366688
5888.00   5.36056757   0.04483728
5890.00   5.29631376   0.05071908
5892.00   5.30769300   0.05784031
5894.00   5.30276775   0.05833173
5896.00   5.26108122   0.04990114
5898.00   5.28547859   0.04613533
5900.00   5.34114695   0.04430748
5902.00   5.35103369   0.04256855
5904.00   5.36474609   0.04061941
5906.00   5.37796783   0.03936009
5908.00   5.35939169   0.03862144
5910.00   5.28441858   0.03831607
5912.00   5.22540903   0.03814032
5914.00   5.18674326   0.03802558
5916.00   5.13179064   0.03783963
5918.00   5.04640579   0.03754593
5920.00   4.94674158   0.03719096
5922.00   4.83892107   0.03679765
5924.00   4.76374960   0.03653308
5926.00   4.72667885   0.03641123
5928.00   4.71392870   0.03635958
5930.00   4.70098352   0.03632481
5932.00   4.67480135   0.03625040
5934.00   4.64566565   0.03611983
5936.00   4.63954401   0.03601725
5938.00   4.62409639   0.03586626
5940.00   4.56977272   0.03556872
5942.00   4.50605917   0.03525354
5944.00   4.46050406   0.03501862
5946.00   4.41529417   0.03480680
5948.00   4.37467098   0.03463042
5950.00   4.31620216   0.03443149
5952.00   4.29203033   0.03433486
5954.00   4.26862764   0.03422624
5956.00   4.22487640   0.03404818
5958.00   4.15463114   0.03378325
5960.00   4.13781023   0.03365958
5962.00   4.09871340   0.03345344
5964.00   4.04854918   0.03321471
5966.00   3.99967384   0.03300489
5968.00   3.94464684   0.03280597
5970.00   3.88313890   0.03257236
5972.00   3.85834861   0.03244824
5974.00   3.83603168   0.03233030
5976.00   3.76631951   0.03204725
5978.00   3.73370910   0.03189192
5980.00   3.69934535   0.03172837
5982.00   3.66347623   0.03157188
5984.00   3.63983083   0.03145647
5986.00   3.61821580   0.03134548
5988.00   3.58939624   0.03120077
5990.00   3.55689263   0.03104638
5992.00   3.51554370   0.03086579
5994.00   3.48534012   0.03073670
5996.00   3.46242452   0.03063672
5998.00   3.44163966   0.03052301
6000.00   3.39912033   0.03034423
6002.00   3.36535907   0.03020208
6004.00   3.35021901   0.03010138
6006.00   3.31849575   0.02993101
6008.00   3.30704045   0.02984457
6010.00   3.28436208   0.02972091
6012.00   3.25588107   0.02956556
6014.00   3.22244668   0.02939228
6016.00   3.19184375   0.02924577
6018.00   3.18563390   0.02919922
6020.00   3.16973329   0.02911585
6022.00   3.14475822   0.02900006
6024.00   3.11440825   0.02886230
6026.00   3.11223578   0.02882307
6028.00   3.11573601   0.02882380
6030.00   3.10336089   0.02875727
6032.00   3.08507943   0.02867240
6034.00   3.05895710   0.02855004
6036.00   3.04990840   0.02848546
6038.00   3.03563309   0.02838314
6040.00   3.02098942   0.02829334
6042.00   3.00717068   0.02822914
6044.00   3.01456451   0.02822063
6046.00   3.02608943   0.02822128
6048.00   2.99176335   0.02807441
6050.00   2.98350883   0.02803149
6052.00   2.99141312   0.02804102
6054.00   2.96502376   0.02790929
6056.00   2.92402387   0.02773830
6058.00   2.91926646   0.02769286
6060.00   2.91885448   0.02766043
6062.00   2.90335536   0.02758973
6064.00   2.90814900   0.02761393
6066.00   2.91009212   0.02763046
6068.00   2.92665553   0.02768410
6070.00   2.92471218   0.02765042
6072.00   2.90157413   0.02754051
6074.00   2.90242672   0.02755163
6076.00   2.89390397   0.02750006
6078.00   2.88013005   0.02740691
6080.00   2.87802911   0.02738532
6082.00   2.88058186   0.02741203
6084.00   2.87136173   0.02737674
6086.00   2.87931514   0.02740267
6088.00   2.88908863   0.02744873
6090.00   2.87900043   0.02742079
6092.00   2.86077499   0.02735155
6094.00   2.85754275   0.02736836
6096.00   2.84619308   0.02736317
6098.00   2.86984825   0.02749934
6100.00   2.87247062   0.02757160
6102.00   2.84329510   0.02754903
6104.00   2.85114169   0.02769802
6106.00   2.85837960   0.02788893
6108.00   2.85829544   0.02805481
6110.00   2.85519218   0.02819761
6112.00   2.86499667   0.02835669
6114.00   2.85937858   0.02837864
6116.00   2.85676980   0.02831837
6118.00   2.86098671   0.02821704
6120.00   2.87134337   0.02807432
6122.00   2.88784409   0.02790085
6124.00   2.90774179   0.02781376
6126.00   2.90646672   0.02770197
6128.00   2.90343475   0.02760836
6130.00   2.90433478   0.02754358
6132.00   2.90569234   0.02752110
6134.00   2.89601326   0.02746310
6136.00   2.91673493   0.02755357
6138.00   2.93078208   0.02761738
6140.00   2.95408058   0.02770573
6142.00   2.98286939   0.02783966
6144.00   3.00899100   0.02796125
6146.00   3.03600430   0.02806635
6148.00   3.05281520   0.02815071
6150.00   3.07569814   0.02826864
6152.00   3.09617424   0.02837909
6154.00   3.10759044   0.02846847
6156.00   3.12396240   0.02859307
6158.00   3.15210557   0.02874736
6160.00   3.18493843   0.02888709
6162.00   3.21439052   0.02893547
6164.00   3.24496174   0.02894261
6166.00   3.27597046   0.02893121
6168.00   3.30888557   0.02892440
6170.00   3.36389470   0.02901367
6172.00   3.41787648   0.02913287
6174.00   3.45164514   0.02922044
6176.00   3.48170090   0.02929441
6178.00   3.52243304   0.02939964
6180.00   3.57171988   0.02953920
6182.00   3.62342262   0.02970061
6184.00   3.70301127   0.02997246
6186.00   3.75379014   0.03014418
6188.00   3.79346395   0.03028576
6190.00   3.83053184   0.03041848
6192.00   3.89192653   0.03063502
6194.00   3.94619107   0.03081805
6196.00   3.97548485   0.03091518
6198.00   4.01844549   0.03106779
6200.00   4.09039402   0.03133453
6202.00   4.10393381   0.03138376
6204.00   4.13575125   0.03148311
6206.00   4.17526674   0.03162343
6208.00   4.23031664   0.03183677
6210.00   4.28581953   0.03202861
6212.00   4.28970098   0.03201582
6214.00   4.33523750   0.03211924
6216.00   4.40119791   0.03229130
6218.00   4.42684984   0.03234024
6220.00   4.45220613   0.03238679
6222.00   4.49009418   0.03245787
6224.00   4.51980066   0.03257309
6226.00   4.52547073   0.03280099
6228.00   4.51503801   0.03330854
6230.00   4.58219194   0.03304628
6232.00   4.61877441   0.03294720
6234.00   4.66089106   0.03320242
6236.00   4.70029879   0.03339503
6238.00   4.73221207   0.03352849
6240.00   4.79110909   0.03371294
6242.00   4.81420088   0.03370493
6244.00   4.83071470   0.03365405
6246.00   4.87696791   0.03370627
6248.00   4.90305281   0.03372579
6250.00   4.93324327   0.03376999
6252.00   4.97392416   0.03389983
6254.00   5.01540232   0.03408302
6256.00   5.04209280   0.03423886
6258.00   5.08937979   0.03443548
6260.00   5.09284401   0.03445274
6262.00   5.11529016   0.03448495
6264.00   5.13571215   0.03447032
6266.00   5.16742659   0.03446981
6268.00   5.18716431   0.03444308
6270.00   5.18517733   0.03442438
6272.00   5.18784523   0.03449747
6274.00   5.20257044   0.03468721
6276.00   5.22264147   0.03496135
6278.00   5.22489786   0.03516487
6280.00   5.22615242   0.03517983
6282.00   5.23571968   0.03518926
6284.00   5.27539444   0.03527997
6286.00   5.32179260   0.03534963
6288.00   5.34586573   0.03531865
6290.00   5.37177515   0.03554118
6292.00   5.39495611   0.03594225
6294.00   5.40258455   0.03656989
6296.00   5.42125750   0.03750554
6298.00   5.41292334   0.03844969
6300.00   5.43191576   0.03892822
6302.00   5.47447538   0.03906735
6304.00   5.47765923   0.03869341
6306.00   5.46629477   0.03786358
6308.00   5.48343325   0.03671172
6310.00   5.48203659   0.03575166
6312.00   5.47874308   0.03525712
6314.00   5.48594666   0.03514774
6316.00   5.47022486   0.03495936
6318.00   5.46187782   0.03484808
6320.00   5.42106771   0.03463388
6322.00   5.39355993   0.03451416
6324.00   5.43861628   0.03467964
6326.00   5.47242498   0.03480014
6328.00   5.48995590   0.03480836
6330.00   5.49468279   0.03478422
6332.00   5.48886538   0.03472636
6334.00   5.48864174   0.03467261
6336.00   5.51040602   0.03467054
6338.00   5.49804068   0.03458405
6340.00   5.47374487   0.03447066
6342.00   5.46632528   0.03440848
6344.00   5.47382021   0.03439058
6346.00   5.47639084   0.03438912
6348.00   5.45780325   0.03433581
6350.00   5.46691895   0.03436450
6352.00   5.45705557   0.03435177
6354.00   5.44151831   0.03435420
6356.00   5.44752502   0.03446737
6358.00   5.45707703   0.03472298
6360.00   5.45450830   0.03506026
6362.00   5.44326448   0.03533031
6364.00   5.44144249   0.03543572
6366.00   5.44142008   0.03532965
6368.00   5.43326569   0.03506590
6370.00   5.41125154   0.03462807
6372.00   5.41129446   0.03422762
6374.00   5.42844009   0.03400173
6376.00   5.42701197   0.03393024
6378.00   5.39477301   0.03383412
6380.00   5.37427902   0.03378515
6382.00   5.38593054   0.03381057
6384.00   5.38958883   0.03379308
6386.00   5.39982843   0.03377714
6388.00   5.39968729   0.03373788
6390.00   5.36903524   0.03361775
6392.00   5.33460999   0.03349609
6394.00   5.32092524   0.03342192
6396.00   5.35177994   0.03347262
6398.00   5.35837364   0.03347344
6400.00   5.34252310   0.03343653
6402.00   5.32843542   0.03340732
6404.00   5.33593988   0.03341000
6406.00   5.31816721   0.03331927
6408.00   5.28505659   0.03319395
6410.00   5.26517820   0.03310683
6412.00   5.28066683   0.03311560
6414.00   5.25528145   0.03302126
6416.00   5.23681688   0.03295856
6418.00   5.21113062   0.03285053
6420.00   5.18517542   0.03272706
6422.00   5.19994831   0.03273666
6424.00   5.20408487   0.03272479
6426.00   5.18035364   0.03263074
6428.00   5.15847969   0.03253521
6430.00   5.14109945   0.03244563
6432.00   5.14431953   0.03243325
6434.00   5.13988066   0.03240332
6436.00   5.09185457   0.03224087
6438.00   5.07067490   0.03216194
6440.00   5.08700895   0.03219165
6442.00   5.08327675   0.03216213
6444.00   5.08965349   0.03216863
6446.00   5.07546520   0.03211462
6448.00   5.04997015   0.03202135
6450.00   5.04368067   0.03199278
6452.00   5.03513145   0.03196472
6454.00   5.02155924   0.03191534
6456.00   5.00356817   0.03184943
6458.00   4.99547720   0.03182284
6460.00   4.97634268   0.03176725
6462.00   4.96548653   0.03175192
6464.00   4.94714117   0.03169806
6466.00   4.92804861   0.03164369
6468.00   4.90920019   0.03159283
6470.00   4.89697123   0.03154179
6472.00   4.87564087   0.03143010
6474.00   4.84561777   0.03127289
6476.00   4.84612417   0.03120205
6478.00   4.83211136   0.03112415
6480.00   4.82708406   0.03112059
6482.00   4.83909178   0.03118158
6484.00   4.82550573   0.03104447
6486.00   4.80176306   0.03088973
6488.00   4.79930353   0.03085787
6490.00   4.82071018   0.03093688
6492.00   4.79667616   0.03089105
6494.00   4.79587793   0.03095178
6496.00   4.83580637   0.03113944
6498.00   4.87568951   0.03132018
6500.00   4.88185644   0.03137760
6502.00   4.89769506   0.03143095
6504.00   4.90252066   0.03140086
6506.00   4.89184332   0.03129055
6508.00   4.87742567   0.03115884
6510.00   4.85526085   0.03101997
6512.00   4.81384420   0.03083091
6514.00   4.75275087   0.03057590
6516.00   4.70696688   0.03039113
6518.00   4.69200945   0.03033590
6520.00   4.72025490   0.03043430
6522.00   4.73641205   0.03048100
6524.00   4.76264763   0.03056380
6526.00   4.77230883   0.03061209
6528.00   4.76587915   0.03063030
6530.00   4.74932146   0.03063131
6532.00   4.72795153   0.03058277
6534.00   4.70555115   0.03049524
6536.00   4.70836973   0.03047280
6538.00   4.72847176   0.03049424
6540.00   4.72607040   0.03042321
6542.00   4.70889664   0.03031305
6544.00   4.69649172   0.03024312
6546.00   4.70424938   0.03027072
6548.00   4.72084379   0.03035159
6550.00   4.73429108   0.03044171
6552.00   4.72500849   0.03043681
6554.00   4.73308277   0.03045871
6556.00   4.73884773   0.03046637
6558.00   4.71954775   0.03040722
6560.00   4.72198629   0.03039483
6562.00   4.73751450   0.03040202
6564.00   4.72394657   0.03032219
6566.00   4.70468378   0.03024120
6568.00   4.70315313   0.03020333
6570.00   4.67730951   0.03007240
6572.00   4.66829824   0.03003097
6574.00   4.66146040   0.03001841
6576.00   4.66220045   0.03003963
6578.00   4.68063593   0.03009331
6580.00   4.69189072   0.03011310
6582.00   4.69432116   0.03007448
6584.00   4.67514277   0.02996479
6586.00   4.66865110   0.02990004
6588.00   4.66641569   0.02985850
6590.00   4.66595316   0.02984615
6592.00   4.66518402   0.02983088
6594.00   4.67382383   0.02984420
6596.00   4.66562128   0.02983457
6598.00   4.65134048   0.02983205
6600.00   4.66296101   0.02991911
6602.00   4.70082760   0.03008458
6604.00   4.70363092   0.03040301
6606.00   4.69873810   0.03076516
6608.00   4.69583130   0.03048364
6610.00   4.64809465   0.02984895
6612.00   4.59805107   0.02951442
6614.00   4.56066132   0.02939439
6616.00   4.55279398   0.02930335
6618.00   4.56936884   0.02934634
6620.00   4.57212496   0.02935848
6622.00   4.55183840   0.02929991
6624.00   4.52682447   0.02922224
6626.00   4.54982328   0.02927964
6628.00   4.52632475   0.02920159
6630.00   4.49792290   0.02910332
6632.00   4.48487282   0.02905102
6634.00   4.49582100   0.02907091
6636.00   4.49090719   0.02903895
6638.00   4.45550203   0.02890863
6640.00   4.42989731   0.02880903
6642.00   4.42229128   0.02877485
6644.00   4.42168617   0.02875616
6646.00   4.40329123   0.02867962
6648.00   4.40507698   0.02867084
6650.00   4.40743256   0.02867811
6652.00   4.41757822   0.02870949
6654.00   4.40128946   0.02865383
6656.00   4.38005161   0.02858313
6658.00   4.36332703   0.02852111
6660.00   4.36095095   0.02850559
6662.00   4.36423922   0.02851324
6664.00   4.38077593   0.02856781
6666.00   4.38291597   0.02856652
6668.00   4.37622213   0.02853050
6670.00   4.38228798   0.02853753
6672.00   4.39379549   0.02856687
6674.00   4.38811636   0.02853753
6676.00   4.36736345   0.02847472
6678.00   4.34618807   0.02840730
6680.00   4.34088373   0.02838803
6682.00   4.34080744   0.02837637
6684.00   4.33432150   0.02833550
6686.00   4.33668852   0.02832467
6688.00   4.32943296   0.02829729
6690.00   4.32980871   0.02829144
6692.00   4.32979965   0.02828401
6694.00   4.34671164   0.02832977
6696.00   4.33357620   0.02828715
6698.00   4.32020807   0.02824629
6700.00   4.31041622   0.02822117
6702.00   4.30534172   0.02822163
6704.00   4.29200888   0.02821549
6706.00   4.28711128   0.02824142
6708.00   4.28045845   0.02823354
6710.00   4.27410173   0.02820527
6712.00   4.26907778   0.02816856
6714.00   4.23953915   0.02805519
6716.00   4.24139738   0.02801561
6718.00   4.25365210   0.02802121
6720.00   4.25080729   0.02799267
6722.00   4.22767878   0.02790830
6724.00   4.18683672   0.02775045
6726.00   4.17522001   0.02769907
6728.00   4.17350245   0.02768556
6730.00   4.16432333   0.02765300
6732.00   4.13633728   0.02755747
6734.00   4.11929655   0.02749724
6736.00   4.10854864   0.02746216
6738.00   4.10884428   0.02745831
6740.00   4.11017799   0.02745868
6742.00   4.09723234   0.02741444
6744.00   4.07250500   0.02733047
6746.00   4.07525301   0.02732164
6748.00   4.07771111   0.02731495
6750.00   4.07502604   0.02729743
6752.00   4.08228731   0.02732250
6754.00   4.07477427   0.02729592
6756.00   4.07240105   0.02729478
6758.00   4.06613874   0.02727371
6760.00   4.06030607   0.02724084
6762.00   4.04562426   0.02717688
6764.00   4.04098797   0.02715227
6766.00   4.04537582   0.02715968
6768.00   4.04977465   0.02716508
6770.00   4.03632212   0.02711466
6772.00   4.00413513   0.02701139
6774.00   4.01653433   0.02703548
6776.00   4.01160765   0.02702071
6778.00   3.99345136   0.02695957
6780.00   3.99272156   0.02694536
6782.00   3.99157453   0.02694019
6784.00   3.99026179   0.02692773
6786.00   3.96897221   0.02685826
6788.00   3.94722438   0.02678757
6790.00   3.94722438   0.02678115
6792.00   3.95221329   0.02678422
6794.00   3.93398571   0.02672433
6796.00   3.93920040   0.02674554
6798.00   3.93806458   0.02673568
6800.00   3.93490148   0.02670599
6802.00   3.93427157   0.02670701
6804.00   3.91300321   0.02663685
6806.00   3.91445732   0.02662706
6808.00   3.91380000   0.02661615
6810.00   3.90445805   0.02658600
6812.00   3.91772246   0.02663752
6814.00   3.92239451   0.02665947
6816.00   3.93312907   0.02669487
6818.00   3.92700267   0.02667061
6820.00   3.92741847   0.02667772
6822.00   3.91272044   0.02667654
6824.00   3.88265610   0.02669541
6826.00   3.87964559   0.02682320
6828.00   3.91400909   0.02706702
6830.00   3.92122674   0.02720926
6832.00   3.92114449   0.02734613
6834.00   3.94099522   0.02753544
6836.00   3.95372081   0.02755247
6838.00   3.95537734   0.02738900
6840.00   3.91714454   0.02713990
6842.00   3.92394257   0.02702790
6844.00   3.93428802   0.02700347
6846.00   3.95650172   0.02704372
6848.00   3.95238185   0.02698730
6850.00   3.94323349   0.02693495
6852.00   3.92496777   0.02686036
6854.00   3.93066525   0.02689080
6856.00   3.93840599   0.02695458
6858.00   3.92693043   0.02702214
6860.00   3.91215897   0.02722457
6862.00   3.91361690   0.02765519
6864.00   3.91639256   0.02834315
6866.00   3.89453673   0.02940960
6868.00   3.85342479   0.03078785
6870.00   3.82265401   0.03194935
6872.00   3.79243279   0.03200204
6874.00   3.80648994   0.03150791
6876.00   3.82802510   0.03068225
6878.00   3.87026906   0.02988034
6880.00   3.88550258   0.02902233
6882.00   3.87019157   0.02840789
6884.00   3.85287499   0.02822713
6886.00   3.83838630   0.02838325
6888.00   3.81993961   0.02859978
6890.00   3.80582929   0.02874003
6892.00   3.79012775   0.02872490
6894.00   3.78291488   0.02861240
6896.00   3.78061271   0.02845877
6898.00   3.79290771   0.02838221
6900.00   3.78841901   0.02825983
6902.00   3.78715897   0.02812084
6904.00   3.79386139   0.02800722
6906.00   3.78990293   0.02787427
6908.00   3.77446938   0.02770560
6910.00   3.75399709   0.02750711
6912.00   3.74375725   0.02740814
6914.00   3.74302292   0.02733219
6916.00   3.74441648   0.02723019
6918.00   3.73295331   0.02714282
6920.00   3.72452140   0.02716362
6922.00   3.72247481   0.02716074
6924.00   3.73108411   0.02718025
6926.00   3.72461343   0.02716737
6928.00   3.70970511   0.02710023
6930.00   3.71296239   0.02700319
6932.00   3.71204948   0.02690933
6934.00   3.70475030   0.02686398
6936.00   3.71283531   0.02696656
6938.00   3.73054695   0.02721716
6940.00   3.73968673   0.02740862
6942.00   3.75210023   0.02747543
6944.00   3.74146175   0.02736030
6946.00   3.70568824   0.02716044
6948.00   3.72136664   0.02720274
6950.00   3.73130107   0.02721956
6952.00   3.71876144   0.02707143
6954.00   3.70981216   0.02690457
6956.00   3.72871184   0.02692066
6958.00   3.73432064   0.02688929
6960.00   3.73837018   0.02678681
6962.00   3.74976277   0.02669367
6964.00   3.75205588   0.02659966
6966.00   3.75621223   0.02654392
6968.00   3.75502658   0.02649711
6970.00   3.75239205   0.02643527
6972.00   3.73243070   0.02635228
6974.00   3.71550846   0.02633612
6976.00   3.70858788   0.02636872
6978.00   3.70365024   0.02640566
6980.00   3.69321609   0.02635569
6982.00   3.68862462   0.02630312
6984.00   3.68079638   0.02628907
6986.00   3.66872692   0.02635258
6988.00   3.67720604   0.02645420
6990.00   3.67750287   0.02649772
6992.00   3.67722774   0.02651647
6994.00   3.67722678   0.02650750
6996.00   3.69246483   0.02650928
6998.00   3.68717003   0.02643172
7000.00   3.68011928   0.02640046
7002.00   3.66400075   0.02638693
7004.00   3.64479637   0.02637228
7006.00   3.63621259   0.02631775
7008.00   3.62720037   0.02623414
7010.00   3.61442065   0.02615243
7012.00   3.60695815   0.02613329
7014.00   3.60891128   0.02616198
7016.00   3.60594654   0.02612472
7018.00   3.60540128   0.02606855
7020.00   3.60079646   0.02602813
7022.00   3.60603809   0.02607352
7024.00   3.63073277   0.02622576
7026.00   3.64156365   0.02634805
7028.00   3.62690473   0.02627746
7030.00   3.60271621   0.02606282
7032.00   3.59017372   0.02584214
7034.00   3.58719373   0.02574494
7036.00   3.58990669   0.02583158
7038.00   3.59172058   0.02591334
7040.00   3.56852150   0.02582685
7042.00   3.54299641   0.02565952
7044.00   3.53808522   0.02558474
7046.00   3.55766368   0.02566189
7048.00   3.55942130   0.02572265
7050.00   3.55907321   0.02580059
7052.00   3.54492831   0.02581973
7054.00   3.55385208   0.02582217
7056.00   3.56631660   0.02583560
7058.00   3.57716155   0.02588595
7060.00   3.57696795   0.02588561
7062.00   3.57775617   0.02585845
7064.00   3.56293035   0.02582606
7066.00   3.56917882   0.02585690
7068.00   3.56382823   0.02578471
7070.00   3.55132127   0.02564668
7072.00   3.54222608   0.02554477
7074.00   3.53907275   0.02554657
7076.00   3.54682660   0.02561555
7078.00   3.54158711   0.02559433
7080.00   3.52557063   0.02549004
7082.00   3.53105760   0.02547789
7084.00   3.55539060   0.02563487
7086.00   3.56275272   0.02573846
7088.00   3.55519891   0.02574501
7090.00   3.56688404   0.02578652
7092.00   3.59015012   0.02587399
7094.00   3.61041260   0.02596097
7096.00   3.60370636   0.02591801
7098.00   3.58544230   0.02580895
7100.00   3.57379937   0.02572787
7102.00   3.58788681   0.02575935
7104.00   3.58872008   0.02573952
7106.00   3.58287811   0.02569735
7108.00   3.58065510   0.02565483
7110.00   3.57303047   0.02558997
7112.00   3.58127666   0.02562217
7114.00   3.58583450   0.02562456
7116.00   3.59049678   0.02566127
7118.00   3.59161854   0.02571837
7120.00   3.59826946   0.02578797
7122.00   3.59779811   0.02574546
7124.00   3.60567665   0.02584204
7126.00   3.60383439   0.02588603
7128.00   3.60191035   0.02589778
7130.00   3.61778545   0.02596032
7132.00   3.61409640   0.02590699
7134.00   3.61531520   0.02592952
7136.00   3.62200427   0.02598158
7138.00   3.61646056   0.02597956
7140.00   3.59358287   0.02588351
7142.00   3.58733153   0.02583384
7144.00   3.58628201   0.02586352
7146.00   3.58645701   0.02590795
7148.00   3.60288429   0.02599818
7150.00   3.60626817   0.02604230
7152.00   3.60709691   0.02604572
7154.00   3.60323787   0.02600939
7156.00   3.58504009   0.02587813
7158.00   3.56010246   0.02572455
7160.00   3.55502796   0.02573734
7162.00   3.57069898   0.02601428
7164.00   3.56947017   0.02632092
7166.00   3.56442094   0.02667335
7168.00   3.56005192   0.02707464
7170.00   3.56357479   0.02753508
7172.00   3.57431316   0.02800918
7174.00   3.55842972   0.02822290
7176.00   3.53456807   0.02818289
7178.00   3.52252388   0.02798688
7180.00   3.50861478   0.02775609
7182.00   3.53992343   0.02801193
7184.00   3.54091048   0.02838133
7186.00   3.52469516   0.02859733
7188.00   3.51245308   0.02855406
7190.00   3.53727508   0.02856682
7192.00   3.54574847   0.02851222
7194.00   3.53267932   0.02829287
7196.00   3.52464581   0.02813035
7198.00   3.54618526   0.02825607
7200.00   3.57195878   0.02852478
7202.00   3.54431152   0.02843360
7204.00   3.52107787   0.02819626
7206.00   3.52070451   0.02785031
7208.00   3.51976848   0.02731276
7210.00   3.51635242   0.02675982
7212.00   3.50345230   0.02627953
7214.00   3.49996781   0.02598089
7216.00   3.48824573   0.02581881
7218.00   3.46263885   0.02570600
7220.00   3.46240306   0.02566992
7222.00   3.47194219   0.02574841
7224.00   3.45309901   0.02576287
7226.00   3.42153525   0.02572062
7228.00   3.41025257   0.02577437
7230.00   3.39870334   0.02610146
7232.00   3.40369582   0.02674253
7234.00   3.38017201   0.02728990
7236.00   3.34306979   0.02764604
7238.00   3.34911728   0.02805737
7240.00   3.37314415   0.02859973
7242.00   3.36445141   0.02897198
7244.00   3.33415222   0.02887245
7246.00   3.31358361   0.02832426
7248.00   3.33567595   0.02790911
7250.00   3.35612845   0.02777012
7252.00   3.33884335   0.02749360
7254.00   3.30347061   0.02706637
7256.00   3.29313493   0.02669319
7258.00   3.31325912   0.02654086
7260.00   3.33296847   0.02651004
7262.00   3.33287120   0.02652943
7264.00   3.31689143   0.02652148
7266.00   3.29186130   0.02637996
7268.00   3.28365040   0.02608787
7270.00   3.30536842   0.02629602
7272.00   3.31321836   0.02704000
7274.00   3.30138469   0.02795114
7276.00   3.26426196   0.02843620
7278.00   3.26840472   0.02846874
7280.00   3.28518772   0.02809925
7282.00   3.30061150   0.02737417
7284.00   3.31679440   0.02665933
7286.00   3.32930350   0.02640070
7288.00   3.31842995   0.02664926
7290.00   3.30460477   0.02748340
7292.00   3.28131199   0.02812438
7294.00   3.25277209   0.02828135
7296.00   3.23698163   0.02781019
7298.00   3.23538113   0.02664191
7300.00   3.25233054   0.02628970
7302.00   3.24700427   0.02634961
7304.00   3.21368623   0.02627490
7306.00   3.18007922   0.02591749
7308.00   3.18710303   0.02591774
7310.00   3.18714786   0.02601950
7312.00   3.15398526   0.02610632
7314.00   3.11344695   0.02626949
7316.00   3.12734628   0.02660154
7318.00   3.13564777   0.02658492
7320.00   3.14426446   0.02620900
7322.00   3.14083219   0.02557396
7324.00   3.15587163   0.02504465
7326.00   3.16201377   0.02490752
7328.00   3.13337541   0.02487817
7330.00   3.12745571   0.02495808
7332.00   3.12510037   0.02500100
7334.00   3.11481786   0.02497746
7336.00   3.08985448   0.02498271
7338.00   3.09004331   0.02516686
7340.00   3.10108852   0.02531864
7342.00   3.10154366   0.02533201
7344.00   3.05870557   0.02516580
7346.00   3.05450821   0.02500321
7348.00   3.05646253   0.02461088
7350.00   3.05728984   0.02424934
7352.00   3.04755211   0.02404739
7354.00   3.02861977   0.02398360
7356.00   3.01810455   0.02403161
7358.00   3.03440762   0.02424753
7360.00   3.02996039   0.02433858
7362.00   3.01184535   0.02432308
7364.00   3.01352763   0.02444601
7366.00   3.00942636   0.02460599
7368.00   3.00121284   0.02468904
7370.00   2.99617839   0.02464436
7372.00   2.97116852   0.02439723
7374.00   2.95445943   0.02412682
7376.00   2.96654820   0.02387955
7378.00   2.96619391   0.02359257
7380.00   2.93883538   0.02331646
7382.00   2.91517997   0.02320593
7384.00   2.92147279   0.02324373
7386.00   2.92861533   0.02329099
7388.00   2.92965984   0.02339599
7390.00   2.93379045   0.02353667
7392.00   2.93515134   0.02359558
7394.00   2.93322372   0.02360926
7396.00   2.93286037   0.02369484
7398.00   2.93538475   0.02379702
7400.00   2.92069530   0.02376390
7402.00   2.88979840   0.02355194
7404.00   2.86017919   0.02324060
7406.00   2.86281323   0.02315761
7408.00   2.86810660   0.02302075
7410.00   2.86462760   0.02279893
7412.00   2.85765076   0.02266887
7414.00   2.85858083   0.02266126
7416.00   2.86454582   0.02267935
7418.00   2.85325623   0.02263415
7420.00   2.83638120   0.02256746
7422.00   2.83222651   0.02254547
7424.00   2.86635470   0.02269483
7426.00   2.87096858   0.02276075
7428.00   2.86355615   0.02277553
7430.00   2.86778140   0.02281671
7432.00   2.87869191   0.02288837
7434.00   2.87058234   0.02292628
7436.00   2.86978722   0.02296744
7438.00   2.88321853   0.02302733
7440.00   2.89073539   0.02302981
7442.00   2.88137126   0.02297252
7444.00   2.86816096   0.02284214
7446.00   2.87273860   0.02275047
7448.00   2.87363029   0.02266996
7450.00   2.85869408   0.02259536
7452.00   2.86509967   0.02262001
7454.00   2.87316203   0.02265190
7456.00   2.87840915   0.02268209
7458.00   2.87021828   0.02266962
7460.00   2.84983063   0.02262468
7462.00   2.83550811   0.02262031
7464.00   2.82614779   0.02263013
7466.00   2.81899858   0.02265479
7468.00   2.80488753   0.02267770
7470.00   2.78524303   0.02269137
7472.00   2.75091910   0.02260529
7474.00   2.71066499   0.02247301
7476.00   2.68295217   0.02240174
7478.00   2.66522098   0.02238468
7480.00   2.65540576   0.02238067
7482.00   2.65204406   0.02236474
7484.00   2.64935899   0.02230863
7486.00   2.62324023   0.02213213
7488.00   2.59059143   0.02190585
7490.00   2.58839011   0.02178476
7492.00   2.59464216   0.02171333
7494.00   2.59530091   0.02166965
7496.00   2.59952188   0.02167471
7498.00   2.59676719   0.02165266
7500.00   2.58115816   0.02156790
7502.00   2.57677507   0.02152485
7504.00   2.57805753   0.02150774
7506.00   2.57163262   0.02146812
7508.00   2.56022954   0.02142095
7510.00   2.55352354   0.02139947
7512.00   2.55873585   0.02143583
7514.00   2.56837034   0.02148950
7516.00   2.57036018   0.02155882
7518.00   2.56473756   0.02171443
7520.00   2.56497908   0.02207903
7522.00   2.56542516   0.02238090
7524.00   2.56534934   0.02253511
7526.00   2.56671548   0.02257810
7528.00   2.56569695   0.02254001
7530.00   2.58502507   0.02234468
7532.00   2.59563422   0.02206019
7534.00   2.59275961   0.02184801
7536.00   2.59282804   0.02177155
7538.00   2.60756373   0.02174781
7540.00   2.61232042   0.02170674
7542.00   2.62816882   0.02173897
7544.00   2.61712766   0.02168862
7546.00   2.60189342   0.02161621
7548.00   2.60047460   0.02158655
7550.00   2.60212588   0.02159399
7552.00   2.61635518   0.02170848
7554.00   2.64755154   0.02198133
7556.00   2.66874623   0.02223428
7558.00   2.67047787   0.02225966
7560.00   2.68064618   0.02228949
7562.00   2.69180751   0.02234734
7564.00   2.69928479   0.02240512
7566.00   2.69186330   0.02244781
7568.00   2.69351840   0.02267967
7570.00   2.70183682   0.02293400
7572.00   2.69512820   0.02304491
7574.00   2.68159103   0.02300705
7576.00   2.68790245   0.02289945
7578.00   2.67040563   0.02250706
7580.00   2.65874648   0.02223636
7582.00   2.67914510   0.02233421
7584.00   2.70380044   0.02249438
7586.00   2.68402934   0.02233355
7588.00   2.67310810   0.02222014
7590.00   2.65502167   0.02241841
7592.00   2.66221690   0.02354780
7594.00   2.67427897   0.02595899
7596.00   2.64730144   0.02971549
7598.00   2.60168934   0.03488697
7600.00   2.55051160   0.04076071
7602.00   2.54458427   0.04669689
7604.00   2.55743909   0.05090046
7606.00   2.52359748   0.05136881
7608.00   2.52685070   0.04861841
7610.00   2.56421399   0.04454429
7612.00   2.61570477   0.04009855
7614.00   2.64811826   0.03534190
7616.00   2.66443515   0.03021340
7618.00   2.67856693   0.02762233
7620.00   2.69969630   0.02725325
7622.00   2.72544098   0.02842781
7624.00   2.71075821   0.03010794
7626.00   2.64123821   0.03161364
7628.00   2.63126445   0.03283063
7630.00   2.67854190   0.03365906
7632.00   2.73559260   0.03390739
7634.00   2.72026324   0.03324427
7636.00   2.72128296   0.03240715
7638.00   2.74498391   0.03178911
7640.00   2.74744606   0.03105375
7642.00   2.75600815   0.03041433
7644.00   2.75902963   0.02981311
7646.00   2.77161527   0.02915212
7648.00   2.77926612   0.02865609
7650.00   2.77021337   0.02802646
7652.00   2.76275539   0.02738689
7654.00   2.76761556   0.02689285
7656.00   2.77689552   0.02639509
7658.00   2.77976608   0.02609227
7660.00   2.78401303   0.02586694
7662.00   2.78407979   0.02560604
7664.00   2.77328682   0.02525125
7666.00   2.77137589   0.02492103
7668.00   2.75727010   0.02451555
7670.00   2.74869466   0.02419129
7672.00   2.75488353   0.02398372
7674.00   2.72216201   0.02361402
7676.00   2.70890641   0.02339671
7678.00   2.71077943   0.02331402
7680.00   2.71750474   0.02328964
7682.00   2.72115302   0.02325710
7684.00   2.71501470   0.02316133
7686.00   2.71319413   0.02310322
7688.00   2.69398665   0.02303334
7690.00   2.68254972   0.02293614
7692.00   2.67107701   0.02277322
7694.00   2.65639734   0.02273807
7696.00   2.64975953   0.02277801
7698.00   2.65523720   0.02278340
7700.00   2.66238618   0.02276496
7702.00   2.66002941   0.02272852
7704.00   2.64465284   0.02262426
7706.00   2.63439631   0.02257041
7708.00   2.61626649   0.02274704
7710.00   2.57601619   0.02310767
7712.00   2.56626630   0.02368266
7714.00   2.57598281   0.02425145
7716.00   2.58022451   0.02449433
7718.00   2.55752754   0.02420445
7720.00   2.53919673   0.02366487
7722.00   2.52802253   0.02316109
7724.00   2.53130984   0.02269048
7726.00   2.52566504   0.02231647
7728.00   2.52314878   0.02217515
7730.00   2.51697636   0.02215065
7732.00   2.50641966   0.02206325
7734.00   2.48881721   0.02186754
7736.00   2.45637870   0.02162967
7738.00   2.43202686   0.02151397
7740.00   2.41878486   0.02149644
7742.00   2.40233517   0.02146540
7744.00   2.38262296   0.02161044
7746.00   2.36681795   0.02222698
7748.00   2.34678912   0.02285049
7750.00   2.32360268   0.02318814
7752.00   2.31243062   0.02325583
7754.00   2.30189490   0.02319161
7756.00   2.27872682   0.02272383
7758.00   2.24903750   0.02206167
7760.00   2.23492432   0.02156109
7762.00   2.21976948   0.02137942
7764.00   2.21151567   0.02128358
7766.00   2.19427752   0.02101952
7768.00   2.16053653   0.02066568
7770.00   2.11269331   0.02037828
7772.00   2.07731271   0.02025679
7774.00   2.06253934   0.02030528
7776.00   2.05318570   0.02044460
7778.00   2.04099822   0.02049397
7780.00   2.01596618   0.02031275
7782.00   1.98029768   0.02006506
7784.00   1.93623734   0.01980294
7786.00   1.89935112   0.01958956
7788.00   1.87099934   0.01961291
7790.00   1.85899508   0.02007088
7792.00   1.84894514   0.02065264
7794.00   1.81464994   0.02073058
7796.00   1.76801682   0.02045923
7798.00   1.74237359   0.02003499
7800.00   1.73280430   0.01947354
7802.00   1.70880258   0.01881623
7804.00   1.66484439   0.01846803
7806.00   1.63094056   0.01842751
7808.00   1.60988319   0.01851612
7810.00   1.59600937   0.01853283
7812.00   1.56378937   0.01834931
7814.00   1.54041135   0.01815217
7816.00   1.51291370   0.01824173
7818.00   1.47967589   0.01867748
7820.00   1.46000898   0.01921196
7822.00   1.44318187   0.01924999
7824.00   1.41294384   0.01901257
7826.00   1.37521112   0.01845854
7828.00   1.35441554   0.01764940
7830.00   1.34443247   0.01679561
7832.00   1.33090985   0.01649171
7834.00   1.29940498   0.01630243
7836.00   1.27717698   0.01630329
7838.00   1.25173008   0.01639347
7840.00   1.22242033   0.01638293
7842.00   1.21663237   0.01643151
7844.00   1.19541371   0.01633028
7846.00   1.16289461   0.01625110
7848.00   1.15460718   0.01653492
7850.00   1.13499987   0.01715030
7852.00   1.10389042   0.01749890
7854.00   1.08593833   0.01770445
7856.00   1.06988800   0.01773638
7858.00   1.05659044   0.01757115
7860.00   1.02820790   0.01675159
7862.00   0.99910092   0.01605158
7864.00   0.99895668   0.01589083
7866.00   0.99700052   0.01603642
7868.00   0.97635931   0.01605532
7870.00   0.94908100   0.01585270
7872.00   0.93543512   0.01573026
7874.00   0.91795892   0.01558142
7876.00   0.89340806   0.01529158
7878.00   0.87721395   0.01490838
7880.00   0.86901665   0.01473808
7882.00   0.85636520   0.01467737
7884.00   0.84188300   0.01471169
7886.00   0.82024908   0.01475019
7888.00   0.79909235   0.01478850
7890.00   0.78286695   0.01472550
7892.00   0.76890534   0.01458793
7894.00   0.75028038   0.01424992
7896.00   0.73757106   0.01373667
7898.00   0.72883511   0.01308506
7900.00   0.70383829   0.01266059
7902.00   0.69361776   0.01254812
7904.00   0.69314408   0.01257224
7906.00   0.68251199   0.01269967
7908.00   0.67601007   0.01369632
7910.00   0.66611725   0.01597137
7912.00   0.61087590   0.01687335
7914.00   0.59487945   0.01786963
7916.00   0.62145376   0.01899511
7918.00   0.63518971   0.01929823
7920.00   0.63446313   0.01668312
7922.00   0.63452214   0.01484092
7924.00   0.63086772   0.01411450
7926.00   0.61215162   0.01387515
7928.00   0.59963822   0.01355725
7930.00   0.60357255   0.01340477
7932.00   0.61208826   0.01337825
7934.00   0.60628873   0.01310446
7936.00   0.58464760   0.01251447
7938.00   0.57521194   0.01197621
7940.00   0.57993007   0.01171152
7942.00   0.58278608   0.01166362
7944.00   0.57057732   0.01177341
7946.00   0.55749154   0.01207060
7948.00   0.55087543   0.01224366
7950.00   0.55323887   0.01228162
7952.00   0.55693108   0.01220897
7954.00   0.56382895   0.01206404
7956.00   0.57382739   0.01181753
7958.00   0.57489628   0.01204601
7960.00   0.57032382   0.01309569
7962.00   0.56861264   0.01426432
7964.00   0.57310158   0.01492514
7966.00   0.57470965   0.01498831
7968.00   0.57057673   0.01468688
7970.00   0.57092416   0.01380682
7972.00   0.57411700   0.01275683
7974.00   0.58445913   0.01228849
7976.00   0.59463847   0.01264177
7978.00   0.59924716   0.01298548
7980.00   0.60141915   0.01313610
7982.00   0.60735101   0.01308654
7984.00   0.61145967   0.01290763
7986.00   0.61130345   0.01265016
7988.00   0.60813600   0.01313204
7990.00   0.60745853   0.01410798
7992.00   0.60670877   0.01494530
7994.00   0.61508971   0.01515708
7996.00   0.62159127   0.01521428
7998.00   0.63228101   0.01475039
8000.00   0.63915640   0.01374755
8002.00   0.64332813   0.01261889
8004.00   0.63924789   0.01214096
8006.00   0.64042109   0.01215068
8008.00   0.64609122   0.01236465
8010.00   0.64823741   0.01263605
8012.00   0.65153438   0.01292045
8014.00   0.66400862   0.01309510
8016.00   0.67249781   0.01315661
8018.00   0.67464656   0.01322856
8020.00   0.67964834   0.01354682
8022.00   0.68627071   0.01412342
8024.00   0.69512820   0.01476789
8026.00   0.70585418   0.01498190
8028.00   0.71668547   0.01502504
8030.00   0.72804499   0.01483418
8032.00   0.73400801   0.01424259
8034.00   0.72863507   0.01333871
8036.00   0.73633212   0.01300764
8038.00   0.75298834   0.01298312
8040.00   0.77012688   0.01304751
8042.00   0.77301639   0.01305373
8044.00   0.77908760   0.01315603
8046.00   0.80346900   0.01345896
8048.00   0.83062154   0.01380720
8050.00   0.83436912   0.01393446
8052.00   0.82997102   0.01388662
8054.00   0.83699864   0.01396844
8056.00   0.85007352   0.01414324
8058.00   0.85906488   0.01438848
8060.00   0.87262708   0.01468065
8062.00   0.89471871   0.01486749
8064.00   0.89386398   0.01485694
8066.00   0.91325158   0.01486157
8068.00   0.93966693   0.01472418
8070.00   0.95054013   0.01442985
8072.00   0.96899509   0.01438114
8074.00   0.99801254   0.01454781
8076.00   1.00455225   0.01460005
8078.00   1.00962031   0.01465999
8080.00   1.03396559   0.01485816
8082.00   1.07623971   0.01514661
8084.00   1.09672546   0.01528482
8086.00   1.10527849   0.01535107
8088.00   1.12155282   0.01550043
8090.00   1.15182269   0.01576081
8092.00   1.16604006   0.01592320
8094.00   1.17672551   0.01601517
8096.00   1.20282876   0.01624898
8098.00   1.22168493   0.01642032
8100.00   1.22845805   0.01646664
8102.00   1.24287736   0.01659128
8104.00   1.26585209   0.01675896
8106.00   1.28923988   0.01689127
8108.00   1.30495071   0.01691983
8110.00   1.32053149   0.01690851
8112.00   1.34171355   0.01705550
8114.00   1.35383892   0.01714608
8116.00   1.37349546   0.01725419
8118.00   1.39808655   0.01739975
8120.00   1.41494370   0.01749901
8122.00   1.41940784   0.01753883
8124.00   1.42975605   0.01762639
8126.00   1.43918645   0.01770448
8128.00   1.45436466   0.01786149
8130.00   1.47252071   0.01820550
8132.00   1.48698843   0.01859218
8134.00   1.48635769   0.01875944
8136.00   1.48890305   0.01880422
8138.00   1.51378071   0.01892399
8140.00   1.54014969   0.01913764
8142.00   1.54504824   0.01922284
8144.00   1.55329454   0.01935039
8146.00   1.57468688   0.01960241
8148.00   1.58846080   0.01983910
8150.00   1.59390700   0.01995266
8152.00   1.59740984   0.01995516
8154.00   1.61891603   0.01993739
8156.00   1.63743877   0.01988029
8158.00   1.64923537   0.01994981
8160.00   1.66564369   0.02045465
8162.00   1.69623661   0.02115604
8164.00   1.70017993   0.02132066
8166.00   1.69030809   0.02108086
8168.00   1.69226325   0.02084762
8170.00   1.71657884   0.02068987
8172.00   1.72246850   0.02036652
8174.00   1.73426056   0.02050253
8176.00   1.74410117   0.02116013
8178.00   1.75871611   0.02201574
8180.00   1.75582755   0.02230747
8182.00   1.76145458   0.02223786
8184.00   1.77500343   0.02215346
8186.00   1.79834795   0.02225764
8188.00   1.80492604   0.02242684
8190.00   1.80414736   0.02250665
8192.00   1.82967818   0.02280863
8194.00   1.86153376   0.02317954
8196.00   1.87528038   0.02344306
8198.00   1.87362754   0.02350733
8200.00   1.85481870   0.02292934
8202.00   1.84725249   0.02190737
8204.00   1.85413277   0.02101000
8206.00   1.86608064   0.02060045
8208.00   1.84176481   0.02034086
8210.00   1.83529913   0.02022811
8212.00   1.83015192   0.02012729
8214.00   1.83316672   0.02006744
8216.00   1.83222520   0.02001043
8218.00   1.83197534   0.02009408
8220.00   1.85922623   0.02037405
8222.00   1.86234915   0.02072901
8224.00   1.87762225   0.02157851
8226.00   1.87429464   0.02274889
8228.00   1.85579264   0.02384524
8230.00   1.84441555   0.02390476
8232.00   1.84478867   0.02322310
8234.00   1.86799192   0.02230487
8236.00   1.87598264   0.02139907
8238.00   1.90016115   0.02100304
8240.00   1.89869022   0.02086704
8242.00   1.89532530   0.02084213
8244.00   1.91941750   0.02087129
8246.00   1.93083858   0.02069466
8248.00   1.91897237   0.02035364
8250.00   1.91509068   0.02013863
8252.00   1.90853882   0.02015079
8254.00   1.91782057   0.02048190
8256.00   1.93321073   0.02089115
8258.00   1.93788528   0.02103633
8260.00   1.94214380   0.02095993
8262.00   1.94148958   0.02075557
8264.00   1.94473302   0.02054333
8266.00   1.95306456   0.02034242
8268.00   1.96802521   0.02033382
8270.00   1.99383700   0.02069385
8272.00   2.01025414   0.02128249
8274.00   2.00696564   0.02194015
8276.00   2.01922536   0.02268084
8278.00   2.04470515   0.02337198
8280.00   2.06198192   0.02367608
8282.00   2.07065463   0.02381020
8284.00   2.08078766   0.02403804
8286.00   2.08816361   0.02440705
8288.00   2.08501172   0.02439769
8290.00   2.08880115   0.02427601
8292.00   2.10450149   0.02433084
8294.00   2.12856698   0.02466882
8296.00   2.13411212   0.02468565
8298.00   2.14413548   0.02448561
8300.00   2.18242407   0.02459202
8302.00   2.21764946   0.02472477
8304.00   2.21234918   0.02431422
8306.00   2.19447947   0.02334853
8308.00   2.20573735   0.02282110
8310.00   2.22638011   0.02268757
8312.00   2.24310040   0.02277034
8314.00   2.25736547   0.02292461
8316.00   2.27270269   0.02310923
8318.00   2.27069163   0.02306730
8320.00   2.26397824   0.02292033
8322.00   2.27011275   0.02274341
8324.00   2.28353691   0.02245712
8326.00   2.28530216   0.02219759
8328.00   2.29517579   0.02218873
8330.00   2.29876876   0.02224722
8332.00   2.28970742   0.02225486
8334.00   2.27940345   0.02231435
8336.00   2.29174209   0.02250612
8338.00   2.28829312   0.02332740
8340.00   2.28645205   0.02485491
8342.00   2.28276610   0.02641507
8344.00   2.28335404   0.02683937
8346.00   2.29605603   0.02693070
8348.00   2.31687999   0.02691469
8350.00   2.31835151   0.02629335
8352.00   2.29375768   0.02491920
8354.00   2.30946231   0.02405816
8356.00   2.32700539   0.02391381
8358.00   2.33864760   0.02365864
8360.00   2.35744381   0.02329633
8362.00   2.37435937   0.02306875
8364.00   2.37434411   0.02303330
8366.00   2.37164688   0.02297609
8368.00   2.36538243   0.02282521
8370.00   2.35909796   0.02255136
8372.00   2.36646938   0.02227529
8374.00   2.38637614   0.02237782
8376.00   2.39159679   0.02259855
8378.00   2.41501260   0.02307597
8380.00   2.42534161   0.02351606
8382.00   2.43231463   0.02369645
8384.00   2.41970181   0.02357238
8386.00   2.43750477   0.02359645
8388.00   2.45994377   0.02334229
8390.00   2.44797039   0.02276375
8392.00   2.44850087   0.02270012
8394.00   2.44942284   0.02368935
8396.00   2.45480156   0.02497899
8398.00   2.46319938   0.02581585
8400.00   2.46013188   0.02586216
8402.00   2.43672013   0.02560997
8404.00   2.44204068   0.02487593
8406.00   2.46496296   0.02366254
8408.00   2.47766113   0.02270941
8410.00   2.47865796   0.02266977
8412.00   2.50255203   0.02328311
8414.00   2.51011729   0.02358374
8416.00   2.51266575   0.02368321
8418.00   2.53649712   0.02371427
8420.00   2.55980921   0.02361862
8422.00   2.56905532   0.02325612
8424.00   2.59731007   0.02378517
8426.00   2.61536002   0.02498493
8428.00   2.60177970   0.02606821
8430.00   2.60229778   0.02650591
8432.00   2.60969377   0.02653608
8434.00   2.61828232   0.02617682
8436.00   2.61988401   0.02512314
8438.00   2.63241410   0.02382267
8440.00   2.63852859   0.02305602
8442.00   2.65326524   0.02301473
8444.00   2.66618013   0.02307876
8446.00   2.68268037   0.02333711
8448.00   2.69706702   0.02375297
8450.00   2.72590470   0.02422115
8452.00   2.73802733   0.02437007
8454.00   2.74717140   0.02441858
8456.00   2.75108933   0.02429764
8458.00   2.74414515   0.02415334
8460.00   2.72820067   0.02435992
8462.00   2.72141576   0.02510967
8464.00   2.73201656   0.02566019
8466.00   2.75322652   0.02595264
8468.00   2.77980876   0.02595733
8470.00   2.77765059   0.02552450
8472.00   2.77193570   0.02459243
8474.00   2.77148914   0.02385280
8476.00   2.77704549   0.02352773
8478.00   2.78366208   0.02356621
8480.00   2.78811264   0.02355848
8482.00   2.78079915   0.02348824
8484.00   2.77028680   0.02341703
8486.00   2.77150893   0.02345878
8488.00   2.79097724   0.02369412
8490.00   2.79437828   0.02398759
8492.00   2.78759837   0.02411420
8494.00   2.77853179   0.02413648
8496.00   2.78027534   0.02414671
8498.00   2.78874969   0.02421134
8500.00   2.80509663   0.02442802
8502.00   2.80382609   0.02472098
8504.00   2.79375863   0.02486139
8506.00   2.78137207   0.02481163
8508.00   2.79351211   0.02475976
8510.00   2.79460025   0.02444205
8512.00   2.78937411   0.02389812
8514.00   2.78133607   0.02351169
8516.00   2.77697873   0.02342293
8518.00   2.78278804   0.02346204
8520.00   2.79249763   0.02351294
8522.00   2.79258251   0.02351699
8524.00   2.78526974   0.02348269
8526.00   2.79083705   0.02349571
8528.00   2.80832958   0.02354522
8530.00   2.80739522   0.02351993
8532.00   2.80695081   0.02353887
8534.00   2.81410599   0.02364533
8536.00   2.81263709   0.02374454
8538.00   2.79432869   0.02372354
8540.00   2.81196856   0.02380148
8542.00   2.79179215   0.02377424
8544.00   2.77674294   0.02381414
8546.00   2.80181503   0.02402592
8548.00   2.80186200   0.02405271
8550.00   2.78980541   0.02400775
8552.00   2.78649879   0.02394842
8554.00   2.78972507   0.02382187
8556.00   2.79392886   0.02360265
8558.00   2.79314613   0.02346174
8560.00   2.79047108   0.02341381
8562.00   2.78779817   0.02339638
8564.00   2.79028583   0.02339675
8566.00   2.78669477   0.02338373
8568.00   2.79003525   0.02340994
8570.00   2.78710628   0.02341230
8572.00   2.78978920   0.02343717
8574.00   2.78591466   0.02343422
8576.00   2.78273225   0.02342638
8578.00   2.76881957   0.02336135
8580.00   2.76621795   0.02332947
8582.00   2.76101780   0.02330673
8584.00   2.75588322   0.02332203
8586.00   2.75486875   0.02336554
8588.00   2.76372337   0.02341198
8590.00   2.75828433   0.02341518
8592.00   2.74334264   0.02339703
8594.00   2.73830628   0.02340528
8596.00   2.73705673   0.02338555
8598.00   2.71477628   0.02328635
8600.00   2.71125603   0.02326293
8602.00   2.72649956   0.02327214
8604.00   2.72971225   0.02319739
8606.00   2.71089554   0.02307119
8608.00   2.70429683   0.02306192
8610.00   2.69717288   0.02307691
8612.00   2.68347478   0.02309926
8614.00   2.67951512   0.02319372
8616.00   2.67751193   0.02332806
8618.00   2.67070222   0.02347189
8620.00   2.66572213   0.02363730
8622.00   2.66309166   0.02382068
8624.00   2.65432453   0.02397745
8626.00   2.66811681   0.02419613
8628.00   2.66887856   0.02432777
8630.00   2.66989875   0.02439143
8632.00   2.66378880   0.02435322
8634.00   2.63987374   0.02418843
8636.00   2.65261936   0.02409401
8638.00   2.66194034   0.02393656
8640.00   2.65899324   0.02370486
8642.00   2.64464545   0.02346602
8644.00   2.64212823   0.02338135
8646.00   2.62769890   0.02339717
8648.00   2.62935710   0.02354193
8650.00   2.63938212   0.02377653
8652.00   2.63242316   0.02397787
8654.00   2.62093329   0.02410015
8656.00   2.61764646   0.02418462
8658.00   2.61960101   0.02420292
8660.00   2.61673045   0.02415584
8662.00   2.61051846   0.02407113
8664.00   2.61817217   0.02400696
8666.00   2.61869860   0.02395047
8668.00   2.62016273   0.02384649
8670.00   2.61103797   0.02367882
8672.00   2.58858848   0.02345959
8674.00   2.59781837   0.02337171
8676.00   2.60194802   0.02326000
8678.00   2.59249949   0.02312145
8680.00   2.57889700   0.02297735
8682.00   2.58477902   0.02289685
8684.00   2.59621835   0.02285995
8686.00   2.58189344   0.02272483
8688.00   2.57826304   0.02264617
8690.00   2.58101630   0.02260777
8692.00   2.58781219   0.02259638
8694.00   2.57855630   0.02253668
8696.00   2.56273556   0.02247558
8698.00   2.55471110   0.02244882
8700.00   2.57257056   0.02251775
8702.00   2.58022046   0.02255894
8704.00   2.56596732   0.02253049
8706.00   2.55573010   0.02248154
8708.00   2.55438447   0.02244776
8710.00   2.55407214   0.02241344
8712.00   2.55945563   0.02239979
8714.00   2.55324626   0.02231914
8716.00   2.54339337   0.02223656
8718.00   2.54210591   0.02221112
8720.00   2.55655003   0.02227285
8722.00   2.55369878   0.02228147
8724.00   2.53382850   0.02221870
8726.00   2.53121924   0.02221178
8728.00   2.55307126   0.02229663
8730.00   2.55921173   0.02231348
8732.00   2.53488183   0.02220199
8734.00   2.52659392   0.02217279
8736.00   2.52591228   0.02219243
8738.00   2.52015567   0.02218653
8740.00   2.51371503   0.02217000
8742.00   2.51375508   0.02217318
8744.00   2.52734280   0.02222996
8746.00   2.52578759   0.02221406
8748.00   2.51045990   0.02213635
8750.00   2.50684071   0.02212171
8752.00   2.52168632   0.02222780
8754.00   2.52932715   0.02257738
8756.00   2.50239778   0.02312983
8758.00   2.49019527   0.02382359
8760.00   2.48877978   0.02440373
8762.00   2.50213432   0.02505575
8764.00   2.48015046   0.02573759
8766.00   2.46837926   0.02589126
8768.00   2.46827006   0.02549954
8770.00   2.47157359   0.02509653
8772.00   2.46478844   0.02516175
8774.00   2.45547223   0.02533707
8776.00   2.44883418   0.02542138
8778.00   2.43886161   0.02535800
8780.00   2.43998766   0.02524814
8782.00   2.43637252   0.02475479
8784.00   2.43804550   0.02370061
8786.00   2.42269969   0.02280360
8788.00   2.41978765   0.02261793
8790.00   2.44000626   0.02282810
8792.00   2.43844223   0.02290035
8794.00   2.44985080   0.02298010
8796.00   2.46255565   0.02285323
8798.00   2.45904064   0.02244458
8800.00   2.44024491   0.02208130
8802.00   2.45537663   0.02193564
8804.00   2.41595531   0.02224220
#8806.00   2.23907828   0.02279205
#8808.00   2.15592122   0.02299398
#8810.00   2.11992455   0.02312420
#8812.00   2.21435905   0.02271535
#8814.00   2.36855483   0.02207863
8816.00   2.43026471   0.02173508
8818.00   2.39828539   0.02185276
8820.00   2.41626930   0.02256419
8822.00   2.42871118   0.02488533
8824.00   2.40936685   0.02708541
8826.00   2.37547922   0.02827550
8828.00   2.37448287   0.02840236
8830.00   2.41171360   0.02865247
8832.00   2.41826510   0.02794908
8834.00   2.39606261   0.02648991
8836.00   2.37763500   0.02498659
8838.00   2.38978791   0.02443526
8840.00   2.39060903   0.02413441
8842.00   2.39368701   0.02366378
8844.00   2.38882565   0.02306825
8846.00   2.37427163   0.02257790
8848.00   2.36273193   0.02238889
8850.00   2.37211180   0.02252982
8852.00   2.36838984   0.02255203
8854.00   2.36356091   0.02242555
8856.00   2.35759306   0.02217256
8858.00   2.33845210   0.02182573
8860.00   2.33521104   0.02175019
8862.00   2.32933307   0.02209034
8864.00   2.32292557   0.02274015
8866.00   2.33148980   0.02339540
8868.00   2.30464911   0.02324759
8870.00   2.28107190   0.02298246
8872.00   2.27868533   0.02268329
8874.00   2.28384519   0.02219051
8876.00   2.27094722   0.02148093
8878.00   2.23710728   0.02136332
8880.00   2.23759055   0.02252868
8882.00   2.22982621   0.02434874
8884.00   2.20359850   0.02576611
8886.00   2.20523572   0.02609877
8888.00   2.20197606   0.02611000
8890.00   2.19631696   0.02539084
8892.00   2.17346263   0.02361855
8894.00   2.16570330   0.02168151
8896.00   2.17140961   0.02112485
8898.00   2.15894508   0.02165999
8900.00   2.15712714   0.02248286
8902.00   2.17495155   0.02306654
8904.00   2.17646050   0.02313485
8906.00   2.16051197   0.02291690
8908.00   2.14328671   0.02246678
8910.00   2.12497497   0.02155577
8912.00   2.11292005   0.02111176
8914.00   2.09332299   0.02195357
8916.00   2.09647083   0.02423457
8918.00   2.11549544   0.02568301
8920.00   2.12201238   0.02613360
8922.00   2.10383868   0.02596269
8924.00   2.08418584   0.02533015
8926.00   2.10298753   0.02356092
8928.00   2.10290742   0.02203007
8930.00   2.10411716   0.02136136
8932.00   2.10256362   0.02123506
8934.00   2.08912468   0.02108926
8936.00   2.10063004   0.02113182
8938.00   2.10544300   0.02170525
8940.00   2.09592414   0.02231281
8942.00   2.08635688   0.02276160
8944.00   2.09910417   0.02308508
8946.00   2.11740422   0.02340409
8948.00   2.12450719   0.02321889
8950.00   2.12377191   0.02294847
8952.00   2.11274695   0.02333306
8954.00   2.09376049   0.02481618
8956.00   2.07926869   0.02595172
8958.00   2.08270335   0.02628753
8960.00   2.11864877   0.02684955
8962.00   2.15424657   0.02728084
8964.00   2.15060687   0.02632278
8966.00   2.12130666   0.02412545
8968.00   2.13177180   0.02315931
8970.00   2.15878749   0.02328101
8972.00   2.17303395   0.02361799
8974.00   2.15685391   0.02331668
8976.00   2.14153552   0.02284611
8978.00   2.15385318   0.02256815
8980.00   2.15796113   0.02237693
8982.00   2.14093161   0.02242303
8984.00   2.15331674   0.02346042
8986.00   2.19905782   0.02588721
8988.00   2.20324302   0.02795008
8990.00   2.17856884   0.02843707
8992.00   2.14765716   0.02699719
8994.00   2.15721107   0.02479012
8996.00   2.17014027   0.02390456
8998.00   2.20848060   0.02488077
9000.00   2.23493505   0.02640189
9002.00   2.21125197   0.02706807
9004.00   2.16978049   0.02712899
9006.00   2.16348553   0.02635363
9008.00   2.18255568   0.02504850
9010.00   2.18753576   0.02375608
9012.00   2.19446874   0.02332998
9014.00   2.20701313   0.02344509
9016.00   2.20901227   0.02358415
9018.00   2.19724560   0.02341703
9020.00   2.17085218   0.02314944
9022.00   2.16807389   0.02338410
9024.00   2.18651199   0.02377213
9026.00   2.17898154   0.02356451
9028.00   2.16714215   0.02309955
9030.00   2.17101049   0.02268054
9032.00   2.15420794   0.02219015
9034.00   2.14198709   0.02195101
9036.00   2.16079903   0.02200208
9038.00   2.18030739   0.02221380
9040.00   2.18140006   0.02243440
9042.00   2.16439342   0.02256722
9044.00   2.12177563   0.02233185
9046.00   2.09329891   0.02220988
9048.00   2.10671997   0.02245855
9050.00   2.13401604   0.02285113
9052.00   2.13818288   0.02292258
9054.00   2.12228823   0.02252756
9056.00   2.11536026   0.02200902
9058.00   2.12416911   0.02179784
9060.00   2.12450123   0.02200393
9062.00   2.11191654   0.02227512
9064.00   2.08360362   0.02220862
9066.00   2.08101678   0.02238563
9068.00   2.09648919   0.02289844
9070.00   2.09392476   0.02337744
9072.00   2.07544518   0.02332515
9074.00   2.06586242   0.02294848
9076.00   2.07566118   0.02291601
9078.00   2.09051442   0.02272721
9080.00   2.09740090   0.02340410
9082.00   2.08357024   0.02595376
9084.00   2.07538152   0.03015504
9086.00   2.07933593   0.02913368
9088.00   2.08103204   0.02579123
9090.00   2.08311963   0.02275857
9092.00   2.08675838   0.02334259
9094.00   2.08651686   0.02317364
9096.00   2.07864451   0.02321490
9098.00   2.07323575   0.02353477
9100.00   2.07797241   0.02386897
9102.00   2.07189202   0.02382915
9104.00   2.07762051   0.02414615
9106.00   2.07841825   0.02423448
9108.00   2.06460476   0.02356058
9110.00   2.03746915   0.02223541
9112.00   2.06679654   0.02177363
9114.00   2.10541534   0.02210650
9116.00   2.13094807   0.02283257
9118.00   2.11925626   0.02326760
9120.00   2.09149337   0.02286813
9122.00   2.08600283   0.02222676
9124.00   2.12871933   0.02218916
9126.00   2.15319681   0.02271058
9128.00   2.14212489   0.02354454
9130.00   2.13226151   0.02432906
9132.00   2.12017751   0.02494991
9134.00   2.14112949   0.02556939
9136.00   2.14467454   0.02544326
9138.00   2.11324239   0.02418008
9140.00   2.10466862   0.02300722
9142.00   2.12427497   0.02245327
9144.00   2.13049436   0.02211971
9146.00   2.13019919   0.02205577
9148.00   2.11922145   0.02252120
9150.00   2.14377117   0.02391844
9152.00   2.14894795   0.02535993
9154.00   2.14923096   0.02619272
9156.00   2.16319871   0.02616301
9158.00   2.17778993   0.02528452
9160.00   2.16531944   0.02414176
9162.00   2.16965985   0.02332208
9164.00   2.16725922   0.02282071
9166.00   2.14903522   0.02256217
9168.00   2.15432835   0.02271786
9170.00   2.16689992   0.02342357
9172.00   2.18122983   0.02455959
9174.00   2.19770813   0.02543309
9176.00   2.19980931   0.02542096
9178.00   2.17196608   0.02435747
9180.00   2.16133237   0.02358894
9182.00   2.18122792   0.02343354
9184.00   2.20060515   0.02339741
9186.00   2.17978096   0.02295877
9188.00   2.17563248   0.02253876
9190.00   2.19117641   0.02252439
9192.00   2.20599580   0.02280912
9194.00   2.20079446   0.02302449
9196.00   2.18897128   0.02292675
9198.00   2.17876911   0.02247290
9200.00   2.19875026   0.02213596
9202.00   2.21892333   0.02205238
9204.00   2.22048521   0.02216608
9206.00   2.20558810   0.02231988
9208.00   2.18645072   0.02226507
9210.00   2.17665315   0.02234549
9212.00   2.20991731   0.02287262
9214.00   2.23613095   0.02344014
9216.00   2.22374511   0.02357806
9218.00   2.21348262   0.02330793
9220.00   2.21560454   0.02307262
9222.00   2.23035693   0.02295918
9224.00   2.24432874   0.02290845
9226.00   2.21751595   0.02267499
9228.00   2.20654607   0.02266496
9230.00   2.22732472   0.02293090
9232.00   2.24251032   0.02319505
9234.00   2.23555899   0.02328622
9236.00   2.21249485   0.02321129
9238.00   2.20474386   0.02316589
9240.00   2.21179652   0.02321995
9242.00   2.20394397   0.02324017
9244.00   2.19381070   0.02326013
9246.00   2.20637202   0.02330249
9248.00   2.21534824   0.02335681
9250.00   2.23625350   0.02337948
9252.00   2.22717166   0.02311144
9254.00   2.20758748   0.02273670
9256.00   2.21531677   0.02279819
9258.00   2.23104286   0.02312200
9260.00   2.22401261   0.02325696
9262.00   2.20816207   0.02314509
9264.00   2.20480800   0.02289258
9266.00   2.18976474   0.02253899
9268.00   2.20700717   0.02250838
9270.00   2.19366765   0.02260702
9272.00   2.18163300   0.02290781
9274.00   2.18256307   0.02338155
9276.00   2.18210101   0.02407558
9278.00   2.18379569   0.02484143
9280.00   2.17747808   0.02528435
9282.00   2.17061234   0.02547460
9284.00   2.17942214   0.02574388
9286.00   2.18754101   0.02589759
9288.00   2.17973590   0.02580813
9290.00   2.19034266   0.02591454
9292.00   2.20436978   0.02631629
9294.00   2.19893551   0.02687275
9296.00   2.17802310   0.02742702
9298.00   2.17150092   0.02802454
9300.00   2.15938401   0.02886940
9302.00   2.13812137   0.02999808
9304.00   2.13399291   0.03145320
9306.00   2.18901825   0.03404791
9308.00   2.19875956   0.03754861
9310.00   2.16419244   0.04029774
9312.00   2.14155602   0.04205262
9314.00   2.20986676   0.04438959
9316.00   2.24479198   0.04727054
9318.00   2.19438744   0.04748484
9320.00   2.14405537   0.04656445
9322.00   2.17502880   0.04663134
9324.00   2.20980191   0.04713047
9326.00   2.15263629   0.04410752
9328.00   2.10158420   0.04000967
9330.00   2.10726953   0.03691671
9332.00   2.16145444   0.03639638
9334.00   2.19323707   0.03907083
9336.00   2.15149212   0.04174284
9338.00   2.10606647   0.04385598
9340.00   2.15375018   0.04717721
9342.00   2.29829764   0.05176832
9344.00   2.25553918   0.04841566
9346.00   2.12031913   0.03992696
9348.00   2.09472060   0.03311605
9350.00   2.17966175   0.03224916
9352.00   2.25561786   0.03485538
9354.00   2.28016853   0.03880749
9356.00   2.19600391   0.04018200
9358.00   2.08410859   0.03797879
9360.00   2.05678296   0.03396108
9362.00   2.12229228   0.03256992
9364.00   2.16247678   0.03352562
9366.00   2.15162826   0.03595888
9368.00   2.10858989   0.04153018
9370.00   2.07942009   0.05026549
9372.00   2.07451844   0.05988116
9374.00   2.07759404   0.06272481
9376.00   2.09784532   0.06697568
9378.00   2.15306377   0.07124875
9380.00   2.14222646   0.07014983
9382.00   2.10134983   0.05470743
9384.00   2.11722803   0.04151704
9386.00   2.14211845   0.03346198
9388.00   2.13886714   0.03018635
9390.00   2.10427833   0.02758952
9392.00   2.09091306   0.02618822
9394.00   2.08235741   0.02570690
9396.00   2.08683085   0.02647144
9398.00   2.09174895   0.02816748
9400.00   2.08085942   0.02996157
9402.00   2.07339168   0.03054278
9404.00   2.07391381   0.03057177
9406.00   2.07018495   0.03042670
9408.00   2.07766986   0.03030539
9410.00   2.06739116   0.02979012
9412.00   2.03652859   0.02899382
9414.00   2.01848269   0.02926957
9416.00   2.00826645   0.03014132
9418.00   2.00750566   0.03091631
9420.00   2.01037645   0.03120796
9422.00   2.01883507   0.03210803
9424.00   2.06385708   0.03462039
9426.00   2.12521958   0.03721422
9428.00   2.12182927   0.03728778
9430.00   1.99808466   0.03238542
9432.00   1.95973587   0.02894663
9434.00   2.01073432   0.02956012
9436.00   2.08646703   0.03502734
9438.00   2.13757253   0.04445785
9440.00   2.11863685   0.05549766
9442.00   2.06187463   0.05763198
9444.00   2.02410936   0.04977350
9446.00   2.02306795   0.03773847
9448.00   2.01023459   0.03025283
9450.00   2.02826047   0.02841448
9452.00   2.02838016   0.03019000
9454.00   2.03410125   0.03533993
9456.00   2.04994273   0.04106177
9458.00   2.05869222   0.04478218
9460.00   2.05271411   0.04475485
9462.00   1.99682391   0.04088666
9464.00   1.97655356   0.03632050
9466.00   1.98703897   0.03294873
9468.00   1.97889102   0.03116342
9470.00   1.96707189   0.03100857
9472.00   1.96825254   0.03361755
9474.00   1.98326910   0.03655946
9476.00   1.97901917   0.03912320
9478.00   1.96495187   0.04170877
9480.00   2.06121850   0.04466845
9482.00   2.03616691   0.04147290
9484.00   1.95503294   0.03517057
9486.00   1.90463984   0.02951237
9488.00   1.91994858   0.02778196
9490.00   1.93971300   0.02687973
9492.00   2.01727629   0.02887080
9494.00   2.03894973   0.03259443
9496.00   2.02000618   0.03806697
9498.00   2.02998424   0.04488033
9500.00   2.00910306   0.04606741
9502.00   1.93813980   0.04131889
9504.00   1.87363958   0.03444200
9506.00   1.86612594   0.02998502
9508.00   1.90466499   0.02743444
9510.00   1.93437481   0.02594160
9512.00   1.93600047   0.02592787
9514.00   1.93394184   0.02769611
9516.00   1.93451643   0.03076227
9518.00   1.93890822   0.03409810
9520.00   1.95315039   0.03647862
9522.00   1.94124126   0.03643592
9524.00   1.91544294   0.03475278
9526.00   1.90553379   0.03302315
9528.00   1.90377295   0.03132961
9530.00   1.89986932   0.02959452
9532.00   1.91614819   0.02862704
9534.00   1.93579233   0.02841749
9536.00   1.94666135   0.02843814
9538.00   1.94158018   0.02857366
9540.00   1.94298708   0.02947517
9542.00   1.93961275   0.03048711
9544.00   1.94040811   0.03106824
9546.00   1.91903722   0.03078359
9548.00   1.89115441   0.03075139
9550.00   1.89814532   0.03174932
9552.00   1.92816210   0.03369106
9554.00   1.93897760   0.03528944
9556.00   1.89056885   0.03479543
9558.00   1.86522996   0.03240583
9560.00   1.89243841   0.03134045
9562.00   1.95923102   0.03352829
9564.00   1.98066962   0.03753462
9566.00   1.92169416   0.03994406
9568.00   1.86157238   0.03845087
9570.00   1.87230396   0.03518891
9572.00   1.88732970   0.03124186
9574.00   1.86125648   0.02774023
9576.00   1.86202002   0.02631784
9578.00   1.89784193   0.02734370
9580.00   1.89264715   0.02810046
9582.00   1.84521866   0.02790664
9584.00   1.81488645   0.02756869
9586.00   1.86349821   0.02892737
9588.00   1.92224836   0.03151735
9590.00   1.92975628   0.03336008
9592.00   1.89702082   0.03343708
9594.00   1.86918247   0.03174658
9596.00   1.86012268   0.03011567
9598.00   1.84302032   0.02838710
9600.00   1.83003199   0.02731734
9602.00   1.83216465   0.02748675
9604.00   1.84929860   0.02871344
9606.00   1.83205354   0.02900772
9608.00   1.81869411   0.02841760
9610.00   1.81916273   0.02755795
9612.00   1.82591915   0.02691979
9614.00   1.83755016   0.02681741
9616.00   1.83872426   0.02755731
9618.00   1.85335743   0.02908126
9620.00   1.85135162   0.03045606
9622.00   1.81852639   0.03098301
9624.00   1.80910838   0.03084318
9626.00   1.81030512   0.02927000
9628.00   1.80272615   0.02707492
9630.00   1.79448164   0.02529982
9632.00   1.80955601   0.02499869
9634.00   1.84977877   0.02619577
9636.00   1.82875204   0.02722944
9638.00   1.78741980   0.02737811
9640.00   1.77529430   0.02716908
9642.00   1.81321013   0.02728199
9644.00   1.87846339   0.02783520
9646.00   1.86476171   0.02751348
9648.00   1.82397449   0.02675921
9650.00   1.78742027   0.02598691
9652.00   1.77652586   0.02556244
9654.00   1.77769458   0.02545344
9656.00   1.79971063   0.02577687
9658.00   1.81838858   0.02646975
9660.00   1.81606209   0.02737579
9662.00   1.81212413   0.02836432
9664.00   1.78990018   0.02892440
9666.00   1.76681626   0.02882609
9668.00   1.77726805   0.02831833
9670.00   1.80346012   0.02743086
9672.00   1.79097700   0.02610354
9674.00   1.77802908   0.02495597
9676.00   1.79567015   0.02503491
9678.00   1.79809153   0.02598434
9680.00   1.77993619   0.02694003
9682.00   1.75959432   0.02696562
9684.00   1.75858200   0.02659526
9686.00   1.76032913   0.02607765
9688.00   1.77201903   0.02548928
9690.00   1.78103459   0.02498266
9692.00   1.76048505   0.02491513
9694.00   1.75346422   0.02571432
9696.00   1.74175608   0.02688971
9698.00   1.74883521   0.02795567
9700.00   1.75555480   0.02837037
9702.00   1.76488054   0.02820679
9704.00   1.75355995   0.02692911
9706.00   1.74466276   0.02548918
9708.00   1.73453701   0.02462507
9710.00   1.71871841   0.02474576
9712.00   1.71658266   0.02537527
9714.00   1.72521532   0.02681338
9716.00   1.73032987   0.02816996
9718.00   1.71838999   0.02892815
9720.00   1.70298576   0.02900725
9722.00   1.71986902   0.02941734
9724.00   1.69611931   0.02872333
9726.00   1.68117285   0.02696978
9728.00   1.68171835   0.02508067
9730.00   1.69150889   0.02465985
9732.00   1.71439469   0.02561009
9734.00   1.73370707   0.02737714
9736.00   1.71483934   0.02819105
9738.00   1.69306374   0.02792151
9740.00   1.69549453   0.02741794
9742.00   1.72445261   0.02735037
9744.00   1.72656679   0.02662742
9746.00   1.71673405   0.02579418
9748.00   1.71309090   0.02532274
9750.00   1.71828663   0.02520126
9752.00   1.73485279   0.02537517
9754.00   1.71799529   0.02543696
9756.00   1.69354808   0.02538837
9758.00   1.69090319   0.02543233
9760.00   1.70417881   0.02573166
9762.00   1.71045744   0.02570730
9764.00   1.70723116   0.02525997
9766.00   1.70636451   0.02463579
9768.00   1.71536875   0.02408864
9770.00   1.71782267   0.02365105
9772.00   1.71966708   0.02364716
9774.00   1.71883810   0.02390255
9776.00   1.71326697   0.02424690
9778.00   1.70897007   0.02459003
9780.00   1.71204340   0.02485310
9782.00   1.71282542   0.02500232
9784.00   1.71962798   0.02601157
9786.00   1.71926129   0.02794371
9788.00   1.72559106   0.03021949
9790.00   1.73361456   0.03158107
9792.00   1.71624529   0.03179908
9794.00   1.68259680   0.03121033
9796.00   1.67930603   0.03041721
9798.00   1.69282484   0.02963910
9800.00   1.70098555   0.02888699
9802.00   1.70368612   0.02830672
9804.00   1.70132196   0.02756548
9806.00   1.69853246   0.02662166
9808.00   1.70797825   0.02594736
9810.00   1.71427286   0.02601188
9812.00   1.72435141   0.02631973
9814.00   1.70550787   0.02628556
9816.00   1.68452346   0.02589694
9818.00   1.70153773   0.02558313
9820.00   1.70315492   0.02527626
9822.00   1.71198022   0.02536587
9824.00   1.69454610   0.02540730
9826.00   1.67537594   0.02529573
9828.00   1.69771099   0.02532743
9830.00   1.72506428   0.02528512
9832.00   1.72439384   0.02507583
9834.00   1.71306562   0.02481715
9836.00   1.70206356   0.02449182
9838.00   1.70942879   0.02431940
9840.00   1.70422018   0.02449790
9842.00   1.68681383   0.02529924
9844.00   1.68523276   0.02668144
9846.00   1.68890858   0.02808755
9848.00   1.69005823   0.02853152
9850.00   1.68890536   0.02841679
9852.00   1.70055807   0.02788438
9854.00   1.71070385   0.02691063
9856.00   1.69681966   0.02548371
9858.00   1.68892848   0.02469692
9860.00   1.68634546   0.02448474
9862.00   1.68432713   0.02458675
9864.00   1.69007790   0.02549068
9866.00   1.70027065   0.02792228
9868.00   1.69968283   0.03202990
9870.00   1.70581520   0.03506078
9872.00   1.71212339   0.03637009
9874.00   1.71147430   0.03610075
9876.00   1.70255816   0.03494671
9878.00   1.68137348   0.03155275
9880.00   1.67623460   0.02818354
9882.00   1.68131065   0.02614355
9884.00   1.68501937   0.02578768
9886.00   1.67824185   0.02584652
9888.00   1.66765797   0.02626158
9890.00   1.66766024   0.02737773
9892.00   1.65858078   0.02853263
9894.00   1.63398826   0.02906807
9896.00   1.60719633   0.02876151
9898.00   1.59940088   0.02848534
9900.00   1.59381711   0.02753886
9902.00   1.59993708   0.02628674
9904.00   1.61994183   0.02553601
9906.00   1.63582408   0.02586106
9908.00   1.63873899   0.02777356
9910.00   1.62940598   0.03095864
9912.00   1.61641264   0.03395882
9914.00   1.61539459   0.03556992
9916.00   1.62542021   0.03583724
9918.00   1.63299596   0.03505166
9920.00   1.64118576   0.03272020
9922.00   1.63369942   0.02935932
9924.00   1.58372819   0.02647894
9926.00   1.56886137   0.02569751
9928.00   1.59650421   0.02565317
9930.00   1.60965264   0.02569179
9932.00   1.59748423   0.02574146
9934.00   1.59742224   0.02624515
9936.00   1.62488127   0.02777041
9938.00   1.63845193   0.03019483
9940.00   1.62107706   0.03306709
9942.00   1.62341368   0.03611120
9944.00   1.61563873   0.03855779
9946.00   1.60450208   0.03919483
9948.00   1.58955681   0.03857196
9950.00   1.57589328   0.03759159
9952.00   1.56949174   0.03691688
9954.00   1.58969676   0.03679602
9956.00   1.59389400   0.03747156
9958.00   1.58542109   0.03871939
9960.00   1.58820117   0.03937772
9962.00   1.57334554   0.03834550
9964.00   1.57664299   0.03610832
9966.00   1.56628895   0.03421485
9968.00   1.57720268   0.03241973
9970.00   1.58535326   0.03098380
9972.00   1.56135929   0.03026084
9974.00   1.55785286   0.03017801
9976.00   1.54486465   0.02987690
9978.00   1.56359386   0.02935248
9980.00   1.57643509   0.02860224
9982.00   1.56629145   0.02795299
9984.00   1.56637418   0.02761927
9986.00   1.55230951   0.02731568
9988.00   1.56729221   0.02732855
9990.00   1.57798338   0.02741564
9992.00   1.54834211   0.02739516
9994.00   1.53260291   0.02777730
9996.00   1.52575302   0.02844289
9998.00   1.52269495   0.02903748
10000.00   1.53791177   0.02954688
10002.00   1.55691576   0.02996378
10004.00   1.57095015   0.03067547
10006.00   1.55953944   0.03320492
10008.00   1.54564226   0.03761431
10010.00   1.53737772   0.04241315
10012.00   1.54100645   0.04504464
10014.00   1.53670156   0.04567691
10016.00   1.52271986   0.04459951
10018.00   1.50327444   0.04174094
10020.00   1.50999975   0.03784011
10022.00   1.52704275   0.03599509
10024.00   1.54558611   0.03591247
10026.00   1.54024780   0.03586241
10028.00   1.53097820   0.03529039
10030.00   1.52906942   0.03414712
10032.00   1.54314435   0.03221354
10034.00   1.55036485   0.03066792
10036.00   1.53387105   0.03008624
10038.00   1.51812446   0.03044054
10040.00   1.51221621   0.03111388
10042.00   1.53192365   0.03175324
10044.00   1.52952111   0.03190461
10046.00   1.53549707   0.03184587
10048.00   1.53549588   0.03145149
10050.00   1.52856684   0.03069230
10052.00   1.50625360   0.03011018
10054.00   1.52168524   0.03088500
10056.00   1.54609382   0.03246900
10058.00   1.53952634   0.03385106
10060.00   1.52331483   0.03464596
10062.00   1.51971292   0.03516407
10064.00   1.54687214   0.03549352
10066.00   1.55039060   0.03511870
10068.00   1.51992643   0.03414893
10070.00   1.49512780   0.03339469
10072.00   1.49032056   0.03319186
10074.00   1.51016188   0.03372173
10076.00   1.51255739   0.03554690
10078.00   1.50775230   0.03881782
10080.00   1.53406322   0.04246331
10082.00   1.51132917   0.04367140
10084.00   1.51287329   0.04393044
10086.00   1.49591291   0.04274178
10088.00   1.49319935   0.03995182
10090.00   1.47764313   0.03572257
10092.00   1.47423029   0.03352060
10094.00   1.48013496   0.03286915
10096.00   1.46351969   0.03314609
10098.00   1.44907486   0.03419858
10100.00   1.45891857   0.03611232
10102.00   1.47924566   0.03743477
10104.00   1.49908698   0.03811210
10106.00   1.48979092   0.03796652
10108.00   1.48697329   0.03720737
10110.00   1.49708688   0.03563290
10112.00   1.47867489   0.03417673
10114.00   1.47141802   0.03382753
10116.00   1.49660742   0.03539606
10118.00   1.46414077   0.03845911
10120.00   1.46550000   0.04376535
10122.00   1.49926996   0.04759825
10124.00   1.50869083   0.04934308
10126.00   1.49493420   0.04924465
10128.00   1.49576914   0.04788059
10130.00   1.47551823   0.04351836
10132.00   1.46558726   0.03938024
10134.00   1.46410882   0.03693229
10136.00   1.47447836   0.03652975
10138.00   1.45495570   0.03636233
10140.00   1.45013797   0.03655492
10142.00   1.47777045   0.03719677
10144.00   1.49626541   0.03802462
10146.00   1.46996212   0.03880417
10148.00   1.44159889   0.04006552
10150.00   1.45900917   0.04170507
10152.00   1.45644915   0.04279583
10154.00   1.43966043   0.04333681
10156.00   1.43766785   0.04348568
10158.00   1.41593826   0.04268022
10160.00   1.41340411   0.04160919
10162.00   1.42907894   0.04112460
10164.00   1.44629908   0.04229343
10166.00   1.46017516   0.04564248
10168.00   1.46963644   0.05066749
10170.00   1.43437183   0.05387842
10172.00   1.40818322   0.05519028
10174.00   1.42743397   0.05509193
10176.00   1.45597970   0.05381377
10178.00   1.44319952   0.04980470
10180.00   1.41252005   0.04591412
10182.00   1.42255020   0.04508024
10184.00   1.45856428   0.04740974
10186.00   1.48534107   0.05059725
10188.00   1.44246376   0.05224464
10190.00   1.39928687   0.05266865
10192.00   1.37594604   0.05219314
10194.00   1.39464569   0.05092255
10196.00   1.42217934   0.04842686
10198.00   1.41157520   0.04647207
10200.00   1.38723290   0.04649541
10202.00   1.40627766   0.04838112
10204.00   1.45410252   0.05177634
10206.00   1.43843567   0.05636539
10208.00   1.39844668   0.06042599
10210.00   1.43536246   0.06237089
10212.00   1.43369961   0.06217040
10214.00   1.39019716   0.06029704
10216.00   1.37928677   0.05637391
10218.00   1.40903413   0.05155335
10220.00   1.39825213   0.04937337
10222.00   1.37768400   0.05034612
10224.00   1.39892626   0.05317268
10226.00   1.42496884   0.05549875
10228.00   1.45370948   0.05720836
10230.00   1.41488981   0.05670222
10232.00   1.37741697   0.05467160
10234.00   1.35624635   0.05168536
10236.00   1.38092935   0.04932750
10238.00   1.37923849   0.04693799
10240.00   1.42094040   0.04596217
10242.00   1.42800248   0.04550702
10244.00   1.36427534   0.04462689
10246.00   1.39781106   0.04504155
10248.00   1.39446366   0.04518677
10250.00   1.39461720   0.04550704
10252.00   1.39315021   0.04582815
10254.00   1.39149058   0.04615777
10256.00   1.39528167   0.04659216
10258.00   1.37558925   0.04686372
10260.00   1.36987078   0.04718613
10262.00   1.37885487   0.04786998
10264.00   1.38072097   0.04893647
10266.00   1.37699330   0.05014109
10268.00   1.42005551   0.05199529
10270.00   1.41736972   0.05309639
10272.00   1.38191926   0.05349857
10274.00   1.38299608   0.05433371
10276.00   1.35886300   0.05492553
10278.00   1.38288915   0.05873612
10280.00   1.38837802   0.06903025
10282.00   1.34777081   0.08399656
10284.00   1.35689437   0.09785306
10286.00   1.37907016   0.10482502
10288.00   1.45098889   0.10796824
10290.00   1.43877161   0.10632261
10292.00   1.36083651   0.09973899
10294.00   1.30873215   0.08910971
10296.00   1.35390198   0.08253524
10298.00   1.37844861   0.07895637
10300.00   1.37619507   0.07567164
10302.00   1.37931526   0.07037901
10304.00   1.36824930   0.06594814
10306.00   1.35190725   0.06454715
10308.00   1.35142326   0.06467217
10310.00   1.38599300   0.06504723
10312.00   1.40882266   0.06467947
10314.00   1.36179531   0.06294709
10316.00   1.32840168   0.06073790
10318.00   1.35822248   0.05969242
10320.00   1.40172112   0.05983660
10322.00   1.41421854   0.06052657
10324.00   1.39079905   0.06077394
10326.00   1.37510431   0.06122455
10328.00   1.35417306   0.06154934
10330.00   1.32282138   0.06159879
10332.00   1.28977859   0.06135738
10334.00   1.32950318   0.06210716
10336.00   1.37390912   0.06342829
10338.00   1.35534108   0.06471361
10340.00   1.33970499   0.06701089
10342.00   1.36783850   0.07140750
10344.00   1.39818478   0.07664368
10346.00   1.38346291   0.08002836
10348.00   1.39441431   0.08217523
10350.00   1.30752766   0.08171228
10352.00   1.32068932   0.08018139
10354.00   1.28905821   0.07599643
10356.00   1.23628652   0.07246723
10358.00   1.26928580   0.07143146
10360.00   1.31936812   0.07154597
10362.00   1.29750061   0.07112821
10364.00   1.29518521   0.07349204
10366.00   1.32256305   0.08278194
10368.00   1.33162296   0.09676471
10370.00   1.30658162   0.11149124
10372.00   1.30903566   0.11919744
10374.00   1.28474724   0.12143489
10376.00   1.28197348   0.11888518
10378.00   1.27675688   0.11007947
10380.00   1.26403773   0.09512728
10382.00   1.25755084   0.08463263
10384.00   1.28543341   0.08024224
10386.00   1.34739411   0.07974435
10388.00   1.37999141   0.08083066
10390.00   1.34805739   0.08396281
10392.00   1.24457145   0.08969925
10394.00   1.21623468   0.09498787
10396.00   1.26060009   0.09905105
10398.00   1.28449762   0.10045854
10400.00   1.27753687   0.09938516
10402.00   1.26935160   0.09468261
10404.00   1.23892462   0.08963147
10406.00   1.26446426   0.08710628
10408.00   1.33808804   0.08844899
10410.00   1.36419630   0.09264945
10412.00   1.26917017   0.10383603
10414.00   1.22742283   0.12068651
10416.00   1.25534093   0.13566129
10418.00   1.20469868   0.14224569
10420.00   1.35191154   0.14554369
10422.00   1.31707382   0.14080791
10424.00   1.31749713   0.12800400
10426.00   1.31036806   0.11198550
10428.00   1.31424105   0.10158954
10430.00   1.25785506   0.09639712
10432.00   1.20799315   0.09284040
10434.00   1.18325913   0.09136971
10436.00   1.18020308   0.09106272
10438.00   1.23174858   0.09164844
10440.00   1.24478829   0.09163450
10442.00   1.26578879   0.09339509
10444.00   1.28506768   0.09760750
10446.00   1.26035643   0.10266891
10448.00   1.22284496   0.10811522
10450.00   1.20854604   0.11111414
10452.00   1.21084821   0.11184480
10454.00   1.21779060   0.11048532
10456.00   1.23268509   0.10771196
10458.00   1.23492920   0.10329350
10460.00   1.24513614   0.10252541
10462.00   1.28149426   0.10941385
10464.00   1.31434023   0.12179992
10466.00   1.26255500   0.13379133
10468.00   1.26231706   0.14151855
10470.00   1.19102430   0.14295408
10472.00   1.15732586   0.14024787
10474.00   1.12090170   0.13157362
10476.00   1.13283074   0.11824489
10478.00   1.13769650   0.10827435
10480.00   1.09193838   0.10386354
10482.00   1.10911715   0.10348862
10484.00   1.18534505   0.10507524
10486.00   1.23464239   0.10622842
10488.00   1.17922461   0.10529963
10490.00   1.13152158   0.10471192
10492.00   1.13790596   0.10520449
10494.00   1.15627968   0.10604668
10496.00   1.18161726   0.10741102
10498.00   1.20502460   0.10870337
10500.00   1.20069969   0.10953665
10502.00   1.17363560   0.11127320
10504.00   1.14132750   0.11420501
10506.00   1.11573541   0.11780442
10508.00   1.15805805   0.12201205
10510.00   1.22206020   0.12534754
10512.00   1.21352994   0.12582545
10514.00   1.14727843   0.12409494
10516.00   1.12968910   0.12205356
10518.00   1.10270393   0.12224347
10520.00   1.13953388   0.12910725
10522.00   1.08909714   0.13540329
10524.00   1.06414068   0.13967536
10526.00   1.12926972   0.14183538
10528.00   1.25298786   0.14243346
10530.00   1.18523979   0.13551739
10532.00   1.10191381   0.12751876
10534.00   1.11495793   0.12335509
10536.00   1.17339432   0.12380129
10538.00   1.05318296   0.11986353
10540.00   1.09057391   0.12150037
10542.00   1.13193142   0.12359527
10544.00   1.08160484   0.12252870
10546.00   1.08779454   0.12412734
10548.00   1.14321041   0.12763153
10550.00   1.14730442   0.12838258
10552.00   1.08834016   0.12831791
10554.00   1.05478096   0.12868112
10556.00   1.06917965   0.12894829
10558.00   1.15797591   0.13251150
10560.00   1.12487960   0.13292097
10562.00   1.10068130   0.13326012
10564.00   1.16170943   0.13607423
10566.00   1.12567937   0.13649656
10568.00   1.18814456   0.14058639
10570.00   1.22573864   0.14481895
10572.00   1.22990131   0.14748545
10574.00   1.17956376   0.14755405
10576.00   1.12894142   0.14770354
10578.00   1.16233909   0.14876460
10580.00   1.15411532   0.14977936
10582.00   1.14254045   0.15445355
10584.00   1.11344254   0.15809436
10586.00   1.15067232   0.16071481
10588.00   1.12724733   0.16137448
10590.00   1.24236774   0.16434520
10592.00   1.37453508   0.16640560
10594.00   1.18316078   0.15933143
10596.00   1.13180494   0.15771206
10598.00   1.13622510   0.15897061
10600.00   1.05765569   0.15796863
10602.00   1.03356087   0.15851553
10604.00   1.20090401   0.16475542
10606.00   1.25191736   0.16704869
10608.00   1.20264244   0.16597800
10610.00   1.21209252   0.16794030
10612.00   1.28379810   0.17142548
10614.00   1.28152108   0.17175913
10616.00   1.22180188   0.17165828
10618.00   1.22751129   0.17315267
10620.00   1.32397997   0.17772998
10622.00   1.30974150   0.17897703
10624.00   1.19126213   0.17881550
10626.00   1.27323401   0.18236674
10628.00   1.29735374   0.18330021
10630.00   1.23915446   0.18148272
10632.00   1.20797455   0.18172593
10634.00   1.21809518   0.18380864
10636.00   1.21807849   0.18635292
10638.00   1.28679895   0.19104664
10640.00   1.36551821   0.19614188
10642.00   1.33990991   0.19662017
10644.00   1.32514274   0.19756883
10646.00   1.35114896   0.20033963
10648.00   1.38055193   0.20340747
10650.00   1.34029102   0.20443754
10652.00   1.29572904   0.20614618
10654.00   1.28055799   0.20561604
10656.00   1.29944098   0.20724000
10658.00   1.29747581   0.20843072
10660.00   1.33594608   0.21055765
10662.00   1.33508015   0.21008249
10664.00   1.35206211   0.21077597
10666.00   1.30084836   0.20941420
10668.00   1.25558281   0.21055079
10670.00   1.24646950   0.21284355
10672.00   1.35051441   0.21579266
10674.00   1.39087903   0.21632262
10676.00   1.31889451   0.21621203
10678.00   1.27863109   0.21827130
10680.00   1.37577593   0.22450499
10682.00   1.43533659   0.23027265
10684.00   1.45213306   0.23541988
10686.00   1.40193307   0.23767592
10688.00   1.35860252   0.23870943
10690.00   1.32597005   0.23872012
10692.00   1.38252580   0.24194217
10694.00   1.38506067   0.24502604
10696.00   1.43649423   0.24929364
10698.00   1.40513861   0.24946499
10700.00   1.31806839   0.24819791
