# File created by shivutils (I.Shivvers)
# wl(A)   flm    er(optional)
3632.00   0.75756168   0.09810627
3634.00   0.73792559   0.09810574
3636.00   0.78946704   0.09885306
3638.00   0.64238340   0.09895104
3640.00   0.87453103   0.10112713
3642.00   0.65584302   0.09776253
3644.00   0.69624633   0.09775455
3646.00   0.73133057   0.09613338
3648.00   0.78695911   0.10582941
3650.00   0.70068103   0.11512648
3652.00   0.70370287   0.11269045
3654.00   0.46878418   0.10309983
3656.00   0.61932671   0.10098024
3658.00   0.73472494   0.09701188
3660.00   0.70748591   0.09698313
3662.00   0.77193248   0.09984919
3664.00   0.63979471   0.09679424
3666.00   0.47906137   0.08885409
3668.00   0.74738479   0.08904611
3670.00   0.48141524   0.08370807
3672.00   0.67201263   0.08735247
3674.00   0.59636426   0.08534455
3676.00   0.60100919   0.08325489
3678.00   0.62062150   0.08274708
3680.00   0.55867344   0.07956045
3682.00   0.52625078   0.07896324
3684.00   0.66540718   0.08110653
3686.00   0.59873581   0.07994375
3688.00   0.64569616   0.07845421
3690.00   0.51224029   0.07775310
3692.00   0.60667020   0.08117301
3694.00   0.61798239   0.08111840
3696.00   0.57861853   0.07875970
3698.00   0.35264575   0.07769033
3700.00   0.45224288   0.08067898
3702.00   0.57754600   0.08068859
3704.00   0.57670337   0.07748396
3706.00   0.54021204   0.07469707
3708.00   0.53398013   0.07456346
3710.00   0.58911961   0.07493379
3712.00   0.47941381   0.07614001
3714.00   0.56858432   0.07779879
3716.00   0.77497166   0.07865405
3718.00   0.56788445   0.07341801
3720.00   0.49880236   0.06952471
3722.00   0.52105147   0.06991547
3724.00   0.60619670   0.07353307
3726.00   0.54226172   0.07358249
3728.00   0.61596811   0.07402430
3730.00   0.42488915   0.07207163
3732.00   0.47506812   0.07093916
3734.00   0.37473571   0.06713107
3736.00   0.42795449   0.06603467
3738.00   0.46858329   0.06949870
3740.00   0.39964411   0.07135964
3742.00   0.44048271   0.07226221
3744.00   0.56020468   0.06983640
3746.00   0.36229274   0.06490647
3748.00   0.35095826   0.06347862
3750.00   0.47354907   0.06380242
3752.00   0.48943394   0.06841633
3754.00   0.47211418   0.07095727
3756.00   0.47270396   0.06919855
3758.00   0.47814000   0.06651106
3760.00   0.36143011   0.06369921
3762.00   0.29090422   0.06347924
3764.00   0.30252543   0.06346839
3766.00   0.39536548   0.06385342
3768.00   0.39663601   0.06285615
3770.00   0.44812599   0.06520902
3772.00   0.38155511   0.06506568
3774.00   0.46700400   0.06678624
3776.00   0.40753084   0.06672024
3778.00   0.37945893   0.06604340
3780.00   0.29974866   0.06491648
3782.00   0.48522228   0.06794770
3784.00   0.34939542   0.06528466
3786.00   0.38382986   0.06307341
3788.00   0.34512991   0.06178519
3790.00   0.36004221   0.06182301
3792.00   0.42340514   0.06262785
3794.00   0.50122571   0.06188016
3796.00   0.44893202   0.06016717
3798.00   0.35339877   0.05720018
3800.00   0.38309169   0.05930084
3802.00   0.43297970   0.06210125
3804.00   0.40881160   0.06277582
3806.00   0.40274584   0.06131319
3808.00   0.45445451   0.06211884
3810.00   0.40283284   0.06147256
3812.00   0.28798780   0.05874073
3814.00   0.38951126   0.05813845
3816.00   0.45196280   0.05848639
3818.00   0.42355376   0.05842241
3820.00   0.43078023   0.05662926
3822.00   0.42465961   0.05611260
3824.00   0.54218429   0.05599435
3826.00   0.42580256   0.05303746
3828.00   0.45202863   0.05577913
3830.00   0.39419985   0.05637650
3832.00   0.51359689   0.05555120
3834.00   0.57840455   0.05525004
3836.00   0.50320274   0.05437440
3838.00   0.50589442   0.05394372
3840.00   0.50145888   0.05407240
3842.00   0.41389427   0.05552373
3844.00   0.55411315   0.05774396
3846.00   0.67143309   0.05971171
3848.00   0.60148752   0.05835895
3850.00   0.59659308   0.05779154
3852.00   0.65668368   0.05881316
3854.00   0.69432199   0.05830243
3856.00   0.74595362   0.05765070
3858.00   0.76627833   0.05692517
3860.00   0.74107867   0.05630467
3862.00   0.73245656   0.05751106
3864.00   0.88899177   0.06031148
3866.00   0.79773998   0.05888883
3868.00   0.92269808   0.05934188
3870.00   1.01468146   0.05881935
3872.00   1.05988193   0.05953646
3874.00   1.05487657   0.06194450
3876.00   1.00849450   0.06066531
3878.00   1.05344951   0.06028974
3880.00   1.06804693   0.05887613
3882.00   1.23183692   0.06049588
3884.00   1.15716434   0.05997866
3886.00   1.18476868   0.05979704
3888.00   1.26568091   0.06066120
3890.00   1.34472132   0.06218135
3892.00   1.35170615   0.06356981
3894.00   1.35513306   0.06379299
3896.00   1.32372677   0.06392343
3898.00   1.42408121   0.06463988
3900.00   1.50569880   0.06506248
3902.00   1.41743553   0.06368580
3904.00   1.46322513   0.06458133
3906.00   1.40805221   0.06612401
3908.00   1.62211275   0.06982422
3910.00   1.57032144   0.06983965
3912.00   1.53121841   0.06928010
3914.00   1.53565729   0.06778141
3916.00   1.59930587   0.06643918
3918.00   1.64141679   0.06584380
3920.00   1.46646345   0.06270833
3922.00   1.61594927   0.06360424
3924.00   1.73398471   0.06426239
3926.00   1.61339486   0.06194719
3928.00   1.73501289   0.06122195
3930.00   1.64362586   0.05929083
3932.00   1.69223344   0.05890607
3934.00   1.66515517   0.05879220
3936.00   1.73686063   0.05980920
3938.00   1.84075558   0.06170178
3940.00   1.79722393   0.06318875
3942.00   1.81128716   0.06383190
3944.00   1.94253957   0.06546475
3946.00   1.89015710   0.06462289
3948.00   1.73988533   0.06356229
3950.00   1.89676225   0.06493254
3952.00   1.90637529   0.06491323
3954.00   1.96632147   0.06492172
3956.00   1.86062646   0.06422120
3958.00   1.93116343   0.06426246
3960.00   1.84257650   0.06347061
3962.00   1.87987351   0.06264512
3964.00   1.94882858   0.06068804
3966.00   1.93159866   0.05920765
3968.00   1.89516366   0.05757990
3970.00   1.89673388   0.05803152
3972.00   2.09832335   0.06057551
3974.00   2.03724885   0.06229961
3976.00   2.07979870   0.06343519
3978.00   1.96493399   0.06312843
3980.00   1.97830307   0.06364767
3982.00   1.99593067   0.06348371
3984.00   1.90994287   0.06265453
3986.00   1.99000919   0.06342178
3988.00   1.99368501   0.06335198
3990.00   1.89810097   0.06350445
3992.00   1.89425409   0.06311838
3994.00   1.97966075   0.06360020
3996.00   1.90327644   0.06305359
3998.00   1.83055902   0.06218704
4000.00   1.84636438   0.06220600
4002.00   1.86535573   0.06262446
4004.00   1.83955252   0.06127309
4006.00   1.82941914   0.06058909
4008.00   1.84238553   0.06141188
4010.00   1.91328490   0.06245355
4012.00   1.79572630   0.06154378
4014.00   1.73140430   0.06074583
4016.00   1.72263074   0.06067774
4018.00   1.83446085   0.06241168
4020.00   1.86050141   0.06406804
4022.00   1.69528794   0.06315308
4024.00   1.70387709   0.06218445
4026.00   1.65861452   0.06145684
4028.00   1.68902814   0.06114496
4030.00   1.60161293   0.05929671
4032.00   1.54692364   0.05742505
4034.00   1.63914073   0.05821977
4036.00   1.58014870   0.05823209
4038.00   1.55188811   0.05814032
4040.00   1.55946267   0.05808751
4042.00   1.56026351   0.05829760
4044.00   1.46663201   0.06573888
4046.00   1.46944690   0.07548591
4048.00   1.42969990   0.07221513
4050.00   1.51087093   0.06141957
4052.00   1.52722096   0.05754858
4054.00   1.42111003   0.05676328
4056.00   1.23417521   0.05449199
4058.00   1.27889538   0.05407388
4060.00   1.37406969   0.05463899
4062.00   1.27147591   0.05318251
4064.00   1.16396737   0.05141326
4066.00   1.22531211   0.05243038
4068.00   1.27210307   0.05266811
4070.00   1.24552500   0.05253618
4072.00   1.22491610   0.05198307
4074.00   1.21181571   0.05135906
4076.00   1.16347849   0.05302602
4078.00   1.05375445   0.05289092
4080.00   1.16074896   0.05353978
4082.00   1.13253498   0.05227515
4084.00   1.02574110   0.05143069
4086.00   1.03220546   0.05112262
4088.00   1.02915263   0.05074407
4090.00   1.06205237   0.05032331
4092.00   0.98831666   0.04860575
4094.00   0.98660827   0.04872302
4096.00   1.02401018   0.04809348
4098.00   1.03142154   0.04792893
4100.00   1.06962252   0.04718461
4102.00   0.99112308   0.04622018
4104.00   0.98578376   0.04643549
4106.00   0.97859138   0.04673392
4108.00   1.02923906   0.04776952
4110.00   0.96708554   0.04725366
4112.00   1.00268257   0.04797282
4114.00   1.07524157   0.04871009
4116.00   1.02074933   0.04793553
4118.00   1.01881647   0.04738871
4120.00   1.03784490   0.04701464
4122.00   0.84275776   0.04611620
4124.00   0.88366133   0.04656328
4126.00   1.10278630   0.04819801
4128.00   1.01651287   0.04736303
4130.00   1.07245088   0.04708955
4132.00   0.95152342   0.04657388
4134.00   1.02072418   0.04736605
4136.00   1.06501496   0.04839804
4138.00   0.96723074   0.04827789
4140.00   1.08321929   0.04821095
4142.00   1.03602087   0.04639461
4144.00   1.03205931   0.04602393
4146.00   0.96817589   0.04609355
4148.00   1.01221037   0.04619934
4150.00   0.98984635   0.04651688
4152.00   1.09865808   0.04711196
4154.00   1.05364943   0.04691019
4156.00   0.95181280   0.04539478
4158.00   1.14040208   0.04707572
4160.00   1.10861504   0.04715605
4162.00   1.04919863   0.04730961
4164.00   1.05655181   0.04788811
4166.00   0.96947777   0.04702622
4168.00   1.04000664   0.04659735
4170.00   1.07031786   0.04608322
4172.00   1.10627663   0.04538447
4174.00   1.06831264   0.04512612
4176.00   1.05363917   0.04494216
4178.00   1.09878886   0.04534622
4180.00   1.12054837   0.04578071
4182.00   1.11759055   0.04510016
4184.00   1.12299681   0.04508332
4186.00   1.13271999   0.04546443
4188.00   1.19785190   0.04536410
4190.00   1.25898647   0.04647668
4192.00   1.17388785   0.04581547
4194.00   1.20278573   0.04567739
4196.00   1.03485787   0.04346510
4198.00   1.12698233   0.04438758
4200.00   1.12057114   0.04391509
4202.00   1.17222750   0.04440802
4204.00   1.27096474   0.04522543
4206.00   1.26258779   0.04555155
4208.00   1.26254272   0.04589605
4210.00   1.12833011   0.04515126
4212.00   1.23131895   0.04574068
4214.00   1.21610129   0.04525471
4216.00   1.30142462   0.04549261
4218.00   1.20878601   0.04474666
4220.00   1.25898254   0.04530261
4222.00   1.26196647   0.04506245
4224.00   1.21415257   0.04355937
4226.00   1.28353667   0.04347070
4228.00   1.21060443   0.04352788
4230.00   1.28093016   0.04512504
4232.00   1.25613773   0.04499570
4234.00   1.19348907   0.04429109
4236.00   1.25443614   0.04464829
4238.00   1.35900891   0.04507713
4240.00   1.25712585   0.04480952
4242.00   1.23507607   0.04440513
4244.00   1.23092306   0.04500228
4246.00   1.33151984   0.04684119
4248.00   1.31001866   0.04635504
4250.00   1.27266228   0.04474435
4252.00   1.24465299   0.04409567
4254.00   1.14782608   0.04346236
4256.00   1.23824430   0.04421822
4258.00   1.21821511   0.04387247
4260.00   1.28338134   0.04370902
4262.00   1.30083084   0.04385885
4264.00   1.32197022   0.04446819
4266.00   1.27908444   0.04438104
4268.00   1.26716745   0.04359761
4270.00   1.29296231   0.04320671
4272.00   1.36074042   0.04300736
4274.00   1.32462692   0.04298567
4276.00   1.22881472   0.04304871
4278.00   1.34098899   0.04421774
4280.00   1.23566401   0.04339807
4282.00   1.26204634   0.04346550
4284.00   1.28694868   0.04332058
4286.00   1.23350251   0.04254248
4288.00   1.24193871   0.04230398
4290.00   1.36773789   0.04282522
4292.00   1.24034727   0.04218974
4294.00   1.23319209   0.04258220
4296.00   1.31578410   0.04262038
4298.00   1.33667028   0.04219361
4300.00   1.30266070   0.04088736
4302.00   1.26729703   0.04093697
4304.00   1.35515201   0.04194997
4306.00   1.31991231   0.04152488
4308.00   1.30381525   0.04121163
4310.00   1.28591406   0.04126583
4312.00   1.36773419   0.04304465
4314.00   1.31921399   0.04389253
4316.00   1.40010226   0.04457124
4318.00   1.31726754   0.04450102
4320.00   1.33033741   0.04456058
4322.00   1.38907874   0.04396583
4324.00   1.33389711   0.04288407
4326.00   1.33056033   0.04292186
4328.00   1.36606705   0.04315531
4330.00   1.41591883   0.04367936
4332.00   1.33702970   0.04341875
4334.00   1.30863273   0.04308815
4336.00   1.28588820   0.04255734
4338.00   1.38450539   0.04252954
4340.00   1.22748816   0.04129766
4342.00   1.28375435   0.04188530
4344.00   1.34684014   0.04307334
4346.00   1.32694876   0.04375100
4348.00   1.29250848   0.04418042
4350.00   1.32131231   0.04347006
4352.00   1.30592811   0.04282653
4354.00   1.33702171   0.04499115
4356.00   1.32211423   0.05801330
4358.00   1.26272440   0.06720114
4360.00   1.12908101   0.06200644
4362.00   1.25398564   0.05022153
4364.00   1.22873998   0.04449013
4366.00   1.21554136   0.04304145
4368.00   1.21607733   0.04272603
4370.00   1.22615373   0.04238248
4372.00   1.16818571   0.04217143
4374.00   1.15519142   0.04228732
4376.00   1.09169376   0.04162201
4378.00   1.13088131   0.04132316
4380.00   1.03963745   0.04042493
4382.00   1.06270039   0.03972545
4384.00   1.12290883   0.03952092
4386.00   1.00814128   0.03908871
4388.00   1.08021402   0.03964423
4390.00   1.05574191   0.03974433
4392.00   1.06508553   0.03993734
4394.00   1.04186702   0.03956054
4396.00   0.98761046   0.03954975
4398.00   0.90410519   0.03919474
4400.00   0.95507425   0.03940154
4402.00   0.97334230   0.03952674
4404.00   1.00414348   0.03914771
4406.00   0.92642909   0.03872084
4408.00   0.90751648   0.03882249
4410.00   0.89581138   0.03902573
4412.00   0.88234961   0.03926158
4414.00   0.86123830   0.03876187
4416.00   0.88325197   0.03923140
4418.00   0.91246486   0.03914903
4420.00   0.87256014   0.03881979
4422.00   0.84135276   0.03842298
4424.00   0.80862188   0.03813111
4426.00   0.79358143   0.03787774
4428.00   0.76284093   0.03777822
4430.00   0.75362009   0.03760330
4432.00   0.79217196   0.03714628
4434.00   0.82495469   0.03734118
4436.00   0.79953706   0.03754813
4438.00   0.80822134   0.03778395
4440.00   0.73108315   0.03722423
4442.00   0.73924059   0.03719783
4444.00   0.72193491   0.03700423
4446.00   0.74393159   0.03726726
4448.00   0.69975585   0.03678528
4450.00   0.76730692   0.03708194
4452.00   0.79010713   0.03698115
4454.00   0.68096757   0.03603620
4456.00   0.74301010   0.03614077
4458.00   0.77962208   0.03628135
4460.00   0.68150771   0.03571346
4462.00   0.67932785   0.03571301
4464.00   0.77092892   0.03637154
4466.00   0.81838512   0.03665965
4468.00   0.72367686   0.03638993
4470.00   0.79660541   0.03679701
4472.00   0.82512164   0.03697503
4474.00   0.78609806   0.03677106
4476.00   0.77127069   0.03679896
4478.00   0.79699671   0.03695526
4480.00   0.78920424   0.03646312
4482.00   0.83210045   0.03706893
4484.00   0.80739623   0.03699238
4486.00   0.75326401   0.03684200
4488.00   0.88402849   0.03726438
4490.00   0.90003741   0.03733155
4492.00   0.91851395   0.03743247
4494.00   0.88678235   0.03740412
4496.00   0.92986459   0.03744354
4498.00   0.87649220   0.03715539
4500.00   0.92403126   0.03741449
4502.00   1.01551032   0.03802071
4504.00   1.00612414   0.03798085
4506.00   0.97050017   0.03787745
4508.00   1.01987374   0.03801759
4510.00   0.99445659   0.03794057
4512.00   1.10792613   0.03822830
4514.00   1.18103528   0.03868453
4516.00   1.15111673   0.03842136
4518.00   1.14865923   0.03834738
4520.00   1.19675076   0.03880069
4522.00   1.18207800   0.03867568
4524.00   1.19299757   0.03837554
4526.00   1.19148445   0.03812738
4528.00   1.22989523   0.03804586
4530.00   1.27737212   0.03841924
4532.00   1.30752110   0.03876470
4534.00   1.40186751   0.03937992
4536.00   1.35422587   0.03915580
4538.00   1.41268384   0.03962734
4540.00   1.38568342   0.03950743
4542.00   1.44945824   0.03977567
4544.00   1.41622329   0.03963240
4546.00   1.53422987   0.04015734
4548.00   1.53725767   0.03988196
4550.00   1.53164291   0.03978119
4552.00   1.55282164   0.03987661
4554.00   1.56386101   0.03998571
4556.00   1.57939041   0.03997650
4558.00   1.61031044   0.04040204
4560.00   1.69143021   0.04058442
4562.00   1.61708903   0.03997430
4564.00   1.64201283   0.03999318
4566.00   1.73900115   0.04065492
4568.00   1.85232222   0.04108239
4570.00   1.78072798   0.04086259
4572.00   1.75113583   0.04054932
4574.00   1.88004065   0.04135288
4576.00   1.87995911   0.04141550
4578.00   1.80347776   0.04112662
4580.00   1.97055697   0.04140438
4582.00   1.89545941   0.04105591
4584.00   2.00037599   0.04130019
4586.00   1.99927330   0.04127053
4588.00   1.99090779   0.04143772
4590.00   2.07608128   0.04179088
4592.00   2.12560058   0.04217290
4594.00   2.05847049   0.04165570
4596.00   2.16314721   0.04227408
4598.00   2.02804828   0.04152883
4600.00   2.12196422   0.04174532
4602.00   2.21745944   0.04235651
4604.00   2.21297145   0.04251201
4606.00   2.13952851   0.04227947
4608.00   2.24249434   0.04294475
4610.00   2.21052837   0.04263840
4612.00   2.38824677   0.04341150
4614.00   2.37943602   0.04311971
4616.00   2.33501077   0.04319533
4618.00   2.45168519   0.04356060
4620.00   2.49498010   0.04379962
4622.00   2.40482426   0.04568052
4624.00   2.57573438   0.04519594
4626.00   2.58017921   0.04435400
4628.00   2.55494642   0.04417991
4630.00   2.63079762   0.04451703
4632.00   2.56507635   0.04401145
4634.00   2.63159418   0.04453078
4636.00   2.64489532   0.04455412
4638.00   2.74158430   0.04489986
4640.00   2.70196986   0.04453815
4642.00   2.75971079   0.04470105
4644.00   2.67060137   0.04448659
4646.00   2.73789358   0.04455446
4648.00   2.78722072   0.04475612
4650.00   2.80686665   0.04500052
4652.00   2.73238492   0.04482886
4654.00   2.68585610   0.04467715
4656.00   2.78658366   0.04511439
4658.00   2.75684857   0.04508958
4660.00   2.69767761   0.04491454
4662.00   2.73156261   0.04522622
4664.00   2.75268960   0.04524031
4666.00   2.72304130   0.04485188
4668.00   2.80498767   0.04516992
4670.00   2.77614427   0.04540724
4672.00   2.71255732   0.04515019
4674.00   2.74884415   0.04526927
4676.00   2.71496868   0.04503709
4678.00   2.68511868   0.04454954
4680.00   2.70014620   0.04443683
4682.00   2.67592621   0.04434956
4684.00   2.64548254   0.04407138
4686.00   2.60698700   0.04374878
4688.00   2.58864594   0.04372565
4690.00   2.55118489   0.04345825
4692.00   2.53989196   0.04334759
4694.00   2.49974084   0.04295402
4696.00   2.57377672   0.04319302
4698.00   2.47098970   0.04263980
4700.00   2.42370367   0.04225463
4702.00   2.34681273   0.04188969
4704.00   2.35332227   0.04205029
4706.00   2.37897968   0.04205674
4708.00   2.29720569   0.04158654
4710.00   2.25788951   0.04140170
4712.00   2.20815420   0.04126167
4714.00   2.21083474   0.04116904
4716.00   2.13895774   0.04096848
4718.00   2.07594848   0.04062387
4720.00   2.11002111   0.04066781
4722.00   1.99004853   0.03995272
4724.00   1.99612558   0.03974619
4726.00   1.97733307   0.03983142
4728.00   1.97355759   0.04007419
4730.00   1.88720763   0.03976998
4732.00   1.87351072   0.03939258
4734.00   1.84932268   0.03946944
4736.00   1.77719486   0.03919909
4738.00   1.67676067   0.03874964
4740.00   1.76940358   0.03943687
4742.00   1.64849234   0.03906244
4744.00   1.61695564   0.03861651
4746.00   1.52624476   0.03736509
4748.00   1.58357441   0.03705518
4750.00   1.54961228   0.03678976
4752.00   1.50444770   0.03642661
4754.00   1.49738383   0.03628927
4756.00   1.45899844   0.03575203
4758.00   1.42479503   0.03549797
4760.00   1.43508172   0.03540434
4762.00   1.42082560   0.03490197
4764.00   1.39010632   0.03481396
4766.00   1.39870238   0.03473503
4768.00   1.30015588   0.03410550
4770.00   1.28380334   0.03395566
4772.00   1.27208495   0.03385210
4774.00   1.20646441   0.03360719
4776.00   1.19443071   0.03363591
4778.00   1.26503861   0.03434137
4780.00   1.16302037   0.03352781
4782.00   1.18670058   0.03344101
4784.00   1.17502689   0.03300046
4786.00   1.17938495   0.03273215
4788.00   1.05944729   0.03207288
4790.00   1.07609069   0.03232020
4792.00   1.04834330   0.03214576
4794.00   1.03703785   0.03202891
4796.00   1.00391757   0.03174803
4798.00   1.01420951   0.03173087
4800.00   0.96096015   0.03120993
4802.00   1.03487849   0.03176554
4804.00   0.97584331   0.03129040
4806.00   0.90768009   0.03097613
4808.00   0.97159100   0.03117170
4810.00   0.91696095   0.03089892
4812.00   0.89075869   0.03074329
4814.00   0.88412088   0.03057300
4816.00   0.94344795   0.03108228
4818.00   0.91656965   0.03088978
4820.00   0.87952983   0.03095243
4822.00   0.90163249   0.03089058
4824.00   0.90642190   0.03090307
4826.00   0.91943347   0.03081035
4828.00   0.84179300   0.03055769
4830.00   0.84481603   0.03038474
4832.00   0.87709415   0.03069809
4834.00   0.84171844   0.03040345
4836.00   0.85590428   0.03048911
4838.00   0.89128840   0.03064864
4840.00   0.84338564   0.03047099
4842.00   0.83316481   0.03032092
4844.00   0.84479463   0.03026068
4846.00   0.87393737   0.03046070
4848.00   0.85101372   0.03009544
4850.00   0.85477418   0.03013144
4852.00   0.86665297   0.03026583
4854.00   0.89039314   0.03016469
4856.00   0.91081291   0.02983042
4858.00   0.91747868   0.02977837
4860.00   0.92204016   0.02958017
4862.00   0.97274965   0.02970625
4864.00   0.96843761   0.03003782
4866.00   0.93759155   0.03012234
4868.00   0.90489382   0.03010604
4870.00   1.00135040   0.03052542
4872.00   0.98422390   0.03052528
4874.00   1.00578141   0.03067071
4876.00   1.02594733   0.03091391
4878.00   1.01622188   0.03110966
4880.00   0.95916158   0.03090088
4882.00   0.97373044   0.03087303
4884.00   1.07250082   0.03138801
4886.00   1.00240159   0.03080077
4888.00   1.01216853   0.03072166
4890.00   1.07102048   0.03100160
4892.00   1.07589495   0.03125173
4894.00   1.05409551   0.03134545
4896.00   1.04523098   0.03134499
4898.00   0.96616077   0.03089952
4900.00   1.06521010   0.03131329
4902.00   1.07353449   0.03119187
4904.00   0.98676962   0.03071329
4906.00   1.02468157   0.03092306
4908.00   1.06469369   0.03120502
4910.00   1.05043411   0.03122078
4912.00   1.07294643   0.03107868
4914.00   1.02565229   0.03102769
4916.00   1.06344426   0.03133046
4918.00   1.01717913   0.03056128
4920.00   1.10743892   0.03094477
4922.00   1.05146122   0.03078464
4924.00   1.11110437   0.03106857
4926.00   1.07235539   0.03106840
4928.00   1.07301748   0.03121974
4930.00   1.10682809   0.03128973
4932.00   1.14630032   0.03141779
4934.00   1.12264097   0.03143959
4936.00   1.06434572   0.03102326
4938.00   1.19650626   0.03167410
4940.00   1.15673387   0.03163351
4942.00   1.20663917   0.03201239
4944.00   1.09573007   0.03124859
4946.00   1.22666359   0.03215726
4948.00   1.17889249   0.03182502
4950.00   1.21021008   0.03215985
4952.00   1.25501335   0.03243470
4954.00   1.20507288   0.03207074
4956.00   1.21595156   0.03189884
4958.00   1.18832994   0.03174789
4960.00   1.23689568   0.03211674
4962.00   1.24522495   0.03214902
4964.00   1.27632797   0.03256368
4966.00   1.22554386   0.03235871
4968.00   1.25837374   0.03264312
4970.00   1.26485860   0.03278457
4972.00   1.24586892   0.03285660
4974.00   1.30396950   0.03337795
4976.00   1.28184199   0.03365621
4978.00   1.28747404   0.03400892
4980.00   1.31113863   0.03462488
4982.00   1.26126075   0.03440206
4984.00   1.25186110   0.03433396
4986.00   1.32045913   0.03449336
4988.00   1.32050014   0.03420614
4990.00   1.30681384   0.03373482
4992.00   1.31855464   0.03334893
4994.00   1.30844295   0.03324951
4996.00   1.26993585   0.03286414
4998.00   1.31985867   0.03276284
5000.00   1.31664526   0.03259125
5002.00   1.28675830   0.03218539
5004.00   1.28807056   0.03212574
5006.00   1.34604466   0.03221318
5008.00   1.27841616   0.03199984
5010.00   1.30319858   0.03206520
5012.00   1.22669804   0.03147334
5014.00   1.23388422   0.03148909
5016.00   1.24159598   0.03146343
5018.00   1.31231654   0.03179383
5020.00   1.17921090   0.03125950
5022.00   1.18072891   0.03131890
5024.00   1.17851830   0.03111739
5026.00   1.16087520   0.03104197
5028.00   1.18339276   0.03112928
5030.00   1.16629684   0.03121986
5032.00   1.15010953   0.03100968
5034.00   1.14872885   0.03069073
5036.00   1.09996116   0.03053540
5038.00   1.10201788   0.03026785
5040.00   1.08646750   0.02983498
5042.00   1.04544497   0.02980222
5044.00   1.08944702   0.03014517
5046.00   1.05016708   0.03019450
5048.00   1.07784355   0.03017348
5050.00   1.06506741   0.02999621
5052.00   1.01750076   0.02973735
5054.00   1.06988454   0.03000713
5056.00   1.03298461   0.02998359
5058.00   0.96078366   0.02943998
5060.00   0.94844484   0.02934706
5062.00   0.97898728   0.02977790
5064.00   0.95164090   0.02966039
5066.00   0.98790956   0.02985836
5068.00   0.93496734   0.02977422
5070.00   0.96006662   0.02984166
5072.00   0.94122607   0.02955006
5074.00   0.94257748   0.02955349
5076.00   0.97115785   0.02956828
5078.00   1.02881157   0.03002759
5080.00   0.98424876   0.03031506
5082.00   0.90554065   0.03075311
5084.00   1.02233040   0.03215519
5086.00   1.04399180   0.03205647
5088.00   1.00151217   0.03145421
5090.00   1.00050056   0.03071217
5092.00   0.98676634   0.03017888
5094.00   0.98934400   0.02999869
5096.00   1.00636578   0.02993608
5098.00   1.03625965   0.03033084
5100.00   1.06690776   0.03053111
5102.00   0.99478072   0.02994009
5104.00   1.00836515   0.02969765
5106.00   1.00565088   0.02962162
5108.00   1.07423317   0.03000730
5110.00   1.06741416   0.02977562
5112.00   1.07605767   0.02987560
5114.00   1.02565432   0.02976255
5116.00   1.08798850   0.03010792
5118.00   1.09145963   0.03013168
5120.00   1.10482037   0.03005183
5122.00   1.06637883   0.02962682
5124.00   1.12401712   0.02995284
5126.00   1.14258289   0.02996054
5128.00   1.09602559   0.02957145
5130.00   1.06804836   0.02939850
5132.00   1.11552572   0.02979651
5134.00   1.10639596   0.02986087
5136.00   1.10829031   0.02982262
5138.00   1.12491620   0.02990224
5140.00   1.09867096   0.02983375
5142.00   1.11601615   0.02973049
5144.00   1.18964791   0.03018426
5146.00   1.14002347   0.03011180
5148.00   1.11655605   0.03023536
5150.00   1.12188065   0.03038331
5152.00   1.19446778   0.03094236
5154.00   1.10904109   0.03049123
5156.00   1.11866796   0.03048675
5158.00   1.14564395   0.03048971
5160.00   1.18277395   0.03063777
5162.00   1.16146564   0.03031902
5164.00   1.17846549   0.02998451
5166.00   1.19462097   0.02983431
5168.00   1.18738616   0.02960120
5170.00   1.16138971   0.02933652
5172.00   1.19527411   0.02940318
5174.00   1.20853710   0.02961156
5176.00   1.20528483   0.02994929
5178.00   1.21062517   0.03022255
5180.00   1.20970750   0.02999727
5182.00   1.19842899   0.02984509
5184.00   1.24715531   0.02997876
5186.00   1.29380667   0.03045277
5188.00   1.18774176   0.02998609
5190.00   1.19760323   0.03012968
5192.00   1.29272008   0.03068038
5194.00   1.25333583   0.03046367
5196.00   1.25407386   0.03078499
5198.00   1.28677225   0.03083210
5200.00   1.25327861   0.03084720
5202.00   1.27369320   0.03098912
5204.00   1.24173748   0.03055886
5206.00   1.25671685   0.03052703
5208.00   1.27648354   0.03065863
5210.00   1.26180446   0.03092308
5212.00   1.27484798   0.03089156
5214.00   1.23507345   0.03056157
5216.00   1.22712314   0.03054550
5218.00   1.28052819   0.03094292
5220.00   1.30588031   0.03125073
5222.00   1.31415761   0.03135203
5224.00   1.34214854   0.03112209
5226.00   1.32101226   0.03101799
5228.00   1.31878483   0.03105246
5230.00   1.33287215   0.03109520
5232.00   1.31286693   0.03102407
5234.00   1.35842812   0.03115503
5236.00   1.33285141   0.03125311
5238.00   1.34804070   0.03139911
5240.00   1.40206361   0.03160676
5242.00   1.42055559   0.03169839
5244.00   1.45372498   0.03192076
5246.00   1.39661181   0.03154287
5248.00   1.43849075   0.03176922
5250.00   1.44244492   0.03160867
5252.00   1.49646723   0.03211847
5254.00   1.49721766   0.03221834
5256.00   1.55642104   0.03263669
5258.00   1.51930571   0.03272013
5260.00   1.56114340   0.03248851
5262.00   1.57628536   0.03251330
5264.00   1.56576073   0.03218230
5266.00   1.60770655   0.03230055
5268.00   1.61680675   0.03232774
5270.00   1.64296234   0.03246664
5272.00   1.63273513   0.03255630
5274.00   1.67311227   0.03300946
5276.00   1.71118963   0.03315619
5278.00   1.70099401   0.03303705
5280.00   1.69911277   0.03304316
5282.00   1.71898794   0.03320399
5284.00   1.77425909   0.03362662
5286.00   1.77869070   0.03375515
5288.00   1.77602863   0.03372404
5290.00   1.77648330   0.03378313
5292.00   1.77264774   0.03362149
5294.00   1.80471075   0.03382277
5296.00   1.80975413   0.03372838
5298.00   1.83687699   0.03386420
5300.00   1.88879418   0.03420351
5302.00   1.88549769   0.03407516
5304.00   1.85795116   0.03420472
5306.00   1.84840631   0.03541648
5308.00   1.91535735   0.03433964
5310.00   1.96014321   0.03472611
5312.00   1.95041347   0.03472502
5314.00   1.95227420   0.03459984
5316.00   2.00625992   0.03499036
5318.00   2.02787256   0.03502983
5320.00   2.04140997   0.03502175
5322.00   2.00602341   0.03485206
5324.00   2.08965898   0.03516076
5326.00   2.10364747   0.03517613
5328.00   2.00282598   0.03476771
5330.00   2.12201691   0.03543812
5332.00   2.03932285   0.03515080
5334.00   2.15124297   0.03565297
5336.00   2.18097806   0.03588885
5338.00   2.14766645   0.03561878
5340.00   2.19895458   0.03604003
5342.00   2.15792108   0.03589445
5344.00   2.20048547   0.03597455
5346.00   2.25063014   0.03627590
5348.00   2.22647977   0.03636084
5350.00   2.25449991   0.03663018
5352.00   2.16824007   0.03611250
5354.00   2.19015217   0.03655311
5356.00   2.23141336   0.03676445
5358.00   2.23994803   0.03667716
5360.00   2.35247612   0.03702131
5362.00   2.33451438   0.03666165
5364.00   2.40507126   0.03707431
5366.00   2.33795762   0.03650608
5368.00   2.34611630   0.03667576
5370.00   2.39415336   0.03691203
5372.00   2.30597210   0.03651218
5374.00   2.32627177   0.03706831
5376.00   2.39877987   0.03725259
5378.00   2.37059546   0.03719027
5380.00   2.46820474   0.03780157
5382.00   2.43696737   0.03766992
5384.00   2.42030501   0.03766717
5386.00   2.49865651   0.03795330
5388.00   2.47553754   0.03798906
5390.00   2.49070835   0.03837429
5392.00   2.45607996   0.03835247
5394.00   2.51914454   0.03868554
5396.00   2.54302168   0.03884183
5398.00   2.52906942   0.03902106
5400.00   2.52549362   0.03903579
5402.00   2.50739288   0.03899648
5404.00   2.54324770   0.03933537
5406.00   2.56060886   0.03961158
5408.00   2.61893749   0.04016120
5410.00   2.65907645   0.04071583
5412.00   2.61873531   0.04079932
5414.00   2.62617850   0.04125896
5416.00   2.67492819   0.04183046
5418.00   2.74384713   0.04248152
5420.00   2.64959407   0.04234001
5422.00   2.68063521   0.04276872
5424.00   2.63453722   0.04264946
5426.00   2.78021646   0.04356390
5428.00   2.72814369   0.04352969
5430.00   2.75184250   0.04399803
5432.00   2.69222808   0.04372649
5434.00   2.73762369   0.04405514
5436.00   2.73445916   0.04441829
5438.00   2.79781866   0.04486041
5440.00   2.69693398   0.04488764
5442.00   2.81831884   0.04550679
5444.00   2.75846863   0.04532775
5446.00   2.68889999   0.04527182
5448.00   2.76848578   0.04611758
5450.00   2.82408047   0.04638183
5452.00   2.74574161   0.04624254
5454.00   2.77708101   0.04661154
5456.00   2.73911500   0.04767016
5458.00   2.81443381   0.05240843
5460.00   2.79580927   0.05523004
5462.00   2.73142934   0.05471063
5464.00   2.64686680   0.05238733
5466.00   2.65114188   0.05081182
5468.00   2.72959948   0.05024973
5470.00   2.65342736   0.04898773
5472.00   2.62254643   0.04807175
5474.00   2.72480130   0.04832713
5476.00   2.68808174   0.04789791
5478.00   2.71560740   0.04811735
5480.00   2.73472762   0.04840592
5482.00   2.61198044   0.04817181
5484.00   2.67214656   0.04853870
5486.00   2.56201673   0.04800131
5488.00   2.60932326   0.04784451
5490.00   2.55721617   0.04780193
5492.00   2.62250376   0.04781657
5494.00   2.58548498   0.04737670
5496.00   2.55205441   0.04748672
5498.00   2.48552394   0.04719020
5500.00   2.53137136   0.04756603
5502.00   2.46801019   0.04704838
5504.00   2.43944144   0.04683855
5506.00   2.49400496   0.04738102
5508.00   2.54126883   0.04782368
5510.00   2.56302452   0.04795706
5512.00   2.50991988   0.04796156
5514.00   2.40357828   0.04772126
5516.00   2.58274388   0.04878954
5518.00   2.51183033   0.04844040
5520.00   2.57524371   0.04924193
5522.00   2.54775524   0.04887468
5524.00   2.52449846   0.04894885
5526.00   2.63822508   0.04956623
5528.00   2.62090421   0.04965932
5530.00   2.66862416   0.04984595
5532.00   2.70207572   0.05017425
5534.00   2.69375539   0.05007209
5536.00   2.74369144   0.05082250
5538.00   2.79791212   0.05100048
5540.00   2.83541131   0.05137108
5542.00   2.88544822   0.05185766
5544.00   2.82875347   0.05163464
5546.00   2.85719991   0.05172394
5548.00   2.89605212   0.05222084
5550.00   2.95695043   0.05267560
5552.00   3.00252080   0.05275575
5554.00   2.97526288   0.05237044
5556.00   2.99895310   0.05270853
5558.00   2.92841434   0.05231265
5560.00   3.02863479   0.05307854
5562.00   3.05067468   0.05332099
5564.00   3.01133156   0.05326987
5566.00   3.06006360   0.05347794
5568.00   3.04100585   0.05337431
5570.00   3.20204926   0.05429183
5572.00   3.15518641   0.05526460
5574.00   3.15506768   0.09437608
5576.00   3.23788929   0.09704428
5578.00   3.25028348   0.09714564
5580.00   3.23449445   0.09516886
5582.00   3.31288910   0.09249306
5584.00   3.37949276   0.08830895
5586.00   3.39472866   0.08334229
5588.00   3.33443713   0.07926556
5590.00   3.32856369   0.07787988
5592.00   3.33258438   0.07737672
5594.00   3.36155200   0.07720868
5596.00   3.43103218   0.07719497
5598.00   3.46675324   0.07691725
5600.00   3.44418025   0.07606871
5602.00   3.31790447   0.07462279
5604.00   3.24113536   0.07366990
5606.00   3.30305696   0.07362573
5608.00   3.41300201   0.07386131
5610.00   3.36165738   0.07311797
5612.00   3.34848785   0.07259709
5614.00   3.37772274   0.07229927
5616.00   3.40223193   0.07196504
5618.00   3.32923245   0.07099932
5620.00   3.27646255   0.06998196
5622.00   3.18705440   0.06991424
5624.00   3.16037869   0.06998945
5626.00   3.23394752   0.06931853
5628.00   3.22131658   0.06793798
5630.00   3.18144298   0.06722972
5632.00   3.12827611   0.06654164
5634.00   3.08366489   0.06581837
5636.00   3.04976082   0.06509765
5638.00   3.02111983   0.06461285
5640.00   2.98343253   0.06400767
5642.00   2.95910478   0.06342853
5644.00   2.93315387   0.06286800
5646.00   2.87696648   0.06227005
5648.00   2.80648541   0.06129829
5650.00   2.76152444   0.06061334
5652.00   2.70865750   0.05997804
5654.00   2.64543128   0.05928381
5656.00   2.63315272   0.05882165
5658.00   2.57291794   0.05815795
5660.00   2.53691936   0.05777198
5662.00   2.50689244   0.05746190
5664.00   2.47223473   0.05710524
5666.00   2.44155049   0.05691476
5668.00   2.44562507   0.05697830
5670.00   2.42539167   0.05704181
5672.00   2.39497113   0.05706822
5674.00   2.37560439   0.05700947
5676.00   2.36136150   0.05708477
5678.00   2.32061195   0.05727115
5680.00   2.29190159   0.05742322
5682.00   2.28581548   0.05758010
5684.00   2.30296588   0.05798960
5686.00   2.26033568   0.05798520
5688.00   2.25042915   0.05796304
5690.00   2.23747659   0.05747790
5692.00   2.21225142   0.05648541
5694.00   2.18518233   0.05537860
5696.00   2.19857407   0.05445255
5698.00   2.19734693   0.05363496
5700.00   2.17826343   0.05285612
5702.00   2.16650176   0.05222487
5704.00   2.18333507   0.05186168
5706.00   2.14006710   0.05118435
5708.00   2.14216352   0.05102856
5710.00   2.15495205   0.05102072
5712.00   2.12361932   0.05060784
5714.00   2.09613752   0.05024802
5716.00   2.06742430   0.04983537
5718.00   2.04079962   0.04945596
5720.00   2.02297282   0.04912499
5722.00   2.02009892   0.04885467
5724.00   2.01033521   0.04850757
5726.00   1.98416197   0.04819291
5728.00   1.94669187   0.04783418
5730.00   1.93034327   0.04753724
5732.00   1.92977750   0.04727187
5734.00   1.91154063   0.04692153
5736.00   1.90110838   0.04676359
5738.00   1.90184891   0.04671971
5740.00   1.89441788   0.04657120
5742.00   1.89197576   0.04645057
5744.00   1.86501980   0.04620674
5746.00   1.84180450   0.04589047
5748.00   1.83402169   0.04570832
5750.00   1.83755529   0.04576168
5752.00   1.83495963   0.04567244
5754.00   1.85785830   0.04578650
5756.00   1.85950887   0.04589128
5758.00   1.84309244   0.04591906
5760.00   1.80318916   0.04569520
5762.00   1.84099007   0.04627116
5764.00   1.84001887   0.04659414
5766.00   1.82772768   0.04691163
5768.00   1.82084787   0.04718744
5770.00   1.82040834   0.04717810
5772.00   1.81746423   0.04687316
5774.00   1.82219028   0.04653481
5776.00   1.83011997   0.04607518
5778.00   1.84812355   0.04565749
5780.00   1.87543070   0.04558986
5782.00   1.88581562   0.04574357
5784.00   1.87336063   0.04592042
5786.00   1.87864971   0.04635472
5788.00   1.90299761   0.04693186
5790.00   1.90580046   0.04722184
5792.00   1.91529953   0.04724446
5794.00   1.94966185   0.04722390
5796.00   1.99012840   0.04708123
5798.00   2.01501489   0.04673168
5800.00   2.05682111   0.04656734
5802.00   2.07656074   0.04648163
5804.00   2.08963370   0.04653075
5806.00   2.10932660   0.04666606
5808.00   2.13833547   0.04678017
5810.00   2.13078094   0.04654841
5812.00   2.15495205   0.04672807
5814.00   2.17864585   0.04700046
5816.00   2.19370866   0.04712461
5818.00   2.22593760   0.04725525
5820.00   2.26894569   0.04758025
5822.00   2.30672622   0.04789601
5824.00   2.33495259   0.04812757
5826.00   2.36364961   0.04834302
5828.00   2.38565421   0.04846312
5830.00   2.42485809   0.04867098
5832.00   2.45403290   0.04891336
5834.00   2.48440623   0.04915493
5836.00   2.51165605   0.04935598
5838.00   2.48052382   0.04934463
5840.00   2.52356458   0.04958975
5842.00   2.58359885   0.04989739
5844.00   2.63161492   0.05020345
5846.00   2.66104269   0.05048919
5848.00   2.66144109   0.05049247
5850.00   2.67443967   0.05061489
5852.00   2.69306493   0.05078681
5854.00   2.71688247   0.05101116
5856.00   2.74052811   0.05125458
5858.00   2.79252839   0.05163414
5860.00   2.85269833   0.05208108
5862.00   2.88059521   0.05244236
5864.00   2.88964820   0.05277301
5866.00   2.92276001   0.05316735
5868.00   2.94498897   0.05320559
5870.00   2.97497869   0.05335419
5872.00   2.99082541   0.05353868
5874.00   2.99164581   0.05371177
5876.00   2.98931217   0.05395758
5878.00   3.00490022   0.05631546
5880.00   3.03515601   0.05882167
5882.00   3.05519938   0.06056640
5884.00   3.05133891   0.06209588
5886.00   3.02190018   0.06648766
5888.00   3.03212428   0.07136523
5890.00   3.01894403   0.07476128
5892.00   3.00029206   0.07672217
5894.00   3.01137996   0.07750762
5896.00   3.04234099   0.07559896
5898.00   3.11071658   0.07134956
5900.00   3.13585663   0.06662018
5902.00   3.11199689   0.06206874
5904.00   3.15989304   0.05787035
5906.00   3.15129399   0.05451532
5908.00   3.17678165   0.05367664
5910.00   3.20923519   0.05391597
5912.00   3.21822286   0.05409859
5914.00   3.17660642   0.05399003
5916.00   3.19549680   0.05407840
5918.00   3.17197871   0.05385759
5920.00   3.16795087   0.05377764
5922.00   3.20237184   0.05397944
5924.00   3.24881959   0.05418065
5926.00   3.19694304   0.05406369
5928.00   3.21684837   0.05432137
5930.00   3.24194074   0.05450523
5932.00   3.20406890   0.05423233
5934.00   3.19370723   0.05405310
5936.00   3.15014267   0.05363791
5938.00   3.13642216   0.05333963
5940.00   3.12245965   0.05301051
5942.00   3.06217957   0.05243523
5944.00   3.05551553   0.05225041
5946.00   3.04190731   0.05214895
5948.00   3.02349639   0.05203062
5950.00   3.01148987   0.05199504
5952.00   3.02957463   0.05222818
5954.00   3.01516724   0.05220303
5956.00   2.99458671   0.05198173
5958.00   2.98343277   0.05178629
5960.00   2.95652318   0.05155694
5962.00   2.91173744   0.05121547
5964.00   2.93932700   0.05122676
5966.00   2.91584134   0.05097148
5968.00   2.86661458   0.05063951
5970.00   2.82331395   0.05037664
5972.00   2.81304169   0.05025828
5974.00   2.77834201   0.05002025
5976.00   2.76302624   0.04987036
5978.00   2.76132679   0.04978718
5980.00   2.73721004   0.04957318
5982.00   2.68341637   0.04908673
5984.00   2.69369435   0.04912161
5986.00   2.67261338   0.04892542
5988.00   2.63930631   0.04860813
5990.00   2.64442134   0.04854596
5992.00   2.62383676   0.04851139
5994.00   2.57065654   0.04816774
5996.00   2.52653575   0.04782446
5998.00   2.50774884   0.04765649
6000.00   2.50004029   0.04758075
6002.00   2.47127628   0.04733739
6004.00   2.43154025   0.04703738
6006.00   2.40744305   0.04677302
6008.00   2.41024280   0.04666816
6010.00   2.40333724   0.04654651
6012.00   2.35995507   0.04620051
6014.00   2.31027532   0.04589641
6016.00   2.28382206   0.04569254
6018.00   2.27200890   0.04547366
6020.00   2.25147748   0.04516868
6022.00   2.22892308   0.04504332
6024.00   2.20389223   0.04487629
6026.00   2.19474411   0.04479057
6028.00   2.21617913   0.04492146
6030.00   2.15317941   0.04438487
6032.00   2.12566304   0.04414014
6034.00   2.11150384   0.04395626
6036.00   2.09675479   0.04378515
6038.00   2.07174683   0.04358144
6040.00   2.05867481   0.04343153
6042.00   2.02997637   0.04317908
6044.00   2.02697396   0.04310144
6046.00   2.01900101   0.04298626
6048.00   1.96137965   0.04249747
6050.00   1.93733656   0.04235990
6052.00   1.93042099   0.04224604
6054.00   1.90294468   0.04199792
6056.00   1.86501443   0.04173437
6058.00   1.85575056   0.04170678
6060.00   1.86720335   0.04165940
6062.00   1.86736190   0.04154046
6064.00   1.83404505   0.04129476
6066.00   1.78336656   0.04098143
6068.00   1.78791094   0.04071002
6070.00   1.78098953   0.04122623
6072.00   1.76085794   0.04185456
6074.00   1.74081552   0.04215598
6076.00   1.73148096   0.04205804
6078.00   1.70346463   0.04178057
6080.00   1.69547808   0.04170039
6082.00   1.70011044   0.04117391
6084.00   1.69492638   0.04018867
6086.00   1.66196680   0.03962081
6088.00   1.64078557   0.03949992
6090.00   1.66437757   0.03966056
6092.00   1.66644895   0.03966692
6094.00   1.65354729   0.03966869
6096.00   1.67933404   0.04000692
6098.00   1.67304003   0.03995785
6100.00   1.64773703   0.03990822
6102.00   1.64051664   0.04003625
6104.00   1.65523195   0.04033173
6106.00   1.68180907   0.04081846
6108.00   1.62102354   0.04090644
6110.00   1.61318922   0.04127388
6112.00   1.62598002   0.04158001
6114.00   1.62670422   0.04162551
6116.00   1.63147604   0.04144667
6118.00   1.58050311   0.04074389
6120.00   1.56688881   0.04020977
6122.00   1.60940063   0.04002976
6124.00   1.64637697   0.03989293
6126.00   1.61568582   0.03942736
6128.00   1.58694327   0.03912363
6130.00   1.59526241   0.03912784
6132.00   1.62220907   0.03930207
6134.00   1.61394012   0.03927146
6136.00   1.62538517   0.03921113
6138.00   1.66053474   0.03946006
6140.00   1.68373358   0.03970587
6142.00   1.68122852   0.03973435
6144.00   1.66843092   0.03958972
6146.00   1.65300190   0.03950519
6148.00   1.64939117   0.03950357
6150.00   1.64652002   0.03952484
6152.00   1.64708614   0.03961677
6154.00   1.64444411   0.03964876
6156.00   1.64203739   0.03962385
6158.00   1.64420712   0.03969793
6160.00   1.63947928   0.03973439
6162.00   1.62566888   0.03959818
6164.00   1.63009644   0.03934402
6166.00   1.63705361   0.03914552
6168.00   1.63412559   0.03888068
6170.00   1.63428938   0.03863424
6172.00   1.64186108   0.03848134
6174.00   1.67193067   0.03857972
6176.00   1.68406141   0.03855989
6178.00   1.67005002   0.03836929
6180.00   1.65147293   0.03817740
6182.00   1.65547907   0.03814575
6184.00   1.65846765   0.03810091
6186.00   1.66040814   0.03808011
6188.00   1.66605234   0.03808318
6190.00   1.66648614   0.03804277
6192.00   1.65015543   0.03799031
6194.00   1.66854227   0.03816091
6196.00   1.66725576   0.03811451
6198.00   1.64762247   0.03793387
6200.00   1.63703001   0.03786997
6202.00   1.65672529   0.03808002
6204.00   1.64279592   0.03799343
6206.00   1.63808644   0.03797678
6208.00   1.63669550   0.03795405
6210.00   1.64976943   0.03792961
6212.00   1.65913045   0.03798297
6214.00   1.65543425   0.03796253
6216.00   1.68360674   0.03806661
6218.00   1.69402158   0.03803642
6220.00   1.66164458   0.03775507
6222.00   1.70320833   0.03801210
6224.00   1.71519673   0.03806187
6226.00   1.72020280   0.03812581
6228.00   1.74338377   0.03837289
6230.00   1.77557838   0.03874629
6232.00   1.77226102   0.03911120
6234.00   1.75062573   0.03937750
6236.00   1.74389613   0.03962531
6238.00   1.75969899   0.03986616
6240.00   1.78815186   0.03996166
6242.00   1.84434783   0.03998262
6244.00   1.85781157   0.03965456
6246.00   1.83161926   0.03916466
6248.00   1.81552136   0.03885434
6250.00   1.84680212   0.03890698
6252.00   1.87086165   0.03918891
6254.00   1.88050973   0.03988104
6256.00   1.89680898   0.04062946
6258.00   1.92561328   0.04090296
6260.00   1.90463150   0.04033745
6262.00   1.91661358   0.04027931
6264.00   1.94500446   0.04026361
6266.00   1.94890308   0.04001239
6268.00   1.93036795   0.03973832
6270.00   1.94512224   0.03976837
6272.00   1.97071874   0.03980248
6274.00   1.96313572   0.03972336
6276.00   1.95444965   0.03980912
6278.00   1.99639893   0.04031309
6280.00   1.96551073   0.04034968
6282.00   1.95532191   0.04049056
6284.00   1.98265684   0.04084074
6286.00   2.03263021   0.04121635
6288.00   2.03183556   0.04104328
6290.00   2.02210617   0.04089377
6292.00   2.01463103   0.04105088
6294.00   2.02434468   0.04186766
6296.00   2.03291965   0.04321533
6298.00   2.00047278   0.04439481
6300.00   2.04337192   0.04504759
6302.00   2.06196356   0.04537196
6304.00   2.04098034   0.04507205
6306.00   2.00034547   0.04378593
6308.00   2.01983190   0.04215346
6310.00   1.98649442   0.04086092
6312.00   1.96701896   0.04006908
6314.00   1.96611083   0.03963320
6316.00   1.95322812   0.03925330
6318.00   1.94399977   0.03916849
6320.00   1.93690741   0.03898751
6322.00   1.90672302   0.03869304
6324.00   1.86770153   0.03851874
6326.00   1.86761582   0.03880157
6328.00   1.85916746   0.03883661
6330.00   1.84226418   0.03862230
6332.00   1.82675970   0.03838906
6334.00   1.82343185   0.03822819
6336.00   1.81020176   0.03776125
6338.00   1.77272892   0.03716398
6340.00   1.74161232   0.03672918
6342.00   1.73014677   0.03661663
6344.00   1.73611486   0.03676843
6346.00   1.71494353   0.03660998
6348.00   1.68854427   0.03648165
6350.00   1.66578865   0.03644792
6352.00   1.64975202   0.03643471
6354.00   1.62886369   0.03629474
6356.00   1.58038902   0.03600228
6358.00   1.56316745   0.03615740
6360.00   1.54714680   0.03648044
6362.00   1.53444719   0.03670485
6364.00   1.52510893   0.03657500
6366.00   1.53847897   0.03617850
6368.00   1.52342856   0.03569947
6370.00   1.50491202   0.03508465
6372.00   1.47543895   0.03430068
6374.00   1.43822193   0.03375463
6376.00   1.40808296   0.03359054
6378.00   1.43560016   0.03384458
6380.00   1.45249808   0.03398179
6382.00   1.42263639   0.03376691
6384.00   1.42248547   0.03380073
6386.00   1.40996647   0.03363710
6388.00   1.40439832   0.03351596
6390.00   1.40277386   0.03337203
6392.00   1.39469528   0.03314359
6394.00   1.37839377   0.03288102
6396.00   1.39141691   0.03290225
6398.00   1.41089821   0.03306711
6400.00   1.42611969   0.03326273
6402.00   1.42903090   0.03334757
6404.00   1.40962172   0.03311393
6406.00   1.40376413   0.03294034
6408.00   1.43193483   0.03313405
6410.00   1.47439718   0.03348888
6412.00   1.48556423   0.03355640
6414.00   1.49210787   0.03361014
6416.00   1.49170673   0.03355740
6418.00   1.48964357   0.03360298
6420.00   1.49470818   0.03371020
6422.00   1.49532735   0.03352728
6424.00   1.51107264   0.03361453
6426.00   1.52883017   0.03373781
6428.00   1.56587887   0.03394538
6430.00   1.60757732   0.03418960
6432.00   1.61923599   0.03424419
6434.00   1.63665199   0.03432082
6436.00   1.63777888   0.03435606
6438.00   1.65419543   0.03452602
6440.00   1.69064367   0.03480038
6442.00   1.68056583   0.03473556
6444.00   1.68184054   0.03480968
6446.00   1.71315277   0.03510511
6448.00   1.74864757   0.03538636
6450.00   1.75648534   0.03540357
6452.00   1.73709261   0.03526989
6454.00   1.77073967   0.03549581
6456.00   1.81472063   0.03582976
6458.00   1.84132159   0.03611179
6460.00   1.85675275   0.03638244
6462.00   1.85670757   0.03654153
6464.00   1.85681486   0.03668531
6466.00   1.87278557   0.03691987
6468.00   1.89117587   0.03713688
6470.00   1.89063132   0.03709895
6472.00   1.91105068   0.03707368
6474.00   1.91719294   0.03688208
6476.00   1.93921661   0.03678507
6478.00   1.97677934   0.03682984
6480.00   1.98757517   0.03676363
6482.00   1.99164486   0.03672394
6484.00   2.02243352   0.03685680
6486.00   2.04557896   0.03696692
6488.00   2.05179000   0.03702676
6490.00   2.11558318   0.03747015
6492.00   2.13821912   0.03778193
6494.00   2.13661313   0.03812826
6496.00   2.15098882   0.03864502
6498.00   2.20985317   0.03933574
6500.00   2.21536827   0.03953046
6502.00   2.22145486   0.03967528
6504.00   2.24708557   0.03976956
6506.00   2.28576350   0.03973155
6508.00   2.31613851   0.03949990
6510.00   2.31009388   0.03927893
6512.00   2.31009459   0.03913660
6514.00   2.31870699   0.03901936
6516.00   2.33266330   0.03898098
6518.00   2.33539009   0.03903148
6520.00   2.32950330   0.03906051
6522.00   2.35863566   0.03931582
6524.00   2.40930128   0.03973159
6526.00   2.45538807   0.04013057
6528.00   2.48656297   0.04046461
6530.00   2.53139329   0.04090191
6532.00   2.53580117   0.04103812
6534.00   2.53700638   0.04107517
6536.00   2.55041003   0.04106980
6538.00   2.57550812   0.04101892
6540.00   2.55861855   0.04074618
6542.00   2.55054879   0.04054318
6544.00   2.56463265   0.04053573
6546.00   2.57158113   0.04060903
6548.00   2.60992455   0.04101301
6550.00   2.62068677   0.04126552
6552.00   2.62103295   0.04139865
6554.00   2.64194632   0.04152576
6556.00   2.67887759   0.04164426
6558.00   2.64392877   0.04131533
6560.00   2.65452123   0.04115772
6562.00   2.69336915   0.04117585
6564.00   2.71720338   0.04121774
6566.00   2.71974754   0.04123750
6568.00   2.70468545   0.04108490
6570.00   2.71680951   0.04115850
6572.00   2.72011566   0.04125652
6574.00   2.70558286   0.04132561
6576.00   2.70827007   0.04146141
6578.00   2.73509097   0.04162927
6580.00   2.77581811   0.04184604
6582.00   2.79200196   0.04181269
6584.00   2.77079129   0.04137347
6586.00   2.76346421   0.04109323
6588.00   2.75670552   0.04096176
6590.00   2.75551033   0.04093087
6592.00   2.75414777   0.04092171
6594.00   2.74713326   0.04090903
6596.00   2.72800231   0.04082945
6598.00   2.73878384   0.04096544
6600.00   2.75859451   0.04115453
6602.00   2.76221347   0.04122098
6604.00   2.72534943   0.04097917
6606.00   2.71322751   0.04084546
6608.00   2.71442533   0.04074089
6610.00   2.72851110   0.04066652
6612.00   2.74109578   0.04059120
6614.00   2.70212197   0.04030146
6616.00   2.71218967   0.04033035
6618.00   2.71309924   0.04030962
6620.00   2.68449712   0.04012484
6622.00   2.64715791   0.03990373
6624.00   2.63601589   0.03980807
6626.00   2.62842679   0.03977253
6628.00   2.61723351   0.03974266
6630.00   2.59536266   0.03964229
6632.00   2.56644654   0.03948066
6634.00   2.55491638   0.03938404
6636.00   2.57598233   0.03944394
6638.00   2.56843948   0.03932746
6640.00   2.52383256   0.03899888
6642.00   2.50847125   0.03885445
6644.00   2.51046371   0.03880445
6646.00   2.48233342   0.03861806
6648.00   2.43723035   0.03832209
6650.00   2.40683722   0.03810894
6652.00   2.39449573   0.03806271
6654.00   2.35011625   0.03773163
6656.00   2.33541894   0.03758960
6658.00   2.33636594   0.03756579
6660.00   2.31909895   0.03744810
6662.00   2.26003385   0.03709294
6664.00   2.24138188   0.03697547
6666.00   2.21278071   0.03679884
6668.00   2.18766427   0.03663045
6670.00   2.19169116   0.03661634
6672.00   2.19688296   0.03661850
6674.00   2.14773870   0.03621836
6676.00   2.10072255   0.03584639
6678.00   2.07213354   0.03563977
6680.00   2.06687093   0.03564063
6682.00   2.02656436   0.03532861
6684.00   1.99519014   0.03508259
6686.00   1.96097004   0.03482782
6688.00   1.92972982   0.03457936
6690.00   1.89108431   0.03422373
6692.00   1.88446534   0.03414702
6694.00   1.86802149   0.03406124
6696.00   1.85094225   0.03396840
6698.00   1.83342266   0.03387744
6700.00   1.77446365   0.03349961
6702.00   1.77423477   0.03342136
6704.00   1.75358236   0.03329006
6706.00   1.71324861   0.03308408
6708.00   1.67292750   0.03285035
6710.00   1.64911187   0.03262712
6712.00   1.64127636   0.03249367
6714.00   1.60974884   0.03220485
6716.00   1.57257521   0.03186665
6718.00   1.55328131   0.03163636
6720.00   1.50970900   0.03124645
6722.00   1.49194348   0.03108157
6724.00   1.48265648   0.03095794
6726.00   1.46824884   0.03079767
6728.00   1.44041204   0.03055829
6730.00   1.43247414   0.03047015
6732.00   1.40754545   0.03028712
6734.00   1.39204323   0.03015410
6736.00   1.37705421   0.03002271
6738.00   1.33446074   0.02967991
6740.00   1.30407190   0.02941071
6742.00   1.28203428   0.02925511
6744.00   1.26447093   0.02914307
6746.00   1.24625361   0.02895971
6748.00   1.21106005   0.02857860
6750.00   1.20954943   0.02850888
6752.00   1.20282710   0.02842878
6754.00   1.18732798   0.02827542
6756.00   1.16159308   0.02806377
6758.00   1.13513696   0.02778816
6760.00   1.10085845   0.02742365
6762.00   1.07697308   0.02721851
6764.00   1.06293845   0.02710548
6766.00   1.05702543   0.02700850
6768.00   1.04674768   0.02693409
6770.00   1.04353523   0.02685747
6772.00   1.03095627   0.02667705
6774.00   1.00874758   0.02646940
6776.00   0.99767202   0.02648318
6778.00   0.98714805   0.02636077
6780.00   0.98497987   0.02630659
6782.00   0.97101337   0.02616542
6784.00   0.94776154   0.02596715
6786.00   0.92858225   0.02581497
6788.00   0.91348916   0.02558403
6790.00   0.91310984   0.02549894
6792.00   0.90826577   0.02543154
6794.00   0.89377517   0.02531598
6796.00   0.89114922   0.02529357
6798.00   0.89947420   0.02535051
6800.00   0.87723023   0.02514102
6802.00   0.84074801   0.02478615
6804.00   0.81939024   0.02455785
6806.00   0.83277422   0.02464366
6808.00   0.83783865   0.02469736
6810.00   0.83912498   0.02471044
6812.00   0.83779097   0.02471346
6814.00   0.83042908   0.02463953
6816.00   0.80312777   0.02440088
6818.00   0.80722833   0.02434784
6820.00   0.81191111   0.02439516
6822.00   0.80055666   0.02456743
6824.00   0.77833557   0.02503582
6826.00   0.77164429   0.02576536
6828.00   0.78119439   0.02655985
6830.00   0.78761274   0.02726378
6832.00   0.78416389   0.02763382
6834.00   0.77645707   0.02737469
6836.00   0.76011485   0.02656331
6838.00   0.75463098   0.02586099
6840.00   0.76283789   0.02529685
6842.00   0.77805138   0.02483655
6844.00   0.76988554   0.02439725
6846.00   0.76606297   0.02430658
6848.00   0.75581068   0.02409279
6850.00   0.74955875   0.02384984
6852.00   0.75203228   0.02375280
6854.00   0.77256173   0.02402931
6856.00   0.77691102   0.02420760
6858.00   0.75858516   0.02470508
6860.00   0.73884684   0.02567182
6862.00   0.74924010   0.02688830
6864.00   0.76501471   0.02747035
6866.00   0.76250309   0.02848297
6868.00   0.76952124   0.02965216
6870.00   0.77568895   0.03016331
6872.00   0.74771118   0.02931342
6874.00   0.72939318   0.02862778
6876.00   0.75901312   0.02850931
6878.00   0.78998995   0.02813219
6880.00   0.79709202   0.02717896
6882.00   0.80083674   0.02629428
6884.00   0.77628452   0.02592151
6886.00   0.77631301   0.02604806
6888.00   0.78833753   0.02637838
6890.00   0.79621226   0.02667963
6892.00   0.78735286   0.02673545
6894.00   0.78716183   0.02656393
6896.00   0.79453880   0.02653431
6898.00   0.79942203   0.02658889
6900.00   0.79673147   0.02653902
6902.00   0.80753422   0.02631829
6904.00   0.80315191   0.02614228
6906.00   0.80426794   0.02613953
6908.00   0.81316990   0.02621134
6910.00   0.82805520   0.02626351
6912.00   0.82100201   0.02627718
6914.00   0.81463712   0.02623904
6916.00   0.81868839   0.02623547
6918.00   0.82447052   0.02631717
6920.00   0.79048616   0.02620968
6922.00   0.80206996   0.02649442
6924.00   0.82199174   0.02677405
6926.00   0.83199602   0.02681208
6928.00   0.82708913   0.02645553
6930.00   0.84264225   0.02597523
6932.00   0.82552439   0.02531651
6934.00   0.81862873   0.02511501
6936.00   0.81701374   0.02532295
6938.00   0.81764531   0.02570122
6940.00   0.82056242   0.02592868
6942.00   0.81567675   0.02608135
6944.00   0.82118756   0.02640845
6946.00   0.83774716   0.02686128
6948.00   0.85419387   0.02720206
6950.00   0.82527953   0.02680746
6952.00   0.82789499   0.02660493
6954.00   0.82346874   0.02619217
6956.00   0.82365036   0.02561990
6958.00   0.83814716   0.02514437
6960.00   0.85098213   0.02526659
6962.00   0.85758954   0.02527676
6964.00   0.84957200   0.02517544
6966.00   0.83566380   0.02510501
6968.00   0.83556241   0.02519357
6970.00   0.86061621   0.02533250
6972.00   0.85879397   0.02543558
6974.00   0.85257167   0.02574745
6976.00   0.85352445   0.02611794
6978.00   0.84297162   0.02593550
6980.00   0.84965867   0.02592999
6982.00   0.85643619   0.02583868
6984.00   0.85055918   0.02549144
6986.00   0.83846521   0.02502356
6988.00   0.83305281   0.02493267
6990.00   0.83422661   0.02484203
6992.00   0.84230489   0.02487230
6994.00   0.84797090   0.02488292
6996.00   0.84971046   0.02481695
6998.00   0.84499282   0.02493730
7000.00   0.84521008   0.02498997
7002.00   0.84832340   0.02502663
7004.00   0.85313600   0.02512726
7006.00   0.87397128   0.02547349
7008.00   0.86091810   0.02556766
7010.00   0.86318916   0.02546866
7012.00   0.86965299   0.02531017
7014.00   0.86686397   0.02518120
7016.00   0.84672624   0.02519981
7018.00   0.86280614   0.02503843
7020.00   0.86383051   0.02475435
7022.00   0.86402720   0.02463356
7024.00   0.86365110   0.02470655
7026.00   0.81936079   0.02447839
7028.00   0.85390693   0.02496095
7030.00   0.87841749   0.02529478
7032.00   0.88201267   0.02519195
7034.00   0.87648362   0.02478071
7036.00   0.86781144   0.02480540
7038.00   0.86056346   0.02487669
7040.00   0.85002565   0.02481515
7042.00   0.85211605   0.02483036
7044.00   0.86744434   0.02507932
7046.00   0.85824043   0.02521039
7048.00   0.85933542   0.02522304
7050.00   0.85812378   0.02523447
7052.00   0.85599738   0.02527487
7054.00   0.84420782   0.02512605
7056.00   0.84723395   0.02488769
7058.00   0.84578985   0.02465875
7060.00   0.84897953   0.02464365
7062.00   0.84373707   0.02461815
7064.00   0.83478093   0.02447922
7066.00   0.84634966   0.02472744
7068.00   0.85955828   0.02486845
7070.00   0.85059118   0.02469850
7072.00   0.83278847   0.02443539
7074.00   0.84787947   0.02467745
7076.00   0.86809015   0.02489502
7078.00   0.86243916   0.02487308
7080.00   0.85920101   0.02481508
7082.00   0.86539704   0.02477612
7084.00   0.86028957   0.02488089
7086.00   0.84440446   0.02464037
7088.00   0.84339625   0.02456083
7090.00   0.85551363   0.02470011
7092.00   0.87178510   0.02485332
7094.00   0.84665155   0.02447362
7096.00   0.83779675   0.02429803
7098.00   0.84358615   0.02424699
7100.00   0.85538942   0.02430283
7102.00   0.85544920   0.02437484
7104.00   0.84203070   0.02420752
7106.00   0.83668232   0.02412835
7108.00   0.83574224   0.02409950
7110.00   0.84301323   0.02413436
7112.00   0.83718389   0.02402806
7114.00   0.83424878   0.02398121
7116.00   0.83363909   0.02393751
7118.00   0.83087391   0.02394102
7120.00   0.82276994   0.02397508
7122.00   0.85379654   0.02424942
7124.00   0.85701007   0.02424626
7126.00   0.85056370   0.02423337
7128.00   0.84572524   0.02430886
7130.00   0.84806901   0.02443105
7132.00   0.85465556   0.02445695
7134.00   0.84128469   0.02421911
7136.00   0.83735871   0.02408532
7138.00   0.84022909   0.02411233
7140.00   0.83306813   0.02419535
7142.00   0.85811824   0.02457549
7144.00   0.85913539   0.02474236
7146.00   0.86779767   0.02486688
7148.00   0.88089734   0.02495909
7150.00   0.87022203   0.02484483
7152.00   0.86815166   0.02472639
7154.00   0.87036180   0.02468057
7156.00   0.89349765   0.02491731
7158.00   0.91741413   0.02521704
7160.00   0.89575535   0.02501396
7162.00   0.87973195   0.02490729
7164.00   0.89084482   0.02501571
7166.00   0.90435344   0.02535414
7168.00   0.90104198   0.02578554
7170.00   0.89453602   0.02601647
7172.00   0.88658553   0.02640442
7174.00   0.88794398   0.02672139
7176.00   0.89382261   0.02701271
7178.00   0.89885020   0.02731530
7180.00   0.90341395   0.02701836
7182.00   0.90058559   0.02689329
7184.00   0.92008442   0.02738714
7186.00   0.94370490   0.02800712
7188.00   0.93419218   0.02792339
7190.00   0.92888451   0.02755966
7192.00   0.95167369   0.02792997
7194.00   0.96315002   0.02792416
7196.00   0.94950837   0.02739275
7198.00   0.94161350   0.02730736
7200.00   0.96567035   0.02782180
7202.00   0.98456413   0.02819019
7204.00   0.98761910   0.02827896
7206.00   0.99596310   0.02819709
7208.00   1.02124870   0.02788246
7210.00   1.04443800   0.02750860
7212.00   1.04226303   0.02698003
7214.00   1.04115474   0.02662483
7216.00   1.04963589   0.02655455
7218.00   1.05882287   0.02665312
7220.00   1.06811893   0.02669608
7222.00   1.08020055   0.02690919
7224.00   1.09063399   0.02720838
7226.00   1.09986198   0.02746826
7228.00   1.09529912   0.02727745
7230.00   1.09676206   0.02754103
7232.00   1.09409451   0.02840658
7234.00   1.10076332   0.02995364
7236.00   1.13344038   0.03204668
7238.00   1.10681355   0.03348670
7240.00   1.13177431   0.03569158
7242.00   1.16283655   0.03752553
7244.00   1.16036034   0.03787227
7246.00   1.15386546   0.03633234
7248.00   1.16000319   0.03449750
7250.00   1.17509592   0.03326377
7252.00   1.17873073   0.03216713
7254.00   1.17215383   0.03094817
7256.00   1.15278733   0.03013157
7258.00   1.15660286   0.02973107
7260.00   1.19981301   0.02966336
7262.00   1.23581839   0.02969015
7264.00   1.23966455   0.02977649
7266.00   1.20830214   0.02978869
7268.00   1.20100975   0.02955754
7270.00   1.21195114   0.03042579
7272.00   1.23996556   0.03255194
7274.00   1.27877653   0.03513215
7276.00   1.26323283   0.03643055
7278.00   1.23926079   0.03685169
7280.00   1.24596906   0.03675444
7282.00   1.27407229   0.03574748
7284.00   1.28754556   0.03335470
7286.00   1.32096326   0.03237078
7288.00   1.33091986   0.03229864
7290.00   1.32771254   0.03227592
7292.00   1.31618226   0.03179421
7294.00   1.31722450   0.03125549
7296.00   1.32968390   0.03100778
7298.00   1.33084857   0.03098845
7300.00   1.34220791   0.03149712
7302.00   1.37498987   0.03234317
7304.00   1.34099638   0.03217770
7306.00   1.33983946   0.03171412
7308.00   1.35460818   0.03169369
7310.00   1.37846899   0.03240219
7312.00   1.39864397   0.03363462
7314.00   1.38126993   0.03476839
7316.00   1.40983999   0.03564998
7318.00   1.42828465   0.03588409
7320.00   1.42403948   0.03516985
7322.00   1.40974331   0.03349194
7324.00   1.41339529   0.03168807
7326.00   1.42841017   0.03155642
7328.00   1.42841876   0.03175789
7330.00   1.42699909   0.03185351
7332.00   1.44236946   0.03217684
7334.00   1.47239637   0.03254909
7336.00   1.47356880   0.03336162
7338.00   1.46286392   0.03434663
7340.00   1.47032499   0.03515526
7342.00   1.48068845   0.03532351
7344.00   1.49895239   0.03531591
7346.00   1.49309731   0.03413366
7348.00   1.49261057   0.03240725
7350.00   1.51171350   0.03113960
7352.00   1.52459335   0.03107610
7354.00   1.49286175   0.03126944
7356.00   1.47782123   0.03165396
7358.00   1.48493004   0.03195629
7360.00   1.49578381   0.03204965
7362.00   1.49903405   0.03218999
7364.00   1.47138655   0.03239385
7366.00   1.48301113   0.03312967
7368.00   1.50208569   0.03382132
7370.00   1.46212959   0.03361905
7372.00   1.47123325   0.03333470
7374.00   1.47572744   0.03268092
7376.00   1.47503459   0.03159654
7378.00   1.47336805   0.03048837
7380.00   1.47265661   0.03001109
7382.00   1.46937037   0.02982070
7384.00   1.46463394   0.02973261
7386.00   1.45049989   0.03011877
7388.00   1.43881166   0.03105270
7390.00   1.47670889   0.03218712
7392.00   1.45412922   0.03236486
7394.00   1.45003140   0.03239343
7396.00   1.45971537   0.03237492
7398.00   1.46182501   0.03226155
7400.00   1.40368891   0.03178708
7402.00   1.40235507   0.03167556
7404.00   1.42010880   0.03170355
7406.00   1.43088913   0.03151846
7408.00   1.42676401   0.03084141
7410.00   1.41797543   0.02958868
7412.00   1.42618120   0.02921063
7414.00   1.42421067   0.03192110
7416.00   1.41001022   0.03536344
7418.00   1.39572394   0.02880902
7420.00   1.38602066   0.03687146
7422.00   1.37268960   0.03476621
7424.00   1.36658001   0.03290156
7426.00   1.37519825   0.03248351
7428.00   1.37865067   0.03241208
7430.00   1.35618627   0.03163826
7432.00   1.35523617   0.03142677
7434.00   1.36712754   0.03219713
7436.00   1.37360275   0.03343130
7438.00   1.36795521   0.03403883
7440.00   1.39110994   0.03214503
7442.00   1.39901495   0.03070664
7444.00   1.38846540   0.03034513
7446.00   1.36032116   0.03017302
7448.00   1.34402120   0.02948179
7450.00   1.36083376   0.02914700
7452.00   1.36561203   0.02900532
7454.00   1.35179484   0.02891696
7456.00   1.35015583   0.02894280
7458.00   1.38838708   0.02948202
7460.00   1.40791130   0.02981509
7462.00   1.39812422   0.03027018
7464.00   1.37828696   0.03061689
7466.00   1.39145565   0.03047335
7468.00   1.38038290   0.03048480
7470.00   1.39724481   0.03339893
7472.00   1.39965296   0.03426274
7474.00   1.39385426   0.03271186
7476.00   1.45477581   0.03275741
7478.00   1.44259584   0.03183915
7480.00   1.43366718   0.03129821
7482.00   1.43119633   0.03118362
7484.00   1.44093096   0.03119427
7486.00   1.45088637   0.03081063
7488.00   1.44397295   0.03032213
7490.00   1.44486535   0.02999651
7492.00   1.45265627   0.02986585
7494.00   1.44869626   0.02978232
7496.00   1.44919956   0.02978102
7498.00   1.45684814   0.02978200
7500.00   1.45453870   0.02970601
7502.00   1.45216954   0.02960637
7504.00   1.47363079   0.02964378
7506.00   1.48724473   0.02969849
7508.00   1.49476993   0.02970868
7510.00   1.50899506   0.02977284
7512.00   1.51634884   0.02984796
7514.00   1.50745821   0.02989099
7516.00   1.50816762   0.03005332
7518.00   1.52744520   0.03087333
7520.00   1.54601729   0.03206611
7522.00   1.55094850   0.03308787
7524.00   1.54306889   0.03337248
7526.00   1.53074265   0.03346622
7528.00   1.55016005   0.03340370
7530.00   1.57769144   0.03283976
7532.00   1.59198987   0.03182860
7534.00   1.59527588   0.03136745
7536.00   1.57555342   0.03100494
7538.00   1.55724382   0.03069170
7540.00   1.56295526   0.03057618
7542.00   1.59110963   0.03069274
7544.00   1.58245087   0.03058591
7546.00   1.57138360   0.03044554
7548.00   1.56707442   0.03033089
7550.00   1.57142019   0.03032636
7552.00   1.58620036   0.03053662
7554.00   1.58551085   0.03080711
7556.00   1.59040606   0.03105069
7558.00   1.59294283   0.03112361
7560.00   1.58513451   0.03104359
7562.00   1.58107293   0.03103544
7564.00   1.59031427   0.03114449
7566.00   1.59111881   0.03134628
7568.00   1.58189237   0.03191285
7570.00   1.57882118   0.03263584
7572.00   1.58043230   0.03276943
7574.00   1.58554709   0.03271303
7576.00   1.57646596   0.03228700
7578.00   1.57373536   0.03157352
7580.00   1.57994545   0.03089894
7582.00   1.56798553   0.03090524
7584.00   1.56514227   0.03112778
7586.00   1.58437216   0.03147518
7588.00   1.58736050   0.03152597
7590.00   1.54300165   0.03116272
7592.00   1.55049133   0.03161658
7594.00   1.60140026   0.03471209
7596.00   1.61552620   0.03936775
7598.00   1.54998982   0.04437472
7600.00   1.42281878   0.04938045
7602.00   1.38009214   0.05687388
7604.00   1.38302803   0.06284905
7606.00   1.35993755   0.06442615
7608.00   1.32890463   0.06222861
7610.00   1.37277317   0.05978510
7612.00   1.39468193   0.05542400
7614.00   1.38309896   0.04918608
7616.00   1.36177254   0.04250637
7618.00   1.35334909   0.03748285
7620.00   1.37830544   0.03593579
7622.00   1.40634072   0.03689229
7624.00   1.38788736   0.03855827
7626.00   1.35703146   0.04042863
7628.00   1.34728301   0.04226265
7630.00   1.34759188   0.04357936
7632.00   1.32851660   0.04342614
7634.00   1.31695569   0.04232062
7636.00   1.30403340   0.04074171
7638.00   1.29541659   0.03927566
7640.00   1.26670349   0.03786576
7642.00   1.26597726   0.03717030
7644.00   1.26545966   0.03636126
7646.00   1.25054872   0.03537405
7648.00   1.21682990   0.03464551
7650.00   1.20908904   0.03405797
7652.00   1.19093609   0.03320784
7654.00   1.17806733   0.03240931
7656.00   1.17759466   0.03189226
7658.00   1.19491899   0.03170071
7660.00   1.18596220   0.03152615
7662.00   1.18234742   0.03111345
7664.00   1.18011510   0.03072464
7666.00   1.17806911   0.03040436
7668.00   1.15355825   0.02950217
7670.00   1.16840982   0.02900454
7672.00   1.17762041   0.02867471
7674.00   1.16568506   0.02828204
7676.00   1.14162171   0.02786915
7678.00   1.16124499   0.02814281
7680.00   1.17455065   0.02807937
7682.00   1.17929399   0.02801419
7684.00   1.18204916   0.02806333
7686.00   1.18283498   0.02811596
7688.00   1.17894304   0.02807642
7690.00   1.17338908   0.02788048
7692.00   1.17391253   0.02778548
7694.00   1.17694294   0.02792566
7696.00   1.18226111   0.02832660
7698.00   1.19698536   0.02863513
7700.00   1.21265686   0.02870411
7702.00   1.21426070   0.02848478
7704.00   1.21779311   0.02835255
7706.00   1.24506223   0.02889754
7708.00   1.25870299   0.03034745
7710.00   1.25618994   0.03244977
7712.00   1.25146627   0.03474056
7714.00   1.25097454   0.03660810
7716.00   1.26829255   0.03742119
7718.00   1.28776968   0.03680386
7720.00   1.31417978   0.03549264
7722.00   1.32024634   0.03384249
7724.00   1.30344486   0.03215111
7726.00   1.30766571   0.03071428
7728.00   1.33483064   0.03044588
7730.00   1.36443031   0.03038473
7732.00   1.37056303   0.02997720
7734.00   1.36346245   0.02941779
7736.00   1.38547862   0.02970559
7738.00   1.39096129   0.02978595
7740.00   1.40348566   0.02968118
7742.00   1.41497982   0.02971138
7744.00   1.41065311   0.03050126
7746.00   1.43992555   0.03329781
7748.00   1.45418680   0.03594339
7750.00   1.46705234   0.03724837
7752.00   1.48988926   0.03733906
7754.00   1.50714588   0.03727738
7756.00   1.50931728   0.03642494
7758.00   1.53218746   0.03481839
7760.00   1.55862892   0.03362530
7762.00   1.55238307   0.03331073
7764.00   1.55829203   0.03312326
7766.00   1.55299246   0.03214544
7768.00   1.56795084   0.03147026
7770.00   1.58364427   0.03147368
7772.00   1.58472633   0.03194620
7774.00   1.59812224   0.03215332
7776.00   1.62442982   0.03294100
7778.00   1.63076270   0.03340035
7780.00   1.63903105   0.03340641
7782.00   1.65619040   0.03316666
7784.00   1.64396608   0.03286357
7786.00   1.65692902   0.03271577
7788.00   1.68336523   0.03350871
7790.00   1.69233644   0.03512119
7792.00   1.66337860   0.03667707
7794.00   1.65884793   0.03708716
7796.00   1.67299688   0.03707953
7798.00   1.69417727   0.03646266
7800.00   1.70337141   0.03499836
7802.00   1.70391715   0.03300166
7804.00   1.69045722   0.03296391
7806.00   1.69599724   0.03369800
7808.00   1.72046292   0.03434132
7810.00   1.74713290   0.03455688
7812.00   1.71723425   0.03442988
7814.00   1.71886384   0.03395418
7816.00   1.74847901   0.03486818
7818.00   1.77439880   0.03679008
7820.00   1.77962732   0.03841633
7822.00   1.76711619   0.03854405
7824.00   1.75839484   0.03838301
7826.00   1.76221454   0.03730746
7828.00   1.75778973   0.03519414
7830.00   1.72032821   0.03271720
7832.00   1.71915495   0.03223084
7834.00   1.74079955   0.03248866
7836.00   1.74933684   0.03302361
7838.00   1.72954559   0.03351985
7840.00   1.70897424   0.03390216
7842.00   1.70747793   0.03388393
7844.00   1.71177900   0.03384974
7846.00   1.70573604   0.03404726
7848.00   1.69566345   0.03498761
7850.00   1.69967043   0.03718640
7852.00   1.68360865   0.03849662
7854.00   1.67318344   0.03910018
7856.00   1.68837392   0.03941073
7858.00   1.71516931   0.03924227
7860.00   1.68440831   0.03688325
7862.00   1.67358971   0.03542235
7864.00   1.66705990   0.03504324
7866.00   1.65735722   0.03535241
7868.00   1.64576447   0.03565575
7870.00   1.66446555   0.03573460
7872.00   1.67042017   0.03569393
7874.00   1.64119911   0.03545910
7876.00   1.58856308   0.03489960
7878.00   1.56349790   0.03414214
7880.00   1.57572222   0.03393577
7882.00   1.57548559   0.03406949
7884.00   1.58376253   0.03461226
7886.00   1.58285558   0.03516599
7888.00   1.55099678   0.03518466
7890.00   1.53611279   0.03514822
7892.00   1.53798008   0.03525705
7894.00   1.53170443   0.03467234
7896.00   1.51246870   0.03311533
7898.00   1.49949694   0.03158200
7900.00   1.50669384   0.03119222
7902.00   1.51094055   0.03106990
7904.00   1.49557102   0.03083196
7906.00   1.46994030   0.03096771
7908.00   1.47912157   0.03326126
7910.00   1.46447086   0.03642396
7912.00   1.43510771   0.03828391
7914.00   1.40462434   0.03902194
7916.00   1.40830743   0.03970196
7918.00   1.42197311   0.03982808
7920.00   1.41074991   0.03746950
7922.00   1.37517512   0.03472621
7924.00   1.34744179   0.03326832
7926.00   1.35589969   0.03341817
7928.00   1.35627687   0.03307096
7930.00   1.32006013   0.03247421
7932.00   1.28451550   0.03194030
7934.00   1.28337181   0.03161089
7936.00   1.29599094   0.03103653
7938.00   1.28886282   0.03002756
7940.00   1.26624644   0.02901568
7942.00   1.24504423   0.02862356
7944.00   1.23774874   0.02910396
7946.00   1.23619175   0.02998478
7948.00   1.22100937   0.03024874
7950.00   1.20684218   0.03017403
7952.00   1.19342089   0.02988863
7954.00   1.17127001   0.02931779
7956.00   1.15050924   0.02820800
7958.00   1.14344466   0.02852701
7960.00   1.13519609   0.03081054
7962.00   1.11114562   0.03333580
7964.00   1.08357430   0.03439482
7966.00   1.07576323   0.03431029
7968.00   1.05813825   0.03363376
7970.00   1.05487812   0.03189010
7972.00   1.06089127   0.02960196
7974.00   1.04669237   0.02834752
7976.00   1.03044331   0.02901413
7978.00   0.99938869   0.02936562
7980.00   0.97648048   0.02943855
7982.00   0.96985584   0.02927908
7984.00   0.95711821   0.02851853
7986.00   0.96144009   0.02765761
7988.00   0.94190425   0.02855297
7990.00   0.91330642   0.03075796
7992.00   0.89308470   0.03272464
7994.00   0.90217584   0.03304157
7996.00   0.88253164   0.03289033
7998.00   0.86499864   0.03135465
8000.00   0.85112238   0.02850410
8002.00   0.84049767   0.02543372
8004.00   0.80337191   0.02456403
8006.00   0.80510718   0.02448431
8008.00   0.80169159   0.02475848
8010.00   0.78095728   0.02520528
8012.00   0.76543593   0.02580011
8014.00   0.76979607   0.02607587
8016.00   0.75393814   0.02603307
8018.00   0.73374772   0.02587752
8020.00   0.72076511   0.02627014
8022.00   0.70349312   0.02772719
8024.00   0.69927913   0.02905854
8026.00   0.67619258   0.02931369
8028.00   0.66191798   0.02913518
8030.00   0.65832561   0.02846465
8032.00   0.61696059   0.02582435
8034.00   0.61390728   0.02353931
8036.00   0.60024601   0.02216492
8038.00   0.58433896   0.02162869
8040.00   0.57503700   0.02146010
8042.00   0.57230312   0.02153756
8044.00   0.56756359   0.02154738
8046.00   0.55461925   0.02170381
8048.00   0.53563088   0.02201655
8050.00   0.52110785   0.02234665
8052.00   0.50635612   0.02214607
8054.00   0.49082160   0.02196202
8056.00   0.48577428   0.02217832
8058.00   0.48306838   0.02269367
8060.00   0.46469817   0.02306361
8062.00   0.45025086   0.02312339
8064.00   0.41990316   0.02287945
8066.00   0.42400169   0.02249401
8068.00   0.43516687   0.02152918
8070.00   0.39723539   0.01957889
8072.00   0.38468966   0.01886509
8074.00   0.36933395   0.01864851
8076.00   0.35935852   0.01858194
8078.00   0.35240984   0.01844519
8080.00   0.33884767   0.01840763
8082.00   0.32150245   0.01828068
8084.00   0.31859544   0.01821159
8086.00   0.31928492   0.01818989
8088.00   0.30603597   0.01814171
8090.00   0.29554239   0.01827068
8092.00   0.29884675   0.01843983
8094.00   0.29813457   0.01839141
8096.00   0.28952929   0.01837072
8098.00   0.28408375   0.01880938
8100.00   0.28016698   0.01914640
8102.00   0.25773701   0.01892440
8104.00   0.24708189   0.01879194
8106.00   0.25071862   0.01874322
8108.00   0.24675222   0.01823177
8110.00   0.23519178   0.01738460
8112.00   0.22806565   0.01687246
8114.00   0.22940512   0.01673848
8116.00   0.22828822   0.01671670
8118.00   0.21447490   0.01657028
8120.00   0.19891363   0.01637376
8122.00   0.18973337   0.01622463
8124.00   0.18566342   0.01609157
8126.00   0.18384416   0.01600025
8128.00   0.17954658   0.01597852
8130.00   0.17457171   0.01613237
8132.00   0.17143436   0.01639777
8134.00   0.17054285   0.01670592
8136.00   0.16977398   0.01690037
8138.00   0.16346715   0.01684355
8140.00   0.16771536   0.01703423
8142.00   0.16306031   0.01711977
8144.00   0.14979188   0.01694415
8146.00   0.14036793   0.01669745
8148.00   0.15611200   0.01714578
8150.00   0.15188599   0.01730611
8152.00   0.14521593   0.01704153
8154.00   0.13775541   0.01643717
8156.00   0.12467953   0.01576864
8158.00   0.13082351   0.01575472
8160.00   0.13852151   0.01605566
8162.00   0.14135335   0.01646585
8164.00   0.14216244   0.01674919
8166.00   0.14530234   0.01660899
8168.00   0.13377088   0.01656510
8170.00   0.12876944   0.01647783
8172.00   0.13004093   0.01617313
8174.00   0.13330643   0.01596268
8176.00   0.12130562   0.01657529
8178.00   0.12986301   0.01865981
8180.00   0.12686460   0.02009149
8182.00   0.11286678   0.02055143
8184.00   0.09829249   0.02042491
8186.00   0.10720462   0.02058821
8188.00   0.11416922   0.02102932
8190.00   0.11955848   0.02160981
8192.00   0.11778333   0.02214447
8194.00   0.10602391   0.02235842
8196.00   0.10368976   0.02216593
8198.00   0.10481443   0.02208639
8200.00   0.12238944   0.02132382
8202.00   0.13233082   0.01951843
8204.00   0.11329126   0.01733523
8206.00   0.10792836   0.01648082
8208.00   0.11730977   0.01623275
8210.00   0.11109162   0.01591124
8212.00   0.09268401   0.01537101
8214.00   0.10401372   0.01526869
8216.00   0.10540537   0.01515578
8218.00   0.09987372   0.01493653
8220.00   0.09225514   0.01470244
8222.00   0.09319046   0.01472684
8224.00   0.09911367   0.01486260
8226.00   0.09549653   0.01563159
8228.00   0.08953115   0.01642565
8230.00   0.08744329   0.01683648
8232.00   0.08845783   0.01655228
8234.00   0.09295487   0.01598333
8236.00   0.09153972   0.01526883
8238.00   0.08516514   0.01463673
8240.00   0.08150209   0.01437268
8242.00   0.08964510   0.01467326
8244.00   0.08641919   0.01503162
8246.00   0.09331056   0.01494511
8248.00   0.09276319   0.01457784
8250.00   0.08879366   0.01427134
8252.00   0.09792992   0.01435095
8254.00   0.10223616   0.01446041
8256.00   0.09388825   0.01437089
8258.00   0.08193064   0.01420937
8260.00   0.07508975   0.01413087
8262.00   0.06839243   0.01392198
8264.00   0.08112151   0.01395350
8266.00   0.09520805   0.01400332
8268.00   0.09811602   0.01392242
8270.00   0.09275796   0.01394583
8272.00   0.09673214   0.01479234
8274.00   0.08936713   0.01662725
8276.00   0.08279154   0.01965839
8278.00   0.08320749   0.02258910
8280.00   0.07886172   0.02433779
8282.00   0.08203449   0.02563933
8284.00   0.09648070   0.02747916
8286.00   0.09610402   0.02836247
8288.00   0.08553145   0.02781946
8290.00   0.08846786   0.02653394
8292.00   0.09918614   0.02705995
8294.00   0.09829053   0.02791568
8296.00   0.08942250   0.02825432
8298.00   0.08458481   0.02800788
8300.00   0.09658372   0.02780558
8302.00   0.12858532   0.02716974
8304.00   0.13852681   0.02460864
8306.00   0.12591192   0.02116959
8308.00   0.10569049   0.01873527
8310.00   0.10506477   0.01874380
8312.00   0.11709463   0.01903483
8314.00   0.12002152   0.01882399
8316.00   0.11574898   0.01788660
8318.00   0.11521336   0.01652320
8320.00   0.12977272   0.01587992
8322.00   0.12510087   0.01554864
8324.00   0.12321197   0.01505894
8326.00   0.12801483   0.01466156
8328.00   0.13573787   0.01476490
8330.00   0.13606851   0.01473581
8332.00   0.13385296   0.01471233
8334.00   0.12653868   0.01483673
8336.00   0.11956004   0.01615507
8338.00   0.13100404   0.02020598
8340.00   0.17572403   0.02872281
8342.00   0.19131398   0.03504085
8344.00   0.17777687   0.03766711
8346.00   0.17333263   0.03748833
8348.00   0.19292550   0.03668414
8350.00   0.17847061   0.03395692
8352.00   0.15767740   0.02853877
8354.00   0.15465598   0.02403553
8356.00   0.16488130   0.02324516
8358.00   0.15576489   0.02209495
8360.00   0.17023146   0.01999563
8362.00   0.17676628   0.01918429
8364.00   0.16987158   0.01933984
8366.00   0.15984476   0.01933223
8368.00   0.17039430   0.01899653
8370.00   0.18404399   0.01791399
8372.00   0.19011600   0.01662374
8374.00   0.19219835   0.01606873
8376.00   0.20152251   0.01718988
8378.00   0.21365206   0.01992618
8380.00   0.21361494   0.02164419
8382.00   0.21706645   0.02232214
8384.00   0.22028542   0.02218724
8386.00   0.22771887   0.02163101
8388.00   0.22389680   0.01970108
8390.00   0.22272985   0.01755194
8392.00   0.23140578   0.01793922
8394.00   0.23985422   0.02231739
8396.00   0.24187191   0.02899764
8398.00   0.25174880   0.03110552
8400.00   0.26408136   0.03188471
8402.00   0.28262317   0.03156279
8404.00   0.29525739   0.02921665
8406.00   0.28182086   0.02254506
8408.00   0.27491900   0.01851060
8410.00   0.28226188   0.01937408
8412.00   0.29201183   0.02208375
8414.00   0.29948267   0.02337187
8416.00   0.30044854   0.02307777
8418.00   0.29730889   0.02290699
8420.00   0.29616633   0.02174868
8422.00   0.30872425   0.02043805
8424.00   0.34312949   0.02166598
8426.00   0.33750203   0.02777039
8428.00   0.34347284   0.03186932
8430.00   0.35660896   0.03343070
8432.00   0.37360778   0.03319778
8434.00   0.38122609   0.03222829
8436.00   0.38642338   0.02736154
8438.00   0.39663088   0.02214251
8440.00   0.40395638   0.01883494
8442.00   0.41062546   0.01835582
8444.00   0.43702802   0.01891224
8446.00   0.46426049   0.02017672
8448.00   0.48368546   0.02227404
8450.00   0.49441233   0.02405621
8452.00   0.49842682   0.02482460
8454.00   0.50663227   0.02486665
8456.00   0.51980847   0.02438100
8458.00   0.53513503   0.02401404
8460.00   0.54754549   0.02510535
8462.00   0.55647975   0.02816891
#8464.00   0.49487224   0.03228203
8466.00   0.56114459   0.03183109
8468.00   0.59987932   0.03175899
8470.00   0.62950706   0.03031832
#8472.00   0.68332314   0.02651481
8474.00   0.63891476   0.02281730
8476.00   0.67483920   0.02931122
8478.00   0.70160347   0.02475777
8480.00   0.72116131   0.02268170
8482.00   0.73064917   0.02247218
8484.00   0.74797207   0.02251397
8486.00   0.74930316   0.02277837
8488.00   0.75004953   0.02360174
8490.00   0.76443338   0.02493326
8492.00   0.80545396   0.02617253
8494.00   0.82476979   0.02651903
8496.00   0.82471341   0.02648260
8498.00   0.82258779   0.02663852
8500.00   0.83142900   0.02743837
8502.00   0.86270690   0.02904320
8504.00   0.88383985   0.02972236
8506.00   0.89500111   0.02988996
8508.00   0.89919734   0.02944651
8510.00   0.90204400   0.02810732
8512.00   0.91604573   0.02583726
8514.00   0.91562462   0.02458881
8516.00   0.92520791   0.02441586
8518.00   0.94835430   0.02474438
8520.00   0.96969891   0.02492208
8522.00   0.97459745   0.02499206
8524.00   0.96880800   0.02490984
8526.00   0.98185104   0.02500229
8528.00   0.99412543   0.02506812
8530.00   0.99138451   0.02497490
8532.00   1.01838696   0.02537568
8534.00   1.01886106   0.02585923
8536.00   1.01111019   0.02621939
8538.00   1.01634252   0.02639883
8540.00   1.03547680   0.02653541
8542.00   1.04138267   0.02683556
8544.00   1.04132664   0.02736882
8546.00   1.05254090   0.02794372
8548.00   1.07333612   0.02829072
8550.00   1.06584215   0.02823910
8552.00   1.07197094   0.02807480
8554.00   1.08076584   0.02746181
8556.00   1.09388673   0.02666691
8558.00   1.10586274   0.02616031
8560.00   1.10695112   0.02597795
8562.00   1.10607660   0.02595206
8564.00   1.12376750   0.02612047
8566.00   1.13849878   0.02625963
8568.00   1.10952890   0.02604126
8570.00   1.11606300   0.02619427
8572.00   1.12650108   0.02639208
8574.00   1.13169134   0.02646100
8576.00   1.12515771   0.02635960
8578.00   1.13736045   0.02644802
8580.00   1.15296400   0.02648078
8582.00   1.15074408   0.02653664
8584.00   1.14804888   0.02670149
8586.00   1.15700305   0.02695207
8588.00   1.16890049   0.02714746
8590.00   1.14465082   0.02704155
8592.00   1.14083576   0.02723447
8594.00   1.14550602   0.02745096
8596.00   1.14152682   0.02738361
8598.00   1.14424169   0.02728653
8600.00   1.16588366   0.02740105
8602.00   1.17613304   0.02721649
8604.00   1.16784847   0.02677570
8606.00   1.15356243   0.02646568
8608.00   1.17391074   0.02675438
8610.00   1.18958342   0.02709733
8612.00   1.17985964   0.02734554
8614.00   1.16103971   0.02768215
8616.00   1.16568696   0.02835188
8618.00   1.15909147   0.02911311
8620.00   1.15919495   0.02996393
8622.00   1.15606272   0.03075656
8624.00   1.14490891   0.03140865
8626.00   1.13492239   0.03199713
8628.00   1.15079093   0.03262705
8630.00   1.15843403   0.03290834
8632.00   1.16678274   0.03289683
8634.00   1.18120122   0.03264313
8636.00   1.16635180   0.03195337
8638.00   1.14890575   0.03099556
8640.00   1.14651966   0.03000406
8642.00   1.15423775   0.02922593
8644.00   1.15521717   0.02890262
8646.00   1.15711796   0.02930110
8648.00   1.14960182   0.02996553
8650.00   1.15687990   0.03092001
8652.00   1.16654813   0.03191694
8654.00   1.15362799   0.03257674
8656.00   1.15559244   0.03256429
8658.00   1.18135393   0.03331548
8660.00   1.17107892   0.03470348
8662.00   1.14576495   0.03517381
8664.00   1.16793215   0.03388252
8666.00   1.13055909   0.03388651
8668.00   1.14324796   0.03484908
8670.00   1.17243814   0.03431764
8672.00   1.18419683   0.03268591
8674.00   1.18633974   0.03228844
8676.00   1.15898705   0.03120755
8678.00   1.16139317   0.02965179
8680.00   1.17819881   0.02864050
8682.00   1.17707443   0.02835935
8684.00   1.16071928   0.02779003
8686.00   1.15729797   0.02748287
8688.00   1.17168522   0.02732842
8690.00   1.19296956   0.02728193
8692.00   1.20653689   0.02727342
8694.00   1.19990242   0.02709400
8696.00   1.18616927   0.02698536
8698.00   1.17925620   0.02692219
8700.00   1.18294287   0.02693545
8702.00   1.19105804   0.02704467
8704.00   1.21316755   0.02728223
8706.00   1.20526779   0.02712237
8708.00   1.19814825   0.02694715
8710.00   1.19302642   0.02679657
8712.00   1.17073822   0.02647637
8714.00   1.18778169   0.02640566
8716.00   1.21201777   0.02649482
8718.00   1.23424721   0.02662224
8720.00   1.23764753   0.02665664
8722.00   1.22988307   0.02668067
8724.00   1.23074639   0.02675521
8726.00   1.21733713   0.02666858
8728.00   1.20634687   0.02655269
8730.00   1.20906198   0.02652927
8732.00   1.23178089   0.02676277
8734.00   1.23053014   0.02677866
8736.00   1.23244524   0.02679907
8738.00   1.22934449   0.02676864
8740.00   1.21444559   0.02665512
8742.00   1.21717155   0.02672918
8744.00   1.23897934   0.02695104
8746.00   1.23878610   0.02693947
8748.00   1.23064291   0.02683925
8750.00   1.25311053   0.02708329
8752.00   1.24821770   0.02726695
8754.00   1.24452829   0.02855158
8756.00   1.25477958   0.03116269
8758.00   1.27342093   0.03410516
8760.00   1.26530087   0.03593373
8762.00   1.24957466   0.03814386
8764.00   1.25395870   0.04034673
8766.00   1.27671826   0.04087461
8768.00   1.28942072   0.03934754
8770.00   1.26390982   0.03781317
8772.00   1.26374352   0.03804603
8774.00   1.27276576   0.03852686
8776.00   1.27249777   0.03868945
8778.00   1.27297115   0.03856543
8780.00   1.29842246   0.03838874
8782.00   1.29580271   0.03642071
8784.00   1.29859257   0.03331532
8786.00   1.31919158   0.03081765
8788.00   1.33720207   0.03061256
8790.00   1.34643352   0.03144017
8792.00   1.32112992   0.03141305
8794.00   1.31575680   0.03108932
8796.00   1.33432734   0.03042745
8798.00   1.35235035   0.02909534
8800.00   1.32253921   0.02770522
8802.00   1.32506049   0.02746533
8804.00   1.34907496   0.02795018
8806.00   1.36593378   0.02842712
8808.00   1.36272848   0.02838978
8810.00   1.35983503   0.02831348
8812.00   1.34343636   0.02812544
8814.00   1.33526957   0.02796309
8816.00   1.34747350   0.02799127
8818.00   1.35812938   0.02822299
8820.00   1.37880147   0.03095873
8822.00   1.36219656   0.03755351
8824.00   1.33557165   0.04385206
8826.00   1.35274684   0.04702796
8828.00   1.40086687   0.04752170
8830.00   1.37879193   0.04754563
8832.00   1.33801460   0.04544574
8834.00   1.32616961   0.04149063
8836.00   1.33567619   0.03744517
8838.00   1.33395445   0.03643893
8840.00   1.36164761   0.03547827
8842.00   1.37654984   0.03325478
8844.00   1.35935843   0.03057702
8846.00   1.35149586   0.03017825
8848.00   1.35445511   0.03068856
8850.00   1.36817610   0.03122412
8852.00   1.37879145   0.03140460
8854.00   1.38073003   0.03105631
8856.00   1.37736595   0.03004968
8858.00   1.37974441   0.02961816
8860.00   1.39981079   0.02995042
8862.00   1.40380251   0.03130332
8864.00   1.37697506   0.03333140
8866.00   1.38334715   0.03512150
8868.00   1.36176813   0.03641844
8870.00   1.36583984   0.03592752
8872.00   1.38909769   0.03338431
8874.00   1.39582074   0.03045959
8876.00   1.36733198   0.02834891
8878.00   1.35869610   0.02818760
8880.00   1.35949004   0.03278311
8882.00   1.35132372   0.03916462
8884.00   1.33435404   0.04323269
8886.00   1.35506546   0.04538812
8888.00   1.36860502   0.04680671
8890.00   1.36128390   0.04423125
8892.00   1.34306383   0.03694170
8894.00   1.32889998   0.03079772
8896.00   1.31526220   0.02983667
8898.00   1.31014490   0.03157463
8900.00   1.31336939   0.03338634
8902.00   1.32625031   0.03435966
8904.00   1.33945894   0.03453320
8906.00   1.31019962   0.03423584
8908.00   1.29107094   0.03257142
8910.00   1.30258632   0.03021382
8912.00   1.32972813   0.02927062
8914.00   1.32272637   0.03296997
8916.00   1.31932771   0.03900043
8918.00   1.30263162   0.04254485
8920.00   1.29633725   0.04353470
8922.00   1.31173599   0.04302126
8924.00   1.33809435   0.04085593
8926.00   1.32806456   0.03574541
8928.00   1.31966686   0.03081285
8930.00   1.30222619   0.02837130
8932.00   1.26845121   0.02842440
8934.00   1.26843297   0.02815280
8936.00   1.27437651   0.02849699
8938.00   1.26362133   0.03004179
8940.00   1.24309552   0.03220363
8942.00   1.25515711   0.03369499
8944.00   1.25521863   0.03408876
8946.00   1.26785266   0.03411564
8948.00   1.25772691   0.03292899
8950.00   1.23307765   0.03123150
8952.00   1.23518205   0.03227159
8954.00   1.23732722   0.03815696
8956.00   1.22075784   0.04129443
8958.00   1.19701874   0.04192429
8960.00   1.19223773   0.04188192
8962.00   1.21003342   0.04222628
8964.00   1.19579053   0.03781464
8966.00   1.15821934   0.03212233
8968.00   1.14328778   0.02865485
8970.00   1.18170202   0.02910781
8972.00   1.20564806   0.02977353
8974.00   1.15942097   0.02911915
8976.00   1.12118232   0.02833480
8978.00   1.13344526   0.02829975
8980.00   1.17752874   0.02902526
8982.00   1.15839589   0.02906192
8984.00   1.13447940   0.03078795
8986.00   1.15927923   0.03430682
8988.00   1.20451319   0.03793656
8990.00   1.12731981   0.03900709
8992.00   1.04179811   0.03638133
8994.00   1.00900328   0.03258683
8996.00   1.02357602   0.03143378
8998.00   1.08199167   0.03437668
9000.00   1.14967060   0.03768899
9002.00   1.11084330   0.03875752
9004.00   1.08055341   0.03897921
9006.00   1.07531691   0.03742008
9008.00   1.07980192   0.03344192
9010.00   1.06809902   0.02987097
9012.00   1.06772542   0.02823604
9014.00   1.08035374   0.02831653
9016.00   1.08357656   0.02868508
9018.00   1.04134524   0.02795353
9020.00   0.98975796   0.02752019
9022.00   0.99250728   0.02824400
9024.00   1.00465679   0.02893797
9026.00   0.99041051   0.02865662
9028.00   0.95013303   0.02696764
9030.00   0.93720055   0.02606638
9032.00   0.95201653   0.02640167
9034.00   0.96676749   0.02697166
9036.00   0.97001177   0.02711031
9038.00   0.97774535   0.02716474
9040.00   0.98511839   0.02765417
9042.00   0.96933681   0.02785814
9044.00   0.95392865   0.02816811
9046.00   0.95435852   0.02884056
9048.00   0.93414670   0.02926514
9050.00   0.92374611   0.02957062
9052.00   0.92622119   0.02973328
9054.00   0.92383033   0.02892459
9056.00   0.90318221   0.02672548
9058.00   0.91126138   0.02519507
9060.00   0.92593002   0.02545064
9062.00   0.91766524   0.02576320
9064.00   0.88818336   0.02558476
9066.00   0.86062175   0.02534612
9068.00   0.88968927   0.02620562
9070.00   0.92330390   0.02719553
9072.00   0.89527345   0.02711805
9074.00   0.82925272   0.02595496
9076.00   0.81633383   0.02494329
9078.00   0.85723966   0.02554402
9080.00   0.86493635   0.02614820
9082.00   0.84162706   0.02595063
9084.00   0.81504679   0.02533841
9086.00   0.83961207   0.02597440
9088.00   0.84558487   0.02617072
9090.00   0.82682556   0.02605801
9092.00   0.80989438   0.02589905
9094.00   0.80953807   0.02591391
9096.00   0.81924367   0.02626055
9098.00   0.84252286   0.02781109
9100.00   0.83582085   0.02845143
9102.00   0.81543970   0.02829224
9104.00   0.81958741   0.02833259
9106.00   0.82385749   0.02910415
9108.00   0.82494038   0.02768826
9110.00   0.81187934   0.02544795
9112.00   0.80240899   0.02376491
9114.00   0.83454990   0.02383490
9116.00   0.86928946   0.02500811
9118.00   0.87607843   0.02592370
9120.00   0.84973353   0.02547789
9122.00   0.80622315   0.02407957
9124.00   0.80108523   0.02365191
9126.00   0.83564830   0.02433364
9128.00   0.85124570   0.02550324
9130.00   0.84127504   0.02627149
9132.00   0.81711793   0.02655742
9134.00   0.80747503   0.02722940
9136.00   0.84416288   0.02791938
9138.00   0.81867361   0.02658052
9140.00   0.78484064   0.02472623
9142.00   0.81242055   0.02427053
9144.00   0.85067540   0.02434006
9146.00   0.84772921   0.02424670
9148.00   0.84039646   0.02473432
9150.00   0.85257626   0.02623801
9152.00   0.87449247   0.02840151
9154.00   0.84025913   0.02952758
9156.00   0.76980990   0.02902671
9158.00   0.76383895   0.02822409
9160.00   0.81692547   0.02756725
9162.00   0.83602643   0.02658253
9164.00   0.85309219   0.02593507
9166.00   0.86983925   0.02558230
9168.00   0.86638308   0.02514028
9170.00   0.85389072   0.02504651
9172.00   0.88110465   0.02640162
9174.00   0.88152009   0.02768886
9176.00   0.85061717   0.02735302
9178.00   0.81990963   0.02610308
9180.00   0.82337928   0.02515328
9182.00   0.86946088   0.02545739
9184.00   0.87814832   0.02529092
9186.00   0.84906894   0.02545436
9188.00   0.82813555   0.02566762
9190.00   0.84635752   0.02558773
9192.00   0.86394185   0.02500378
9194.00   0.88141948   0.02596104
9196.00   0.87639827   0.02592007
9198.00   0.86302549   0.02492137
9200.00   0.87212133   0.02427903
9202.00   0.90876108   0.02445818
9204.00   0.91587991   0.02499670
9206.00   0.91102284   0.02520370
9208.00   0.90336984   0.02500740
9210.00   0.88804799   0.02481461
9212.00   0.88603050   0.02517251
9214.00   0.89844418   0.02609240
9216.00   0.90198851   0.02664497
9218.00   0.88777095   0.02652713
9220.00   0.89721966   0.02653756
9222.00   0.90648335   0.02704931
9224.00   0.93388110   0.02729353
9226.00   0.94944972   0.02717982
9228.00   0.94047976   0.02681238
9230.00   0.95118827   0.02662267
9232.00   0.92747831   0.02574852
9234.00   0.90809011   0.02517874
9236.00   0.90438169   0.02515758
9238.00   0.91031569   0.02536249
9240.00   0.91435546   0.02533410
9242.00   0.89034206   0.02518562
9244.00   0.88712692   0.02541963
9246.00   0.89738411   0.02578767
9248.00   0.88966703   0.02579910
9250.00   0.91946745   0.02614293
9252.00   0.91564590   0.02586536
9254.00   0.89874530   0.02523873
9256.00   0.90035552   0.02485905
9258.00   0.93050605   0.02523986
9260.00   0.94449300   0.02591274
9262.00   0.91577619   0.02565506
9264.00   0.90537977   0.02519442
9266.00   0.92664212   0.02499259
9268.00   0.92335814   0.02480693
9270.00   0.92552119   0.02488973
9272.00   0.92905110   0.02523491
9274.00   0.93247652   0.02575248
9276.00   0.93512106   0.02645991
9278.00   0.93136626   0.02744114
9280.00   0.90275460   0.02748723
9282.00   0.88832742   0.02766920
9284.00   0.90168124   0.02829748
9286.00   0.91910797   0.02895798
9288.00   0.90748662   0.02891817
9290.00   0.88709706   0.02858049
9292.00   0.90000600   0.02897339
9294.00   0.93755561   0.02994735
9296.00   0.95450908   0.03083623
9298.00   0.91822523   0.03174243
9300.00   0.90424496   0.03493333
9302.00   0.86994857   0.03930152
9304.00   0.85461050   0.04463040
9306.00   0.94811934   0.05174763
9308.00   1.05327809   0.06338712
9310.00   0.97263265   0.06858969
9312.00   0.89360619   0.07038006
9314.00   0.92567682   0.07275514
9316.00   0.98749161   0.07835948
9318.00   0.83827120   0.07327142
9320.00   0.77284914   0.06605455
9322.00   0.84980631   0.06394571
9324.00   0.98036212   0.06750329
9326.00   0.90462559   0.06459194
9328.00   0.78393316   0.05435433
9330.00   0.77697015   0.04533341
9332.00   0.86428070   0.04333118
9334.00   0.94758946   0.04785019
9336.00   0.91467452   0.05223437
9338.00   0.81113815   0.05065374
9340.00   0.74942446   0.05178711
9342.00   0.77338266   0.05702261
9344.00   0.83695537   0.06052290
9346.00   0.69333309   0.04581998
9348.00   0.63211447   0.03482594
9350.00   0.70981091   0.03241324
9352.00   0.87463933   0.03746185
9354.00   0.97654963   0.04470412
9356.00   0.88735932   0.04618398
9358.00   0.76942915   0.04241195
9360.00   0.70488185   0.03674561
9362.00   0.73446721   0.03384003
9364.00   0.83115768   0.03624840
9366.00   0.96193355   0.04205882
9368.00   1.01368761   0.05819725
9370.00   0.97139835   0.08235698
9372.00   0.86283046   0.10326753
9374.00   0.70172930   0.10112011
9376.00   0.75106376   0.10681628
9378.00   0.86208719   0.11606169
9380.00   0.85556841   0.11240959
9382.00   0.70812589   0.08134586
9384.00   0.70816088   0.04965464
9386.00   0.76813537   0.03606858
9388.00   0.79564881   0.03269038
9390.00   0.79646772   0.02958504
9392.00   0.83189559   0.02850690
9394.00   0.88230067   0.02901646
9396.00   0.88496858   0.03060090
9398.00   0.90049773   0.03441693
9400.00   0.94013101   0.03869237
9402.00   0.94364089   0.04006043
9404.00   0.87375647   0.03821799
9406.00   0.84400630   0.03670481
9408.00   0.87057495   0.03596054
9410.00   0.90430665   0.03534828
9412.00   0.89437324   0.03442426
9414.00   0.85264033   0.03716901
9416.00   0.88965005   0.04285900
9418.00   0.94219995   0.04710489
9420.00   0.93155313   0.04758872
9422.00   0.88396102   0.04624590
9424.00   0.94135076   0.04803534
9426.00   1.00725913   0.05013777
9428.00   0.97198844   0.04814895
9430.00   0.80213100   0.03929713
9432.00   0.70619935   0.03321419
9434.00   0.77060562   0.03627748
9436.00   0.92736787   0.04760672
9438.00   1.04787934   0.06391748
9440.00   0.99327058   0.08098111
9442.00   0.78836221   0.08382786
9444.00   0.67332298   0.06780850
9446.00   0.67730397   0.04618763
9448.00   0.74429011   0.03452906
9450.00   0.80330950   0.03284661
9452.00   0.91538882   0.03896007
9454.00   0.97953099   0.05037111
9456.00   0.94944733   0.06033600
9458.00   0.85876018   0.06561751
9460.00   0.85830039   0.06525633
9462.00   0.76798159   0.05629481
9464.00   0.71994686   0.04566998
9466.00   0.76159263   0.03807959
9468.00   0.86270052   0.03641143
9470.00   0.84087962   0.03857544
9472.00   0.82079595   0.04574754
9474.00   0.85099918   0.05358478
9476.00   0.90483618   0.05921116
9478.00   0.90223056   0.06199653
9480.00   0.87437648   0.06756978
9482.00   0.80727339   0.05931377
9484.00   0.76710725   0.04491258
9486.00   0.76522702   0.03265135
9488.00   0.81703979   0.03053057
9490.00   0.91298264   0.03136027
9492.00   1.00391400   0.03553194
9494.00   1.03346956   0.04046037
9496.00   0.95978498   0.04650770
9498.00   0.81518888   0.05631877
9500.00   0.71904039   0.06263268
9502.00   0.64531755   0.05616690
9504.00   0.64074141   0.04469560
9506.00   0.73862904   0.03893900
9508.00   0.86210924   0.03546640
9510.00   0.91022205   0.03200643
9512.00   0.96572381   0.03145383
9514.00   1.00606668   0.03388514
9516.00   0.99112147   0.03749333
9518.00   0.92776066   0.04043801
9520.00   0.85519511   0.04127733
9522.00   0.77222753   0.03962143
9524.00   0.74126559   0.03711256
9526.00   0.76809859   0.03558855
9528.00   0.78720826   0.03503951
9530.00   0.83134538   0.03437019
9532.00   0.86160499   0.03409566
9534.00   0.88727832   0.03469351
9536.00   0.92873937   0.03574320
9538.00   0.94520998   0.03600542
9540.00   0.98586303   0.03727811
9542.00   1.03101444   0.03916854
9544.00   1.02172530   0.04015829
9546.00   0.87478238   0.03793588
9548.00   0.84203833   0.03837479
9550.00   0.84832621   0.04063378
9552.00   0.91737890   0.04536630
9554.00   1.00771582   0.05066805
9556.00   0.94094539   0.05092517
9558.00   0.82437634   0.04288939
9560.00   0.80691814   0.03789717
9562.00   0.88862371   0.04296649
9564.00   0.98238444   0.05345726
9566.00   0.94881916   0.05817430
9568.00   0.84545302   0.05590041
9570.00   0.81104326   0.05018397
9572.00   0.85518068   0.04300934
9574.00   0.88520336   0.03537578
9576.00   0.91169667   0.03166436
9578.00   0.99673706   0.03342294
9580.00   1.02463353   0.03528256
9582.00   0.95543152   0.03441522
9584.00   0.86332011   0.03157972
9586.00   0.92214745   0.03332362
9588.00   0.99392414   0.03731016
9590.00   0.97728997   0.03952593
9592.00   0.86982745   0.03832618
9594.00   0.80381185   0.03513470
9596.00   0.80956060   0.03353972
9598.00   0.84977323   0.03266101
9600.00   0.89582998   0.03254879
9602.00   0.93202430   0.03371705
9604.00   0.98327523   0.03707394
9606.00   1.01499939   0.03939368
9608.00   0.97152090   0.03862244
9610.00   0.89920354   0.03586870
9612.00   0.90085012   0.03407010
9614.00   0.95034462   0.03413752
9616.00   0.97410125   0.03569518
9618.00   0.98400992   0.03869176
9620.00   0.98582602   0.04166713
9622.00   0.96968967   0.04281409
9624.00   0.93104935   0.04179179
9626.00   0.90312511   0.03868160
9628.00   0.88880616   0.03462130
9630.00   0.88997197   0.03125864
9632.00   0.94651812   0.03077218
9634.00   1.05922425   0.03342180
9636.00   1.10839736   0.03601250
9638.00   1.03700030   0.03573112
9640.00   0.89640576   0.03259460
9642.00   0.88724262   0.03144497
9644.00   0.99291825   0.03334656
9646.00   1.00150418   0.03387837
9648.00   0.95982963   0.03304886
9650.00   0.94948179   0.03210594
9652.00   0.95399356   0.03221161
9654.00   0.96568185   0.03265866
9656.00   0.96019691   0.03272248
9658.00   0.95908737   0.03327643
9660.00   0.99050063   0.03544955
9662.00   1.01384127   0.03823650
9664.00   0.97330207   0.03872133
9666.00   0.92295837   0.03870996
9668.00   0.91475630   0.03883947
9670.00   0.95967716   0.03846797
9672.00   0.93608910   0.03585686
9674.00   0.92736202   0.03368549
9676.00   0.97805434   0.03412244
9678.00   1.06622684   0.03721496
9680.00   1.11054122   0.04057935
9682.00   1.06559694   0.04026126
9684.00   0.96712738   0.03846886
9686.00   0.92954904   0.03652887
9688.00   0.98828268   0.03516397
9690.00   0.97841817   0.03375663
9692.00   0.98270208   0.03393408
9694.00   0.99014378   0.03606425
9696.00   0.98688364   0.03870781
9698.00   0.98032427   0.04055680
9700.00   0.99579555   0.04166269
9702.00   0.97848725   0.04059847
9704.00   0.95121622   0.03772258
9706.00   0.95854616   0.03482929
9708.00   1.00290680   0.03407801
9710.00   0.98896712   0.03408859
9712.00   0.97553176   0.03550018
9714.00   0.95774966   0.03855908
9716.00   0.93132085   0.04152124
9718.00   0.91627973   0.04228409
9720.00   0.95098186   0.04256988
9722.00   0.98704201   0.04333389
9724.00   0.97525388   0.04216725
9726.00   0.92137289   0.03825175
9728.00   0.88078874   0.03368992
9730.00   0.89670843   0.03222394
9732.00   0.91094589   0.03369565
9734.00   0.91246396   0.03678104
9736.00   0.90178227   0.03936683
9738.00   0.87806374   0.03893400
9740.00   0.84954578   0.03794478
9742.00   0.84308892   0.03720999
9744.00   0.85162359   0.03617424
9746.00   0.85433048   0.03430697
9748.00   0.85662585   0.03321504
9750.00   0.83864355   0.03242065
9752.00   0.81645489   0.03154211
9754.00   0.81446552   0.03106436
9756.00   0.84034705   0.03143461
9758.00   0.80518931   0.03072792
9760.00   0.77211541   0.03013686
9762.00   0.77502805   0.03027584
9764.00   0.77945465   0.03024001
9766.00   0.73367280   0.02855150
9768.00   0.73673064   0.02780891
9770.00   0.75803298   0.02752399
9772.00   0.78136688   0.02778370
9774.00   0.79775190   0.02841768
9776.00   0.79216546   0.02881778
9778.00   0.77181387   0.02897672
9780.00   0.76964623   0.02942750
9782.00   0.75839972   0.03013198
9784.00   0.72558999   0.03150075
9786.00   0.71883243   0.03498805
9788.00   0.71972817   0.03901539
9790.00   0.71620941   0.04229174
9792.00   0.72515517   0.04404177
9794.00   0.74981803   0.04374433
9796.00   0.68277955   0.04086016
9798.00   0.68836689   0.03897686
9800.00   0.71616888   0.03817252
9802.00   0.71563721   0.03759752
9804.00   0.67835182   0.03603891
9806.00   0.68736434   0.03402696
9808.00   0.69003183   0.03310776
9810.00   0.67751956   0.03311391
9812.00   0.67147654   0.03359258
9814.00   0.69703299   0.03401536
9816.00   0.68658310   0.03337526
9818.00   0.67948961   0.03180685
9820.00   0.66779476   0.03031607
9822.00   0.65963501   0.02992323
9824.00   0.68737179   0.03098823
9826.00   0.67668891   0.03093272
9828.00   0.64663875   0.03014080
9830.00   0.63781744   0.02948705
9832.00   0.66744190   0.02943714
9834.00   0.69741899   0.02906587
9836.00   0.67106420   0.02815254
9838.00   0.66366762   0.02788160
9840.00   0.68325013   0.02870184
9842.00   0.70050025   0.03057215
9844.00   0.66309261   0.03362616
9846.00   0.64434105   0.03627891
9848.00   0.64856213   0.03757730
9850.00   0.65718269   0.03740054
9852.00   0.64522922   0.03607569
9854.00   0.63120121   0.03319047
9856.00   0.64830941   0.03043408
9858.00   0.67655069   0.02886434
9860.00   0.68834800   0.02861506
9862.00   0.66902089   0.02888346
9864.00   0.68340063   0.03092850
9866.00   0.69165421   0.03716715
9868.00   0.66529530   0.04487850
9870.00   0.63215595   0.05123478
9872.00   0.67790556   0.05419074
9874.00   0.67861837   0.05424960
9876.00   0.64634043   0.05098104
9878.00   0.63861638   0.04478778
9880.00   0.68248099   0.03732856
9882.00   0.70152038   0.03307379
9884.00   0.69980621   0.03188173
9886.00   0.70041227   0.03216473
9888.00   0.70953649   0.03373050
9890.00   0.70830089   0.03671446
9892.00   0.70106179   0.04002762
9894.00   0.69911212   0.04188008
9896.00   0.70083159   0.04263048
9898.00   0.70521092   0.04199383
9900.00   0.71788710   0.03931838
9902.00   0.72332126   0.03526874
9904.00   0.72277099   0.03289207
9906.00   0.72819167   0.03362709
9908.00   0.74181366   0.03811297
9910.00   0.77098125   0.04610267
9912.00   0.76076955   0.05361770
9914.00   0.77601427   0.05725710
9916.00   0.80000925   0.05781938
9918.00   0.81689548   0.05604365
9920.00   0.80151898   0.05039657
9922.00   0.76263469   0.04192340
9924.00   0.74801660   0.03590160
9926.00   0.77764440   0.03431515
9928.00   0.82099503   0.03481417
9930.00   0.82746738   0.03424596
9932.00   0.83058017   0.03462684
9934.00   0.83455580   0.03662847
9936.00   0.84780341   0.04135548
9938.00   0.85373092   0.04876177
9940.00   0.83077711   0.05691814
9942.00   0.88586742   0.06590346
9944.00   0.90657330   0.07229628
9946.00   0.88696569   0.07463310
9948.00   0.89153671   0.07296374
9950.00   0.90424031   0.07029854
9952.00   0.93737012   0.06840895
9954.00   0.93534833   0.06726418
9956.00   0.89974308   0.06733808
9958.00   0.92127472   0.07016399
9960.00   0.95323259   0.07143554
9962.00   0.95480919   0.06831699
9964.00   0.95317173   0.06259688
9966.00   0.96489644   0.05718553
9968.00   0.93544102   0.05302045
9970.00   0.93493843   0.04990878
9972.00   0.94316214   0.04856439
9974.00   0.95180303   0.04853854
9976.00   0.95741463   0.04845055
9978.00   0.96847439   0.04640518
9980.00   0.97062117   0.04392974
9982.00   0.99549884   0.04244610
9984.00   1.02111351   0.04169190
9986.00   1.01223052   0.04062919
9988.00   1.03531158   0.04024194
9990.00   1.05318785   0.04041385
9992.00   1.06809628   0.04102113
9994.00   1.08684587   0.04230754
9996.00   1.10651135   0.04434006
9998.00   1.05790961   0.04560677
10000.00   1.07291460   0.04678411
10002.00   1.10225952   0.04797256
10004.00   1.10413873   0.05022458
10006.00   1.09595621   0.05576690
10008.00   1.16160953   0.06808548
10010.00   1.19663227   0.07960937
10012.00   1.16996825   0.08643121
10014.00   1.09226263   0.08747374
10016.00   1.12238085   0.08571348
10018.00   1.13285887   0.07853134
10020.00   1.15639377   0.07011569
10022.00   1.18564355   0.06468817
10024.00   1.19757521   0.06434134
10026.00   1.19219518   0.06468696
10028.00   1.19846451   0.06349078
10030.00   1.20781076   0.06020552
10032.00   1.21879089   0.05538518
10034.00   1.24614143   0.05087226
10036.00   1.25365984   0.04936070
10038.00   1.23116434   0.05022059
10040.00   1.22509491   0.05228470
10042.00   1.25478494   0.05422572
10044.00   1.29134238   0.05493560
10046.00   1.26078546   0.05436999
10048.00   1.25539458   0.05305091
10050.00   1.27743816   0.05139374
10052.00   1.30370378   0.05042130
10054.00   1.33303654   0.05206068
10056.00   1.34694064   0.05611478
10058.00   1.34114873   0.06012504
10060.00   1.33031356   0.06290177
10062.00   1.33223236   0.06419778
10064.00   1.35359085   0.06492630
10066.00   1.33254564   0.06371268
10068.00   1.32389915   0.06156121
10070.00   1.35060942   0.05987536
10072.00   1.37918520   0.05965393
10074.00   1.42228091   0.06028458
10076.00   1.39151013   0.06404460
10078.00   1.36616266   0.07168716
10080.00   1.34559536   0.07959061
10082.00   1.33701038   0.08390502
10084.00   1.38412094   0.08543026
10086.00   1.43141615   0.08394948
10088.00   1.42853546   0.07719281
10090.00   1.40144110   0.06667200
10092.00   1.40193033   0.05936119
10094.00   1.42637169   0.05804463
10096.00   1.41159058   0.05901912
10098.00   1.43004954   0.06242840
10100.00   1.50700474   0.06761596
10102.00   1.50177193   0.07180511
10104.00   1.47911704   0.07290526
10106.00   1.47762930   0.07258675
10108.00   1.47839689   0.07064164
10110.00   1.45556247   0.06669953
10112.00   1.49182892   0.06277456
10114.00   1.49452198   0.06139698
10116.00   1.49355793   0.06418400
10118.00   1.53250790   0.07289623
10120.00   1.62431705   0.08611502
10122.00   1.52414799   0.09550954
10124.00   1.48494852   0.09953797
10126.00   1.48593485   0.10003342
10128.00   1.50741923   0.09681162
10130.00   1.46563053   0.08771155
10132.00   1.46494865   0.07603472
10134.00   1.48386717   0.06909364
10136.00   1.52773702   0.06719870
10138.00   1.55032635   0.06752130
10140.00   1.54641020   0.06824199
10142.00   1.51781547   0.06941297
10144.00   1.49125111   0.07082482
10146.00   1.48097360   0.07346065
10148.00   1.49293375   0.07781173
10150.00   1.51943815   0.08280796
10152.00   1.39472926   0.08475693
10154.00   1.39493322   0.08660475
10156.00   1.45444977   0.08765500
10158.00   1.43284953   0.08627399
10160.00   1.43089783   0.08278478
10162.00   1.47749233   0.08139992
10164.00   1.50523376   0.08364276
10166.00   1.51397932   0.09131879
10168.00   1.53742075   0.10383476
10170.00   1.48925531   0.11316887
10172.00   1.50407255   0.11735016
10174.00   1.43281996   0.11718836
10176.00   1.33232355   0.11295285
10178.00   1.37568510   0.10387971
10180.00   1.47752392   0.09404496
10182.00   1.41337645   0.08892589
10184.00   1.38661516   0.09174760
10186.00   1.49011385   0.09985051
10188.00   1.55398607   0.10621346
10190.00   1.43557322   0.10652278
10192.00   1.39646971   0.10560616
10194.00   1.43672907   0.10281572
10196.00   1.45160353   0.09713808
10198.00   1.35497558   0.09077077
10200.00   1.36944902   0.09122390
10202.00   1.43770349   0.09625227
10204.00   1.45374739   0.10417967
10206.00   1.37646210   0.11380204
10208.00   1.39819777   0.12425271
10210.00   1.40114498   0.12879717
10212.00   1.33312798   0.12831618
10214.00   1.28854954   0.12397811
10216.00   1.36314070   0.11640797
10218.00   1.39328432   0.10508049
10220.00   1.38332212   0.09980985
10222.00   1.35925579   0.10261750
10224.00   1.33021867   0.10973016
10226.00   1.30840814   0.11554100
10228.00   1.32950270   0.12026604
10230.00   1.33884239   0.11992864
10232.00   1.27548921   0.11414079
10234.00   1.18768322   0.10524031
10236.00   1.25790739   0.09873741
10238.00   1.29199040   0.09254853
10240.00   1.29328585   0.08802960
10242.00   1.25236881   0.08527709
10244.00   1.24678230   0.08484506
10246.00   1.25638258   0.08520780
10248.00   1.22666836   0.08439792
10250.00   1.21669292   0.08458152
10252.00   1.23552001   0.08599463
10254.00   1.24123728   0.08721954
10256.00   1.17682815   0.08671057
10258.00   1.13499379   0.08723099
10260.00   1.14319432   0.08896301
10262.00   1.17108250   0.09103217
10264.00   1.14090633   0.09259326
10266.00   1.17236483   0.09687915
10268.00   1.23756981   0.10269199
10270.00   1.22238314   0.10583629
10272.00   1.16327715   0.10662145
10274.00   1.21569955   0.10912067
10276.00   1.20004380   0.10977599
10278.00   1.20107341   0.11571582
10280.00   1.16964304   0.13487072
10282.00   1.12175083   0.16688810
10284.00   1.26598823   0.20433883
10286.00   1.28452742   0.22281945
10288.00   1.27731407   0.23054762
10290.00   1.15508091   0.22864419
10292.00   0.67672688   0.21684146
10294.00   0.87972736   0.19326700
10296.00   1.04533243   0.17478333
10298.00   1.05647528   0.16433340
10300.00   1.11971056   0.15777817
10302.00   1.22243893   0.14826339
10304.00   1.23532760   0.13551213
10306.00   1.21862042   0.13182031
10308.00   1.12197649   0.13047373
10310.00   1.00677681   0.12893800
10312.00   1.04269683   0.12909615
10314.00   1.12426722   0.12828693
10316.00   1.07414424   0.12305626
10318.00   1.08075285   0.11895791
10320.00   1.17516553   0.11849448
10322.00   1.22419536   0.11922070
10324.00   1.12481439   0.12040836
10326.00   1.13792813   0.12237684
10328.00   1.22948301   0.12465801
10330.00   1.27287042   0.12588522
10332.00   1.29141009   0.12695736
10334.00   1.21344590   0.12658820
10336.00   1.04572475   0.12623705
10338.00   0.97895068   0.12860632
10340.00   1.10233819   0.13544832
10342.00   1.22888052   0.14757316
10344.00   1.24917126   0.15951599
10346.00   1.22265506   0.16803849
10348.00   1.21442699   0.17333786
10350.00   1.19783926   0.17560978
10352.00   1.12950265   0.17312793
10354.00   1.01536429   0.16318516
10356.00   1.01443422   0.15384577
10358.00   1.08747947   0.14896314
10360.00   1.14768767   0.14761083
10362.00   1.15876544   0.14693531
10364.00   1.26594937   0.15112980
10366.00   1.33162344   0.16648145
10368.00   1.24699199   0.19363624
10370.00   1.04410350   0.22671859
10372.00   0.78019428   0.24568109
10374.00   0.92130691   0.25610697
10376.00   1.21991146   0.25714090
10378.00   1.33592927   0.24464417
10380.00   1.13560653   0.21134436
10382.00   1.13259935   0.18306680
10384.00   1.09963143   0.16797413
10386.00   1.08427477   0.16439939
10388.00   1.17351317   0.16574726
10390.00   1.17580116   0.17235470
10392.00   1.04006517   0.18555039
10394.00   1.02628779   0.20104545
10396.00   1.12452352   0.21364403
10398.00   1.22618353   0.22019894
10400.00   1.09857321   0.21722209
10402.00   1.01874876   0.20743346
10404.00   1.07742226   0.19578880
10406.00   1.25301778   0.18819141
10408.00   1.28862166   0.18643957
10410.00   1.12446010   0.18935680
10412.00   1.12660706   0.21113507
10414.00   0.88426811   0.23728433
10416.00   1.09184003   0.27528182
10418.00   1.03731310   0.30058265
10420.00   1.23913956   0.30646026
10422.00   1.38227904   0.30353492
10424.00   1.44108582   0.28712061
10426.00   1.24971962   0.25896081
10428.00   1.21691084   0.22314318
10430.00   1.02367389   0.20664708
10432.00   1.06035900   0.20139135
10434.00   1.15447712   0.19882323
10436.00   1.05318046   0.19365926
10438.00   1.06900251   0.19377573
10440.00   1.09224939   0.19535029
10442.00   1.14403903   0.19675009
10444.00   1.16150594   0.20150129
10446.00   1.10423541   0.20505111
10448.00   1.07282484   0.24233112
10450.00   1.06799757   0.24078512
10452.00   0.82133073   0.24539809
10454.00   0.81561333   0.24568731
10456.00   1.18893480   0.24043877
10458.00   1.10370398   0.22474359
10460.00   1.17449009   0.21909361
10462.00   1.28101969   0.22974773
10464.00   1.24449456   0.25356269
10466.00   1.24017608   0.27967036
10468.00   1.36941040   0.31260085
10470.00   1.35189760   0.32228899
10472.00   1.29407704   0.30932784
10474.00   1.02904594   0.28983814
10476.00   1.14186764   0.27571419
10478.00   1.15446222   0.24781734
10480.00   1.09958971   0.22902803
10482.00   0.89371276   0.22331639
10484.00   1.15134239   0.22611499
10486.00   1.14321887   0.22643776
10488.00   1.21580887   0.22882123
10490.00   1.22317898   0.22954540
10492.00   1.16076076   0.22846352
10494.00   1.21204841   0.22853030
10496.00   1.18847477   0.22944500
10498.00   1.07793224   0.22682679
10500.00   1.17963386   0.22968139
10502.00   1.36826289   0.23750915
10504.00   1.36265409   0.24667104
10506.00   1.34522617   0.25896430
10508.00   1.38946927   0.26745501
10510.00   1.46352100   0.27488580
10512.00   1.44007242   0.27863577
10514.00   1.00010478   0.26586297
10516.00   1.01494443   0.25893021
10518.00   1.32107651   0.26476815
10520.00   1.45734084   0.27760991
10522.00   1.19061744   0.28762493
10524.00   1.11107600   0.30320004
10526.00   1.12419355   0.30200273
10528.00   1.20618331   0.30512151
10530.00   1.30746365   0.30754793
10532.00   1.37186444   0.28904232
10534.00   1.06802952   0.25721639
10536.00   1.47830677   0.26758155
10538.00   1.29135394   0.25477111
10540.00   1.16186535   0.24812551
10542.00   1.24932158   0.25367633
10544.00   1.40323746   0.26048827
10546.00   1.26502562   0.25673440
10548.00   0.99668151   0.24958992
10550.00   0.84427708   0.25491741
10552.00   1.02459419   0.25438139
10554.00   1.23462212   0.25840512
10556.00   1.29141450   0.25027251
10558.00   1.23002851   0.26226702
10560.00   1.17806661   0.26297000
10562.00   1.20575106   0.26026744
10564.00   1.22338772   0.26123413
10566.00   1.29469061   0.26818016
10568.00   1.05998135   0.27394268
10570.00   1.27755868   0.27808824
10572.00   1.15791595   0.28051776
10574.00   0.91635311   0.29289907
10576.00   0.90952575   0.29336220
10578.00   1.15154862   0.28620788
10580.00   1.13645232   0.28573197
10582.00   1.21062624   0.29554459
10584.00   1.63143837   0.30848986
10586.00   1.08398366   0.30783817
10588.00   1.25852740   0.30868661
10590.00   1.22964680   0.30899772
10592.00   1.39262784   0.30413556
10594.00   1.29563749   0.29744700
10596.00   1.30818605   0.29924929
10598.00   1.48192310   0.31817722
10600.00   1.20857167   0.30846882
10602.00   1.22365320   0.29360092
10604.00   1.11722910   0.29357445
10606.00   1.21577692   0.29586864
10608.00   1.39933872   0.29863176
10610.00   1.24977887   0.28970712
10612.00   1.35313165   0.30543503
10614.00   1.49764073   0.31291005
10616.00   1.37815797   0.31248453
10618.00   1.08366787   0.30634519
10620.00   1.04723835   0.30624309
10622.00   1.25619221   0.30069581
10624.00   1.18985796   0.30052194
10626.00   1.05912495   0.31107780
10628.00   1.26118076   0.33200583
10630.00   1.51776791   0.31782261
10632.00   1.33875132   0.33456954
10634.00   1.35192811   0.33275607
10636.00   1.25588918   0.33571482
10638.00   1.13710892   0.33792064
10640.00   1.64420605   0.34329203
10642.00   1.52459836   0.34676495
10644.00   1.63211167   0.34400213
10646.00   1.87403762   0.35541812
10648.00   1.29815364   0.34790447
10650.00   0.86767542   0.37194005
10652.00   0.85056615   0.37702960
10654.00   1.01806474   0.38327187
10656.00   1.17103994   0.38551563
10658.00   1.38441300   0.37417904
10660.00   1.12878442   0.37165967
10662.00   1.25355279   0.36625907
10664.00   1.19850969   0.37558889
10666.00   1.14905345   0.38675439
10668.00   1.05869973   0.39291602
10670.00   0.79252440   0.39448699
10672.00   0.94244039   0.40330148
10674.00   1.68541360   0.40859613
10676.00   1.38918018   0.40957776
10678.00   1.31282449   0.41187114
10680.00   1.06854701   0.41572347
10682.00   1.00170696   0.42758095
10684.00   1.34044671   0.43810844
10686.00   1.79072380   0.48409739
10688.00   0.96077371   0.44759053
10690.00   1.16480446   0.45102951
10692.00   1.64905453   0.48136386
10694.00   1.60863125   0.51426888
10696.00   1.80639005   0.53231025
10698.00   1.08983445   0.53254753
10700.00   1.35620570   0.53428453
10702.00   1.39840198   0.53618091
10704.00   1.09191132   0.53660882
10706.00   0.96156377   0.52805597
10708.00   0.49274760   0.57135737
10710.00   0.61487484   0.58774722
10712.00   0.80801219   0.58726346
10714.00   0.63313377   0.60062701
10716.00   0.38769290   0.61097419
10718.00   0.54965788   0.60181963
