# File created by shivutils (I.Shivvers)
# wl(A)   flm    er(optional)
3630.00   1.47691047   0.05282598
3632.00   1.50959945   0.05319358
3634.00   1.54124022   0.05319593
3636.00   1.56587124   0.05314022
3638.00   1.56376052   0.05298305
3640.00   1.48730934   0.05227025
3642.00   1.59343255   0.05363710
3644.00   1.55292249   0.05347890
3646.00   1.49631524   0.05321682
3648.00   1.61156631   0.05783824
3650.00   1.65470636   0.05939714
3652.00   1.60045135   0.05675236
3654.00   1.57594264   0.05544596
3656.00   1.64008939   0.05476506
3658.00   1.69150460   0.05336946
3660.00   1.59694278   0.05298061
3662.00   1.63451362   0.05441627
3664.00   1.60870457   0.05302359
3666.00   1.59402704   0.05076849
3668.00   1.59730136   0.05045429
3670.00   1.57710719   0.05029071
3672.00   1.67182219   0.05085448
3674.00   1.58333886   0.04977363
3676.00   1.61845171   0.05001963
3678.00   1.65664208   0.05034769
3680.00   1.62070453   0.04960899
3682.00   1.67178667   0.04986813
3684.00   1.62871492   0.04910532
3686.00   1.57683599   0.04840817
3688.00   1.52827656   0.04734718
3690.00   1.57182312   0.04817783
3692.00   1.62305915   0.04841685
3694.00   1.64538383   0.04834602
3696.00   1.61154926   0.04815334
3698.00   1.64425170   0.04835013
3700.00   1.72376215   0.04890852
3702.00   1.64508939   0.04810653
3704.00   1.64560866   0.04778561
3706.00   1.55155206   0.04632360
3708.00   1.51435184   0.04612935
3710.00   1.60384870   0.04696914
3712.00   1.57650387   0.04635100
3714.00   1.64088488   0.04666870
3716.00   1.69158280   0.04695702
3718.00   1.59354842   0.04577851
3720.00   1.54839134   0.04498061
3722.00   1.62386322   0.04581192
3724.00   1.58584607   0.04571267
3726.00   1.53495276   0.04555172
3728.00   1.54629755   0.04563584
3730.00   1.61329293   0.04595944
3732.00   1.64197230   0.04524709
3734.00   1.53947842   0.04439630
3736.00   1.61760449   0.04530995
3738.00   1.52294540   0.04445902
3740.00   1.50030553   0.04408798
3742.00   1.54625165   0.04417886
3744.00   1.47387397   0.04310302
3746.00   1.43445373   0.04220627
3748.00   1.43300176   0.04173700
3750.00   1.38379598   0.04134149
3752.00   1.36379862   0.04119384
3754.00   1.35183883   0.04045719
3756.00   1.24758875   0.03923341
3758.00   1.20343053   0.03839871
3760.00   1.13657260   0.03744161
3762.00   1.11492240   0.03725736
3764.00   1.08911490   0.03675500
3766.00   1.01429057   0.03540356
3768.00   1.02827489   0.03522843
3770.00   0.97325301   0.03474212
3772.00   0.93663388   0.03438158
3774.00   0.87129110   0.03350069
3776.00   0.87378693   0.03302390
3778.00   0.88641018   0.03330245
3780.00   0.85073304   0.03247466
3782.00   0.79672390   0.03178125
3784.00   0.79038656   0.03161382
3786.00   0.75687927   0.03103978
3788.00   0.73190224   0.03068865
3790.00   0.72334117   0.03061572
3792.00   0.73607320   0.03023202
3794.00   0.70096987   0.02951319
3796.00   0.73886758   0.02986863
3798.00   0.72729093   0.02955382
3800.00   0.71169639   0.02953148
3802.00   0.67784739   0.02888755
3804.00   0.65522712   0.02839740
3806.00   0.65196133   0.02848345
3808.00   0.65933067   0.02823627
3810.00   0.67238390   0.02831891
3812.00   0.67431879   0.02826514
3814.00   0.59007919   0.02728143
3816.00   0.68182266   0.02835598
3818.00   0.66405201   0.02770018
3820.00   0.64687288   0.02762948
3822.00   0.68491733   0.02785556
3824.00   0.70962536   0.02828131
3826.00   0.67893434   0.02779943
3828.00   0.72158331   0.02870825
3830.00   0.72484189   0.02904144
3832.00   0.74457955   0.02911090
3834.00   0.79668862   0.02917598
3836.00   0.84784299   0.02950413
3838.00   0.81149983   0.02900191
3840.00   0.78175527   0.02882279
3842.00   0.78906733   0.02880515
3844.00   0.82643324   0.02909173
3846.00   0.84679824   0.02936856
3848.00   0.92999434   0.03016448
3850.00   0.88943827   0.02934438
3852.00   0.91083837   0.02991755
3854.00   0.88815635   0.02943736
3856.00   0.96356106   0.02999886
3858.00   1.02188241   0.03051710
3860.00   0.97332168   0.02998399
3862.00   1.02493739   0.03076622
3864.00   1.10779202   0.03164363
3866.00   1.12250352   0.03146542
3868.00   1.18317628   0.03201546
3870.00   1.22694206   0.03233799
3872.00   1.24503481   0.03277880
3874.00   1.28156424   0.03315885
3876.00   1.28845596   0.03287182
3878.00   1.30924034   0.03276096
3880.00   1.34613419   0.03307533
3882.00   1.36076701   0.03325909
3884.00   1.41036308   0.03351974
3886.00   1.45267653   0.03391060
3888.00   1.41720986   0.03361632
3890.00   1.46893585   0.03409375
3892.00   1.51986039   0.03434569
3894.00   1.55019593   0.03458316
3896.00   1.55866086   0.03463493
3898.00   1.58144033   0.03469509
3900.00   1.65492737   0.03548078
3902.00   1.65542436   0.03559058
3904.00   1.75084245   0.03660664
3906.00   1.83220017   0.03777449
3908.00   1.87059915   0.03833096
3910.00   1.82541299   0.03803038
3912.00   1.89671981   0.03835632
3914.00   1.85646796   0.03767819
3916.00   1.92382252   0.03761628
3918.00   1.97940505   0.03778542
3920.00   2.07222748   0.03825202
3922.00   2.05453014   0.03794021
3924.00   2.15420461   0.03859518
3926.00   2.13192153   0.03828214
3928.00   2.20742488   0.03864511
3930.00   2.15730810   0.03832985
3932.00   2.20221329   0.03879762
3934.00   2.23526311   0.03887647
3936.00   2.29528737   0.03900141
3938.00   2.40459394   0.03982780
3940.00   2.41450119   0.04013757
3942.00   2.47565436   0.04072421
3944.00   2.56873298   0.04133265
3946.00   2.56296706   0.04102321
3948.00   2.65462899   0.04146699
3950.00   2.74656463   0.04190946
3952.00   2.72783518   0.04158786
3954.00   2.75992060   0.04174602
3956.00   2.73689556   0.04141628
3958.00   2.73839164   0.04139693
3960.00   2.92488408   0.04268625
3962.00   2.86167955   0.04220574
3964.00   2.88792038   0.04195568
3966.00   2.90006924   0.04181439
3968.00   2.86828542   0.04163166
3970.00   2.93840384   0.04200104
3972.00   3.01168180   0.04235864
3974.00   3.04699469   0.04257489
3976.00   3.05495763   0.04250550
3978.00   3.09709048   0.04267091
3980.00   3.07719779   0.04255352
3982.00   3.05149198   0.04237050
3984.00   3.08887386   0.04241200
3986.00   2.98295450   0.04183832
3988.00   3.15752172   0.04280793
3990.00   3.16770172   0.04269240
3992.00   3.14744496   0.04245854
3994.00   3.08634019   0.04220578
3996.00   3.11207104   0.04231263
3998.00   3.15002251   0.04240330
4000.00   3.21962166   0.04263563
4002.00   3.19141006   0.04231590
4004.00   3.23913312   0.04244632
4006.00   3.23448491   0.04239354
4008.00   3.22142291   0.04244463
4010.00   3.22190356   0.04247110
4012.00   3.22244024   0.04230603
4014.00   3.25870442   0.04247268
4016.00   3.26593637   0.04236620
4018.00   3.26322103   0.04280866
4020.00   3.25241280   0.04311894
4022.00   3.25295973   0.04309408
4024.00   3.34289789   0.04326987
4026.00   3.28058600   0.04252748
4028.00   3.33035779   0.04252948
4030.00   3.23489523   0.04179356
4032.00   3.27581882   0.04198565
4034.00   3.22789240   0.04153034
4036.00   3.14954424   0.04096918
4038.00   3.19274354   0.04116582
4040.00   3.14405823   0.04094512
4042.00   3.13900685   0.04123624
4044.00   3.03605294   0.04425226
4046.00   3.10709548   0.04657464
4048.00   2.99614406   0.04362011
4050.00   3.03535748   0.04057914
4052.00   2.95438433   0.03971745
4054.00   2.95291901   0.03956944
4056.00   2.98994923   0.03958897
4058.00   2.87918973   0.03864489
4060.00   2.85019565   0.03835130
4062.00   2.84464002   0.03826806
4064.00   2.81915617   0.03804484
4066.00   2.79481053   0.03781975
4068.00   2.73136091   0.03724560
4070.00   2.67665887   0.03692570
4072.00   2.70934176   0.03694084
4074.00   2.64364815   0.03682906
4076.00   2.61430240   0.03711491
4078.00   2.54942393   0.03681139
4080.00   2.53014517   0.03626452
4082.00   2.46203804   0.03556927
4084.00   2.43576980   0.03533841
4086.00   2.36904669   0.03475685
4088.00   2.35635376   0.03435054
4090.00   2.40470171   0.03438801
4092.00   2.35355210   0.03399815
4094.00   2.28031087   0.03351731
4096.00   2.26012588   0.03320621
4098.00   2.30143213   0.03336411
4100.00   2.27646828   0.03325334
4102.00   2.23223281   0.03284940
4104.00   2.26127005   0.03294831
4106.00   2.24063659   0.03275205
4108.00   2.34628296   0.03338492
4110.00   2.23359513   0.03263045
4112.00   2.26686454   0.03263408
4114.00   2.26466894   0.03273591
4116.00   2.30732465   0.03293565
4118.00   2.27854443   0.03254794
4120.00   2.26308775   0.03235724
4122.00   2.25364637   0.03241402
4124.00   2.27981877   0.03248505
4126.00   2.31045127   0.03272077
4128.00   2.34654856   0.03286598
4130.00   2.34435654   0.03298051
4132.00   2.38140106   0.03304983
4134.00   2.39559078   0.03307396
4136.00   2.39246154   0.03297840
4138.00   2.37469888   0.03303554
4140.00   2.37896276   0.03293410
4142.00   2.37174392   0.03276287
4144.00   2.38888812   0.03263763
4146.00   2.38841033   0.03255216
4148.00   2.36065602   0.03240692
4150.00   2.42290044   0.03292442
4152.00   2.35902953   0.03256197
4154.00   2.31674933   0.03224350
4156.00   2.32075953   0.03205835
4158.00   2.36256456   0.03223876
4160.00   2.31092858   0.03187835
4162.00   2.34622455   0.03228731
4164.00   2.32968760   0.03241395
4166.00   2.29728007   0.03204994
4168.00   2.26400042   0.03159596
4170.00   2.25539851   0.03130855
4172.00   2.27533197   0.03119896
4174.00   2.27143145   0.03127013
4176.00   2.22824860   0.03092822
4178.00   2.20225525   0.03072547
4180.00   2.14311051   0.03029218
4182.00   2.12859058   0.03009791
4184.00   2.21262431   0.03047263
4186.00   2.11246443   0.02985251
4188.00   2.10415959   0.02976025
4190.00   2.10099435   0.02973013
4192.00   2.15455127   0.03009619
4194.00   2.12311649   0.02969069
4196.00   2.13301158   0.02968113
4198.00   2.10160065   0.02941988
4200.00   2.09644222   0.02934887
4202.00   2.07631707   0.02927652
4204.00   2.06453395   0.02915213
4206.00   2.02911806   0.02896589
4208.00   2.04130197   0.02902788
4210.00   2.07625985   0.02907390
4212.00   2.05990005   0.02914269
4214.00   2.08727145   0.02918089
4216.00   2.04570198   0.02887930
4218.00   2.06478357   0.02895640
4220.00   2.10903168   0.02914528
4222.00   2.12960887   0.02920890
4224.00   2.11778736   0.02909219
4226.00   2.09943008   0.02897967
4228.00   2.16499877   0.02929158
4230.00   2.16026211   0.02931898
4232.00   2.17949891   0.02951449
4234.00   2.21280169   0.02961778
4236.00   2.28765702   0.03023565
4238.00   2.28098845   0.02995755
4240.00   2.30894136   0.03007236
4242.00   2.24161530   0.02956445
4244.00   2.35598946   0.03063571
4246.00   2.39136529   0.03105794
4248.00   2.35377789   0.03065176
4250.00   2.41154122   0.03053903
4252.00   2.36936760   0.03016077
4254.00   2.41175246   0.03040711
4256.00   2.35711026   0.03020534
4258.00   2.41260266   0.03029777
4260.00   2.39487052   0.03018672
4262.00   2.37614346   0.02996852
4264.00   2.39578867   0.03013217
4266.00   2.37614226   0.02999253
4268.00   2.32561445   0.02965231
4270.00   2.36788845   0.02977240
4272.00   2.36094499   0.02967144
4274.00   2.34331512   0.02965584
4276.00   2.34578896   0.02977899
4278.00   2.36204553   0.02981216
4280.00   2.39499164   0.02988405
4282.00   2.39028835   0.02984255
4284.00   2.35228610   0.02957990
4286.00   2.33462095   0.02943556
4288.00   2.36761832   0.02954328
4290.00   2.33381319   0.02937178
4292.00   2.34021854   0.02936756
4294.00   2.32992339   0.02927974
4296.00   2.31225395   0.02911385
4298.00   2.28399611   0.02887994
4300.00   2.25349355   0.02871965
4302.00   2.25249624   0.02864950
4304.00   2.25252604   0.02868005
4306.00   2.22501493   0.02851154
4308.00   2.26888180   0.02872635
4310.00   2.19136167   0.02840541
4312.00   2.21714211   0.02884362
4314.00   2.21108222   0.02888697
4316.00   2.21047521   0.02868915
4318.00   2.21580958   0.02870431
4320.00   2.19301438   0.02855957
4322.00   2.16305232   0.02827461
4324.00   2.19245601   0.02830257
4326.00   2.11762261   0.02783079
4328.00   2.12085247   0.02782162
4330.00   2.12495995   0.02768616
4332.00   2.06138706   0.02735897
4334.00   2.09815979   0.02748280
4336.00   2.14873385   0.02776041
4338.00   2.08257341   0.02752207
4340.00   2.11965656   0.02763890
4342.00   2.09580159   0.02752062
4344.00   2.11169267   0.02773836
4346.00   2.16262674   0.02816144
4348.00   2.03692961   0.02753073
4350.00   2.05640650   0.02742761
4352.00   2.11754298   0.02755390
4354.00   2.10167956   0.02878502
4356.00   2.08883858   0.03387865
4358.00   2.08682227   0.03599212
4360.00   2.15851736   0.03295919
4362.00   2.10431004   0.02894090
4364.00   2.13560462   0.02797179
4366.00   2.10926008   0.02761064
4368.00   2.13422084   0.02751181
4370.00   2.06480908   0.02712288
4372.00   2.10566616   0.02745011
4374.00   2.08867192   0.02743195
4376.00   2.10688043   0.02742753
4378.00   2.06449270   0.02697438
4380.00   2.04341698   0.02670452
4382.00   2.02507401   0.02651484
4384.00   2.02695942   0.02645481
4386.00   1.97117162   0.02611246
4388.00   2.01772928   0.02633637
4390.00   2.01879406   0.02632718
4392.00   1.94766331   0.02596837
4394.00   1.97857261   0.02605090
4396.00   1.92733407   0.02576803
4398.00   1.94018495   0.02596329
4400.00   1.90333605   0.02585309
4402.00   1.89411271   0.02567171
4404.00   1.83990681   0.02528126
4406.00   1.83463252   0.02532702
4408.00   1.80996871   0.02515184
4410.00   1.80730915   0.02507119
4412.00   1.80248117   0.02501527
4414.00   1.74225986   0.02485933
4416.00   1.78102314   0.02496647
4418.00   1.74074972   0.02467456
4420.00   1.75550365   0.02465663
4422.00   1.76405513   0.02459892
4424.00   1.71692812   0.02434772
4426.00   1.64013040   0.02380044
4428.00   1.62231326   0.02379980
4430.00   1.62844038   0.02372862
4432.00   1.63680518   0.02377259
4434.00   1.62564588   0.02365983
4436.00   1.60459006   0.02354625
4438.00   1.56519699   0.02336889
4440.00   1.57445216   0.02335132
4442.00   1.54237890   0.02306283
4444.00   1.52212346   0.02291876
4446.00   1.53848398   0.02300358
4448.00   1.52451301   0.02284056
4450.00   1.48175275   0.02254977
4452.00   1.45575094   0.02236008
4454.00   1.40823686   0.02207781
4456.00   1.36094213   0.02183345
4458.00   1.39155471   0.02195417
4460.00   1.38467085   0.02185642
4462.00   1.38027596   0.02178684
4464.00   1.37302375   0.02184313
4466.00   1.36911416   0.02181017
4468.00   1.37533355   0.02178268
4470.00   1.36826396   0.02162902
4472.00   1.33719587   0.02154327
4474.00   1.33945084   0.02148275
4476.00   1.28222060   0.02117268
4478.00   1.31156063   0.02133021
4480.00   1.32496774   0.02130668
4482.00   1.32828069   0.02130006
4484.00   1.33857346   0.02140331
4486.00   1.28494501   0.02108332
4488.00   1.30308282   0.02122190
4490.00   1.27035117   0.02100625
4492.00   1.30252397   0.02121115
4494.00   1.36220384   0.02146345
4496.00   1.33179295   0.02140484
4498.00   1.31890941   0.02133967
4500.00   1.32622719   0.02124926
4502.00   1.29796362   0.02110766
4504.00   1.37078083   0.02152446
4506.00   1.35840952   0.02143089
4508.00   1.34920943   0.02125630
4510.00   1.38141191   0.02137522
4512.00   1.37723184   0.02133352
4514.00   1.44078648   0.02177703
4516.00   1.40021574   0.02148552
4518.00   1.40024710   0.02147023
4520.00   1.39091408   0.02138200
4522.00   1.42403579   0.02154069
4524.00   1.43554592   0.02154189
4526.00   1.40232551   0.02127803
4528.00   1.45427215   0.02161858
4530.00   1.49621141   0.02185594
4532.00   1.47906017   0.02176235
4534.00   1.51205993   0.02181162
4536.00   1.57182431   0.02216352
4538.00   1.58931923   0.02224954
4540.00   1.61193633   0.02239562
4542.00   1.61843455   0.02245081
4544.00   1.63004279   0.02251902
4546.00   1.70068562   0.02286526
4548.00   1.70525670   0.02280831
4550.00   1.71417868   0.02281136
4552.00   1.73046231   0.02290789
4554.00   1.77302146   0.02304524
4556.00   1.78645039   0.02307551
4558.00   1.82302964   0.02331906
4560.00   1.86191452   0.02343188
4562.00   1.78700221   0.02307913
4564.00   1.85746884   0.02339501
4566.00   1.83505487   0.02326007
4568.00   1.87281799   0.02345044
4570.00   1.87615931   0.02344646
4572.00   1.84689105   0.02325263
4574.00   1.90812099   0.02355314
4576.00   1.93785334   0.02365399
4578.00   1.96087575   0.02367690
4580.00   1.99761891   0.02389284
4582.00   2.03427649   0.02406087
4584.00   2.03612328   0.02400281
4586.00   2.09733653   0.02429411
4588.00   2.13253021   0.02449998
4590.00   2.17122626   0.02466104
4592.00   2.21982837   0.02481936
4594.00   2.21907663   0.02483000
4596.00   2.23821878   0.02491300
4598.00   2.28991747   0.02517119
4600.00   2.29184937   0.02515264
4602.00   2.35453987   0.02539582
4604.00   2.44170904   0.02582307
4606.00   2.52670264   0.02618988
4608.00   2.54193640   0.02624017
4610.00   2.58400464   0.02641044
4612.00   2.66450715   0.02671084
4614.00   2.72026610   0.02694539
4616.00   2.70685172   0.02689411
4618.00   2.81846356   0.02739856
4620.00   2.82958126   0.02746256
4622.00   2.89675021   0.02767152
4624.00   2.92846751   0.02775243
4626.00   2.96459723   0.02789971
4628.00   2.92854667   0.02779778
4630.00   2.96267295   0.02796558
4632.00   3.04428720   0.02821784
4634.00   3.06732464   0.02822516
4636.00   3.02085829   0.02809714
4638.00   3.07128596   0.02827909
4640.00   3.08189940   0.02835296
4642.00   3.13881755   0.02854715
4644.00   3.14911556   0.02858191
4646.00   3.19153857   0.02869697
4648.00   3.13218665   0.02848246
4650.00   3.15920639   0.02858575
4652.00   3.20649743   0.02874303
4654.00   3.27676010   0.02906287
4656.00   3.25502229   0.02899927
4658.00   3.27813482   0.02908861
4660.00   3.30027747   0.02917077
4662.00   3.33571029   0.02932986
4664.00   3.33986115   0.02939205
4666.00   3.36251307   0.02954713
4668.00   3.35425234   0.02947391
4670.00   3.33321190   0.02946742
4672.00   3.42002416   0.02968349
4674.00   3.39212990   0.02957056
4676.00   3.37300444   0.02943675
4678.00   3.45293760   0.02979073
4680.00   3.44584084   0.02968858
4682.00   3.46817231   0.02970782
4684.00   3.51257873   0.02981748
4686.00   3.44107652   0.02955119
4688.00   3.47197270   0.02966091
4690.00   3.51333737   0.02983530
4692.00   3.53819227   0.02987930
4694.00   3.42841768   0.02944146
4696.00   3.46181917   0.02953471
4698.00   3.43305016   0.02938407
4700.00   3.42948937   0.02937953
4702.00   3.40449572   0.02927835
4704.00   3.40278292   0.02925908
4706.00   3.41454816   0.02934785
4708.00   3.35220361   0.02906973
4710.00   3.32516241   0.02899297
4712.00   3.31301570   0.02892774
4714.00   3.29153991   0.02885077
4716.00   3.25602484   0.02856664
4718.00   3.20978522   0.02840762
4720.00   3.12205410   0.02816918
4722.00   3.10384536   0.02802501
4724.00   3.07423091   0.02784281
4726.00   3.00629401   0.02761936
4728.00   2.87959337   0.02726866
4730.00   2.89466214   0.02732934
4732.00   2.81250072   0.02699259
4734.00   2.79965568   0.02698610
4736.00   2.76911068   0.02682257
4738.00   2.68959618   0.02661576
4740.00   2.69247127   0.02674664
4742.00   2.63276601   0.02645815
4744.00   2.56442356   0.02605054
4746.00   2.57534695   0.02582134
4748.00   2.46135902   0.02525499
4750.00   2.45063639   0.02517145
4752.00   2.41269183   0.02503483
4754.00   2.36193895   0.02467940
4756.00   2.29297876   0.02436589
4758.00   2.27815604   0.02420908
4760.00   2.23070240   0.02392290
4762.00   2.21204329   0.02382244
4764.00   2.17917252   0.02360338
4766.00   2.10991764   0.02329315
4768.00   2.09357119   0.02317944
4770.00   2.09056735   0.02313681
4772.00   2.02055907   0.02277945
4774.00   2.04184318   0.02285231
4776.00   2.03599238   0.02294252
4778.00   1.95722675   0.02262498
4780.00   1.99380922   0.02273137
4782.00   1.97851980   0.02263132
4784.00   1.97483909   0.02256304
4786.00   1.93915033   0.02233870
4788.00   1.97230470   0.02251600
4790.00   1.95404065   0.02243025
4792.00   1.93783116   0.02232761
4794.00   1.93689966   0.02230894
4796.00   1.95888186   0.02243363
4798.00   1.92082047   0.02222295
4800.00   1.95460188   0.02234266
4802.00   1.95342159   0.02234055
4804.00   1.92744279   0.02226041
4806.00   1.89141655   0.02204710
4808.00   1.89280736   0.02208901
4810.00   1.92735469   0.02228309
4812.00   1.86336505   0.02191963
4814.00   1.85985827   0.02191803
4816.00   1.84994400   0.02186934
4818.00   1.80987763   0.02163910
4820.00   1.81034970   0.02166677
4822.00   1.82289052   0.02175136
4824.00   1.82116699   0.02178229
4826.00   1.80982304   0.02171584
4828.00   1.78345537   0.02154956
4830.00   1.75143838   0.02141780
4832.00   1.72883916   0.02127029
4834.00   1.75545311   0.02137358
4836.00   1.76042867   0.02143431
4838.00   1.72218359   0.02133115
4840.00   1.70849097   0.02124925
4842.00   1.72163677   0.02121543
4844.00   1.74535406   0.02133654
4846.00   1.74210763   0.02132073
4848.00   1.73617542   0.02134003
4850.00   1.70926201   0.02119206
4852.00   1.68783271   0.02103890
4854.00   1.68164682   0.02094463
4856.00   1.69354558   0.02097573
4858.00   1.68726015   0.02098530
4860.00   1.70731103   0.02115512
4862.00   1.67424929   0.02100049
4864.00   1.66759288   0.02088615
4866.00   1.71493518   0.02107081
4868.00   1.72804630   0.02110862
4870.00   1.73194039   0.02113960
4872.00   1.71869278   0.02107331
4874.00   1.72271883   0.02108393
4876.00   1.74790025   0.02129488
4878.00   1.77383935   0.02144510
4880.00   1.80610073   0.02159026
4882.00   1.77585876   0.02136935
4884.00   1.83603799   0.02161938
4886.00   1.84534931   0.02162780
4888.00   1.82529116   0.02155093
4890.00   1.83069575   0.02153117
4892.00   1.84703279   0.02161439
4894.00   1.82351267   0.02155159
4896.00   1.85134780   0.02167108
4898.00   1.86346054   0.02171810
4900.00   1.88300693   0.02176142
4902.00   1.87794912   0.02175688
4904.00   1.86466753   0.02170678
4906.00   1.86418748   0.02170180
4908.00   1.85422933   0.02167412
4910.00   1.84140670   0.02151939
4912.00   1.84603667   0.02158746
4914.00   1.82718265   0.02147853
4916.00   1.83059216   0.02148771
4918.00   1.81310785   0.02127283
4920.00   1.84918201   0.02150758
4922.00   1.82173586   0.02140386
4924.00   1.83423638   0.02137850
4926.00   1.81893873   0.02135985
4928.00   1.81168914   0.02131642
4930.00   1.84607494   0.02140073
4932.00   1.86077118   0.02145378
4934.00   1.78739655   0.02115392
4936.00   1.80756235   0.02125387
4938.00   1.80934572   0.02123613
4940.00   1.81917322   0.02130865
4942.00   1.82619739   0.02132598
4944.00   1.80282378   0.02114540
4946.00   1.76744533   0.02089652
4948.00   1.76123953   0.02084586
4950.00   1.75281107   0.02088389
4952.00   1.75930870   0.02091930
4954.00   1.76142049   0.02087800
4956.00   1.73394537   0.02073922
4958.00   1.70264685   0.02055806
4960.00   1.75461411   0.02077801
4962.00   1.71093643   0.02056529
4964.00   1.70516515   0.02056091
4966.00   1.69421184   0.02050756
4968.00   1.68941128   0.02051204
4970.00   1.75600266   0.02091777
4972.00   1.71887004   0.02083034
4974.00   1.74136901   0.02105178
4976.00   1.73440564   0.02112218
4978.00   1.75769687   0.02140512
4980.00   1.77576339   0.02167347
4982.00   1.76740324   0.02162982
4984.00   1.81262541   0.02186291
4986.00   1.83351290   0.02185376
4988.00   1.84773481   0.02173325
4990.00   1.85976470   0.02170292
4992.00   1.86985290   0.02160416
4994.00   1.92116165   0.02175434
4996.00   1.94207168   0.02182435
4998.00   1.93081021   0.02165562
5000.00   1.93970680   0.02166643
5002.00   1.91857660   0.02157450
5004.00   1.95140243   0.02172108
5006.00   1.99073243   0.02186314
5008.00   1.96162915   0.02170541
5010.00   1.96723485   0.02171618
5012.00   1.97137618   0.02174156
5014.00   2.02751040   0.02198005
5016.00   2.00355744   0.02193869
5018.00   2.01407504   0.02198363
5020.00   1.98882425   0.02192646
5022.00   2.02882934   0.02206765
5024.00   1.98566699   0.02183990
5026.00   2.04253674   0.02212087
5028.00   2.00620151   0.02199651
5030.00   1.94973099   0.02175473
5032.00   1.98182166   0.02193754
5034.00   1.96631062   0.02178021
5036.00   1.96682036   0.02179331
5038.00   2.01109147   0.02193386
5040.00   1.96964884   0.02172439
5042.00   1.96603894   0.02172780
5044.00   1.98144746   0.02180340
5046.00   1.93112612   0.02160362
5048.00   1.95255649   0.02166252
5050.00   1.92230451   0.02153245
5052.00   1.92985487   0.02153979
5054.00   1.92366922   0.02156000
5056.00   1.89890611   0.02142239
5058.00   1.88035595   0.02130311
5060.00   1.85163379   0.02118941
5062.00   1.86609054   0.02132036
5064.00   1.88793707   0.02140165
5066.00   1.85749817   0.02129519
5068.00   1.81726933   0.02125117
5070.00   1.79933846   0.02109877
5072.00   1.76794338   0.02090997
5074.00   1.79448223   0.02100364
5076.00   1.76909792   0.02081699
5078.00   1.77352321   0.02091375
5080.00   1.76831436   0.02112553
5082.00   1.74661553   0.02130375
5084.00   1.73477709   0.02137787
5086.00   1.72241867   0.02130723
5088.00   1.70989895   0.02102748
5090.00   1.69651341   0.02057973
5092.00   1.67992413   0.02037897
5094.00   1.66806483   0.02023018
5096.00   1.69358146   0.02039112
5098.00   1.66457117   0.02035771
5100.00   1.66424990   0.02025623
5102.00   1.62759304   0.02000800
5104.00   1.63578904   0.01994716
5106.00   1.65487099   0.01995431
5108.00   1.63117325   0.01984006
5110.00   1.59130549   0.01960694
5112.00   1.57708657   0.01959843
5114.00   1.60309315   0.01973000
5116.00   1.60422373   0.01976956
5118.00   1.57463765   0.01954283
5120.00   1.58719254   0.01952446
5122.00   1.57648826   0.01949282
5124.00   1.54937923   0.01934386
5126.00   1.54189789   0.01933582
5128.00   1.54358196   0.01933702
5130.00   1.55326867   0.01933323
5132.00   1.58036435   0.01950101
5134.00   1.57090449   0.01947712
5136.00   1.58664906   0.01949851
5138.00   1.57238972   0.01943338
5140.00   1.59976912   0.01960135
5142.00   1.60615993   0.01960580
5144.00   1.61119628   0.01966791
5146.00   1.64862800   0.01993538
5148.00   1.62946951   0.01988022
5150.00   1.63732123   0.01998033
5152.00   1.68812263   0.02022182
5154.00   1.64929938   0.02009020
5156.00   1.67312717   0.02016555
5158.00   1.67970765   0.02012294
5160.00   1.70140624   0.02019360
5162.00   1.69015014   0.02009625
5164.00   1.70132077   0.02003706
5166.00   1.69723880   0.02002503
5168.00   1.73290837   0.02012007
5170.00   1.71807575   0.02001303
5172.00   1.73716378   0.02009662
5174.00   1.72442591   0.02009981
5176.00   1.74100256   0.02020607
5178.00   1.78995872   0.02041767
5180.00   1.77596819   0.02036441
5182.00   1.79681492   0.02038397
5184.00   1.78602099   0.02037260
5186.00   1.81776714   0.02048697
5188.00   1.78063083   0.02035724
5190.00   1.83331633   0.02059872
5192.00   1.85089111   0.02067736
5194.00   1.84466827   0.02066620
5196.00   1.81628120   0.02061503
5198.00   1.85494184   0.02078725
5200.00   1.85983658   0.02084164
5202.00   1.85405743   0.02073567
5204.00   1.87696433   0.02081712
5206.00   1.86696208   0.02077475
5208.00   1.88137424   0.02089353
5210.00   1.89819360   0.02094825
5212.00   1.85978544   0.02079111
5214.00   1.87997484   0.02077523
5216.00   1.85628009   0.02076086
5218.00   1.88272738   0.02090657
5220.00   1.89855278   0.02098476
5222.00   1.88148701   0.02090031
5224.00   1.92667019   0.02103791
5226.00   1.92071009   0.02100991
5228.00   1.94731355   0.02108875
5230.00   1.98402297   0.02125474
5232.00   2.01537085   0.02140408
5234.00   2.03634429   0.02148452
5236.00   2.03381610   0.02154239
5238.00   2.01321983   0.02146546
5240.00   2.02728915   0.02150971
5242.00   2.05704999   0.02150248
5244.00   2.08026791   0.02163917
5246.00   2.08127117   0.02165593
5248.00   2.10752654   0.02175381
5250.00   2.11180758   0.02176794
5252.00   2.12284255   0.02186703
5254.00   2.15851736   0.02203344
5256.00   2.17526317   0.02212325
5258.00   2.15325856   0.02201312
5260.00   2.18389225   0.02212087
5262.00   2.27461052   0.02247190
5264.00   2.27398443   0.02242463
5266.00   2.28274894   0.02249707
5268.00   2.35068417   0.02274347
5270.00   2.35087776   0.02277515
5272.00   2.41226196   0.02303403
5274.00   2.44297218   0.02314343
5276.00   2.42113066   0.02308476
5278.00   2.43744373   0.02314492
5280.00   2.49686646   0.02339290
5282.00   2.51912451   0.02350749
5284.00   2.52857757   0.02354548
5286.00   2.51689458   0.02349544
5288.00   2.59669518   0.02384598
5290.00   2.56426358   0.02372467
5292.00   2.64107871   0.02405961
5294.00   2.67547941   0.02409231
5296.00   2.68367171   0.02415912
5298.00   2.67733669   0.02413438
5300.00   2.64338326   0.02399159
5302.00   2.68745399   0.02424187
5304.00   2.73457909   0.02443619
5306.00   2.72334886   0.02437403
5308.00   2.68757010   0.02425497
5310.00   2.70499229   0.02428084
5312.00   2.73280478   0.02442534
5314.00   2.74477172   0.02445489
5316.00   2.75412083   0.02449640
5318.00   2.79044104   0.02461047
5320.00   2.75892782   0.02452285
5322.00   2.83338881   0.02476267
5324.00   2.75117373   0.02449131
5326.00   2.83624482   0.02480991
5328.00   2.82197404   0.02480313
5330.00   2.86074901   0.02497530
5332.00   2.87926745   0.02500250
5334.00   2.84291363   0.02487895
5336.00   2.85189891   0.02497838
5338.00   2.83181596   0.02493972
5340.00   2.86152792   0.02511018
5342.00   2.87158442   0.02515712
5344.00   2.87547231   0.02511630
5346.00   2.83358049   0.02498466
5348.00   2.79351234   0.02492098
5350.00   2.83921218   0.02506955
5352.00   2.83341885   0.02502943
5354.00   2.74975705   0.02480425
5356.00   2.82024312   0.02507830
5358.00   2.76871657   0.02486037
5360.00   2.69593930   0.02452993
5362.00   2.70137715   0.02448451
5364.00   2.66822457   0.02433730
5366.00   2.67352986   0.02430832
5368.00   2.65730143   0.02425752
5370.00   2.61683846   0.02418679
5372.00   2.63049078   0.02425202
5374.00   2.58926916   0.02420010
5376.00   2.62958455   0.02439205
5378.00   2.57239270   0.02419298
5380.00   2.52753758   0.02399958
5382.00   2.55169034   0.02407628
5384.00   2.51890111   0.02397130
5386.00   2.50672984   0.02396222
5388.00   2.49375200   0.02400994
5390.00   2.50197315   0.02407446
5392.00   2.49796915   0.02413986
5394.00   2.49187088   0.02416889
5396.00   2.44263721   0.02404996
5398.00   2.46200013   0.02410042
5400.00   2.49801683   0.02437712
5402.00   2.47534084   0.02428539
5404.00   2.42575502   0.02414567
5406.00   2.42261982   0.02424233
5408.00   2.43152761   0.02436050
5410.00   2.42255950   0.02444455
5412.00   2.40944719   0.02463599
5414.00   2.42239165   0.02473066
5416.00   2.36284566   0.02465083
5418.00   2.35505128   0.02474928
5420.00   2.32698941   0.02476280
5422.00   2.31962895   0.02479669
5424.00   2.37921858   0.02514104
5426.00   2.34408975   0.02508161
5428.00   2.36644268   0.02526046
5430.00   2.32204843   0.02510867
5432.00   2.33959055   0.02522579
5434.00   2.33815384   0.02536861
5436.00   2.28564072   0.02533046
5438.00   2.31352353   0.02561020
5440.00   2.28918362   0.02561824
5442.00   2.36448526   0.02605593
5444.00   2.31478357   0.02595499
5446.00   2.31331444   0.02608342
5448.00   2.30595660   0.02611488
5450.00   2.37122202   0.02659493
5452.00   2.36799717   0.02671639
5454.00   2.31118631   0.02659994
5456.00   2.28345823   0.02729891
5458.00   2.33329463   0.02942978
5460.00   2.36237645   0.03048366
5462.00   2.35828066   0.02996738
5464.00   2.35728288   0.02923613
5466.00   2.37723136   0.02870296
5468.00   2.30674815   0.02807077
5470.00   2.35055733   0.02786883
5472.00   2.33211994   0.02761275
5474.00   2.30759048   0.02738902
5476.00   2.37008739   0.02779449
5478.00   2.34026217   0.02767216
5480.00   2.33205748   0.02778328
5482.00   2.36631155   0.02807994
5484.00   2.39109278   0.02815738
5486.00   2.38329196   0.02811893
5488.00   2.34929729   0.02785644
5490.00   2.32925868   0.02765989
5492.00   2.36145258   0.02783668
5494.00   2.32434964   0.02758988
5496.00   2.29487777   0.02758745
5498.00   2.35907960   0.02785988
5500.00   2.33272529   0.02773469
5502.00   2.36500335   0.02790499
5504.00   2.29353976   0.02756699
5506.00   2.31399822   0.02768739
5508.00   2.36884427   0.02805940
5510.00   2.41112924   0.02817687
5512.00   2.38920331   0.02827983
5514.00   2.35987091   0.02821648
5516.00   2.35301232   0.02822999
5518.00   2.30849504   0.02808766
5520.00   2.28885484   0.02799860
5522.00   2.28714824   0.02809764
5524.00   2.28828979   0.02810330
5526.00   2.27771091   0.02801722
5528.00   2.27325916   0.02802045
5530.00   2.22753716   0.02772821
5532.00   2.27387834   0.02802775
5534.00   2.20301437   0.02763982
5536.00   2.21427989   0.02779848
5538.00   2.21596742   0.02791784
5540.00   2.20685792   0.02798812
5542.00   2.17750859   0.02775428
5544.00   2.17478752   0.02786019
5546.00   2.17403173   0.02788703
5548.00   2.17456698   0.02787813
5550.00   2.12140775   0.02772579
5552.00   2.15274692   0.02792689
5554.00   2.10843801   0.02767197
5556.00   2.05593443   0.02759335
5558.00   2.06176686   0.02755804
5560.00   2.06223035   0.02767871
5562.00   2.04257655   0.02765785
5564.00   2.02252007   0.02774321
5566.00   1.94981730   0.02738621
5568.00   1.97648168   0.02756411
5570.00   1.93013406   0.02743607
5572.00   1.91498983   0.02877401
5574.00   1.94598937   0.03276158
5576.00   1.86663771   0.03441479
5578.00   1.95626092   0.03382908
5580.00   1.92214310   0.03213425
5582.00   1.92140639   0.03091171
5584.00   1.93874490   0.02999255
5586.00   1.91081870   0.02921548
5588.00   1.89055967   0.02853703
5590.00   1.90209436   0.02836477
5592.00   1.88441896   0.02826243
5594.00   1.84569430   0.02815888
5596.00   1.82697892   0.02815468
5598.00   1.86131072   0.02845389
5600.00   1.86136651   0.02870411
5602.00   1.91554642   0.03717584
5604.00   1.91377771   0.03699080
5606.00   1.92682421   0.03681913
5608.00   1.90915334   0.03657853
5610.00   1.93295610   0.03648641
5612.00   1.94292200   0.03633482
5614.00   1.94326079   0.03613103
5616.00   1.96629417   0.03616713
5618.00   1.96115506   0.03601367
5620.00   1.95343351   0.03579374
5622.00   1.95449674   0.03573550
5624.00   1.95279205   0.03560082
5626.00   1.94829309   0.03542908
5628.00   1.93705475   0.03520731
5630.00   1.92350769   0.03502180
5632.00   1.92398870   0.03493256
5634.00   1.94083130   0.03496844
5636.00   1.95330465   0.03500217
5638.00   1.93821633   0.03493943
5640.00   1.95143700   0.03502901
5642.00   1.95230925   0.03501585
5644.00   1.94652712   0.03500558
5646.00   1.95046520   0.03495240
5648.00   1.90027714   0.03468095
5650.00   1.87449551   0.03462244
5652.00   1.88774395   0.03486047
5654.00   1.87332213   0.03481432
5656.00   1.83299255   0.03452603
5658.00   1.82998800   0.03456661
5660.00   1.82605922   0.03458807
5662.00   1.81267965   0.03446691
5664.00   1.78822863   0.03413190
5666.00   1.80519116   0.03421968
5668.00   1.77180338   0.03396432
5670.00   1.73739624   0.03369593
5672.00   1.74312842   0.03365255
5674.00   1.77888584   0.03378444
5676.00   1.77368009   0.03362259
5678.00   1.76988411   0.03349154
5680.00   1.77296031   0.03346732
5682.00   1.77536190   0.03348047
5684.00   1.77473354   0.03357715
5686.00   1.76683331   0.03347423
5688.00   1.76224458   0.03318602
5690.00   1.75104153   0.03269571
5692.00   1.75578558   0.03218662
5694.00   1.77068996   0.03171698
5696.00   1.78668320   0.03125602
5698.00   1.80039263   0.03088638
5700.00   1.79342496   0.03048874
5702.00   1.78292286   0.03021457
5704.00   1.77912676   0.02995710
5706.00   1.79146826   0.02978760
5708.00   1.79656792   0.02966413
5710.00   1.79547632   0.02954062
5712.00   1.76851404   0.02925170
5714.00   1.77810156   0.02919249
5716.00   1.77557993   0.02908461
5718.00   1.77129328   0.02897176
5720.00   1.77045286   0.02885272
5722.00   1.74315929   0.02858275
5724.00   1.74091280   0.02843471
5726.00   1.73069012   0.02824855
5728.00   1.71813238   0.02805622
5730.00   1.71099424   0.02790054
5732.00   1.71758020   0.02789162
5734.00   1.68518162   0.02763044
5736.00   1.67574108   0.02749328
5738.00   1.69191551   0.02750266
5740.00   1.70039177   0.02750430
5742.00   1.68243253   0.02735981
5744.00   1.66485751   0.02719594
5746.00   1.66532481   0.02711949
5748.00   1.65928507   0.02703169
5750.00   1.65396535   0.02696356
5752.00   1.64870846   0.02694509
5754.00   1.65994883   0.02699702
5756.00   1.65907478   0.02701911
5758.00   1.64385450   0.02698999
5760.00   1.62820101   0.02688550
5762.00   1.61047161   0.02682248
5764.00   1.60206807   0.02692878
5766.00   1.59572029   0.02709624
5768.00   1.56965208   0.02707774
5770.00   1.57148874   0.02699480
5772.00   1.57114029   0.02683538
5774.00   1.54521215   0.02648441
5776.00   1.51510108   0.02602827
5778.00   1.49975336   0.02568381
5780.00   1.50302839   0.02562512
5782.00   1.49978209   0.02561043
5784.00   1.48488414   0.02566302
5786.00   1.49547005   0.02590975
5788.00   1.51148081   0.02610925
5790.00   1.52863944   0.02629127
5792.00   1.51765096   0.02622865
5794.00   1.49597418   0.02593531
5796.00   1.47426116   0.02553613
5798.00   1.47626352   0.02532604
5800.00   1.50217497   0.02532648
5802.00   1.52394009   0.02532780
5804.00   1.51832473   0.02526220
5806.00   1.49821615   0.02518975
5808.00   1.50672913   0.02519878
5810.00   1.52917719   0.02529720
5812.00   1.52008593   0.02523853
5814.00   1.50966644   0.02518299
5816.00   1.51840460   0.02521520
5818.00   1.51525176   0.02518109
5820.00   1.50401151   0.02518012
5822.00   1.51968229   0.02524790
5824.00   1.53533018   0.02526405
5826.00   1.54859257   0.02535769
5828.00   1.56540489   0.02546305
5830.00   1.57980835   0.02557143
5832.00   1.58621311   0.02562352
5834.00   1.57734680   0.02559122
5836.00   1.57523763   0.02560473
5838.00   1.59490252   0.02573367
5840.00   1.59531736   0.02572887
5842.00   1.60290587   0.02580222
5844.00   1.60177100   0.02583966
5846.00   1.58892500   0.02569982
5848.00   1.58851612   0.02573506
5850.00   1.60519707   0.02586055
5852.00   1.61338139   0.02592806
5854.00   1.60592592   0.02589836
5856.00   1.61979139   0.02604744
5858.00   1.62565053   0.02610858
5860.00   1.61731148   0.02606619
5862.00   1.61138976   0.02606378
5864.00   1.60553932   0.02611003
5866.00   1.61611116   0.02619762
5868.00   1.61364126   0.02619056
5870.00   1.61924350   0.02621413
5872.00   1.61592638   0.02619801
5874.00   1.61954498   0.02618022
5876.00   1.63554919   0.02634499
5878.00   1.64654982   0.02658373
5880.00   1.64639473   0.02701940
5882.00   1.62494028   0.02774540
5884.00   1.63994753   0.02915189
5886.00   1.63073027   0.03101690
5888.00   1.62918186   0.03269487
5890.00   1.61175334   0.03388437
5892.00   1.61628628   0.03473305
5894.00   1.65927923   0.03521378
5896.00   1.67638624   0.03424873
5898.00   1.70175970   0.03269037
5900.00   1.74082243   0.03110473
5902.00   1.76930654   0.02959848
5904.00   1.81735623   0.02820341
5906.00   1.86654603   0.02753869
5908.00   1.89946783   0.02746557
5910.00   1.91894150   0.02763871
5912.00   1.91951561   0.02769983
5914.00   1.95683002   0.02788796
5916.00   1.97411156   0.02795254
5918.00   1.97664595   0.02796758
5920.00   1.98400354   0.02805138
5922.00   2.00656104   0.02824507
5924.00   2.02360654   0.02834317
5926.00   2.02719808   0.02837093
5928.00   2.04772210   0.02851461
5930.00   2.07910395   0.02872162
5932.00   2.09386802   0.02882798
5934.00   2.10082150   0.02884422
5936.00   2.11412454   0.02886485
5938.00   2.12777472   0.02878935
5940.00   2.12796998   0.02865453
5942.00   2.10062790   0.02846778
5944.00   2.10179782   0.02844455
5946.00   2.10988712   0.02846014
5948.00   2.11278534   0.02851673
5950.00   2.13301611   0.02868971
5952.00   2.18529630   0.02901746
5954.00   2.19573283   0.02878116
5956.00   2.19139695   0.02899490
#5958.00   2.24591374   0.03260817
#5960.00   2.42014694   0.02941223
#5962.00   2.36295199   0.02953857
#5964.00   2.26527596   0.03051945
5966.00   2.23054719   0.02857575
5968.00   2.23390269   0.02903845
5970.00   2.23590946   0.02907432
5972.00   2.22331500   0.02897404
5974.00   2.22743726   0.02898005
5976.00   2.24171567   0.02904267
5978.00   2.25198030   0.02908890
5980.00   2.27315855   0.02913938
5982.00   2.23265195   0.02896657
5984.00   2.23637509   0.02897347
5986.00   2.23315620   0.02894760
5988.00   2.21674132   0.02884261
5990.00   2.21514630   0.02880257
5992.00   2.22671795   0.02883805
5994.00   2.22861171   0.02883724
5996.00   2.21715260   0.02877392
5998.00   2.21388412   0.02873100
6000.00   2.21139884   0.02868311
6002.00   2.20616937   0.02862024
6004.00   2.19867206   0.02854510
6006.00   2.19070888   0.02848148
6008.00   2.16888356   0.02834820
6010.00   2.13951230   0.02817473
6012.00   2.12891746   0.02810254
6014.00   2.12733769   0.02805127
6016.00   2.11748290   0.02795385
6018.00   2.09623623   0.02784548
6020.00   2.06622338   0.02764577
6022.00   2.03901887   0.02746061
6024.00   2.02690673   0.02739983
6026.00   2.03778720   0.02745065
6028.00   2.02666497   0.02736676
6030.00   2.00763893   0.02724944
6032.00   1.97686160   0.02708925
6034.00   1.96915007   0.02703094
6036.00   1.96941984   0.02698023
6038.00   1.95305252   0.02685644
6040.00   1.94715214   0.02674107
6042.00   1.94551837   0.02673262
6044.00   1.96664083   0.02684020
6046.00   1.96849859   0.02682064
6048.00   1.93511331   0.02664834
6050.00   1.93222964   0.02656634
6052.00   1.94031811   0.02659089
6054.00   1.92801178   0.02654702
6056.00   1.90755045   0.02639854
6058.00   1.89835942   0.02633588
6060.00   1.88680995   0.02626751
6062.00   1.88344193   0.02626147
6064.00   1.89719522   0.02630689
6066.00   1.91001999   0.02637351
6068.00   1.92100942   0.02636268
6070.00   1.90385246   0.02626494
6072.00   1.87483561   0.02611558
6074.00   1.86826599   0.02607265
6076.00   1.88615000   0.02615083
6078.00   1.88823354   0.02614179
6080.00   1.88672531   0.02614024
6082.00   1.87740743   0.02608599
6084.00   1.85369051   0.02593094
6086.00   1.84027994   0.02586280
6088.00   1.84958589   0.02588884
6090.00   1.84226453   0.02582980
6092.00   1.82921445   0.02575279
6094.00   1.81643927   0.02572549
6096.00   1.82159615   0.02579843
6098.00   1.81980383   0.02577969
6100.00   1.79968166   0.02568358
6102.00   1.78487051   0.02569781
6104.00   1.78394556   0.02576321
6106.00   1.74888670   0.02569903
6108.00   1.73557103   0.02578160
6110.00   1.73879719   0.02593093
6112.00   1.73411846   0.02599127
6114.00   1.69016230   0.02575772
6116.00   1.67429626   0.02556260
6118.00   1.65849698   0.02531200
6120.00   1.65464437   0.02510446
6122.00   1.64293587   0.02488922
6124.00   1.62533724   0.02463359
6126.00   1.61375713   0.02448671
6128.00   1.61481655   0.02447632
6130.00   1.62454319   0.02447324
6132.00   1.60504401   0.02430046
6134.00   1.61840153   0.02436115
6136.00   1.63365901   0.02441969
6138.00   1.62936592   0.02440037
6140.00   1.61834395   0.02433840
6142.00   1.63082421   0.02439708
6144.00   1.63396072   0.02438059
6146.00   1.63660574   0.02435874
6148.00   1.63532937   0.02438468
6150.00   1.63109732   0.02442393
6152.00   1.63203430   0.02447498
6154.00   1.63409817   0.02452949
6156.00   1.65066850   0.02464186
6158.00   1.65868485   0.02473094
6160.00   1.65450144   0.02472703
6162.00   1.64890480   0.02464480
6164.00   1.63613856   0.02449349
6166.00   1.63306665   0.02436738
6168.00   1.64307308   0.02429830
6170.00   1.65150011   0.02422569
6172.00   1.63384664   0.02402625
6174.00   1.63307559   0.02395824
6176.00   1.64058077   0.02394540
6178.00   1.63826430   0.02391378
6180.00   1.61998808   0.02381718
6182.00   1.61034334   0.02375889
6184.00   1.58663619   0.02359490
6186.00   1.59309161   0.02359111
6188.00   1.61134684   0.02366997
6190.00   1.60942078   0.02363383
6192.00   1.57987642   0.02345639
6194.00   1.55501735   0.02328978
6196.00   1.54778636   0.02322802
6198.00   1.53830040   0.02317200
6200.00   1.50399363   0.02295189
6202.00   1.48642266   0.02279875
6204.00   1.46838510   0.02268244
6206.00   1.42483914   0.02238045
6208.00   1.38666344   0.02211717
6210.00   1.36473501   0.02198942
6212.00   1.33183658   0.02178527
6214.00   1.32406425   0.02169464
6216.00   1.30271053   0.02147351
6218.00   1.28324497   0.02123616
6220.00   1.27379596   0.02116136
6222.00   1.23143637   0.02086165
6224.00   1.21434438   0.02075459
6226.00   1.20392632   0.02066894
6228.00   1.19240940   0.02052333
6230.00   1.15533197   0.02028335
6232.00   1.14157450   0.02024473
6234.00   1.13243663   0.02022525
6236.00   1.12154758   0.02017242
6238.00   1.09677112   0.02004482
6240.00   1.08221304   0.01988759
6242.00   1.08230650   0.01982933
6244.00   1.07695007   0.01970048
6246.00   1.06503797   0.01953137
6248.00   1.05177605   0.01946359
6250.00   1.03959370   0.01935384
6252.00   1.02361083   0.01924614
6254.00   1.01299822   0.01924159
6256.00   1.01342452   0.01928925
6258.00   1.00965500   0.01925093
6260.00   1.03177452   0.01943766
6262.00   1.02318537   0.01936732
6264.00   0.99637717   0.01907566
6266.00   0.97137743   0.01876565
6268.00   0.96769017   0.01866125
6270.00   0.95347697   0.01853952
6272.00   0.94414020   0.01849069
6274.00   0.95018464   0.01857960
6276.00   0.95661360   0.01873036
6278.00   0.93366116   0.01868849
6280.00   0.93208057   0.01868519
6282.00   0.93849039   0.01869087
6284.00   0.93843061   0.01863126
6286.00   0.91894144   0.01842301
6288.00   0.91062742   0.01830488
6290.00   0.92582208   0.01842186
6292.00   0.94181830   0.01858830
6294.00   0.95069546   0.01880745
6296.00   0.95384812   0.01917328
6298.00   0.98063904   0.01972413
6300.00   0.98415726   0.01990139
6302.00   0.99274439   0.01999966
6304.00   1.00182796   0.02005513
6306.00   1.02182090   0.01991368
6308.00   1.03162873   0.01955457
6310.00   1.05279076   0.01947268
6312.00   1.06772482   0.01945378
6314.00   1.07330668   0.01935985
6316.00   1.05985570   0.01924438
6318.00   1.07552326   0.01928104
6320.00   1.08428502   0.01928466
6322.00   1.08960736   0.01930087
6324.00   1.08999205   0.01932804
6326.00   1.09719992   0.01934848
6328.00   1.11301506   0.01947790
6330.00   1.11076403   0.01947356
6332.00   1.10773933   0.01941211
6334.00   1.11820018   0.01945694
6336.00   1.13892174   0.01955543
6338.00   1.14741266   0.01956678
6340.00   1.17134714   0.01969217
6342.00   1.19552517   0.01985923
6344.00   1.21378303   0.01996887
6346.00   1.22799194   0.02007515
6348.00   1.23997128   0.02014061
6350.00   1.25884688   0.02023474
6352.00   1.27572441   0.02031203
6354.00   1.26996040   0.02028926
6356.00   1.28900468   0.02046513
6358.00   1.30695224   0.02064833
6360.00   1.31059408   0.02073923
6362.00   1.31759989   0.02079472
6364.00   1.32911968   0.02086294
6366.00   1.34754789   0.02097197
6368.00   1.34924984   0.02095210
6370.00   1.35287583   0.02087268
6372.00   1.36695230   0.02083874
6374.00   1.39256990   0.02087841
6376.00   1.37139666   0.02113189
6378.00   1.47769344   0.02155889
6380.00   1.43094718   0.02509477
6382.00   1.44562793   0.02135960
6384.00   1.42304754   0.02118889
6386.00   1.51697886   0.02113529
6388.00   1.49314070   0.02146452
6390.00   1.47170985   0.02111246
6392.00   1.48068655   0.02147881
6394.00   1.47545612   0.02141223
6396.00   1.48808849   0.02146941
6398.00   1.50500870   0.02157402
6400.00   1.51732981   0.02163850
6402.00   1.51839483   0.02163146
6404.00   1.52138293   0.02165008
6406.00   1.51788485   0.02163067
6408.00   1.51652467   0.02159653
6410.00   1.52775514   0.02162821
6412.00   1.54178715   0.02171656
6414.00   1.54293537   0.02173200
6416.00   1.54016781   0.02171000
6418.00   1.54472578   0.02172033
6420.00   1.55226326   0.02175651
6422.00   1.56821537   0.02179894
6424.00   1.56927192   0.02177356
6426.00   1.56376803   0.02172367
6428.00   1.55603838   0.02170324
6430.00   1.57100296   0.02180521
6432.00   1.60031033   0.02192531
6434.00   1.59024990   0.02183494
6436.00   1.57793367   0.02174727
6438.00   1.58158588   0.02175325
6440.00   1.57850182   0.02175719
6442.00   1.56662381   0.02166896
6444.00   1.57506979   0.02170880
6446.00   1.57715976   0.02172057
6448.00   1.56537879   0.02164345
6450.00   1.58113086   0.02172123
6452.00   1.57720959   0.02169073
6454.00   1.55721617   0.02160175
6456.00   1.54549181   0.02154870
6458.00   1.54896402   0.02154540
6460.00   1.54526865   0.02152576
6462.00   1.55008972   0.02158084
6464.00   1.56264782   0.02162735
6466.00   1.55626059   0.02157597
6468.00   1.54182243   0.02154398
6470.00   1.54573631   0.02153596
6472.00   1.53310966   0.02139815
6474.00   1.51425362   0.02124805
6476.00   1.50994253   0.02120984
6478.00   1.51447880   0.02119948
6480.00   1.53561056   0.02128667
6482.00   1.54464626   0.02133220
6484.00   1.54424131   0.02132256
6486.00   1.54134274   0.02126423
6488.00   1.52818537   0.02118856
6490.00   1.52339745   0.02115696
6492.00   1.52447748   0.02117787
6494.00   1.52573681   0.02122910
6496.00   1.52045250   0.02126350
6498.00   1.53155422   0.02138225
6500.00   1.53862476   0.02146535
6502.00   1.55116785   0.02153894
6504.00   1.56320727   0.02157923
6506.00   1.57281625   0.02159256
6508.00   1.57554495   0.02158219
6510.00   1.56597769   0.02151189
6512.00   1.55028594   0.02136180
6514.00   1.53741610   0.02119546
6516.00   1.53212535   0.02109035
6518.00   1.52808893   0.02107839
6520.00   1.52275121   0.02106402
6522.00   1.53241444   0.02113644
6524.00   1.55315650   0.02127663
6526.00   1.57603025   0.02142944
6528.00   1.57089388   0.02141896
6530.00   1.56584167   0.02140483
6532.00   1.56018484   0.02139015
6534.00   1.55536079   0.02136701
6536.00   1.55227625   0.02133498
6538.00   1.56099176   0.02132553
6540.00   1.57260132   0.02134194
6542.00   1.57042313   0.02130716
6544.00   1.55445373   0.02123144
6546.00   1.55569184   0.02126456
6548.00   1.56601393   0.02130352
6550.00   1.56818831   0.02132270
6552.00   1.56278360   0.02132093
6554.00   1.55285645   0.02125391
6556.00   1.56128645   0.02128463
6558.00   1.56467211   0.02136236
6560.00   1.55632246   0.02136355
6562.00   1.55817068   0.02138610
6564.00   1.56389713   0.02140046
6566.00   1.56092405   0.02138262
6568.00   1.55412006   0.02128373
6570.00   1.55599535   0.02118899
6572.00   1.56386960   0.02117709
6574.00   1.56414068   0.02118279
6576.00   1.56210506   0.02114628
6578.00   1.57028329   0.02119881
6580.00   1.57445002   0.02124087
6582.00   1.57853186   0.02123862
6584.00   1.55891478   0.02110412
6586.00   1.55855179   0.02109496
6588.00   1.56360257   0.02110682
6590.00   1.57458055   0.02114568
6592.00   1.58173525   0.02115480
6594.00   1.57314348   0.02110817
6596.00   1.56158912   0.02101843
6598.00   1.55430543   0.02096186
6600.00   1.55411911   0.02096214
6602.00   1.57195818   0.02103652
6604.00   1.56447744   0.02098647
6606.00   1.56082916   0.02096805
6608.00   1.56711233   0.02098494
6610.00   1.55956137   0.02091502
6612.00   1.52810800   0.02073167
6614.00   1.52878678   0.02066427
6616.00   1.54042399   0.02069263
6618.00   1.53406465   0.02067108
6620.00   1.51729524   0.02059731
6622.00   1.50789022   0.02052437
6624.00   1.50217998   0.02051735
6626.00   1.50286233   0.02050041
6628.00   1.50817013   0.02050399
6630.00   1.52019989   0.02055059
6632.00   1.49385393   0.02039218
6634.00   1.47351265   0.02028135
6636.00   1.48389351   0.02032531
6638.00   1.49916995   0.02038170
6640.00   1.48786294   0.02028671
6642.00   1.46068823   0.02014293
6644.00   1.43906415   0.02001666
6646.00   1.42996788   0.01995317
6648.00   1.43043470   0.01993185
6650.00   1.43570220   0.01993807
6652.00   1.42408943   0.01987114
6654.00   1.42308664   0.01987062
6656.00   1.41281736   0.01981282
6658.00   1.40192127   0.01975367
6660.00   1.38848317   0.01965534
6662.00   1.38045931   0.01960553
6664.00   1.37361085   0.01960471
6666.00   1.36566937   0.01957751
6668.00   1.36402953   0.01954418
6670.00   1.34876573   0.01941501
6672.00   1.34589279   0.01934091
6674.00   1.34354651   0.01926553
6676.00   1.34072006   0.01923159
6678.00   1.33349836   0.01923797
6680.00   1.31242073   0.01915166
6682.00   1.29660499   0.01900542
6684.00   1.29363787   0.01895565
6686.00   1.30002296   0.01896716
6688.00   1.29364538   0.01891479
6690.00   1.28235710   0.01884396
6692.00   1.26713765   0.01875155
6694.00   1.26348424   0.01869704
6696.00   1.26230347   0.01866108
6698.00   1.24307024   0.01854948
6700.00   1.23196125   0.01849291
6702.00   1.23831880   0.01854279
6704.00   1.23601508   0.01855869
6706.00   1.21852422   0.01847967
6708.00   1.20422161   0.01840162
6710.00   1.20547974   0.01842546
6712.00   1.21363831   0.01847004
6714.00   1.21999836   0.01845768
6716.00   1.20629418   0.01830944
6718.00   1.18296230   0.01815358
6720.00   1.19003427   0.01818529
6722.00   1.19509459   0.01819636
6724.00   1.18497705   0.01811036
6726.00   1.16319740   0.01796092
6728.00   1.15270317   0.01789835
6730.00   1.14880049   0.01785270
6732.00   1.15441167   0.01786836
6734.00   1.16020977   0.01788476
6736.00   1.14570916   0.01781143
6738.00   1.12670743   0.01767957
6740.00   1.12332308   0.01763031
6742.00   1.12406313   0.01758717
6744.00   1.12413990   0.01755008
6746.00   1.11439621   0.01753310
6748.00   1.10017025   0.01742979
6750.00   1.09249496   0.01735741
6752.00   1.08267868   0.01728907
6754.00   1.07559788   0.01724080
6756.00   1.08092582   0.01724228
6758.00   1.06486833   0.01715461
6760.00   1.06534278   0.01713173
6762.00   1.05771315   0.01706694
6764.00   1.05338895   0.01706836
6766.00   1.06884563   0.01712270
6768.00   1.06704938   0.01707613
6770.00   1.05943215   0.01706620
6772.00   1.04570878   0.01699049
6774.00   1.03261137   0.01686783
6776.00   1.02875972   0.01680789
6778.00   1.02219284   0.01675871
6780.00   1.01821244   0.01672765
6782.00   1.02142477   0.01674432
6784.00   1.02299654   0.01674774
6786.00   1.01801145   0.01672688
6788.00   1.00007844   0.01657299
6790.00   0.98457891   0.01644663
6792.00   0.97735268   0.01642644
6794.00   0.98565978   0.01650103
6796.00   0.99669695   0.01653927
6798.00   0.98481870   0.01643087
6800.00   0.96790886   0.01629834
6802.00   0.96382380   0.01626932
6804.00   0.96883154   0.01632620
6806.00   0.96858436   0.01632742
6808.00   0.95838946   0.01627078
6810.00   0.95978862   0.01627302
6812.00   0.95654827   0.01622157
6814.00   0.95326996   0.01619835
6816.00   0.94546002   0.01613056
6818.00   0.93213338   0.01605408
6820.00   0.92773980   0.01602496
6822.00   0.92907619   0.01603399
6824.00   0.93451923   0.01613894
6826.00   0.92638427   0.01619188
6828.00   0.92317557   0.01626218
6830.00   0.92680973   0.01637532
6832.00   0.92493647   0.01640888
6834.00   0.90725201   0.01622421
6836.00   0.89905590   0.01611221
6838.00   0.89376110   0.01600699
6840.00   0.88829756   0.01586497
6842.00   0.87976474   0.01571528
6844.00   0.87633753   0.01566045
6846.00   0.89416981   0.01578140
6848.00   0.90742540   0.01584019
6850.00   0.90547585   0.01579711
6852.00   0.89372271   0.01571777
6854.00   0.88538504   0.01564682
6856.00   0.88373882   0.01565704
6858.00   0.88095254   0.01573897
6860.00   0.88027626   0.01587505
6862.00   0.88093036   0.01593412
6864.00   0.87328142   0.01596447
6866.00   0.86570716   0.01649206
6868.00   0.86574060   0.01746699
6870.00   0.86825728   0.01839622
6872.00   0.85302138   0.01852894
6874.00   0.84849143   0.01825869
6876.00   0.85176605   0.01783489
6878.00   0.84527540   0.01718724
6880.00   0.84342146   0.01658580
6882.00   0.84498221   0.01612028
6884.00   0.84829521   0.01604696
6886.00   0.84775066   0.01618920
6888.00   0.84205705   0.01638063
6890.00   0.83351201   0.01645058
6892.00   0.84050655   0.01646044
6894.00   0.84754270   0.01651323
6896.00   0.84515136   0.01650925
6898.00   0.83165604   0.01636666
6900.00   0.82912165   0.01623102
6902.00   0.82975751   0.01612825
6904.00   0.83609700   0.01606975
6906.00   0.84312224   0.01604413
6908.00   0.83959818   0.01598885
6910.00   0.83856851   0.01597825
6912.00   0.82749081   0.01584189
6914.00   0.81926161   0.01570731
6916.00   0.81208634   0.01559736
6918.00   0.80150509   0.01548901
6920.00   0.80797100   0.01555890
6922.00   0.81310725   0.01564612
6924.00   0.81137252   0.01566832
6926.00   0.80051947   0.01561797
6928.00   0.79117996   0.01560029
6930.00   0.78955078   0.01559243
6932.00   0.79745728   0.01552109
6934.00   0.80026406   0.01547157
6936.00   0.79924130   0.01552483
6938.00   0.80767775   0.01567402
6940.00   0.79818946   0.01575562
6942.00   0.79432636   0.01577032
6944.00   0.79497796   0.01572767
6946.00   0.79685187   0.01568675
6948.00   0.80306387   0.01578271
6950.00   0.80339265   0.01569459
6952.00   0.80001354   0.01556632
6954.00   0.79364204   0.01544668
6956.00   0.79198903   0.01542296
6958.00   0.79349595   0.01542093
6960.00   0.78085309   0.01531230
6962.00   0.77269220   0.01513734
6964.00   0.77182561   0.01497676
6966.00   0.77518851   0.01490214
6968.00   0.77652019   0.01486247
6970.00   0.78353173   0.01492198
6972.00   0.77676314   0.01493504
6974.00   0.76872277   0.01492949
6976.00   0.77428484   0.01497055
6978.00   0.78121239   0.01504955
6980.00   0.77596426   0.01502314
6982.00   0.76979512   0.01497153
6984.00   0.76762658   0.01497206
6986.00   0.76394957   0.01497652
6988.00   0.76772624   0.01506496
6990.00   0.77039701   0.01513842
6992.00   0.77290457   0.01517868
6994.00   0.76787728   0.01512071
6996.00   0.76045275   0.01504045
6998.00   0.76340646   0.01500410
7000.00   0.76415724   0.01496574
7002.00   0.76413709   0.01498194
7004.00   0.76377505   0.01506364
7006.00   0.76863259   0.01518487
7008.00   0.76802891   0.01516062
7010.00   0.76009703   0.01500244
7012.00   0.75343698   0.01484992
7014.00   0.75886410   0.01489521
7016.00   0.76575249   0.01499244
7018.00   0.75951791   0.01493579
7020.00   0.75229079   0.01482877
7022.00   0.75124854   0.01479817
7024.00   0.76009321   0.01490533
7026.00   0.77584213   0.01515912
7028.00   0.76869011   0.01515276
7030.00   0.75325328   0.01492746
7032.00   0.74279600   0.01463385
7034.00   0.74563789   0.01455401
7036.00   0.74721265   0.01460424
7038.00   0.75173002   0.01471584
7040.00   0.74674302   0.01474591
7042.00   0.74194020   0.01471131
7044.00   0.75301045   0.01479036
7046.00   0.76487780   0.01486523
7048.00   0.75615573   0.01480170
7050.00   0.74004775   0.01469872
7052.00   0.74269700   0.01475949
7054.00   0.76104450   0.01489568
7056.00   0.75864512   0.01480087
7058.00   0.75422955   0.01472263
7060.00   0.75118858   0.01472418
7062.00   0.74413878   0.01470985
7064.00   0.73879987   0.01459513
7066.00   0.73479176   0.01451496
7068.00   0.73342323   0.01448805
7070.00   0.72939390   0.01446813
7072.00   0.72341651   0.01442252
7074.00   0.73075962   0.01442742
7076.00   0.72879773   0.01442481
7078.00   0.72601622   0.01445677
7080.00   0.72380042   0.01445754
7082.00   0.72417325   0.01442244
7084.00   0.72604531   0.01438285
7086.00   0.72925258   0.01439664
7088.00   0.72030097   0.01434548
7090.00   0.71672773   0.01433500
7092.00   0.73032886   0.01441675
7094.00   0.72470236   0.01437088
7096.00   0.71977931   0.01429054
7098.00   0.72007638   0.01422890
7100.00   0.72662145   0.01425235
7102.00   0.73016864   0.01432755
7104.00   0.72830182   0.01431266
7106.00   0.72174233   0.01426051
7108.00   0.71662503   0.01422957
7110.00   0.71885079   0.01424659
7112.00   0.72328067   0.01425174
7114.00   0.71723133   0.01419558
7116.00   0.71362871   0.01416120
7118.00   0.71960956   0.01420795
7120.00   0.72327524   0.01424711
7122.00   0.72498703   0.01427604
7124.00   0.72038728   0.01423914
7126.00   0.72288543   0.01425305
7128.00   0.72306365   0.01427835
7130.00   0.71124977   0.01421499
7132.00   0.71367860   0.01417782
7134.00   0.71614808   0.01415095
7136.00   0.71044821   0.01411858
7138.00   0.70569044   0.01413379
7140.00   0.71029663   0.01415731
7142.00   0.70673704   0.01411504
7144.00   0.70594096   0.01413660
7146.00   0.70523804   0.01421569
7148.00   0.70231819   0.01426481
7150.00   0.70263356   0.01424052
7152.00   0.70167357   0.01418198
7154.00   0.69753677   0.01411313
7156.00   0.69999933   0.01414353
7158.00   0.70568091   0.01420619
7160.00   0.70497364   0.01417682
7162.00   0.70125246   0.01417354
7164.00   0.70235521   0.01430869
7166.00   0.70106357   0.01454224
7168.00   0.69887334   0.01485274
7170.00   0.70214444   0.01520002
7172.00   0.69716591   0.01546954
7174.00   0.69477886   0.01572846
7176.00   0.69661111   0.01590521
7178.00   0.70455313   0.01585344
7180.00   0.70810634   0.01558977
7182.00   0.71393919   0.01558028
7184.00   0.72114235   0.01598744
7186.00   0.72392368   0.01652036
7188.00   0.70702481   0.01623808
7190.00   0.69884855   0.01590088
7192.00   0.70308763   0.01591782
7194.00   0.70222139   0.01603461
7196.00   0.69260424   0.01582388
7198.00   0.70147353   0.01583116
7200.00   0.71320611   0.01610889
7202.00   0.71164292   0.01622668
7204.00   0.69865018   0.01600676
7206.00   0.70412517   0.01577285
7208.00   0.71366197   0.01547043
7210.00   0.71667075   0.01512635
7212.00   0.71295959   0.01475628
7214.00   0.70952767   0.01448078
7216.00   0.70896602   0.01444782
7218.00   0.71169853   0.01448771
7220.00   0.70518035   0.01436604
7222.00   0.70283884   0.01432146
7224.00   0.71075886   0.01449056
7226.00   0.70632046   0.01453844
7228.00   0.69243616   0.01436597
7230.00   0.68465114   0.01441340
7232.00   0.68547601   0.01492305
7234.00   0.70251989   0.01586027
7236.00   0.70876938   0.01626114
7238.00   0.70401764   0.01629756
7240.00   0.70186204   0.01647374
7242.00   0.70164919   0.01681570
7244.00   0.69573432   0.01696792
7246.00   0.70489007   0.01661503
7248.00   0.70171791   0.01603681
7250.00   0.69591397   0.01576239
7252.00   0.70458084   0.01591238
7254.00   0.71115893   0.01593990
7256.00   0.69772339   0.01552571
7258.00   0.69705230   0.01525070
7260.00   0.70026183   0.01512640
7262.00   0.69736934   0.01515552
7264.00   0.70314163   0.01546216
7266.00   0.70569754   0.01545485
7268.00   0.69553870   0.01512977
7270.00   0.68942207   0.01498777
7272.00   0.68816113   0.01536287
7274.00   0.69128340   0.01607123
7276.00   0.69555742   0.01681286
7278.00   0.70115232   0.01707340
7280.00   0.69726562   0.01665630
7282.00   0.69322234   0.01576761
7284.00   0.67272121   0.01490323
7286.00   0.67221278   0.01471719
7288.00   0.68988258   0.01513354
7290.00   0.70588136   0.01564636
7292.00   0.70359844   0.01573864
7294.00   0.69998473   0.01549250
7296.00   0.68208700   0.01498828
7298.00   0.66441792   0.01459666
7300.00   0.66654539   0.01465835
7302.00   0.68113881   0.01510831
7304.00   0.68818969   0.01534636
7306.00   0.67013931   0.01507134
7308.00   0.66398019   0.01485551
7310.00   0.67767501   0.01506405
7312.00   0.67931694   0.01535827
7314.00   0.67276520   0.01541633
7316.00   0.67770505   0.01559247
7318.00   0.68036729   0.01567421
7320.00   0.67364168   0.01537602
7322.00   0.67911834   0.01480141
7324.00   0.68556166   0.01446581
7326.00   0.68408012   0.01437679
7328.00   0.67851895   0.01440838
7330.00   0.67724937   0.01441687
7332.00   0.67750865   0.01447586
7334.00   0.68572038   0.01461951
7336.00   0.69482017   0.01477547
7338.00   0.69729972   0.01501758
7340.00   0.69563872   0.01539582
7342.00   0.70456952   0.01600760
7344.00   0.69503021   0.01609592
7346.00   0.68728018   0.01547056
7348.00   0.68079251   0.01454722
7350.00   0.67483693   0.01406648
7352.00   0.67508668   0.01405265
7354.00   0.67689103   0.01412623
7356.00   0.67648393   0.01421543
7358.00   0.68166119   0.01428467
7360.00   0.68188363   0.01434727
7362.00   0.67180777   0.01436139
7364.00   0.66207939   0.01445989
7366.00   0.66651738   0.01462442
7368.00   0.67792940   0.01476732
7370.00   0.66625559   0.01474981
7372.00   0.65544969   0.01474865
7374.00   0.66191190   0.01457613
7376.00   0.67282796   0.01433917
7378.00   0.66948366   0.01405631
7380.00   0.66534686   0.01385975
7382.00   0.66369957   0.01379361
7384.00   0.66213745   0.01378453
7386.00   0.66491294   0.01381171
7388.00   0.67492408   0.01393981
7390.00   0.67806816   0.01403260
7392.00   0.67115474   0.01394056
7394.00   0.66631693   0.01389318
7396.00   0.66572767   0.01399162
7398.00   0.66124064   0.01406689
7400.00   0.65636140   0.01401592
7402.00   0.65903777   0.01401841
7404.00   0.67030209   0.01408140
7406.00   0.67848605   0.01404162
7408.00   0.65813637   0.01362268
7410.00   0.65065956   0.01340089
7412.00   0.64979428   0.01334625
7414.00   0.65305710   0.01338466
7416.00   0.65130448   0.01339541
7418.00   0.65566748   0.01345604
7420.00   0.64724159   0.01338038
7422.00   0.64247197   0.01332539
7424.00   0.64619225   0.01335518
7426.00   0.65221298   0.01343196
7428.00   0.64646077   0.01340907
7430.00   0.63892239   0.01337173
7432.00   0.63905019   0.01344571
7434.00   0.64175969   0.01356940
7436.00   0.63125950   0.01351435
7438.00   0.63641393   0.01351193
7440.00   0.64229697   0.01353027
7442.00   0.63996768   0.01348438
7444.00   0.63161939   0.01334303
7446.00   0.62969416   0.01327691
7448.00   0.63195801   0.01326544
7450.00   0.62719411   0.01319460
7452.00   0.62452358   0.01314221
7454.00   0.62772828   0.01316398
7456.00   0.63118416   0.01322544
7458.00   0.62209892   0.01317648
7460.00   0.61676151   0.01313390
7462.00   0.62232739   0.01316629
7464.00   0.63330960   0.01327053
7466.00   0.62953240   0.01330198
7468.00   0.61417061   0.01324646
7470.00   0.60805088   0.01321101
7472.00   0.61473686   0.01325604
7474.00   0.61263841   0.01328378
7476.00   0.60065359   0.01325509
7478.00   0.59358639   0.01321045
7480.00   0.59112722   0.01318154
7482.00   0.58984333   0.01316204
7484.00   0.59010381   0.01312652
7486.00   0.59280521   0.01310951
7488.00   0.58905637   0.01300796
7490.00   0.58416378   0.01288947
7492.00   0.58244014   0.01281029
7494.00   0.58133280   0.01281049
7496.00   0.58184522   0.01282013
7498.00   0.57778090   0.01280177
7500.00   0.57246476   0.01274338
7502.00   0.56631595   0.01265596
7504.00   0.56852573   0.01265444
7506.00   0.55753678   0.01255935
7508.00   0.54459572   0.01245320
7510.00   0.54175186   0.01243541
7512.00   0.55153960   0.01252073
7514.00   0.56163192   0.01258919
7516.00   0.55879611   0.01258396
7518.00   0.55020064   0.01263393
7520.00   0.54215389   0.01277201
7522.00   0.53957671   0.01291087
7524.00   0.53883719   0.01293151
7526.00   0.53685385   0.01293552
7528.00   0.53293312   0.01286163
7530.00   0.53457558   0.01273342
7532.00   0.54385632   0.01260678
7534.00   0.54277277   0.01251566
7536.00   0.52769017   0.01236333
7538.00   0.51883292   0.01227600
7540.00   0.52537870   0.01228768
7542.00   0.52316445   0.01226145
7544.00   0.51677251   0.01221156
7546.00   0.51402408   0.01217058
7548.00   0.51380754   0.01213754
7550.00   0.51950228   0.01218426
7552.00   0.51954049   0.01223397
7554.00   0.51381218   0.01221053
7556.00   0.50626290   0.01214394
7558.00   0.50747859   0.01215803
7560.00   0.51412958   0.01221632
7562.00   0.51278931   0.01216866
7564.00   0.51165342   0.01216627
7566.00   0.50356716   0.01217388
7568.00   0.49701610   0.01225254
7570.00   0.49232197   0.01233368
7572.00   0.50687033   0.01251309
7574.00   0.50921959   0.01251684
7576.00   0.50279307   0.01238365
7578.00   0.50045222   0.01222219
7580.00   0.50601190   0.01211293
7582.00   0.49523357   0.01202788
7584.00   0.49656221   0.01209163
7586.00   0.50543839   0.01220821
7588.00   0.50771141   0.01224241
7590.00   0.50117373   0.01213598
7592.00   0.48385540   0.01222230
7594.00   0.48903695   0.01340357
7596.00   0.49732271   0.01551345
7598.00   0.48275128   0.01783326
7600.00   0.44606709   0.01995842
7602.00   0.44267222   0.02260012
7604.00   0.44425598   0.02463442
7606.00   0.43329898   0.02524407
7608.00   0.43584177   0.02450672
7610.00   0.43864059   0.02274168
7612.00   0.46492425   0.02107525
7614.00   0.47966361   0.01903242
7616.00   0.45990595   0.01622658
7618.00   0.43323103   0.01372731
7620.00   0.43988338   0.01321664
7622.00   0.45047280   0.01411258
7624.00   0.45058179   0.01525126
7626.00   0.44197825   0.01602574
7628.00   0.44503257   0.01655256
7630.00   0.43471053   0.01662374
7632.00   0.43163022   0.01649395
7634.00   0.43631801   0.01629192
7636.00   0.44179073   0.01604735
7638.00   0.44609877   0.01563292
7640.00   0.45486498   0.01547857
7642.00   0.44660854   0.01511527
7644.00   0.43555188   0.01461066
7646.00   0.44289625   0.01438066
7648.00   0.46326900   0.01435469
7650.00   0.45200035   0.01398136
7652.00   0.43866062   0.01356981
7654.00   0.43297756   0.01328637
7656.00   0.44757506   0.01324125
7658.00   0.44153479   0.01305900
7660.00   0.43959880   0.01289773
7662.00   0.44084182   0.01275472
7664.00   0.44749311   0.01268587
7666.00   0.43963376   0.01247830
7668.00   0.43208992   0.01217154
7670.00   0.43414316   0.01207715
7672.00   0.44318071   0.01207033
7674.00   0.45428237   0.01200834
7676.00   0.46468663   0.01203877
7678.00   0.45162284   0.01189439
7680.00   0.44341445   0.01176825
7682.00   0.44489446   0.01175824
7684.00   0.44614029   0.01178674
7686.00   0.44614992   0.01179260
7688.00   0.44918084   0.01182460
7690.00   0.44187859   0.01173769
7692.00   0.43327746   0.01163902
7694.00   0.44797966   0.01179067
7696.00   0.44550517   0.01185295
7698.00   0.43880668   0.01177679
7700.00   0.43885505   0.01173530
7702.00   0.44078776   0.01173114
7704.00   0.43468258   0.01164387
7706.00   0.43333817   0.01165467
7708.00   0.43779638   0.01193038
7710.00   0.44379234   0.01234830
7712.00   0.45081744   0.01282129
7714.00   0.46949968   0.01336724
7716.00   0.45781532   0.01340370
7718.00   0.44975868   0.01311792
7720.00   0.45702684   0.01282219
7722.00   0.46428356   0.01253216
7724.00   0.45528424   0.01210085
7726.00   0.45582798   0.01193984
7728.00   0.45524880   0.01187031
7730.00   0.45562169   0.01183334
7732.00   0.45666885   0.01181230
7734.00   0.46450493   0.01183859
7736.00   0.46577969   0.01185144
7738.00   0.46147117   0.01181012
7740.00   0.45905468   0.01177169
7742.00   0.46129480   0.01180895
7744.00   0.46807003   0.01206761
7746.00   0.46744323   0.01254911
7748.00   0.45686325   0.01290472
7750.00   0.44996548   0.01302398
7752.00   0.46402657   0.01309446
7754.00   0.46900192   0.01309677
7756.00   0.46493378   0.01281620
7758.00   0.46444109   0.01246893
7760.00   0.47029495   0.01229731
7762.00   0.47375944   0.01229820
7764.00   0.46416959   0.01215332
7766.00   0.46727777   0.01199903
7768.00   0.47580609   0.01195203
7770.00   0.48473951   0.01206611
7772.00   0.48214242   0.01208556
7774.00   0.48670983   0.01219375
7776.00   0.48264241   0.01225948
7778.00   0.47431192   0.01225735
7780.00   0.47898874   0.01223495
7782.00   0.48123768   0.01223016
7784.00   0.47867808   0.01220243
7786.00   0.47593772   0.01212651
7788.00   0.48023692   0.01224983
7790.00   0.48552060   0.01263767
7792.00   0.49163166   0.01297136
7794.00   0.49107620   0.01304105
7796.00   0.48544458   0.01298803
7798.00   0.47985387   0.01279247
7800.00   0.47977018   0.01239454
7802.00   0.47983766   0.01213889
7804.00   0.47984871   0.01218242
7806.00   0.48370552   0.01235321
7808.00   0.49224591   0.01248392
7810.00   0.49954495   0.01255487
7812.00   0.49456039   0.01246661
7814.00   0.49010801   0.01242572
7816.00   0.48764479   0.01258800
7818.00   0.48879075   0.01297104
7820.00   0.49515161   0.01325610
7822.00   0.50150639   0.01337408
7824.00   0.49805987   0.01329109
7826.00   0.48908973   0.01295163
7828.00   0.48788047   0.01243517
7830.00   0.48763680   0.01210635
7832.00   0.48728827   0.01201716
7834.00   0.48885870   0.01207310
7836.00   0.49135670   0.01219939
7838.00   0.48704776   0.01232866
7840.00   0.48632810   0.01239202
7842.00   0.49574271   0.01249320
7844.00   0.49905297   0.01253460
7846.00   0.49781251   0.01259760
7848.00   0.49707356   0.01282621
7850.00   0.50341868   0.01317652
7852.00   0.50057542   0.01338333
7854.00   0.49529037   0.01351254
7856.00   0.49545464   0.01361424
7858.00   0.50713462   0.01350909
7860.00   0.51029372   0.01316773
7862.00   0.49996015   0.01286362
7864.00   0.49793640   0.01282715
7866.00   0.50648218   0.01292953
7868.00   0.50381893   0.01290880
7870.00   0.50587767   0.01295024
7872.00   0.51173943   0.01303441
7874.00   0.51858783   0.01311596
7876.00   0.52494860   0.01314531
7878.00   0.52623147   0.01308944
7880.00   0.52324510   0.01303033
7882.00   0.52712053   0.01306216
7884.00   0.52739364   0.01310922
7886.00   0.51940894   0.01318859
7888.00   0.51467103   0.01324623
7890.00   0.51434547   0.01326502
7892.00   0.51613832   0.01332523
7894.00   0.52633399   0.01343484
7896.00   0.52168071   0.01310258
7898.00   0.52254635   0.01279802
7900.00   0.52604502   0.01274421
7902.00   0.52713132   0.01275467
7904.00   0.52393931   0.01267824
7906.00   0.51613384   0.01271888
7908.00   0.52962542   0.01329998
7910.00   0.53489631   0.01389606
7912.00   0.53206384   0.01417326
7914.00   0.53462875   0.01420004
7916.00   0.55617172   0.01455807
7918.00   0.55713695   0.01452765
7920.00   0.54548430   0.01411889
7922.00   0.53564435   0.01358708
7924.00   0.54044962   0.01342964
7926.00   0.55051386   0.01346736
7928.00   0.55360144   0.01346508
7930.00   0.54897332   0.01339538
7932.00   0.53737354   0.01324153
7934.00   0.53804421   0.01313573
7936.00   0.53633022   0.01292610
7938.00   0.54960972   0.01281552
7940.00   0.55862492   0.01282011
7942.00   0.56443793   0.01293168
7944.00   0.56562465   0.01301935
7946.00   0.55236048   0.01300052
7948.00   0.55021101   0.01305306
7950.00   0.55697668   0.01313936
7952.00   0.56819588   0.01323584
7954.00   0.56022245   0.01307179
7956.00   0.55116951   0.01288376
7958.00   0.56084269   0.01314032
7960.00   0.56909889   0.01372329
7962.00   0.56496912   0.01422589
7964.00   0.56167060   0.01424173
7966.00   0.56028384   0.01415763
7968.00   0.56508368   0.01405626
7970.00   0.56848627   0.01379261
7972.00   0.56397778   0.01333075
7974.00   0.57042074   0.01328995
7976.00   0.56666142   0.01337473
7978.00   0.57097983   0.01346394
7980.00   0.57698005   0.01349354
7982.00   0.57107115   0.01342010
7984.00   0.56877118   0.01339770
7986.00   0.56835037   0.01342097
7988.00   0.56195527   0.01354650
7990.00   0.55737203   0.01378843
7992.00   0.55985945   0.01395436
7994.00   0.55550355   0.01400100
7996.00   0.56391931   0.01408336
7998.00   0.57490295   0.01402631
8000.00   0.56781006   0.01360233
8002.00   0.55666715   0.01315891
8004.00   0.56470674   0.01307028
8006.00   0.57225078   0.01315750
8008.00   0.57647818   0.01330278
8010.00   0.57523626   0.01339932
8012.00   0.56779963   0.01347711
8014.00   0.56236631   0.01344880
8016.00   0.56170815   0.01337282
8018.00   0.56287313   0.01333949
8020.00   0.56281000   0.01346951
8022.00   0.55320293   0.01364174
8024.00   0.55903697   0.01390108
8026.00   0.56314832   0.01402020
8028.00   0.55518216   0.01391367
8030.00   0.54580694   0.01364725
8032.00   0.55103725   0.01332407
8034.00   0.55451870   0.01306530
8036.00   0.55602801   0.01297543
8038.00   0.55961829   0.01302620
8040.00   0.56301540   0.01301111
8042.00   0.55896360   0.01298555
8044.00   0.54848194   0.01294901
8046.00   0.53498346   0.01288010
8048.00   0.53213024   0.01282914
8050.00   0.53604746   0.01281750
8052.00   0.53465563   0.01282915
8054.00   0.53450233   0.01288028
8056.00   0.53184670   0.01289123
8058.00   0.52411008   0.01282699
8060.00   0.52061945   0.01289231
8062.00   0.52648246   0.01300963
8064.00   0.53044409   0.01300670
8066.00   0.52938193   0.01286681
8068.00   0.51510918   0.01261036
8070.00   0.51031154   0.01248610
8072.00   0.50985634   0.01242509
8074.00   0.50522000   0.01236809
8076.00   0.49611688   0.01230564
8078.00   0.49685490   0.01233051
8080.00   0.49720988   0.01234376
8082.00   0.50145596   0.01238813
8084.00   0.50294757   0.01241341
8086.00   0.49530157   0.01237904
8088.00   0.48403206   0.01229641
8090.00   0.47427011   0.01217153
8092.00   0.47633287   0.01216436
8094.00   0.48075071   0.01226134
8096.00   0.47856617   0.01234521
8098.00   0.47627941   0.01241227
8100.00   0.47226390   0.01236545
8102.00   0.47175065   0.01234590
8104.00   0.47128245   0.01233922
8106.00   0.47097006   0.01236026
8108.00   0.47025964   0.01232864
8110.00   0.46826378   0.01234641
8112.00   0.46637347   0.01239223
8114.00   0.46576956   0.01240447
8116.00   0.46987367   0.01232755
8118.00   0.45490575   0.01212093
8120.00   0.45023724   0.01210310
8122.00   0.44184339   0.01210513
8124.00   0.43429425   0.01208635
8126.00   0.43538788   0.01202768
8128.00   0.43968272   0.01208097
8130.00   0.44817767   0.01231862
8132.00   0.44365075   0.01259681
8134.00   0.43547109   0.01288605
8136.00   0.43348828   0.01279451
8138.00   0.43289074   0.01257980
8140.00   0.43852770   0.01264592
8142.00   0.42941344   0.01270815
8144.00   0.41998801   0.01259995
8146.00   0.41931215   0.01266687
8148.00   0.41188529   0.01277992
8150.00   0.40681115   0.01279960
8152.00   0.40209448   0.01273082
8154.00   0.40242219   0.01274328
8156.00   0.40239874   0.01252699
8158.00   0.39149615   0.01222210
8160.00   0.38866559   0.01244777
8162.00   0.40005270   0.01316518
8164.00   0.40374896   0.01354609
8166.00   0.38224575   0.01291409
8168.00   0.38438737   0.01286708
8170.00   0.38685426   0.01284362
8172.00   0.37659630   0.01239930
8174.00   0.35720456   0.01184457
8176.00   0.36713132   0.01261993
8178.00   0.37120321   0.01370445
8180.00   0.35917208   0.01422555
8182.00   0.34700057   0.01391207
8184.00   0.35008493   0.01358392
8186.00   0.35344151   0.01362499
8188.00   0.35576430   0.01383243
8190.00   0.35806563   0.01408510
8192.00   0.34423956   0.01414592
8194.00   0.33051157   0.01381687
8196.00   0.33266565   0.01391284
8198.00   0.33605900   0.01411110
8200.00   0.33435747   0.01387002
8202.00   0.32571656   0.01270126
8204.00   0.31764555   0.01168024
8206.00   0.31624407   0.01119714
8208.00   0.31660452   0.01110397
8210.00   0.31784186   0.01114213
8212.00   0.32036361   0.01117812
8214.00   0.31972563   0.01102252
8216.00   0.32196027   0.01097067
8218.00   0.32402363   0.01098546
8220.00   0.31636375   0.01091668
8222.00   0.29639944   0.01066115
8224.00   0.30328396   0.01102236
8226.00   0.32110372   0.01212900
8228.00   0.32945171   0.01328763
8230.00   0.31912246   0.01375619
8232.00   0.31192267   0.01298992
8234.00   0.30549785   0.01199094
8236.00   0.30547029   0.01123537
8238.00   0.30831382   0.01086106
8240.00   0.30679315   0.01068345
8242.00   0.30355310   0.01076290
8244.00   0.30255377   0.01081960
8246.00   0.30251744   0.01062143
8248.00   0.29940483   0.01023077
8250.00   0.29732099   0.01012461
8252.00   0.29154003   0.01014260
8254.00   0.29225200   0.01028663
8256.00   0.29556802   0.01054524
8258.00   0.30237877   0.01082539
8260.00   0.29842469   0.01069992
8262.00   0.29314089   0.01044142
8264.00   0.29170379   0.01027714
8266.00   0.29332006   0.01015004
8268.00   0.28946969   0.00996056
8270.00   0.29631582   0.01007466
8272.00   0.30313778   0.01059589
8274.00   0.29283735   0.01107951
8276.00   0.28002992   0.01147153
8278.00   0.28251657   0.01179337
8280.00   0.29143640   0.01202021
8282.00   0.29002193   0.01218643
8284.00   0.28279296   0.01223411
8286.00   0.27744856   0.01237605
8288.00   0.28723541   0.01301143
8290.00   0.28105256   0.01374995
8292.00   0.28184596   0.01309907
8294.00   0.28422639   0.01242937
8296.00   0.28624848   0.01242950
8298.00   0.28213277   0.01195770
8300.00   0.28768113   0.01187842
8302.00   0.28171113   0.01176418
8304.00   0.28018257   0.01155317
8306.00   0.28566286   0.01120077
8308.00   0.28105640   0.01074221
#8310.00   0.23689382   0.01022500
#8312.00   0.22475712   0.01021495
#8314.00   0.24112014   0.01048653
8316.00   0.26252073   0.01063412
8318.00   0.25822756   0.01048226
8320.00   0.25321326   0.01064761
8322.00   0.25539926   0.01053946
8324.00   0.25605935   0.01008812
8326.00   0.24657314   0.00963887
8328.00   0.24981435   0.00965241
8330.00   0.24753661   0.00966761
8332.00   0.24303687   0.00964693
8334.00   0.24584250   0.00968712
8336.00   0.24706523   0.00975704
8338.00   0.24866907   0.01041133
8340.00   0.25046983   0.01167309
8342.00   0.25075254   0.01252775
8344.00   0.24991389   0.01264475
8346.00   0.24549592   0.01254106
8348.00   0.24069159   0.01248241
8350.00   0.24065793   0.01183230
8352.00   0.24615949   0.01102804
8354.00   0.24637966   0.01059956
8356.00   0.26062462   0.01064075
8358.00   0.25976738   0.01036218
8360.00   0.25171682   0.01004617
8362.00   0.24413829   0.00988306
8364.00   0.23750031   0.00983211
8366.00   0.24372838   0.00978679
8368.00   0.24365298   0.00962896
8370.00   0.24332322   0.00944817
8372.00   0.24099350   0.00928833
8374.00   0.23888727   0.00927493
8376.00   0.24247068   0.00952811
8378.00   0.24661355   0.00980793
8380.00   0.24753833   0.00997761
8382.00   0.24733905   0.01005150
8384.00   0.25476396   0.01016772
8386.00   0.25442660   0.01009490
8388.00   0.25314745   0.00974890
8390.00   0.25329199   0.00939913
8392.00   0.25349721   0.00946234
8394.00   0.25700173   0.01035122
8396.00   0.25594354   0.01124469
8398.00   0.25307885   0.01157246
8400.00   0.25437525   0.01157008
8402.00   0.26607764   0.01156063
8404.00   0.27052787   0.01108805
8406.00   0.27483806   0.01032916
8408.00   0.27497208   0.00976647
8410.00   0.27318379   0.00971714
8412.00   0.26920122   0.01002257
8414.00   0.27077129   0.01023331
8416.00   0.27560410   0.01030604
8418.00   0.27619877   0.01024560
8420.00   0.27560231   0.01008892
8422.00   0.28135747   0.00993332
8424.00   0.29342684   0.01039281
8426.00   0.30352899   0.01142573
8428.00   0.30852637   0.01213057
8430.00   0.31034413   0.01225704
8432.00   0.30744469   0.01217582
8434.00   0.30456728   0.01183555
8436.00   0.30900189   0.01108762
8438.00   0.31596372   0.01030572
8440.00   0.32063833   0.00998042
8442.00   0.32378680   0.01004299
8444.00   0.32649294   0.01011300
8446.00   0.32580030   0.01026309
8448.00   0.32505420   0.01054950
8450.00   0.33152851   0.01086470
8452.00   0.33372653   0.01085981
8454.00   0.33613095   0.01089737
8456.00   0.34000370   0.01090977
8458.00   0.34291735   0.01088129
8460.00   0.34827626   0.01105887
8462.00   0.35172877   0.01172183
8464.00   0.35502359   0.01202729
8466.00   0.35677946   0.01211287
8468.00   0.35928884   0.01209493
8470.00   0.36800361   0.01185622
8472.00   0.37066540   0.01117785
8474.00   0.37114310   0.01079303
8476.00   0.37254870   0.01069672
8478.00   0.38080707   0.01076240
8480.00   0.38600454   0.01080289
8482.00   0.38110295   0.01070836
8484.00   0.37449995   0.01062902
8486.00   0.36992586   0.01065785
8488.00   0.37200928   0.01078979
8490.00   0.38220096   0.01106059
8492.00   0.38597682   0.01121600
8494.00   0.38835999   0.01126190
8496.00   0.39600286   0.01133295
8498.00   0.40449047   0.01144443
8500.00   0.40069544   0.01154002
8502.00   0.40479180   0.01177872
8504.00   0.40238908   0.01186054
8506.00   0.40138134   0.01186243
8508.00   0.40564379   0.01184709
8510.00   0.40704033   0.01157314
8512.00   0.41371122   0.01129120
8514.00   0.41883180   0.01112668
8516.00   0.42452478   0.01114911
8518.00   0.42348611   0.01116853
8520.00   0.42842695   0.01122182
8522.00   0.42601883   0.01120133
8524.00   0.41962218   0.01114774
8526.00   0.42271724   0.01116432
8528.00   0.44167408   0.01135989
8530.00   0.44701672   0.01140884
8532.00   0.44290629   0.01140181
8534.00   0.44098833   0.01143745
8536.00   0.44578421   0.01151927
8538.00   0.45230725   0.01162027
8540.00   0.45305148   0.01165025
8542.00   0.45646182   0.01172145
8544.00   0.45635691   0.01177962
8546.00   0.45273194   0.01184606
8548.00   0.45864281   0.01192127
8550.00   0.47124150   0.01204176
8552.00   0.47536358   0.01204570
8554.00   0.47482350   0.01194360
8556.00   0.47804466   0.01180586
8558.00   0.48314714   0.01175341
8560.00   0.48723125   0.01178411
8562.00   0.49232391   0.01184950
8564.00   0.49732336   0.01191574
8566.00   0.50177449   0.01197507
8568.00   0.51082474   0.01206256
8570.00   0.51544756   0.01211188
8572.00   0.52032286   0.01216573
8574.00   0.53009528   0.01227810
8576.00   0.53775376   0.01233294
8578.00   0.54023463   0.01236489
8580.00   0.53770024   0.01235729
8582.00   0.54071099   0.01241130
8584.00   0.54624301   0.01248576
8586.00   0.54769713   0.01250179
8588.00   0.55279320   0.01257631
8590.00   0.56133968   0.01267083
8592.00   0.56292838   0.01271324
8594.00   0.55872619   0.01270430
8596.00   0.56657273   0.01279704
8598.00   0.57521015   0.01284762
8600.00   0.58053106   0.01286941
8602.00   0.58524799   0.01287052
8604.00   0.58626103   0.01282734
8606.00   0.59004647   0.01288930
8608.00   0.58485371   0.01288122
8610.00   0.59458452   0.01304519
8612.00   0.61362433   0.01333814
8614.00   0.61277771   0.01350549
8616.00   0.61787677   0.01369322
8618.00   0.62622190   0.01394778
8620.00   0.62511230   0.01416143
8622.00   0.62098110   0.01434849
8624.00   0.62629062   0.01454498
8626.00   0.62558579   0.01469803
8628.00   0.63643485   0.01489958
8630.00   0.63914281   0.01497148
8632.00   0.63981485   0.01488211
8634.00   0.64217997   0.01473296
8636.00   0.64150828   0.01461230
8638.00   0.65123755   0.01446144
8640.00   0.66150182   0.01426865
8642.00   0.66053766   0.01407883
8644.00   0.66702104   0.01407774
8646.00   0.67114496   0.01418292
8648.00   0.68221003   0.01442249
8650.00   0.68807793   0.01468145
8652.00   0.69486380   0.01496248
8654.00   0.70154363   0.01519357
8656.00   0.69562870   0.01525321
8658.00   0.69235605   0.01525422
8660.00   0.70331907   0.01531294
8662.00   0.71954268   0.01536787
8664.00   0.72469205   0.01539454
8666.00   0.72842914   0.01535362
8668.00   0.73102307   0.01526839
8670.00   0.73134565   0.01518173
8672.00   0.73133636   0.01510835
8674.00   0.73332566   0.01501700
8676.00   0.74072081   0.01494453
8678.00   0.74775511   0.01486446
8680.00   0.75071722   0.01478155
8682.00   0.75584841   0.01476783
8684.00   0.75703120   0.01470424
8686.00   0.75347775   0.01458182
8688.00   0.75353450   0.01449996
8690.00   0.76793575   0.01457717
8692.00   0.77335960   0.01457080
8694.00   0.76644748   0.01447182
8696.00   0.76661468   0.01446241
8698.00   0.77767891   0.01454612
8700.00   0.78943682   0.01460962
8702.00   0.79290324   0.01464041
8704.00   0.79024386   0.01464245
8706.00   0.78604341   0.01460503
8708.00   0.78713727   0.01458321
8710.00   0.78397673   0.01455077
8712.00   0.78533220   0.01452335
8714.00   0.79237914   0.01452847
8716.00   0.80400944   0.01460123
8718.00   0.80727720   0.01464554
8720.00   0.81687218   0.01469765
8722.00   0.81816244   0.01469300
8724.00   0.82171148   0.01472577
8726.00   0.82473731   0.01474701
8728.00   0.82656938   0.01475770
8730.00   0.82495445   0.01472978
8732.00   0.82443786   0.01473065
8734.00   0.82671332   0.01475833
8736.00   0.83328533   0.01481013
8738.00   0.83252400   0.01481944
8740.00   0.83522779   0.01485546
8742.00   0.83395481   0.01482573
8744.00   0.83629042   0.01483595
8746.00   0.84055400   0.01487861
8748.00   0.83212978   0.01483640
8750.00   0.84159404   0.01485569
8752.00   0.84573609   0.01492301
8754.00   0.84537309   0.01515163
8756.00   0.83886069   0.01550525
8758.00   0.84767479   0.01596447
8760.00   0.85537189   0.01631472
8762.00   0.85016185   0.01666871
8764.00   0.84921074   0.01700183
8766.00   0.86202019   0.01710418
8768.00   0.86138028   0.01676628
8770.00   0.86726665   0.01665216
8772.00   0.86851126   0.01668493
8774.00   0.86375207   0.01670736
8776.00   0.85807008   0.01669160
8778.00   0.85545558   0.01663640
8780.00   0.86686993   0.01658789
8782.00   0.86730605   0.01627802
8784.00   0.85860401   0.01572997
8786.00   0.85948902   0.01536939
8788.00   0.86931324   0.01545838
8790.00   0.87661940   0.01558414
8792.00   0.88412994   0.01565261
8794.00   0.88839650   0.01562401
8796.00   0.88959473   0.01549013
8798.00   0.89805430   0.01534764
8800.00   0.90336728   0.01532801
8802.00   0.90124756   0.01535077
8804.00   0.90664721   0.01540288
8806.00   0.92183930   0.01549869
8808.00   0.91750455   0.01549042
8810.00   0.90477353   0.01539709
8812.00   0.89508462   0.01529972
8814.00   0.89156359   0.01523339
8816.00   0.89797455   0.01523714
8818.00   0.89512652   0.01524500
8820.00   0.89453578   0.01573721
8822.00   0.90117162   0.01676791
8824.00   0.91662550   0.01790621
8826.00   0.91286606   0.01830452
8828.00   0.90225101   0.01835099
8830.00   0.89995617   0.01828420
8832.00   0.90693575   0.01800464
8834.00   0.91168112   0.01732163
8836.00   0.91792434   0.01684166
8838.00   0.91573381   0.01663171
8840.00   0.91270608   0.01639349
8842.00   0.90973282   0.01595178
8844.00   0.91917992   0.01567825
8846.00   0.91557902   0.01563898
8848.00   0.91520280   0.01575232
8850.00   0.91253406   0.01580982
8852.00   0.91675663   0.01582509
8854.00   0.92925829   0.01588050
8856.00   0.94202536   0.01595123
8858.00   0.94231123   0.01592156
8860.00   0.93461090   0.01589162
8862.00   0.93329912   0.01603324
8864.00   0.93288654   0.01632353
8866.00   0.92019749   0.01636779
8868.00   0.91188079   0.01628470
8870.00   0.90674800   0.01614317
8872.00   0.90303713   0.01589694
8874.00   0.89753968   0.01547691
8876.00   0.89360803   0.01517299
8878.00   0.89201409   0.01526379
8880.00   0.89418650   0.01587586
8882.00   0.90202785   0.01686783
8884.00   0.89036685   0.01724622
8886.00   0.89530849   0.01736601
8888.00   0.90255833   0.01729847
8890.00   0.89928168   0.01691680
8892.00   0.88854712   0.01603164
8894.00   0.87148142   0.01521765
8896.00   0.87353325   0.01506840
8898.00   0.87529516   0.01536743
8900.00   0.86353844   0.01571980
8902.00   0.85662061   0.01585778
8904.00   0.86047047   0.01589617
8906.00   0.86940646   0.01588559
8908.00   0.87068480   0.01566469
8910.00   0.86011380   0.01516297
8912.00   0.85818368   0.01506478
8914.00   0.85043734   0.01563013
8916.00   0.84912544   0.01650133
8918.00   0.84690005   0.01714020
8920.00   0.85122389   0.01735998
8922.00   0.84736282   0.01722718
8924.00   0.84472984   0.01672948
8926.00   0.84305447   0.01598480
8928.00   0.84759998   0.01540807
8930.00   0.85444432   0.01534890
8932.00   0.84602594   0.01533941
8934.00   0.83546478   0.01513689
8936.00   0.82740897   0.01496710
8938.00   0.82547051   0.01511543
8940.00   0.83253288   0.01564521
8942.00   0.83933157   0.01595461
8944.00   0.83877659   0.01611046
8946.00   0.82834381   0.01614097
8948.00   0.81762487   0.01604092
8950.00   0.80444402   0.01571263
8952.00   0.81303912   0.01636415
8954.00   0.82734615   0.01745863
8956.00   0.82705933   0.01801833
8958.00   0.79920840   0.01748972
8960.00   0.78604025   0.01730313
8962.00   0.81206900   0.01791846
8964.00   0.84356886   0.01814480
8966.00   0.83860183   0.01737575
8968.00   0.78913277   0.01594378
8970.00   0.79277509   0.01594937
8972.00   0.83191472   0.01682056
8974.00   0.82889318   0.01693181
8976.00   0.78840095   0.01607389
8978.00   0.77361774   0.01555297
8980.00   0.79469687   0.01581540
8982.00   0.77813292   0.01558163
8984.00   0.75213784   0.01547624
8986.00   0.76083636   0.01666916
8988.00   0.84159154   0.01982344
8990.00   0.88228464   0.02180455
8992.00   0.84085369   0.02060079
8994.00   0.76716995   0.01761518
8996.00   0.73333001   0.01569009
8998.00   0.75762028   0.01608634
9000.00   0.78925782   0.01746098
9002.00   0.79176110   0.01835271
9004.00   0.77952212   0.01845752
9006.00   0.77437729   0.01800668
9008.00   0.78431553   0.01747652
9010.00   0.78220987   0.01679463
9012.00   0.76819038   0.01620921
9014.00   0.75960416   0.01604325
9016.00   0.76640457   0.01644082
9018.00   0.75553411   0.01616491
9020.00   0.71389431   0.01541437
9022.00   0.70091510   0.01526086
9024.00   0.72295713   0.01585931
9026.00   0.72364187   0.01603561
9028.00   0.69780403   0.01536372
9030.00   0.68808532   0.01487999
9032.00   0.68468308   0.01457716
9034.00   0.67274052   0.01425204
9036.00   0.66599607   0.01389577
9038.00   0.66425920   0.01384146
9040.00   0.67790294   0.01423653
9042.00   0.68267971   0.01461414
9044.00   0.67365450   0.01460069
9046.00   0.64900094   0.01429791
9048.00   0.64441192   0.01421966
9050.00   0.65865159   0.01447637
9052.00   0.67848611   0.01480920
9054.00   0.66149902   0.01459209
9056.00   0.62828940   0.01376830
9058.00   0.63075972   0.01359981
9060.00   0.65596962   0.01416464
9062.00   0.67507434   0.01481348
9064.00   0.66153681   0.01472948
9066.00   0.61960143   0.01412025
9068.00   0.60885864   0.01425182
9070.00   0.63591331   0.01516965
9072.00   0.66188347   0.01593766
9074.00   0.62481272   0.01511524
9076.00   0.59886479   0.01416222
9078.00   0.62567753   0.01463769
9080.00   0.65614134   0.01556013
9082.00   0.63621908   0.01551080
9084.00   0.58122534   0.01389732
#9086.00   0.69008833   0.01637355
#9088.00   1.10637116   0.02453518
#9090.00   1.61879754   0.03403533
#9092.00   2.54424858   0.06110415
#9094.00   4.51081228   0.10645238
#9096.00   5.67699528   0.13230772
#9098.00   5.58787775   0.13481328
#9100.00   5.27265167   0.12725808
#9102.00   5.35910511   0.13142419
#9104.00   5.40353775   0.13252787
#9106.00   5.21496153   0.13091089
#9108.00   5.11992979   0.12575886
#9110.00   5.56621552   0.12536041
#9112.00   5.97317362   0.13858326
#9114.00   4.68545389   0.09932932
#9116.00   2.01851773   0.05127267
#9118.00   0.89768392   0.01238291
#9120.00   0.62144792   0.01483035
#9122.00   0.55881828   0.01343365
#9124.00   0.56097627   0.01315380
9126.00   0.57434112   0.01349143
9128.00   0.58722258   0.01438058
9130.00   0.59473354   0.01544922
9132.00   0.57162833   0.01552418
9134.00   0.58261651   0.01602054
9136.00   0.60902029   0.01652087
9138.00   0.60333282   0.01610725
9140.00   0.55114001   0.01434734
9142.00   0.55329055   0.01383050
9144.00   0.56278551   0.01364268
9146.00   0.56152225   0.01346965
9148.00   0.54960805   0.01340247
9150.00   0.55451894   0.01406138
9152.00   0.59356475   0.01585235
9154.00   0.60749108   0.01707036
9156.00   0.57948893   0.01672672
9158.00   0.54177213   0.01525016
9160.00   0.55030864   0.01473016
9162.00   0.55667323   0.01428407
9164.00   0.55308968   0.01377704
9166.00   0.54550201   0.01347290
9168.00   0.53985184   0.01348624
9170.00   0.53204727   0.01353182
9172.00   0.54767531   0.01457775
9174.00   0.58473629   0.01595763
9176.00   0.59459156   0.01628855
9178.00   0.54528332   0.01492431
9180.00   0.51448661   0.01371431
9182.00   0.52313924   0.01359954
9184.00   0.54874974   0.01406952
9186.00   0.55519706   0.01406617
9188.00   0.52763617   0.01314586
9190.00   0.52847272   0.01351476
9192.00   0.49244866   0.01330002
9194.00   0.49055657   0.01458576
9196.00   0.53422499   0.01593477
9198.00   0.56709343   0.01471828
9200.00   0.54340214   0.01302584
9202.00   0.52576011   0.01241363
9204.00   0.52615285   0.01264996
9206.00   0.53839546   0.01302836
9208.00   0.54031020   0.01317480
9210.00   0.52954066   0.01305306
9212.00   0.52720290   0.01319635
9214.00   0.53383064   0.01361059
9216.00   0.54501534   0.01400617
9218.00   0.53938764   0.01385464
9220.00   0.53479284   0.01351716
9222.00   0.53957963   0.01347203
9224.00   0.54916906   0.01367563
9226.00   0.54473132   0.01374495
9228.00   0.54229373   0.01365166
9230.00   0.54129416   0.01355163
9232.00   0.53685004   0.01342821
9234.00   0.52679199   0.01331257
9236.00   0.52507168   0.01342764
9238.00   0.52394629   0.01352899
9240.00   0.51864392   0.01341077
9242.00   0.51105577   0.01330634
9244.00   0.50907248   0.01338406
9246.00   0.51588041   0.01349374
9248.00   0.51271909   0.01340003
9250.00   0.50815672   0.01326957
9252.00   0.50680947   0.01310580
9254.00   0.51142532   0.01297102
9256.00   0.50497591   0.01281406
9258.00   0.50212592   0.01292324
9260.00   0.50887281   0.01328470
9262.00   0.50805491   0.01336509
9264.00   0.49595571   0.01291431
9266.00   0.48199901   0.01245374
9268.00   0.48605421   0.01245383
9270.00   0.49515650   0.01272856
9272.00   0.49660882   0.01297335
9274.00   0.48997369   0.01309316
9276.00   0.47943997   0.01324163
9278.00   0.47772062   0.01395058
9280.00   0.48097655   0.01439321
9282.00   0.48367444   0.01436950
9284.00   0.48307517   0.01436091
9286.00   0.49276090   0.01482074
9288.00   0.48875085   0.01482917
9290.00   0.48026776   0.01460628
9292.00   0.47676483   0.01452936
9294.00   0.48859820   0.01502586
9296.00   0.49151954   0.01563462
9298.00   0.47303590   0.01392160
#9300.00   0.53271574   0.00351053
#9302.00   1.46417582   0.05989025
#9304.00   3.71177793   0.14249092
#9306.00   6.53223324   0.24872091
#9308.00   6.50303268   0.27511710
#9310.00   5.36155939   0.27383634
#9312.00   5.06886148   0.28332734
#9314.00   5.10757208   0.28401136
#9316.00   5.62272882   0.30912724
#9318.00   5.89144516   0.32160547
#9320.00   5.31502485   0.31580341
#9322.00   5.43318653   0.30809832
#9324.00   5.74643707   0.31253433
#9326.00   5.85863733   0.31333503
#9328.00   6.17594719   0.30805549
#9330.00   6.38104582   0.30245849
#9332.00   6.59484339   0.29823208
#9334.00   3.86664438   0.18729836
#9336.00   2.57650018   0.12842906
#9338.00   1.87455308   0.11234684
#9340.00   1.45414245   0.09723166
#9342.00   0.91771048   0.05890726
#9344.00   0.71948624   0.04279669
#9346.00   0.54802471   0.03061130
#9348.00   0.42251155   0.01933352
#9350.00   0.37332466   0.01574848
9352.00   0.39278165   0.01687165
9354.00   0.46075955   0.02166035
9356.00   0.51318723   0.02636365
9358.00   0.50033742   0.02705089
9360.00   0.43456468   0.02193014
9362.00   0.40130329   0.01826468
9364.00   0.40157166   0.01772756
9366.00   0.42520848   0.01997867
9368.00   0.47314820   0.02661967
9370.00   0.51741177   0.03661440
9372.00   0.47441635   0.04250580
9374.00   0.41458628   0.03936605
9376.00   0.38227490   0.03594472
#9378.00   0.43060362   0.04053339
#9380.00   0.62167042   0.05429341
#9382.00   1.32176268   0.08830997
#9384.00   1.96782589   0.09888330
#9386.00   3.13291502   0.13326949
#9388.00   4.68451309   0.17790280
#9390.00   5.49859858   0.19627358
#9392.00   4.65205812   0.15195408
#9394.00   3.20161080   0.10107708
#9396.00   1.94106579   0.06421557
#9398.00   1.09752023   0.04042458
#9400.00   0.60540462   0.02273530
#9402.00   0.45129481   0.01721355
9404.00   0.40765128   0.01702513
9406.00   0.40799904   0.01666922
9408.00   0.42206132   0.01679612
9410.00   0.46416187   0.01815061
9412.00   0.45155182   0.01793842
9414.00   0.42421940   0.01729665
9416.00   0.41924593   0.01760073
9418.00   0.47212896   0.01958114
9420.00   0.47631559   0.01977749
9422.00   0.41064140   0.01814349
9424.00   0.37975112   0.01743810
9426.00   0.43411979   0.02024714
9428.00   0.56099540   0.02589054
9430.00   0.53954363   0.02437855
9432.00   0.45737922   0.01984887
9434.00   0.38715017   0.01610615
9436.00   0.38093555   0.01709080
9438.00   0.44845542   0.02191682
9440.00   0.55514801   0.03484980
9442.00   0.60966891   0.04159055
9444.00   0.55875903   0.03844459
9446.00   0.44396630   0.02295642
9448.00   0.41581455   0.01750113
9450.00   0.41216433   0.01565916
9452.00   0.42233929   0.01667871
9454.00   0.43840221   0.01986949
9456.00   0.46491638   0.02422356
9458.00   0.45511854   0.02673779
9460.00   0.44365191   0.02747636
9462.00   0.41482720   0.02509655
9464.00   0.39584959   0.02072495
9466.00   0.40823150   0.01826102
9468.00   0.45968708   0.01907559
9470.00   0.45598671   0.01921987
9472.00   0.42754650   0.01964765
9474.00   0.40484604   0.02073121
9476.00   0.40208539   0.02164599
9478.00   0.38767719   0.02233004
9480.00   0.40574804   0.02491088
9482.00   0.43212068   0.02537310
9484.00   0.43939188   0.02173368
9486.00   0.41306353   0.01709733
9488.00   0.38597038   0.01450127
9490.00   0.37579739   0.01364110
9492.00   0.39369667   0.01483409
9494.00   0.43158349   0.01791089
9496.00   0.44630608   0.02182894
9498.00   0.46161440   0.02711556
9500.00   0.48118809   0.03042910
9502.00   0.47797605   0.02916258
9504.00   0.43106803   0.02169709
9506.00   0.39780208   0.01746207
9508.00   0.39070359   0.01516374
9510.00   0.39348111   0.01405451
9512.00   0.40270010   0.01391444
9514.00   0.41748047   0.01497226
9516.00   0.43698454   0.01714213
9518.00   0.44732472   0.02002130
9520.00   0.43890536   0.02194060
9522.00   0.42462495   0.02219131
9524.00   0.41929731   0.02066962
9526.00   0.42327499   0.01942191
9528.00   0.42957005   0.01878895
9530.00   0.42463708   0.01783197
9532.00   0.40598890   0.01616010
9534.00   0.40633389   0.01570048
9536.00   0.42465958   0.01619740
9538.00   0.40782094   0.01603237
9540.00   0.39733696   0.01602799
9542.00   0.42235348   0.01727622
9544.00   0.47515407   0.01968400
9546.00   0.45255044   0.01940915
9548.00   0.39187679   0.01780578
9550.00   0.34942302   0.01657928
9552.00   0.37144434   0.01754460
9554.00   0.42387199   0.02056190
9556.00   0.43975568   0.02193025
9558.00   0.39771652   0.01997313
9560.00   0.35333562   0.01622309
9562.00   0.33733574   0.01615663
9564.00   0.38925004   0.02046000
9566.00   0.41345701   0.02328671
9568.00   0.40995553   0.02343174
9570.00   0.39115047   0.02111129
9572.00   0.36627170   0.01778998
9574.00   0.34211707   0.01464075
9576.00   0.34254870   0.01303164
9578.00   0.36847675   0.01386657
9580.00   0.39859334   0.01581994
9582.00   0.39369950   0.01623700
9584.00   0.35178128   0.01462083
9586.00   0.33575472   0.01403185
9588.00   0.36063251   0.01595970
9590.00   0.41340855   0.01932005
9592.00   0.41098800   0.02018497
9594.00   0.38291439   0.01836019
9596.00   0.36834124   0.01659010
9598.00   0.36686897   0.01582940
9600.00   0.35599482   0.01486748
9602.00   0.34800157   0.01433742
9604.00   0.37138247   0.01541546
9606.00   0.39202118   0.01668082
9608.00   0.37942910   0.01674910
9610.00   0.34276274   0.01512315
9612.00   0.33584842   0.01415490
9614.00   0.34563041   0.01396773
9616.00   0.35057724   0.01426612
9618.00   0.34805974   0.01496844
9620.00   0.35125223   0.01632252
9622.00   0.35613158   0.01739975
9624.00   0.35208166   0.01750579
9626.00   0.35161853   0.01676610
9628.00   0.34943375   0.01545187
9630.00   0.32343239   0.01352647
9632.00   0.30102393   0.01225570
9634.00   0.31742790   0.01267648
9636.00   0.35498700   0.01433945
9638.00   0.37232056   0.01575810
9640.00   0.33137020   0.01441676
9642.00   0.31055737   0.01344042
9644.00   0.32930192   0.01389817
9646.00   0.35257867   0.01474555
9648.00   0.34621075   0.01449806
9650.00   0.31810567   0.01346486
9652.00   0.31707171   0.01320565
9654.00   0.32575262   0.01338740
9656.00   0.31997201   0.01333455
9658.00   0.30589932   0.01310669
9660.00   0.32756969   0.01405919
9662.00   0.35004854   0.01550357
9664.00   0.34115803   0.01612195
9666.00   0.31509125   0.01564291
9668.00   0.31068468   0.01500873
9670.00   0.32213354   0.01469079
9672.00   0.31584433   0.01376747
9674.00   0.29734385   0.01258945
9676.00   0.28702381   0.01204072
9678.00   0.30615667   0.01280379
9680.00   0.31555662   0.01394277
9682.00   0.31340715   0.01426652
9684.00   0.30712438   0.01382113
9686.00   0.29952434   0.01306570
9688.00   0.30092075   0.01254222
9690.00   0.29922929   0.01232273
9692.00   0.29885292   0.01244166
9694.00   0.29886290   0.01272705
9696.00   0.29393673   0.01304761
9698.00   0.29118633   0.01349509
9700.00   0.30032805   0.01406360
9702.00   0.30821633   0.01414561
9704.00   0.29052433   0.01326601
9706.00   0.27261043   0.01215683
9708.00   0.28174564   0.01206222
9710.00   0.28713658   0.01212145
9712.00   0.28597102   0.01242720
9714.00   0.28358626   0.01319915
9716.00   0.28344446   0.01406410
9718.00   0.28789473   0.01402909
9720.00   0.29389635   0.01396317
9722.00   0.29125485   0.01413995
9724.00   0.28006017   0.01428153
9726.00   0.28134808   0.01354640
9728.00   0.27619985   0.01260176
9730.00   0.26863059   0.01197996
9732.00   0.26666322   0.01209773
9734.00   0.27836511   0.01312377
9736.00   0.29323593   0.01462451
9738.00   0.27478442   0.01442406
9740.00   0.25916150   0.01369482
9742.00   0.26496169   0.01332556
9744.00   0.27517608   0.01333363
9746.00   0.27560878   0.01299910
9748.00   0.27138203   0.01275718
9750.00   0.26788750   0.01253527
9752.00   0.26635668   0.01231794
9754.00   0.27173665   0.01232386
9756.00   0.26872572   0.01253134
9758.00   0.25855157   0.01250552
9760.00   0.25952911   0.01254428
9762.00   0.27458370   0.01272798
9764.00   0.28503954   0.01284022
9766.00   0.27322203   0.01232962
9768.00   0.25574937   0.01170375
9770.00   0.24477668   0.01132462
9772.00   0.24767683   0.01140303
9774.00   0.26291525   0.01171504
9776.00   0.26786247   0.01189683
9778.00   0.26763651   0.01205152
9780.00   0.26467517   0.01217870
9782.00   0.26759037   0.01239925
9784.00   0.25914189   0.01257200
9786.00   0.25378874   0.01294945
9788.00   0.25444677   0.01354186
9790.00   0.25767514   0.01428524
9792.00   0.27391660   0.01520793
9794.00   0.28472698   0.01531836
9796.00   0.26579499   0.01453383
9798.00   0.25082803   0.01377062
9800.00   0.26728678   0.01380782
9802.00   0.27365196   0.01418184
9804.00   0.26584730   0.01366869
9806.00   0.25836742   0.01289955
9808.00   0.25296476   0.01232882
9810.00   0.24441242   0.01213668
9812.00   0.24100435   0.01239495
9814.00   0.24957371   0.01275214
9816.00   0.26127076   0.01284205
9818.00   0.26167277   0.01253485
9820.00   0.25309825   0.01211428
9822.00   0.24913299   0.01208022
9824.00   0.26230779   0.01245780
9826.00   0.26847258   0.01264834
9828.00   0.26184660   0.01248575
9830.00   0.24166302   0.01207852
9832.00   0.25513685   0.01213854
9834.00   0.26846299   0.01215572
9836.00   0.26749018   0.01192226
9838.00   0.25241861   0.01153668
9840.00   0.23983771   0.01143721
9842.00   0.25845361   0.01206269
9844.00   0.25250056   0.01253368
9846.00   0.24721527   0.01307585
9848.00   0.26156867   0.01366006
9850.00   0.26518449   0.01378748
9852.00   0.26616392   0.01351925
9854.00   0.25741759   0.01280708
9856.00   0.24828434   0.01206336
9858.00   0.25707793   0.01181969
9860.00   0.25300393   0.01165880
9862.00   0.24723549   0.01163077
9864.00   0.24854553   0.01202871
9866.00   0.25195435   0.01304217
9868.00   0.24602868   0.01460183
9870.00   0.23868509   0.01598598
9872.00   0.23980051   0.01669515
9874.00   0.23828821   0.01663829
9876.00   0.23651624   0.01594448
9878.00   0.24166967   0.01470184
9880.00   0.24795783   0.01328687
9882.00   0.25535664   0.01248197
9884.00   0.25314286   0.01222498
9886.00   0.24855606   0.01229219
9888.00   0.24986286   0.01255757
9890.00   0.24728592   0.01319918
9892.00   0.24804945   0.01381512
9894.00   0.24575876   0.01415664
9896.00   0.23383848   0.01413841
9898.00   0.22434503   0.01370586
9900.00   0.23116691   0.01318191
9902.00   0.23831899   0.01266020
9904.00   0.23787491   0.01230593
9906.00   0.23518491   0.01238471
9908.00   0.23399557   0.01321529
9910.00   0.24183302   0.01485861
9912.00   0.24022514   0.01626882
9914.00   0.23223644   0.01701166
9916.00   0.23691706   0.01711966
9918.00   0.24457653   0.01676648
9920.00   0.23114412   0.01545486
9922.00   0.21603888   0.01375358
9924.00   0.22255103   0.01260444
9926.00   0.23863375   0.01242474
9928.00   0.23925729   0.01235811
9930.00   0.22726296   0.01225563
9932.00   0.22034796   0.01234695
9934.00   0.22853976   0.01288621
9936.00   0.23799686   0.01395010
9938.00   0.24770717   0.01556630
9940.00   0.23883028   0.01736210
9942.00   0.23550034   0.01921112
9944.00   0.24487655   0.02081223
9946.00   0.26116884   0.02154995
9948.00   0.24912564   0.02112222
9950.00   0.24496423   0.02045047
9952.00   0.23386808   0.01984210
9954.00   0.22943282   0.01954746
9956.00   0.22391666   0.01958014
9958.00   0.21715169   0.02006135
9960.00   0.22481906   0.02027705
9962.00   0.23556626   0.01971878
9964.00   0.23722811   0.01829343
9966.00   0.22495322   0.01700409
9968.00   0.22921102   0.01611502
9970.00   0.23625155   0.01560773
9972.00   0.23770551   0.01549739
9974.00   0.22699721   0.01541933
9976.00   0.22733712   0.01536760
9978.00   0.22236459   0.01479356
9980.00   0.21890259   0.01414776
9982.00   0.22403693   0.01387895
9984.00   0.23475231   0.01380693
9986.00   0.22654569   0.01349081
9988.00   0.21592657   0.01324716
9990.00   0.21538812   0.01324754
9992.00   0.21253066   0.01335026
9994.00   0.21110630   0.01355900
9996.00   0.20248514   0.01380915
9998.00   0.20810819   0.01421902
10000.00   0.21538286   0.01462091
10002.00   0.21261270   0.01481463
10004.00   0.21269099   0.01531088
10006.00   0.20697550   0.01679415
10008.00   0.21299954   0.01959919
10010.00   0.21875201   0.02247942
10012.00   0.22306393   0.02406363
10014.00   0.21365094   0.02437913
10016.00   0.20903605   0.02382853
10018.00   0.21102096   0.02215520
10020.00   0.21244685   0.01981818
10022.00   0.20577724   0.01862188
10024.00   0.20987178   0.01843856
10026.00   0.20984733   0.01842740
10028.00   0.20706765   0.01817147
10030.00   0.20291962   0.01738184
10032.00   0.20262463   0.01614401
10034.00   0.20262627   0.01516534
10036.00   0.19290514   0.01473426
10038.00   0.19041252   0.01485937
10040.00   0.19840312   0.01539678
10042.00   0.20193647   0.01581074
10044.00   0.18632591   0.01577144
10046.00   0.18562806   0.01572009
10048.00   0.19064534   0.01552290
10050.00   0.18875320   0.01505091
10052.00   0.18622585   0.01472462
10054.00   0.19888826   0.01524278
10056.00   0.20970498   0.01628131
10058.00   0.21083166   0.01738169
10060.00   0.21182704   0.01811190
10062.00   0.21189074   0.01839952
10064.00   0.20454170   0.01836898
10066.00   0.19288987   0.01802464
10068.00   0.18737932   0.01741470
10070.00   0.18985729   0.01684779
10072.00   0.19809401   0.01670317
10074.00   0.18327026   0.01684247
10076.00   0.16931836   0.01782578
10078.00   0.17686258   0.01995136
10080.00   0.20016913   0.02221818
10082.00   0.18914996   0.02298290
10084.00   0.18532272   0.02308431
10086.00   0.18791650   0.02247775
10088.00   0.19481446   0.02082068
10090.00   0.19306016   0.01826032
10092.00   0.18395229   0.01658019
10094.00   0.17378764   0.01600150
10096.00   0.17145236   0.01640773
10098.00   0.18876345   0.01757106
10100.00   0.17808247   0.01870252
10102.00   0.16828673   0.01943376
10104.00   0.16985881   0.01977771
10106.00   0.18580250   0.01988396
10108.00   0.18862517   0.01952431
10110.00   0.17726284   0.01818289
10112.00   0.19148608   0.01738013
10114.00   0.19817169   0.01723376
10116.00   0.19513297   0.01798301
10118.00   0.19069992   0.02027309
10120.00   0.18615918   0.02358259
10122.00   0.18550502   0.02607686
10124.00   0.20126055   0.02737612
10126.00   0.21441603   0.02743596
10128.00   0.20191754   0.02605705
10130.00   0.18069631   0.02340090
10132.00   0.18536110   0.02076942
10134.00   0.20330596   0.01927851
10136.00   0.21090226   0.01913072
10138.00   0.18700908   0.01908852
10140.00   0.19714133   0.01955373
10142.00   0.19905603   0.01992910
10144.00   0.18288080   0.02005187
10146.00   0.16135353   0.02016045
10148.00   0.17809288   0.02155868
10150.00   0.17691106   0.02259573
10152.00   0.18212028   0.02332126
10154.00   0.19250482   0.02369516
10156.00   0.19032998   0.02378503
10158.00   0.19586273   0.02330427
10160.00   0.19282468   0.02259226
10162.00   0.18388671   0.02220991
10164.00   0.17570420   0.02278431
10166.00   0.19175105   0.02512485
10168.00   0.20238250   0.02841370
10170.00   0.20727445   0.03065412
10172.00   0.21787685   0.03157114
10174.00   0.20239210   0.03114519
10176.00   0.20748715   0.03016791
10178.00   0.22294767   0.02788143
10180.00   0.21202005   0.02529512
10182.00   0.19597435   0.02429892
10184.00   0.20752232   0.02553157
10186.00   0.22713332   0.02741674
10188.00   0.22955875   0.02855617
10190.00   0.20220079   0.02865913
10192.00   0.18582636   0.02822471
10194.00   0.19478391   0.02741322
10196.00   0.20752291   0.02639310
10198.00   0.21184082   0.02562281
10200.00   0.19563310   0.02539217
10202.00   0.20526432   0.02675460
10204.00   0.23133631   0.02923887
10206.00   0.23739505   0.03193517
10208.00   0.23322266   0.03382153
10210.00   0.24812585   0.03485606
10212.00   0.25485384   0.03472491
10214.00   0.19526911   0.03307479
10216.00   0.16970658   0.03033844
10218.00   0.19275111   0.02840039
10220.00   0.20841187   0.02808946
10222.00   0.19394191   0.02931836
10224.00   0.19065778   0.03087648
10226.00   0.21954025   0.03274688
10228.00   0.22728163   0.03344807
10230.00   0.22108440   0.03298667
10232.00   0.22195335   0.03153845
10234.00   0.21675058   0.02988893
10236.00   0.19186282   0.02775539
10238.00   0.18079247   0.02619865
10240.00   0.19492702   0.02577866
10242.00   0.23406601   0.02642038
10244.00   0.22635184   0.02624081
10246.00   0.20681883   0.02585308
10248.00   0.19208664   0.02566229
10250.00   0.19482939   0.02580861
10252.00   0.20731394   0.02626923
10254.00   0.22125275   0.02703037
10256.00   0.21435659   0.02736850
10258.00   0.20663063   0.02759032
10260.00   0.20426030   0.02787483
10262.00   0.19998594   0.02807102
10264.00   0.20764637   0.02885161
10266.00   0.20820011   0.03002016
10268.00   0.19879048   0.03090424
10270.00   0.19803984   0.03144215
10272.00   0.24002020   0.03274645
10274.00   0.23656869   0.03318647
10276.00   0.20673676   0.03324750
10278.00   0.18785329   0.03492113
10280.00   0.19196920   0.04027740
10282.00   0.19013993   0.04856426
10284.00   0.18970174   0.05598934
10286.00   0.19327344   0.06058769
10288.00   0.20735021   0.06209674
10290.00   0.22450101   0.06086403
10292.00   0.22306137   0.05698119
10294.00   0.19335167   0.05148804
10296.00   0.19186355   0.04734426
10298.00   0.19723940   0.04591945
10300.00   0.20868506   0.04458389
10302.00   0.21339197   0.04202894
10304.00   0.20295779   0.03993816
10306.00   0.21559769   0.03984357
10308.00   0.24383438   0.04064030
10310.00   0.24319744   0.04104021
10312.00   0.20657091   0.03982542
10314.00   0.20324345   0.03889750
10316.00   0.23397112   0.03855829
10318.00   0.23819698   0.03811152
10320.00   0.23134375   0.03781455
10322.00   0.21409191   0.03782052
10324.00   0.19598009   0.03821498
10326.00   0.18527718   0.03878733
10328.00   0.18434887   0.03921784
10330.00   0.20119004   0.03976341
10332.00   0.26144385   0.04100130
10334.00   0.27761674   0.04169809
10336.00   0.23289752   0.04153797
10338.00   0.19642965   0.04154649
10340.00   0.23167054   0.04373667
10342.00   0.23202299   0.04647605
10344.00   0.20013990   0.04897399
10346.00   0.15968090   0.05015725
10348.00   0.18182807   0.05049757
10350.00   0.20604981   0.05206779
10352.00   0.19826287   0.05182910
10354.00   0.20192833   0.05073031
10356.00   0.20896836   0.04922394
10358.00   0.21844006   0.04892077
10360.00   0.19731843   0.04695731
10362.00   0.19327517   0.04709334
10364.00   0.24219461   0.05048668
10366.00   0.24665116   0.05427870
10368.00   0.23037045   0.06160099
10370.00   0.21755838   0.06873582
10372.00   0.16675055   0.07211579
10374.00   0.11753466   0.07211036
10376.00   0.16501360   0.07152583
10378.00   0.17966396   0.06632181
10380.00   0.23219836   0.06033340
10382.00   0.22227229   0.05483831
10384.00   0.19313328   0.05282088
10386.00   0.23620693   0.05480422
10388.00   0.20504759   0.05411881
10390.00   0.18312997   0.05531646
10392.00   0.21495838   0.05921401
10394.00   0.27081314   0.06468136
10396.00   0.20441167   0.06542010
10398.00   0.20166236   0.06550525
10400.00   0.20225345   0.06536922
10402.00   0.19797891   0.06392289
10404.00   0.21459870   0.06112671
10406.00   0.23109221   0.06161530
10408.00   0.25574139   0.06231758
10410.00   0.26633134   0.06404404
10412.00   0.25145099   0.07012150
10414.00   0.24227357   0.08017206
10416.00   0.22235453   0.08873075
10418.00   0.27279130   0.09290496
10420.00   0.25869346   0.09266251
10422.00   0.21309949   0.08906746
10424.00   0.23032051   0.08313256
10426.00   0.17405176   0.07318174
10428.00   0.17765515   0.06839351
10430.00   0.20419295   0.06671163
10432.00   0.19886164   0.06659866
10434.00   0.17325382   0.06596541
10436.00   0.19229198   0.06498455
10438.00   0.16827588   0.06431863
10440.00   0.15469398   0.06473795
10442.00   0.21104063   0.06597213
10444.00   0.24295938   0.06998953
10446.00   0.23209594   0.07485255
10448.00   0.21217547   0.07696395
10450.00   0.23246314   0.07722311
10452.00   0.21410961   0.07773229
10454.00   0.25853133   0.07944628
10456.00   0.27171001   0.07705264
10458.00   0.23059778   0.07370210
10460.00   0.22083713   0.07335529
10462.00   0.24112304   0.07705878
10464.00   0.22589190   0.08503047
10466.00   0.21259739   0.09110633
10468.00   0.27041566   0.09532478
10470.00   0.28335497   0.09594952
10472.00   0.26700270   0.09567403
10474.00   0.21914785   0.08909374
10476.00   0.17106827   0.08018972
10478.00   0.14504828   0.07428218
10480.00   0.17132853   0.07469770
10482.00   0.19219291   0.07549154
10484.00   0.22940607   0.07654312
10486.00   0.25255147   0.07759115
10488.00   0.22328721   0.07726284
10490.00   0.20306320   0.07818901
10492.00   0.21568245   0.07977278
10494.00   0.18790054   0.07898527
10496.00   0.19896348   0.07826822
10498.00   0.23463066   0.07847404
10500.00   0.23322767   0.07830521
10502.00   0.20449962   0.07904256
10504.00   0.19638811   0.08204069
10506.00   0.21941984   0.08555415
10508.00   0.27175239   0.08856016
10510.00   0.21869223   0.08897828
10512.00   0.15910070   0.08800385
10514.00   0.14792143   0.08553362
10516.00   0.15818350   0.08481484
10518.00   0.14782639   0.08563838
10520.00   0.20457096   0.09164029
10522.00   0.19319734   0.09534837
10524.00   0.22305334   0.09724851
10526.00   0.23558080   0.09798399
10528.00   0.16612238   0.09459947
10530.00   0.10461970   0.09146672
10532.00   0.14512390   0.08976045
10534.00   0.17859429   0.08825189
10536.00   0.15624422   0.08651876
10538.00   0.13323720   0.08685932
10540.00   0.18579474   0.08589844
10542.00   0.11542473   0.08581418
10544.00   0.18708825   0.09072894
10546.00   0.23815818   0.08782174
10548.00   0.20679474   0.08646151
10550.00   0.21215552   0.08717657
10552.00   0.25279292   0.08822200
10554.00   0.28801581   0.08918115
10556.00   0.30944714   0.09074408
10558.00   0.28499815   0.09267984
10560.00   0.19007967   0.08845679
10562.00   0.19978590   0.08739885
10564.00   0.24219732   0.09028038
10566.00   0.18885560   0.09166559
10568.00   0.16558309   0.09019431
10570.00   0.19088228   0.09430293
10572.00   0.17401062   0.09583759
10574.00   0.17749496   0.09681704
10576.00   0.22075732   0.09703074
10578.00   0.21865375   0.09369993
10580.00   0.21431910   0.09519041
10582.00   0.25319320   0.10082144
10584.00   0.25226906   0.10352758
10586.00   0.25913283   0.10365047
10588.00   0.22325033   0.10235234
10590.00   0.16999771   0.10105187
10592.00   0.21078245   0.10082155
10594.00   0.20791908   0.10031679
10596.00   0.09058597   0.09624467
10598.00   0.08574331   0.09828928
10600.00   0.01774015   0.09766760
10602.00   0.06473827   0.09947843
10604.00   0.26416662   0.10536366
10606.00   0.23875213   0.10632125
10608.00   0.17537947   0.10328358
10610.00   0.25247002   0.10565575
10612.00   0.23857199   0.10721650
10614.00   0.11815783   0.10274521
10616.00   0.23961329   0.10311630
10618.00   0.26132864   0.10465930
10620.00   0.21881564   0.10831147
10622.00   0.17311992   0.11036820
10624.00   0.11327788   0.10950708
10626.00   0.12466544   0.11024600
10628.00   0.09013440   0.11135305
10630.00   0.21043915   0.11287072
10632.00   0.14773454   0.11271369
10634.00   0.21265042   0.11266615
10636.00   0.18687540   0.12085319
10638.00   0.17477375   0.12090799
10640.00   0.12032422   0.11729103
10642.00   0.11524520   0.11689365
10644.00   0.08538143   0.11804885
10646.00   0.03793808   0.11450519
10648.00   0.16536705   0.12206928
10650.00   0.23443867   0.12720776
10652.00   0.23671222   0.12867497
10654.00   0.25442323   0.12762713
10656.00   0.28475758   0.13208471
10658.00   0.21315302   0.13016556
10660.00   0.11179577   0.13121051
10662.00   0.18993591   0.13111527
10664.00   0.17954831   0.13003208
10666.00   0.14775942   0.13195036
10668.00   0.21644990   0.13405196
10670.00   0.31989747   0.13499750
10672.00   0.24805295   0.13582058
10674.00   0.08649656   0.13735296
10676.00   0.14041902   0.13620652
10678.00   0.16999894   0.14155048
10680.00   0.16566302   0.14889555
10682.00   0.15217933   0.14888734
10684.00   0.22668540   0.15243293
10686.00   0.36289182   0.16195461
10688.00   0.36477315   0.16213500
10690.00   0.35625055   0.16395533
10692.00   0.20765844   0.16416067
10694.00   0.28689703   0.16114965
10696.00   0.21961056   0.16694041
10698.00   0.34580192   0.16504046
10700.00   0.23847702   0.16895115
10702.00   0.13745695   0.18391985
10704.00   0.35027745   0.18268979
10706.00   0.11226423   0.18899414
10708.00   -0.01137006   0.19139455
10710.00   0.03623462   0.19600821
