# File created by shivutils (I.Shivvers)
# wl(A)   flm    er(optional)
3616.00   0.29126155   0.10522192
3618.00   0.39002293   0.10491984
3620.00   0.41923597   0.10726935
3622.00   0.23406544   0.10781731
3624.00   0.41932434   0.11098755
3626.00   0.36055589   0.11188274
3628.00   0.28804365   0.11552708
3630.00   0.46091840   0.11422340
3632.00   0.55170691   0.11258364
3634.00   0.33061996   0.10874633
3636.00   0.39095542   0.11085137
3638.00   0.35307571   0.11345834
3640.00   0.31002030   0.11945540
3642.00   0.59155643   0.12596716
3644.00   0.42700920   0.12259930
3646.00   0.21738796   0.14348681
3648.00   0.03651682   0.18465415
3650.00   0.28058839   0.18806836
3652.00   0.24915004   0.16558433
3654.00   0.31930557   0.15253599
3656.00   0.15588704   0.12693934
3658.00   0.24951971   0.11612996
3660.00   0.18859498   0.13296548
3662.00   0.40693003   0.14073797
3664.00   0.35478580   0.12125316
3666.00   0.50954252   0.10536207
3668.00   0.19152276   0.09898517
3670.00   0.29615304   0.10047766
3672.00   0.25050032   0.09911662
3674.00   0.22561236   0.09752103
3676.00   0.24182701   0.09427492
3678.00   0.44803682   0.09490880
3680.00   0.46925002   0.09582376
3682.00   0.33553237   0.09292957
3684.00   0.52757120   0.09324130
3686.00   0.44242823   0.09094367
3688.00   0.11296198   0.09103353
3690.00   0.30500203   0.09663200
3692.00   0.38857907   0.09577058
3694.00   0.44995803   0.09506016
3696.00   0.39333996   0.09407552
3698.00   0.43407235   0.09682390
3700.00   0.28192404   0.09404624
3702.00   0.41159543   0.09215733
3704.00   0.40904289   0.08849790
3706.00   0.54637337   0.08901322
3708.00   0.38304859   0.08765701
3710.00   0.43451232   0.09051538
3712.00   0.45052305   0.09294354
3714.00   0.52203578   0.09249975
3716.00   0.37740576   0.08785976
3718.00   0.38497460   0.08581170
3720.00   0.36872911   0.08233438
3722.00   0.47350469   0.08489731
3724.00   0.49238601   0.08786777
3726.00   0.48995966   0.08751097
3728.00   0.52255207   0.08729407
3730.00   0.44240999   0.08456882
3732.00   0.44543561   0.07975370
3734.00   0.48212320   0.07757805
3736.00   0.26589042   0.07663561
3738.00   0.43457693   0.08357174
3740.00   0.32672003   0.08270349
3742.00   0.44923785   0.08055566
3744.00   0.39431486   0.07617954
3746.00   0.39774767   0.07376835
3748.00   0.57417858   0.07727429
3750.00   0.48484156   0.07877733
3752.00   0.55542243   0.08351752
3754.00   0.38490620   0.08071072
3756.00   0.48112139   0.07833800
3758.00   0.49816018   0.07612254
3760.00   0.41582388   0.07652264
3762.00   0.51892543   0.07746177
3764.00   0.47649565   0.07669421
3766.00   0.48215833   0.07516605
3768.00   0.41148281   0.07379923
3770.00   0.32966173   0.07556386
3772.00   0.26778650   0.07567367
3774.00   0.36162379   0.07647405
3776.00   0.54070950   0.07828777
3778.00   0.40250608   0.07650298
3780.00   0.28019324   0.07548119
3782.00   0.29813468   0.07540996
3784.00   0.31861329   0.07364529
3786.00   0.32832953   0.07083933
3788.00   0.28383040   0.07049750
3790.00   0.24516854   0.07118394
3792.00   0.23759829   0.06890388
3794.00   0.21171692   0.06519023
3796.00   0.20994891   0.06383980
3798.00   0.32673833   0.06616074
3800.00   0.25257236   0.06889141
3802.00   0.24221055   0.07121705
3804.00   0.28243604   0.06883433
3806.00   0.18941510   0.06571016
3808.00   0.15926768   0.06513853
3810.00   0.15652624   0.06615183
3812.00   0.08683912   0.06310852
3814.00   0.20299530   0.06216442
3816.00   0.19518179   0.06189522
3818.00   0.30062410   0.06190065
3820.00   0.10616259   0.05928432
3822.00   0.09628078   0.05830428
3824.00   0.23423304   0.05773883
3826.00   0.09188971   0.05688754
3828.00   0.09773555   0.05914325
3830.00   0.18484409   0.05851354
3832.00   0.20312475   0.05677892
3834.00   0.17362699   0.05700279
3836.00   0.19058029   0.05693781
3838.00   0.13552395   0.05606743
3840.00   0.13152623   0.05736410
3842.00   0.22591454   0.05980822
3844.00   0.10707635   0.05901721
3846.00   0.13612485   0.05762942
3848.00   0.18774395   0.05716505
3850.00   0.17837714   0.05751349
3852.00   0.16433999   0.05750676
3854.00   0.19936678   0.05670647
3856.00   0.23796590   0.05493118
3858.00   0.23064744   0.05321666
3860.00   0.19039616   0.05506233
3862.00   0.24300478   0.05767749
3864.00   0.24440032   0.05720625
3866.00   0.30390701   0.05617086
3868.00   0.22789727   0.05375632
3870.00   0.28342125   0.05498492
3872.00   0.32646009   0.05927436
3874.00   0.30274636   0.06139958
3876.00   0.30404183   0.05726248
3878.00   0.27702513   0.05475725
3880.00   0.21224447   0.05330019
3882.00   0.28358555   0.05398346
3884.00   0.40748188   0.05589324
3886.00   0.33495271   0.05359916
3888.00   0.41086084   0.05477364
3890.00   0.33757067   0.05556399
3892.00   0.36225253   0.05765970
3894.00   0.44295779   0.05921547
3896.00   0.39896137   0.05830746
3898.00   0.48011857   0.05866598
3900.00   0.43836823   0.05875281
3902.00   0.42570975   0.05917885
3904.00   0.50711608   0.06523774
3906.00   0.42836466   0.07205579
3908.00   0.36784011   0.07545171
3910.00   0.58093125   0.07812822
3912.00   0.65410745   0.07711058
3914.00   0.51012993   0.06895383
3916.00   0.57843453   0.06423623
3918.00   0.53796315   0.05991305
3920.00   0.59047055   0.05759291
3922.00   0.61830515   0.05709406
3924.00   0.50761610   0.05512803
3926.00   0.62166142   0.05397810
3928.00   0.49232575   0.05008160
3930.00   0.70445943   0.05375681
3932.00   0.63865715   0.05467084
3934.00   0.50879288   0.05114653
3936.00   0.64875954   0.05054057
3938.00   0.65851110   0.05251851
3940.00   0.65838414   0.05494502
3942.00   0.65303361   0.05869748
3944.00   0.64364058   0.05927919
3946.00   0.66020340   0.05692124
3948.00   0.65740472   0.05670969
3950.00   0.78356266   0.05720474
3952.00   0.64952368   0.05531994
3954.00   0.64939833   0.05486578
3956.00   0.69814438   0.05497435
3958.00   0.64639956   0.05643762
3960.00   0.76673961   0.05862723
3962.00   0.79993790   0.05549846
3964.00   0.70596600   0.04949034
3966.00   0.64322203   0.04704343
3968.00   0.70319790   0.04684111
3970.00   0.72436023   0.04872351
3972.00   0.75760788   0.05147302
3974.00   0.72981215   0.05134512
3976.00   0.70726210   0.05267449
3978.00   0.69107133   0.05376462
3980.00   0.82971877   0.05537966
3982.00   0.74489695   0.05402287
3984.00   0.85542446   0.05508241
3986.00   0.74951595   0.05463081
3988.00   0.79443133   0.05620638
3990.00   0.82597882   0.05632759
3992.00   0.84802973   0.05716152
3994.00   0.80701298   0.05930600
3996.00   0.78642732   0.05992057
3998.00   0.77750129   0.05799804
4000.00   0.75296533   0.05629911
4002.00   0.74472737   0.05521921
4004.00   0.76340240   0.05444677
4006.00   0.78839523   0.05565082
4008.00   0.74392229   0.05732327
4010.00   0.83871776   0.05813908
4012.00   0.75301915   0.05751963
4014.00   0.73680156   0.05604211
4016.00   0.74379277   0.05915195
4018.00   0.73506361   0.06585771
4020.00   0.65873355   0.07034490
4022.00   0.69569355   0.07022496
4024.00   0.60020423   0.06638198
4026.00   0.58733934   0.06145573
4028.00   0.61402547   0.05934998
4030.00   0.66134322   0.05851003
4032.00   0.72850496   0.05722256
4034.00   0.65089172   0.05642436
4036.00   0.70865458   0.05711942
4038.00   0.69386917   0.05641619
4040.00   0.71930051   0.05656265
4042.00   0.61317515   0.06808966
4044.00   0.88657159   0.10465280
4046.00   0.75852615   0.11297305
4048.00   0.67090774   0.08586344
4050.00   0.60773873   0.06129868
4052.00   0.59076756   0.05911696
4054.00   0.67304850   0.05968510
4056.00   0.63286203   0.05628449
4058.00   0.49342006   0.05252517
4060.00   0.49812028   0.05141595
4062.00   0.53287125   0.05012757
4064.00   0.64443016   0.05627945
4066.00   0.64140344   0.05338943
4068.00   0.44017178   0.05084381
4070.00   0.50830853   0.04974161
4072.00   0.50761139   0.04954118
4074.00   0.40097472   0.05368467
4076.00   0.55439597   0.06077363
4078.00   0.66213763   0.06119809
4080.00   0.42645738   0.05665547
4082.00   0.53712803   0.05678868
4084.00   0.45622647   0.05524784
4086.00   0.41937777   0.05382276
4088.00   0.43879390   0.05145840
4090.00   0.51422668   0.04889037
4092.00   0.46913528   0.04860564
4094.00   0.42160621   0.04764293
4096.00   0.43046430   0.04700369
4098.00   0.45528352   0.04649716
4100.00   0.50262350   0.04557269
4102.00   0.53484434   0.04531043
4104.00   0.51622123   0.04608738
4106.00   0.46033001   0.04650850
4108.00   0.46336237   0.04704638
4110.00   0.43055779   0.04680772
4112.00   0.50239921   0.04733437
4114.00   0.45750618   0.04733194
4116.00   0.35274991   0.04598834
4118.00   0.44356316   0.04551996
4120.00   0.38266027   0.04462973
4122.00   0.40995216   0.04516080
4124.00   0.40942854   0.04528902
4126.00   0.47083116   0.04587182
4128.00   0.43572730   0.04562660
4130.00   0.45169249   0.04762006
4132.00   0.34878594   0.04802307
4134.00   0.42507833   0.04767542
4136.00   0.45136786   0.04712338
4138.00   0.29194403   0.04800271
4140.00   0.46921787   0.04909451
4142.00   0.38171044   0.04555735
4144.00   0.43893573   0.04472375
4146.00   0.38709697   0.04494754
4148.00   0.38744089   0.04613518
4150.00   0.43995166   0.04880065
4152.00   0.43703023   0.04935250
4154.00   0.41253969   0.04662009
4156.00   0.38480529   0.04519659
4158.00   0.43308103   0.04595619
4160.00   0.37879774   0.04666006
4162.00   0.45308352   0.05053381
4164.00   0.46879080   0.05231984
4166.00   0.50213349   0.04989392
4168.00   0.41309592   0.04639197
4170.00   0.42054623   0.04539881
4172.00   0.49470913   0.04461325
4174.00   0.39627737   0.04343969
4176.00   0.39801353   0.04478211
4178.00   0.42083761   0.04531175
4180.00   0.42323306   0.04452091
4182.00   0.41003978   0.04374888
4184.00   0.49628130   0.04452816
4186.00   0.47632289   0.04396589
4188.00   0.45025834   0.04387251
4190.00   0.36442295   0.04426889
4192.00   0.42054409   0.04499650
4194.00   0.52775592   0.04499849
4196.00   0.49420813   0.04331553
4198.00   0.36976331   0.04188609
4200.00   0.42212337   0.04280367
4202.00   0.41779551   0.04323758
4204.00   0.49596831   0.04456663
4206.00   0.50093019   0.04510446
4208.00   0.57266778   0.04647905
4210.00   0.39268348   0.04593619
4212.00   0.50020242   0.04591809
4214.00   0.57429302   0.04553167
4216.00   0.47082943   0.04465394
4218.00   0.43394279   0.04459134
4220.00   0.43506569   0.04474068
4222.00   0.44294724   0.04376389
4224.00   0.47262356   0.04274752
4226.00   0.44673193   0.04246356
4228.00   0.44000566   0.04376290
4230.00   0.42826745   0.04534133
4232.00   0.39429215   0.04514101
4234.00   0.48972887   0.04554126
4236.00   0.49882349   0.04607329
4238.00   0.48817426   0.04587886
4240.00   0.42620966   0.04407244
4242.00   0.52423841   0.04510477
4244.00   0.45947528   0.04988070
4246.00   0.54008096   0.05236750
4248.00   0.55189925   0.04875429
4250.00   0.55826807   0.04511023
4252.00   0.51449263   0.04371774
4254.00   0.57426637   0.04474792
4256.00   0.45148799   0.04419252
4258.00   0.51048386   0.04368810
4260.00   0.47980452   0.04283484
4262.00   0.49227631   0.04314027
4264.00   0.54390812   0.04392047
4266.00   0.54035103   0.04356946
4268.00   0.49376392   0.04289443
4270.00   0.51819360   0.04239839
4272.00   0.49467438   0.04203176
4274.00   0.45889157   0.04281415
4276.00   0.48169377   0.04367592
4278.00   0.48409280   0.04386285
4280.00   0.53906465   0.04412593
4282.00   0.52887923   0.04411453
4284.00   0.48312497   0.04320680
4286.00   0.49486658   0.04269936
4288.00   0.51626778   0.04269695
4290.00   0.46876860   0.04211397
4292.00   0.43064079   0.04244560
4294.00   0.55598903   0.04319879
4296.00   0.49676660   0.04236477
4298.00   0.52093756   0.04160377
4300.00   0.47698009   0.04054591
4302.00   0.51807535   0.04096723
4304.00   0.54525530   0.04158035
4306.00   0.52841932   0.04158440
4308.00   0.53301901   0.04135345
4310.00   0.55441266   0.04353596
4312.00   0.54703724   0.04697536
4314.00   0.54158109   0.04820153
4316.00   0.50821602   0.04681329
4318.00   0.58491528   0.04810848
4320.00   0.53357428   0.04802817
4322.00   0.49889225   0.04678885
4324.00   0.55861217   0.04567948
4326.00   0.59748489   0.04525988
4328.00   0.49278897   0.04414751
4330.00   0.65270549   0.04505235
4332.00   0.54518080   0.04440641
4334.00   0.57437080   0.04475911
4336.00   0.60639429   0.04494485
4338.00   0.53882557   0.04423821
4340.00   0.53510994   0.04403701
4342.00   0.62042874   0.04543302
4344.00   0.64648819   0.04742965
4346.00   0.56646681   0.04889052
4348.00   0.55769151   0.04839392
4350.00   0.53815103   0.04678531
4352.00   0.62729019   0.04717847
4354.00   0.59407741   0.06422812
4356.00   0.52466512   0.09600151
4358.00   0.76169145   0.10442489
4360.00   0.61919832   0.08142331
4362.00   0.53803724   0.05855021
4364.00   0.57785809   0.05020602
4366.00   0.71812809   0.04927065
4368.00   0.54689062   0.04771977
4370.00   0.56517994   0.04762762
4372.00   0.51237506   0.04848161
4374.00   0.54236209   0.04884620
4376.00   0.61261177   0.04753702
4378.00   0.54421258   0.04622215
4380.00   0.55974895   0.04522215
4382.00   0.47282553   0.04401411
4384.00   0.40892535   0.04296721
4386.00   0.44367722   0.04350386
4388.00   0.48359317   0.04430547
4390.00   0.50919318   0.04479982
4392.00   0.42008236   0.04411329
4394.00   0.44220090   0.04413258
4396.00   0.48299128   0.04471235
4398.00   0.50592864   0.04582182
4400.00   0.53985149   0.04632998
4402.00   0.47695655   0.04508277
4404.00   0.43919498   0.04379524
4406.00   0.45045102   0.04382300
4408.00   0.40732679   0.04407272
4410.00   0.36539933   0.04449810
4412.00   0.34769660   0.04493655
4414.00   0.48694897   0.04594353
4416.00   0.38536584   0.04522924
4418.00   0.33211985   0.04472664
4420.00   0.33936796   0.04423359
4422.00   0.41723943   0.04450008
4424.00   0.33366340   0.04379542
4426.00   0.33179423   0.04393152
4428.00   0.28591222   0.04375247
4430.00   0.32918474   0.04388972
4432.00   0.28936943   0.04348754
4434.00   0.31676134   0.04322691
4436.00   0.33524013   0.04380715
4438.00   0.27304018   0.04369410
4440.00   0.27540255   0.04355237
4442.00   0.31761733   0.04341402
4444.00   0.25230199   0.04332964
4446.00   0.36069649   0.04387174
4448.00   0.39808583   0.04375443
4450.00   0.31959885   0.04339077
4452.00   0.32511556   0.04307405
4454.00   0.32749096   0.04291139
4456.00   0.29474062   0.04264650
4458.00   0.31483051   0.04287190
4460.00   0.28910637   0.04270298
4462.00   0.31585029   0.04285412
4464.00   0.23455714   0.04268818
4466.00   0.29007742   0.04280937
4468.00   0.34126607   0.04283863
4470.00   0.31608775   0.04281935
4472.00   0.27284840   0.04277606
4474.00   0.30021393   0.04309587
4476.00   0.30843592   0.04321318
4478.00   0.33702177   0.04298526
4480.00   0.34112707   0.04282857
4482.00   0.30217391   0.04250928
4484.00   0.35869384   0.04304671
4486.00   0.28306189   0.04284051
4488.00   0.29510579   0.04284984
4490.00   0.35945410   0.04310712
4492.00   0.41360733   0.04352431
4494.00   0.25218371   0.04286712
4496.00   0.37625656   0.04327345
4498.00   0.34290153   0.04335521
4500.00   0.32058316   0.04289060
4502.00   0.25374246   0.04235281
4504.00   0.43248019   0.04332385
4506.00   0.41460541   0.04298065
4508.00   0.24479678   0.04187401
4510.00   0.35877618   0.04244672
4512.00   0.44143176   0.04267208
4514.00   0.43544823   0.04221662
4516.00   0.35632566   0.04167599
4518.00   0.38366443   0.04166622
4520.00   0.43281358   0.04177363
4522.00   0.39619696   0.04117967
4524.00   0.44669643   0.04113105
4526.00   0.35709694   0.04001262
4528.00   0.43656385   0.04015529
4530.00   0.39755747   0.04021081
4532.00   0.47285789   0.04051368
4534.00   0.38939822   0.03989047
4536.00   0.48272935   0.04031013
4538.00   0.47134548   0.04034680
4540.00   0.52133501   0.04064430
4542.00   0.45626205   0.04071201
4544.00   0.52369744   0.04085758
4546.00   0.46771860   0.04004160
4548.00   0.51021093   0.03953007
4550.00   0.47076458   0.03888556
4552.00   0.54676354   0.03939775
4554.00   0.53695261   0.03948081
4556.00   0.59228534   0.03986840
4558.00   0.53039289   0.03958170
4560.00   0.54211348   0.03949010
4562.00   0.62111539   0.03939179
4564.00   0.63016087   0.03915388
4566.00   0.67591506   0.03898790
4568.00   0.66006333   0.03892400
4570.00   0.66604340   0.03912824
4572.00   0.80231154   0.03982901
4574.00   0.81490821   0.03979141
4576.00   0.74987495   0.03922003
4578.00   0.73041862   0.03866492
4580.00   0.81753397   0.03858159
4582.00   0.80637878   0.03814131
4584.00   0.81449413   0.03797997
4586.00   0.81332284   0.03823943
4588.00   0.87428433   0.03873181
4590.00   0.90486693   0.03881792
4592.00   0.89434195   0.03872952
4594.00   0.85467190   0.03858664
4596.00   0.91677773   0.03863999
4598.00   0.99621034   0.03867133
4600.00   0.89624846   0.03785953
4602.00   0.99007380   0.03839678
4604.00   1.01579583   0.03813545
4606.00   0.91974384   0.03809231
4608.00   0.96036154   0.03841595
4610.00   0.96106929   0.03830729
4612.00   0.98612225   0.03805655
4614.00   0.98594564   0.03779944
4616.00   1.04483879   0.03785748
4618.00   1.06248844   0.03793381
4620.00   1.06850374   0.03799539
4622.00   0.97635955   0.03761919
4624.00   1.11476374   0.03807295
4626.00   1.12282240   0.03794441
4628.00   1.12676013   0.03797721
4630.00   1.14047110   0.03786543
4632.00   1.12383163   0.03776035
4634.00   1.13407528   0.03769181
4636.00   1.21245849   0.03799545
4638.00   1.20980096   0.03787853
4640.00   1.25035727   0.03804014
4642.00   1.13620496   0.03745601
4644.00   1.17742181   0.03751127
4646.00   1.30490959   0.03789956
4648.00   1.31420648   0.03797588
4650.00   1.27731454   0.03789490
4652.00   1.19324541   0.03767423
4654.00   1.23743415   0.03768610
4656.00   1.32515919   0.03831806
4658.00   1.27522016   0.03832356
4660.00   1.31512165   0.03871317
4662.00   1.32051003   0.03896320
4664.00   1.30237079   0.03886336
4666.00   1.27885056   0.03905624
4668.00   1.23804152   0.03926365
4670.00   1.29664361   0.03960674
4672.00   1.16315615   0.03875266
4674.00   1.31001306   0.03894337
4676.00   1.32864940   0.03860239
4678.00   1.26258755   0.03794180
4680.00   1.24846900   0.03752013
4682.00   1.22121572   0.03724151
4684.00   1.11991000   0.03681826
4686.00   1.15521443   0.03662718
4688.00   1.16640377   0.03659961
4690.00   1.12291944   0.03623718
4692.00   1.12921655   0.03615675
4694.00   1.02258396   0.03567315
4696.00   1.10847318   0.03569285
4698.00   1.09057951   0.03524243
4700.00   0.98855323   0.03451310
4702.00   0.99371231   0.03464577
4704.00   0.98275864   0.03474470
4706.00   0.86926365   0.03460669
4708.00   0.87188184   0.03482539
4710.00   0.83756185   0.03466861
4712.00   0.79177749   0.03440753
4714.00   0.78213096   0.03402425
4716.00   0.81271005   0.03390753
4718.00   0.76008463   0.03380940
4720.00   0.81157768   0.03411588
4722.00   0.69059914   0.03358973
4724.00   0.73895550   0.03366876
4726.00   0.70769995   0.03480127
4728.00   0.64729321   0.03547742
4730.00   0.68975931   0.03561030
4732.00   0.69924563   0.03580256
4734.00   0.57661593   0.03585115
4736.00   0.65929669   0.03663046
4738.00   0.63334054   0.03739128
4740.00   0.57016051   0.03806583
4742.00   0.57413036   0.03867888
4744.00   0.57985198   0.03717263
4746.00   0.60559112   0.03515215
4748.00   0.56543612   0.03338759
4750.00   0.50767261   0.03303998
4752.00   0.48881975   0.03303356
4754.00   0.49129546   0.03231154
4756.00   0.52152050   0.03173336
4758.00   0.43729827   0.03079263
4760.00   0.44114721   0.03043045
4762.00   0.48803034   0.03038195
4764.00   0.57915401   0.03064422
4766.00   0.51619881   0.03023530
4768.00   0.44955832   0.02983627
4770.00   0.43994373   0.02972233
4772.00   0.42127648   0.02968192
4774.00   0.40724003   0.02978876
4776.00   0.38208124   0.03060678
4778.00   0.45646957   0.03174718
4780.00   0.38949347   0.03096822
4782.00   0.48620114   0.03084324
4784.00   0.41538718   0.02973437
4786.00   0.45518488   0.02955901
4788.00   0.39409521   0.02937338
4790.00   0.41799399   0.02960546
4792.00   0.44526118   0.02979554
4794.00   0.45127201   0.02974856
4796.00   0.41133127   0.02924611
4798.00   0.37519845   0.02884370
4800.00   0.46489197   0.02928490
4802.00   0.40328938   0.02903021
4804.00   0.46986195   0.02956118
4806.00   0.41818938   0.02926653
4808.00   0.39319366   0.02917414
4810.00   0.43464038   0.02942750
4812.00   0.43987772   0.02958929
4814.00   0.49553624   0.02981168
4816.00   0.49030307   0.02971963
4818.00   0.49469766   0.03004494
4820.00   0.48118821   0.03014132
4822.00   0.51920527   0.03030741
4824.00   0.52009177   0.03045645
4826.00   0.46173453   0.03022731
4828.00   0.50062001   0.03048769
4830.00   0.51095301   0.03054830
4832.00   0.57098025   0.03100283
4834.00   0.57005191   0.03089929
4836.00   0.53134590   0.03083035
4838.00   0.52917469   0.03131694
4840.00   0.55552238   0.03146186
4842.00   0.55694038   0.03089590
4844.00   0.55784965   0.03063359
4846.00   0.62905633   0.03107277
4848.00   0.61835372   0.03117744
4850.00   0.58798015   0.03100573
4852.00   0.59983212   0.03092336
4854.00   0.59742689   0.03034559
4856.00   0.64513880   0.03011255
4858.00   0.58066708   0.02924203
4860.00   0.58674461   0.02927095
4862.00   0.60145700   0.02943085
4864.00   0.56177330   0.02957885
4866.00   0.51218832   0.02966475
4868.00   0.54876769   0.02982080
4870.00   0.57992047   0.02994932
4872.00   0.53204691   0.02961827
4874.00   0.51545686   0.02962410
4876.00   0.50752544   0.03002223
4878.00   0.52435553   0.03031465
4880.00   0.49908459   0.03007132
4882.00   0.52393109   0.03005106
4884.00   0.49737802   0.02949664
4886.00   0.54338837   0.02938174
4888.00   0.56525338   0.02939567
4890.00   0.54291272   0.02935014
4892.00   0.55094057   0.02961196
4894.00   0.53719419   0.02971888
4896.00   0.53878707   0.02978704
4898.00   0.55035251   0.02974972
4900.00   0.53493851   0.02951127
4902.00   0.53054076   0.02940858
4904.00   0.55043441   0.02951876
4906.00   0.57706016   0.02990375
4908.00   0.58427769   0.02994933
4910.00   0.45267087   0.02915202
4912.00   0.55781937   0.02974161
4914.00   0.58316499   0.02994016
4916.00   0.59968561   0.02983461
4918.00   0.57013971   0.02932473
4920.00   0.57629037   0.02931405
4922.00   0.59524471   0.02943051
4924.00   0.61255026   0.02942195
4926.00   0.60080874   0.02940963
4928.00   0.64199883   0.02959651
4930.00   0.59401798   0.02930782
4932.00   0.63513774   0.02952004
4934.00   0.62018812   0.02933461
4936.00   0.60990822   0.02926871
4938.00   0.64370757   0.02958111
4940.00   0.66332507   0.02978388
4942.00   0.62180853   0.02962847
4944.00   0.64928532   0.02963127
4946.00   0.69596320   0.02984798
4948.00   0.72345179   0.02986351
4950.00   0.73064679   0.03022313
4952.00   0.67978084   0.03038427
4954.00   0.66664964   0.03017440
4956.00   0.78885126   0.03024982
4958.00   0.72548079   0.02975788
4960.00   0.78273302   0.03021823
4962.00   0.77478242   0.03031295
4964.00   0.82087058   0.03071125
4966.00   0.84646595   0.03100096
4968.00   0.82583869   0.03102398
4970.00   0.80999112   0.03130095
4972.00   0.85586578   0.03234849
4974.00   0.79690659   0.03265652
4976.00   0.83210826   0.03365289
4978.00   0.87212116   0.03490101
4980.00   0.92085069   0.03594792
4982.00   0.89657527   0.03611940
4984.00   0.96716380   0.03599793
4986.00   0.96396011   0.03532663
4988.00   0.91808575   0.03451729
4990.00   0.97420293   0.03426559
4992.00   0.89084262   0.03323301
4994.00   0.89464599   0.03251567
4996.00   0.94036311   0.03207957
4998.00   0.90506876   0.03125117
5000.00   0.93271619   0.03110600
5002.00   0.79678375   0.03035372
5004.00   0.85113376   0.03014179
5006.00   0.89295453   0.03030071
5008.00   0.79442400   0.02959765
5010.00   0.80764502   0.02948381
5012.00   0.78610480   0.02943638
5014.00   0.75941014   0.02919123
5016.00   0.77021492   0.02954932
5018.00   0.72360599   0.02970564
5020.00   0.66586846   0.02945226
5022.00   0.61897898   0.02900457
5024.00   0.63491333   0.02879549
5026.00   0.66973567   0.02899151
5028.00   0.63980776   0.02911446
5030.00   0.60141402   0.02922679
5032.00   0.64961290   0.02929151
5034.00   0.62097281   0.02875191
5036.00   0.57264650   0.02837717
5038.00   0.57754230   0.02809220
5040.00   0.54402494   0.02757240
5042.00   0.54147428   0.02771785
5044.00   0.56773353   0.02818751
5046.00   0.55643761   0.02830035
5048.00   0.57245880   0.02830464
5050.00   0.55672234   0.02810728
5052.00   0.55679601   0.02801352
5054.00   0.51290745   0.02804038
5056.00   0.49805871   0.02807412
5058.00   0.51333076   0.02811502
5060.00   0.52615744   0.02860012
5062.00   0.50383055   0.02899403
5064.00   0.52180302   0.02953504
5066.00   0.51786762   0.02991660
5068.00   0.49679762   0.03067097
5070.00   0.48753476   0.03039362
5072.00   0.51528913   0.02990148
5074.00   0.48420233   0.02940331
5076.00   0.45330518   0.02899304
5078.00   0.48221833   0.03002481
5080.00   0.48695552   0.03243862
5082.00   0.45116001   0.03472589
5084.00   0.47889632   0.03630921
5086.00   0.46614975   0.03601466
5088.00   0.46072918   0.03404705
5090.00   0.41843259   0.03176676
5092.00   0.47322413   0.03041088
5094.00   0.46879750   0.02968484
5096.00   0.44921887   0.03010110
5098.00   0.42274678   0.03049391
5100.00   0.41711727   0.03040205
5102.00   0.44442993   0.02974595
5104.00   0.49786672   0.02915978
5106.00   0.54256791   0.02876577
5108.00   0.43996379   0.02817577
5110.00   0.47135875   0.02838618
5112.00   0.45815286   0.02852692
5114.00   0.41109785   0.02855164
5116.00   0.47577754   0.02899097
5118.00   0.44745716   0.02855736
5120.00   0.40540892   0.02786865
5122.00   0.47735885   0.02779758
5124.00   0.48585084   0.02768649
5126.00   0.46642759   0.02763530
5128.00   0.47543445   0.02761349
5130.00   0.49390748   0.02771228
5132.00   0.45644987   0.02747800
5134.00   0.48576891   0.02764395
5136.00   0.49310297   0.02755157
5138.00   0.49354610   0.02755149
5140.00   0.46705547   0.02734043
5142.00   0.47466779   0.02739494
5144.00   0.54767466   0.02798986
5146.00   0.52038157   0.02806730
5148.00   0.50446558   0.02853352
5150.00   0.48575804   0.02902061
5152.00   0.49595365   0.02945477
5154.00   0.48776835   0.02936909
5156.00   0.46944168   0.02909626
5158.00   0.42238891   0.02849479
5160.00   0.47748956   0.02815767
5162.00   0.48169717   0.02788273
5164.00   0.44167358   0.02706191
5166.00   0.43180841   0.02655309
5168.00   0.44525915   0.02631019
5170.00   0.48468125   0.02627844
5172.00   0.48406336   0.02638501
5174.00   0.47686598   0.02657966
5176.00   0.46352705   0.02700795
5178.00   0.45745221   0.02718068
5180.00   0.47138691   0.02701472
5182.00   0.41811058   0.02635910
5184.00   0.44573978   0.02634277
5186.00   0.46103668   0.02672337
5188.00   0.44162524   0.02667426
5190.00   0.37204880   0.02635765
5192.00   0.42509502   0.02674330
5194.00   0.47740623   0.02735649
5196.00   0.54133832   0.02815577
5198.00   0.47729236   0.02832164
5200.00   0.47180656   0.02832821
5202.00   0.46777287   0.02798693
5204.00   0.47424832   0.02754586
5206.00   0.48398355   0.02736717
5208.00   0.49120966   0.02779016
5210.00   0.47380161   0.02811773
5212.00   0.49814960   0.02797306
5214.00   0.47243273   0.02770150
5216.00   0.48397273   0.02795257
5218.00   0.54283172   0.02839932
5220.00   0.55337542   0.02849269
5222.00   0.56731045   0.02827430
5224.00   0.53943056   0.02765084
5226.00   0.53696722   0.02742866
5228.00   0.56820476   0.02762694
5230.00   0.57177901   0.02775193
5232.00   0.59083068   0.02770256
5234.00   0.53507084   0.02746077
5236.00   0.55147910   0.02778595
5238.00   0.57202351   0.02800324
5240.00   0.57858545   0.02802151
5242.00   0.63958949   0.02814394
5244.00   0.57452595   0.02780516
5246.00   0.59613633   0.02784558
5248.00   0.61012411   0.02786510
5250.00   0.62256992   0.02780943
5252.00   0.65581632   0.02802962
5254.00   0.63241124   0.02809154
5256.00   0.63757551   0.02861027
5258.00   0.67121667   0.02880660
5260.00   0.67310333   0.02857816
5262.00   0.69185209   0.02827347
5264.00   0.64961702   0.02781247
5266.00   0.67393672   0.02747476
5268.00   0.68755585   0.02742778
5270.00   0.73681837   0.02770716
5272.00   0.72283715   0.02774226
5274.00   0.72722173   0.02779261
5276.00   0.74135822   0.02806009
5278.00   0.75466460   0.02817864
5280.00   0.74865800   0.02812428
5282.00   0.72242337   0.02821334
5284.00   0.69829243   0.02837467
5286.00   0.72173530   0.02853892
5288.00   0.72049260   0.02858483
5290.00   0.77703130   0.02874227
5292.00   0.76243943   0.02864706
5294.00   0.76332080   0.02855418
5296.00   0.75595611   0.02835786
5298.00   0.84945309   0.02879751
5300.00   0.77705610   0.02843850
5302.00   0.79749972   0.02865821
5304.00   0.81276673   0.02867515
5306.00   0.84742123   0.02888762
5308.00   0.79168105   0.02869046
5310.00   0.79831171   0.02891302
5312.00   0.84717244   0.02916169
5314.00   0.86398119   0.02914608
5316.00   0.85973734   0.02910967
5318.00   0.85230231   0.02909795
5320.00   0.88571060   0.02915653
5322.00   0.90410870   0.02908702
5324.00   0.92946082   0.02920960
5326.00   0.90000439   0.02894210
5328.00   0.89701319   0.02888145
5330.00   0.85277832   0.02899349
5332.00   0.95885926   0.02956012
5334.00   0.95302802   0.02957527
5336.00   0.93518561   0.02973907
5338.00   0.93522412   0.02991569
5340.00   0.97699177   0.03043871
5342.00   0.95302302   0.03052377
5344.00   0.91656876   0.03014427
5346.00   0.95299619   0.03087157
5348.00   0.94795573   0.03132228
5350.00   0.94096738   0.03129830
5352.00   0.94018441   0.03139655
5354.00   0.97446066   0.03193431
5356.00   0.94403410   0.03182742
5358.00   0.94540828   0.03120336
5360.00   0.97148001   0.03083523
5362.00   0.96419930   0.03047427
5364.00   0.95123804   0.03010571
5366.00   0.96017164   0.02990741
5368.00   0.98805243   0.02980449
5370.00   0.93156040   0.02960429
5372.00   0.93957061   0.03007901
5374.00   0.93670303   0.03066086
5376.00   0.96671498   0.03096211
5378.00   0.89060235   0.03048787
5380.00   0.98055202   0.03094891
5382.00   0.94590038   0.03088109
5384.00   0.95902818   0.03103969
5386.00   0.92691046   0.03097072
5388.00   1.01137125   0.03174169
5390.00   0.96656358   0.03207807
5392.00   0.92574435   0.03234352
5394.00   0.99388164   0.03250097
5396.00   0.95941663   0.03226436
5398.00   0.94168055   0.03245950
5400.00   1.02305090   0.03297876
5402.00   0.97296250   0.03270315
5404.00   1.01762033   0.03320647
5406.00   1.04390585   0.03351727
5408.00   0.97694361   0.03357780
5410.00   1.05546975   0.03451024
5412.00   1.00105548   0.03489703
5414.00   1.02567899   0.03600706
5416.00   1.01736248   0.03661034
5418.00   1.05921483   0.03730449
5420.00   1.03078830   0.03740832
5422.00   1.06165445   0.03768375
5424.00   1.11104000   0.03795562
5426.00   1.02802896   0.03756316
5428.00   1.03129482   0.03751761
5430.00   1.08786142   0.03798541
5432.00   1.08016229   0.03807911
5434.00   1.14412546   0.03848167
5436.00   1.16433907   0.03870058
5438.00   1.07832253   0.03879107
5440.00   1.05882835   0.03886317
5442.00   1.11617577   0.03950697
5444.00   1.06174910   0.03972379
5446.00   1.08577693   0.04002901
5448.00   1.09290230   0.04014483
5450.00   1.04216111   0.04006823
5452.00   1.12694454   0.04045368
5454.00   1.03178000   0.04031080
5456.00   1.11400449   0.04566186
5458.00   1.10910833   0.05745145
5460.00   1.08687878   0.06380434
5462.00   1.07079685   0.06097554
5464.00   1.05035090   0.05582532
5466.00   1.03816938   0.05169567
5468.00   1.08325708   0.04826254
5470.00   1.03594518   0.04492610
5472.00   1.08375120   0.04289816
5474.00   1.05017090   0.04140539
5476.00   1.08114076   0.04110942
5478.00   1.06983435   0.04129477
5480.00   1.08089805   0.04246508
5482.00   1.14857924   0.04363963
5484.00   1.06105375   0.04338051
5486.00   1.02342546   0.04231403
5488.00   1.11455894   0.04201130
5490.00   1.07327604   0.04152529
5492.00   1.09444404   0.04110387
5494.00   1.11776495   0.04102674
5496.00   1.11076522   0.04068151
5498.00   1.06937301   0.04049273
5500.00   1.10252190   0.04059711
5502.00   1.15289044   0.04067883
5504.00   1.18231952   0.04076727
5506.00   1.16009367   0.04053879
5508.00   1.14448094   0.04045635
5510.00   1.14953995   0.04071086
5512.00   1.20182419   0.04188124
5514.00   1.16429245   0.04205234
5516.00   1.22883844   0.04252613
5518.00   1.18630660   0.04250613
5520.00   1.14491081   0.04267155
5522.00   1.23348296   0.04245389
5524.00   1.27045155   0.04250152
5526.00   1.20439410   0.04186871
5528.00   1.22723699   0.04134704
5530.00   1.31438041   0.04139501
5532.00   1.23353541   0.04065597
5534.00   1.28368735   0.04069670
5536.00   1.28575730   0.04093159
5538.00   1.22998226   0.04059525
5540.00   1.25382435   0.04075001
5542.00   1.25500000   0.04071548
5544.00   1.25989604   0.04056856
5546.00   1.31789505   0.04100842
5548.00   1.27646101   0.04076702
5550.00   1.29234123   0.04095609
5552.00   1.32918513   0.04109728
5554.00   1.30004060   0.04086828
5556.00   1.39952469   0.04151753
5558.00   1.31223786   0.04118933
5560.00   1.36111879   0.04161124
5562.00   1.34487689   0.04141722
5564.00   1.29675746   0.04136164
5566.00   1.38471365   0.04169172
5568.00   1.34424663   0.04153131
5570.00   1.38964212   0.04207742
5572.00   1.46967828   0.07460207
5574.00   1.39939082   0.07667052
5576.00   1.38560295   0.07803941
5578.00   1.37799180   0.07759903
5580.00   1.34928596   0.07523426
5582.00   1.39241648   0.07235871
5584.00   1.41858733   0.06789746
5586.00   1.38131726   0.06324200
5588.00   1.35896635   0.06022010
5590.00   1.39227998   0.05953615
5592.00   1.35153449   0.05900317
5594.00   1.31995046   0.05835885
5596.00   1.34784031   0.05799112
5598.00   1.37054431   0.05744204
5600.00   1.31123161   0.05630530
5602.00   1.35699642   0.05655887
5604.00   1.38404214   0.05647743
5606.00   1.35581827   0.05592494
5608.00   1.31034780   0.05522528
5610.00   1.30544186   0.05475890
5612.00   1.22108746   0.05388735
5614.00   1.20818985   0.05334667
5616.00   1.21552098   0.05291970
5618.00   1.20798504   0.05245753
5620.00   1.22233319   0.05219058
5622.00   1.27323198   0.05214063
5624.00   1.23507261   0.05156928
5626.00   1.18189716   0.05100055
5628.00   1.17240560   0.05073032
5630.00   1.16734421   0.05031283
5632.00   1.13808155   0.04993866
5634.00   1.12617433   0.04963681
5636.00   1.11725748   0.04930414
5638.00   1.09118640   0.04890887
5640.00   1.07628572   0.04894972
5642.00   1.05549228   0.04864943
5644.00   1.02792180   0.04833229
5646.00   1.00847781   0.04804800
5648.00   1.01167011   0.04791519
5650.00   1.05042076   0.04821128
5652.00   1.01417196   0.04800560
5654.00   0.98308581   0.04787461
5656.00   0.96894604   0.04794173
5658.00   0.95355779   0.04815073
5660.00   0.97753602   0.04867474
5662.00   0.95418674   0.04898339
5664.00   0.90448350   0.04934303
5666.00   0.88007563   0.05013101
5668.00   0.93725902   0.05169090
5670.00   0.91738939   0.05296509
5672.00   0.88323420   0.05335487
5674.00   0.84808713   0.05349938
5676.00   0.82277775   0.05394382
5678.00   0.80864650   0.05450756
5680.00   0.82307571   0.05533570
5682.00   0.83518314   0.05647420
5684.00   0.82670736   0.05748352
5686.00   0.79112434   0.05786486
5688.00   0.78772897   0.05754068
5690.00   0.82541531   0.05624714
5692.00   0.80733919   0.05408483
5694.00   0.74792844   0.05139520
5696.00   0.71117717   0.04872406
5698.00   0.74051028   0.04697970
5700.00   0.75222462   0.04560314
5702.00   0.74247402   0.04437767
5704.00   0.72210330   0.04337663
5706.00   0.73007321   0.04282498
5708.00   0.70268297   0.04214343
5710.00   0.66141319   0.04150734
5712.00   0.64147311   0.04105883
5714.00   0.63691014   0.04071010
5716.00   0.61276442   0.04015092
5718.00   0.64772868   0.03983553
5720.00   0.63941222   0.03924922
5722.00   0.60549188   0.03860373
5724.00   0.58302742   0.03812016
5726.00   0.59900445   0.03780333
5728.00   0.59271485   0.03742789
5730.00   0.58914405   0.03711369
5732.00   0.59129256   0.03685437
5734.00   0.58847022   0.03662713
5736.00   0.57581407   0.03638314
5738.00   0.56503046   0.03622873
5740.00   0.55857438   0.03611800
5742.00   0.55799121   0.03607303
5744.00   0.56765974   0.03612664
5746.00   0.57906175   0.03619803
5748.00   0.57546544   0.03622009
5750.00   0.56684899   0.03628687
5752.00   0.56912875   0.03653077
5754.00   0.58058697   0.03694197
5756.00   0.61489558   0.03756056
5758.00   0.58389097   0.03787985
5760.00   0.57195377   0.03848359
5762.00   0.59325600   0.03941151
5764.00   0.60861176   0.04037851
5766.00   0.63071460   0.04167567
5768.00   0.61822033   0.04233909
5770.00   0.59974056   0.04234216
5772.00   0.60354823   0.04186492
5774.00   0.63819122   0.04115543
5776.00   0.63806915   0.03998499
5778.00   0.64939862   0.03905289
5780.00   0.65951890   0.03866154
5782.00   0.65130836   0.03889741
5784.00   0.64569145   0.03962294
5786.00   0.63666856   0.04073562
5788.00   0.65844148   0.04185466
5790.00   0.69273585   0.04248513
5792.00   0.71469021   0.04236208
5794.00   0.71918303   0.04173648
5796.00   0.77467567   0.04090724
5798.00   0.79508680   0.03974700
5800.00   0.78135794   0.03866692
5802.00   0.79234940   0.03831199
5804.00   0.79440373   0.03820071
5806.00   0.80708951   0.03821646
5808.00   0.81533569   0.03817564
5810.00   0.82476282   0.03812169
5812.00   0.85747832   0.03827105
5814.00   0.87939167   0.03845846
5816.00   0.90494329   0.03874326
5818.00   0.92851990   0.03897801
5820.00   0.94876456   0.03910265
5822.00   0.97888309   0.03932524
5824.00   0.96778417   0.03938581
5826.00   0.96852684   0.03948772
5828.00   0.98971862   0.03970719
5830.00   1.01804531   0.03999592
5832.00   1.03120196   0.04018977
5834.00   1.05618870   0.04048578
5836.00   1.09081411   0.04077209
5838.00   1.11573231   0.04098063
5840.00   1.10671091   0.04104297
5842.00   1.14344990   0.04131224
5844.00   1.14001143   0.04141391
5846.00   1.13833773   0.04153451
5848.00   1.15450490   0.04174741
5850.00   1.17590284   0.04199552
5852.00   1.19347847   0.04228891
5854.00   1.20185542   0.04250975
5856.00   1.22053659   0.04270409
5858.00   1.24727654   0.04289367
5860.00   1.24730384   0.04303612
5862.00   1.24026024   0.04328800
5864.00   1.25171304   0.04358518
5866.00   1.27252543   0.04384964
5868.00   1.28599775   0.04413782
5870.00   1.29785728   0.04481262
5872.00   1.27376151   0.04574185
5874.00   1.28436744   0.04715976
5876.00   1.30921304   0.04938909
5878.00   1.31713855   0.05271466
5880.00   1.33886862   0.05731605
5882.00   1.35063398   0.06264950
5884.00   1.33695984   0.07025226
5886.00   1.31408536   0.07936586
5888.00   1.27902091   0.08788189
5890.00   1.28112590   0.09227738
5892.00   1.23018146   0.09566602
5894.00   1.25870478   0.09576280
5896.00   1.30978453   0.09088168
5898.00   1.22513497   0.08071496
5900.00   1.23009527   0.07152566
5902.00   1.24954975   0.06168358
5904.00   1.27201796   0.05186558
5906.00   1.29194605   0.04454457
5908.00   1.28880322   0.04345539
5910.00   1.27254808   0.04334279
5912.00   1.24861443   0.04329506
5914.00   1.22382915   0.04313032
5916.00   1.20183527   0.04296797
5918.00   1.20814359   0.04291494
5920.00   1.21827567   0.04281723
5922.00   1.22606063   0.04280135
5924.00   1.21533954   0.04280485
5926.00   1.17185593   0.04268506
5928.00   1.14829767   0.04260607
5930.00   1.16859019   0.04274783
5932.00   1.18222618   0.04272991
5934.00   1.16722476   0.04243670
5936.00   1.13649774   0.04197918
5938.00   1.13842809   0.04157674
5940.00   1.15799415   0.04117611
5942.00   1.13583982   0.04065505
5944.00   1.09465027   0.04016961
5946.00   1.11174393   0.04004632
5948.00   1.11834323   0.03998622
5950.00   1.10381985   0.03995144
5952.00   1.07867467   0.03982854
5954.00   1.06764781   0.03968608
5956.00   1.08866417   0.03972359
5958.00   1.07895720   0.03959675
5960.00   1.05660832   0.03933670
5962.00   1.04986584   0.03913263
5964.00   1.06209075   0.03904518
5966.00   1.03546393   0.03883376
5968.00   1.01957572   0.03864583
5970.00   1.00665891   0.03848109
5972.00   1.00655234   0.03838740
5974.00   1.01282775   0.03832084
5976.00   1.00349748   0.03817727
5978.00   0.97198015   0.03797596
5980.00   0.94127852   0.03770899
5982.00   0.92268223   0.03747237
5984.00   0.92102557   0.03738520
5986.00   0.95256764   0.03748474
5988.00   0.96035260   0.03749818
5990.00   0.93317646   0.03733965
5992.00   0.89204645   0.03707254
5994.00   0.87143677   0.03683457
5996.00   0.87535328   0.03670688
5998.00   0.85473061   0.03651831
6000.00   0.82008225   0.03624287
6002.00   0.79684502   0.03597187
6004.00   0.81246978   0.03590505
6006.00   0.80120516   0.03576246
6008.00   0.78339911   0.03552508
6010.00   0.78225583   0.03534432
6012.00   0.79255790   0.03525327
6014.00   0.78695560   0.03512393
6016.00   0.77450728   0.03497050
6018.00   0.76269031   0.03482458
6020.00   0.76075643   0.03473056
6022.00   0.76456928   0.03465845
6024.00   0.77460098   0.03464409
6026.00   0.75396919   0.03449980
6028.00   0.74193460   0.03445278
6030.00   0.73490673   0.03439308
6032.00   0.71765184   0.03417353
6034.00   0.70921665   0.03403747
6036.00   0.71676856   0.03395817
6038.00   0.71783012   0.03385639
6040.00   0.70307755   0.03370828
6042.00   0.68252230   0.03352804
6044.00   0.69199330   0.03347854
6046.00   0.66591150   0.03323415
6048.00   0.64572483   0.03303878
6050.00   0.65744764   0.03305064
6052.00   0.68163878   0.03319945
6054.00   0.67027920   0.03304286
6056.00   0.63551378   0.03274434
6058.00   0.61557031   0.03255124
6060.00   0.63330764   0.03259978
6062.00   0.66957378   0.03272057
6064.00   0.65748447   0.03265430
6066.00   0.62570763   0.03244617
6068.00   0.60767931   0.03230354
6070.00   0.61345977   0.03232319
6072.00   0.59886843   0.03228341
6074.00   0.60185981   0.03228779
6076.00   0.58762437   0.03214255
6078.00   0.56483358   0.03192505
6080.00   0.56447154   0.03187022
6082.00   0.59114742   0.03201532
6084.00   0.59980130   0.03203304
6086.00   0.60191453   0.03207247
6088.00   0.60108989   0.03215688
6090.00   0.59420520   0.03218058
6092.00   0.61075222   0.03242715
6094.00   0.58263081   0.03255230
6096.00   0.56762081   0.03274910
6098.00   0.58197790   0.03313009
6100.00   0.56869692   0.03366592
6102.00   0.57328981   0.03427335
6104.00   0.60546333   0.03509860
6106.00   0.61731416   0.03600205
6108.00   0.60045463   0.03692829
6110.00   0.62276167   0.03795527
6112.00   0.63776690   0.03845560
6114.00   0.62108177   0.03835071
6116.00   0.59932989   0.03776576
6118.00   0.61114079   0.03695784
6120.00   0.65039176   0.03594898
6122.00   0.65750563   0.03491329
6124.00   0.65907550   0.03411474
6126.00   0.66430384   0.03360661
6128.00   0.66327018   0.03329021
6130.00   0.68859893   0.03320810
6132.00   0.70833093   0.03312163
6134.00   0.71898884   0.03304165
6136.00   0.70684767   0.03292963
6138.00   0.67301160   0.03281922
6140.00   0.68205380   0.03289684
6142.00   0.68190622   0.03294213
6144.00   0.66806936   0.03292793
6146.00   0.65717173   0.03293877
6148.00   0.68359488   0.03314456
6150.00   0.67609817   0.03331291
6152.00   0.65777194   0.03343463
6154.00   0.65324992   0.03361719
6156.00   0.66816688   0.03389061
6158.00   0.67673039   0.03411022
6160.00   0.68499142   0.03393289
6162.00   0.67577124   0.03340055
6164.00   0.66243863   0.03272867
6166.00   0.65686053   0.03207368
6168.00   0.65398186   0.03131914
6170.00   0.65275949   0.03072859
6172.00   0.65005320   0.03041647
6174.00   0.64633566   0.03031545
6176.00   0.64795083   0.03025211
6178.00   0.65144706   0.03018815
6180.00   0.65509266   0.03021374
6182.00   0.64852983   0.03017787
6184.00   0.63747615   0.03006105
6186.00   0.64066929   0.03003044
6188.00   0.62943619   0.02999748
6190.00   0.62937057   0.02997662
6192.00   0.63852125   0.02998512
6194.00   0.65200704   0.03003965
6196.00   0.66257447   0.03018287
6198.00   0.66193193   0.03018214
6200.00   0.65590233   0.03013474
6202.00   0.65302294   0.03017808
6204.00   0.65875745   0.03038242
6206.00   0.67508978   0.03067286
6208.00   0.67461044   0.03083063
6210.00   0.67917114   0.03081003
6212.00   0.68080240   0.03061639
6214.00   0.68055826   0.03038233
6216.00   0.69873697   0.03026207
6218.00   0.72744226   0.03011883
6220.00   0.73758096   0.03001354
6222.00   0.72844666   0.02994526
6224.00   0.72865796   0.02990529
6226.00   0.75503057   0.03001139
6228.00   0.75188231   0.03002058
6230.00   0.75535935   0.03016290
6232.00   0.77878475   0.03054572
6234.00   0.77743953   0.03094499
6236.00   0.77352881   0.03123648
6238.00   0.76934820   0.03135589
6240.00   0.78532273   0.03137285
6242.00   0.80793494   0.03124207
6244.00   0.80251604   0.03085040
6246.00   0.79801208   0.03049403
6248.00   0.80083042   0.03024622
6250.00   0.79324007   0.03011926
6252.00   0.77627397   0.03015309
6254.00   0.78569251   0.03047760
6256.00   0.79053384   0.03069803
6258.00   0.79132682   0.03077334
6260.00   0.79758757   0.03079974
6262.00   0.80801582   0.03078973
6264.00   0.77885503   0.03039132
6266.00   0.77807111   0.03001095
6268.00   0.77612132   0.02967047
6270.00   0.76624137   0.02936919
6272.00   0.74971658   0.02910541
6274.00   0.73913211   0.02911911
6276.00   0.73556948   0.02939625
6278.00   0.74366373   0.02976492
6280.00   0.75600481   0.03000259
6282.00   0.74953747   0.02996916
6284.00   0.74921638   0.03011327
6286.00   0.75269294   0.03020934
6288.00   0.74761671   0.03019951
6290.00   0.73169804   0.03031044
6292.00   0.73175770   0.03112791
6294.00   0.70678926   0.03256141
6296.00   0.70260173   0.03460440
6298.00   0.69146818   0.03623622
6300.00   0.65022558   0.03674382
6302.00   0.67711633   0.03674657
6304.00   0.69248194   0.03579406
6306.00   0.68671274   0.03375860
6308.00   0.67775446   0.03140524
6310.00   0.67072040   0.02978307
6312.00   0.66347480   0.02918344
6314.00   0.65837127   0.02855175
6316.00   0.64365023   0.02792403
6318.00   0.62750095   0.02745181
6320.00   0.62231809   0.02726918
6322.00   0.63188916   0.02736955
6324.00   0.61568350   0.02734855
6326.00   0.60645133   0.02739065
6328.00   0.61191231   0.02746763
6330.00   0.59922248   0.02732662
6332.00   0.62660080   0.02751162
6334.00   0.60844904   0.02727841
6336.00   0.58864528   0.02694299
6338.00   0.59318882   0.02676012
6340.00   0.58976430   0.02661853
6342.00   0.58084351   0.02639321
6344.00   0.57979602   0.02635054
6346.00   0.57297826   0.02636156
6348.00   0.55436105   0.02626429
6350.00   0.54205006   0.02606519
6352.00   0.54130822   0.02617121
6354.00   0.53364944   0.02629028
6356.00   0.52320158   0.02652738
6358.00   0.52196634   0.02706852
6360.00   0.54660106   0.02799476
6362.00   0.54092675   0.02834964
6364.00   0.53744322   0.02828786
6366.00   0.54551059   0.02793749
6368.00   0.55659342   0.02738654
6370.00   0.55630106   0.02656315
6372.00   0.56857729   0.02605675
6374.00   0.56665570   0.02587261
6376.00   0.56051141   0.02593635
6378.00   0.57695943   0.02604298
6380.00   0.56519729   0.02603079
6382.00   0.55877519   0.02600344
6384.00   0.55950886   0.02591765
6386.00   0.56770951   0.02576607
6388.00   0.59294146   0.02570982
6390.00   0.61236805   0.02569311
6392.00   0.61839211   0.02565195
6394.00   0.61042053   0.02562734
6396.00   0.59976107   0.02571698
6398.00   0.60925442   0.02600352
6400.00   0.63697952   0.02634502
6402.00   0.63130289   0.02637093
6404.00   0.61618692   0.02621987
6406.00   0.62434506   0.02611534
6408.00   0.63917089   0.02595811
6410.00   0.64779645   0.02582263
6412.00   0.64179426   0.02567092
6414.00   0.64665848   0.02564723
6416.00   0.68441504   0.02584355
6418.00   0.69625354   0.02578283
6420.00   0.68126589   0.02558750
6422.00   0.68090606   0.02550426
6424.00   0.69842744   0.02552442
6426.00   0.70427996   0.02545750
6428.00   0.70422763   0.02543411
6430.00   0.71855879   0.02548579
6432.00   0.72946185   0.02550863
6434.00   0.73772269   0.02551426
6436.00   0.74855429   0.02554090
6438.00   0.75170112   0.02556997
6440.00   0.77183956   0.02567350
6442.00   0.79076165   0.02576955
6444.00   0.79079789   0.02576964
6446.00   0.80005175   0.02579318
6448.00   0.80256289   0.02578907
6450.00   0.79940015   0.02574889
6452.00   0.79863268   0.02573344
6454.00   0.80867237   0.02579834
6456.00   0.80490190   0.02577302
6458.00   0.80979586   0.02576490
6460.00   0.82790345   0.02589539
6462.00   0.84267360   0.02601780
6464.00   0.83486289   0.02592339
6466.00   0.83299226   0.02591658
6468.00   0.84215409   0.02586719
6470.00   0.85461265   0.02578513
6472.00   0.86089915   0.02567353
6474.00   0.85391217   0.02549223
6476.00   0.84553212   0.02532553
6478.00   0.85887557   0.02531658
6480.00   0.88006574   0.02537126
6482.00   0.89454055   0.02540138
6484.00   0.90794253   0.02547301
6486.00   0.90452069   0.02544386
6488.00   0.90911573   0.02548327
6490.00   0.91465050   0.02554517
6492.00   0.91721869   0.02563497
6494.00   0.93160176   0.02591105
6496.00   0.95067614   0.02624793
6498.00   0.94961685   0.02645967
6500.00   0.95587534   0.02668908
6502.00   1.00261390   0.02709620
6504.00   1.01424909   0.02716567
6506.00   1.01292419   0.02702556
6508.00   1.01337075   0.02684724
6510.00   1.01294720   0.02661516
6512.00   1.00807106   0.02628403
6514.00   1.01438081   0.02599748
6516.00   1.00709212   0.02578930
6518.00   0.99308068   0.02569670
6520.00   0.99778795   0.02580570
6522.00   1.04075992   0.02615918
6524.00   1.04504013   0.02632754
6526.00   1.06777596   0.02659971
6528.00   1.08599293   0.02683673
6530.00   1.08120871   0.02691500
6532.00   1.05787718   0.02680822
6534.00   1.06913126   0.02679854
6536.00   1.07201374   0.02670974
6538.00   1.07571793   0.02657671
6540.00   1.08821309   0.02645979
6542.00   1.08621800   0.02632722
6544.00   1.09304690   0.02629809
6546.00   1.09381080   0.02631644
6548.00   1.09086514   0.02636355
6550.00   1.09169233   0.02640298
6552.00   1.09313023   0.02640174
6554.00   1.08134747   0.02627306
6556.00   1.08833086   0.02621464
6558.00   1.09940720   0.02614822
6560.00   1.08655560   0.02592752
6562.00   1.07071197   0.02572616
6564.00   1.08867455   0.02578503
6566.00   1.10736108   0.02588755
6568.00   1.11159253   0.02591418
6570.00   1.09917653   0.02586550
6572.00   1.08414292   0.02594596
6574.00   1.07862055   0.02604838
6576.00   1.07833397   0.02613304
6578.00   1.06949890   0.02612703
6580.00   1.06624246   0.02610498
6582.00   1.07503545   0.02609911
6584.00   1.09774387   0.02614410
6586.00   1.10516202   0.02610283
6588.00   1.08154762   0.02592097
6590.00   1.06752145   0.02585446
6592.00   1.07842147   0.02589541
6594.00   1.10263622   0.02604386
6596.00   1.13594306   0.02629885
6598.00   1.16713083   0.02656652
6600.00   1.19712222   0.02679255
6602.00   1.18291426   0.02670907
6604.00   1.13230717   0.02635727
6606.00   1.07468235   0.02589097
6608.00   1.05129468   0.02555463
6610.00   1.02734768   0.02527138
6612.00   1.00157571   0.02504247
6614.00   0.98373061   0.02491807
6616.00   0.98285484   0.02494036
6618.00   1.00448799   0.02510133
6620.00   1.00824118   0.02516437
6622.00   1.00395167   0.02515147
6624.00   0.97853976   0.02498898
6626.00   0.93612242   0.02471401
6628.00   0.90606123   0.02448384
6630.00   0.88896942   0.02433741
6632.00   0.88492870   0.02424771
6634.00   0.88525105   0.02416569
6636.00   0.87897182   0.02405886
6638.00   0.85157126   0.02391365
6640.00   0.84406567   0.02383620
6642.00   0.84434515   0.02380423
6644.00   0.83875227   0.02373766
6646.00   0.82205039   0.02359892
6648.00   0.80793530   0.02352471
6650.00   0.79941815   0.02347516
6652.00   0.78883553   0.02338593
6654.00   0.77897096   0.02327809
6656.00   0.76845413   0.02319185
6658.00   0.75129205   0.02342531
6660.00   0.74780363   0.02342712
6662.00   0.75038719   0.02324927
6664.00   0.75113612   0.02300226
6666.00   0.74114782   0.02283349
6668.00   0.71221066   0.02379565
6670.00   0.69998288   0.02376389
6672.00   0.69512916   0.02312195
6674.00   0.68639565   0.02257275
6676.00   0.65965873   0.02256065
6678.00   0.65215498   0.02247954
6680.00   0.63908261   0.02240577
6682.00   0.62261468   0.02236989
6684.00   0.60799795   0.02232157
6686.00   0.59732556   0.02211624
6688.00   0.58895367   0.02189139
6690.00   0.58435887   0.02178855
6692.00   0.57741737   0.02175417
6694.00   0.56570715   0.02170383
6696.00   0.56924325   0.02169484
6698.00   0.54351360   0.02168640
6700.00   0.52463490   0.02176748
6702.00   0.51847583   0.02194062
6704.00   0.51656008   0.02219062
6706.00   0.51358402   0.02244106
6708.00   0.49620986   0.02236625
6710.00   0.48291883   0.02216687
6712.00   0.48336676   0.02193873
6714.00   0.47351432   0.02153325
6716.00   0.46223006   0.02112197
6718.00   0.45981207   0.02088021
6720.00   0.45583251   0.02072964
6722.00   0.44695807   0.02060254
6724.00   0.44488445   0.02055846
6726.00   0.43067011   0.02044124
6728.00   0.42401639   0.02039769
6730.00   0.41730836   0.02033378
6732.00   0.40864968   0.02021837
6734.00   0.39593115   0.02018408
6736.00   0.39352235   0.02017785
6738.00   0.37836638   0.02006588
6740.00   0.36766291   0.01994191
6742.00   0.37888703   0.01991992
6744.00   0.37862933   0.01987918
6746.00   0.36129031   0.01970428
6748.00   0.35204268   0.01958794
6750.00   0.35189772   0.01956903
6752.00   0.35701743   0.01965077
6754.00   0.37582994   0.01978917
6756.00   0.35796741   0.01969816
6758.00   0.34002030   0.01955937
6760.00   0.33687821   0.01946132
6762.00   0.33645687   0.01937012
6764.00   0.34199286   0.01936836
6766.00   0.33165029   0.01926097
6768.00   0.32250026   0.01915574
6770.00   0.32295704   0.01913427
6772.00   0.32487282   0.01918616
6774.00   0.31111071   0.01906730
6776.00   0.30005980   0.01896018
6778.00   0.29284027   0.01890548
6780.00   0.28616759   0.01887258
6782.00   0.29885152   0.01891336
6784.00   0.29741213   0.01885981
6786.00   0.29343438   0.01880012
6788.00   0.29036283   0.01876467
6790.00   0.28804600   0.01875434
6792.00   0.28083560   0.01871612
6794.00   0.28825021   0.01874073
6796.00   0.29585838   0.01875051
6798.00   0.29168352   0.01868298
6800.00   0.27071652   0.01853964
6802.00   0.26810578   0.01848082
6804.00   0.27150273   0.01849600
6806.00   0.27666852   0.01854447
6808.00   0.27624083   0.01853589
6810.00   0.26547533   0.01840967
6812.00   0.26260197   0.01843668
6814.00   0.25978801   0.01846763
6816.00   0.26086000   0.01849802
6818.00   0.26595524   0.01854424
6820.00   0.25800329   0.01855242
6822.00   0.26201504   0.01872750
6824.00   0.25764281   0.01898775
6826.00   0.25394878   0.01934176
6828.00   0.25773224   0.01973709
6830.00   0.26901585   0.02009914
6832.00   0.25909677   0.02006387
6834.00   0.25084832   0.01978230
6836.00   0.25319099   0.01942590
6838.00   0.26370683   0.01912398
6840.00   0.27650964   0.01882194
6842.00   0.28493062   0.01858456
6844.00   0.27989656   0.01841929
6846.00   0.26243147   0.01831741
6848.00   0.24476750   0.01826341
6850.00   0.26268515   0.01832118
6852.00   0.26405558   0.01827894
6854.00   0.26004520   0.01829576
6856.00   0.26471683   0.01853905
6858.00   0.28769293   0.01910572
6860.00   0.28960913   0.01957652
6862.00   0.27651179   0.01971510
6864.00   0.26942280   0.01985789
6866.00   0.28288504   0.02054754
6868.00   0.30819765   0.02219758
6870.00   0.28881058   0.02329397
6872.00   0.26959959   0.02372885
6874.00   0.27350399   0.02386464
6876.00   0.29649946   0.02372211
6878.00   0.28603819   0.02223463
6880.00   0.27298406   0.02098025
6882.00   0.28396356   0.02043939
6884.00   0.29687157   0.02031693
6886.00   0.28315583   0.02010026
6888.00   0.27529383   0.02007513
6890.00   0.27320850   0.02025087
6892.00   0.27007183   0.02039945
6894.00   0.27048045   0.02042197
6896.00   0.27824107   0.02032509
6898.00   0.27970827   0.02030204
6900.00   0.28799650   0.02004439
6902.00   0.28583315   0.02039073
6904.00   0.27664116   0.02146664
#6906.00   0.30759594   0.02000711
#6908.00   0.34342229   0.02228395
#6910.00   0.33979258   0.02174860
#6912.00   0.30936554   0.02084140
6914.00   0.28841603   0.01991758
6916.00   0.30082905   0.01975141
6918.00   0.31572306   0.01977432
6920.00   0.30977479   0.01976146
6922.00   0.29548144   0.01970772
6924.00   0.29169950   0.01968704
6926.00   0.29709700   0.01962645
6928.00   0.31140879   0.01957657
6930.00   0.31962463   0.01951025
6932.00   0.32027125   0.01949571
6934.00   0.32431069   0.01960421
6936.00   0.32417634   0.01966245
6938.00   0.32392982   0.01976918
6940.00   0.32329091   0.01998943
6942.00   0.32259825   0.02025317
6944.00   0.32156372   0.02041263
6946.00   0.33832717   0.02045556
6948.00   0.34549227   0.02041271
6950.00   0.34449241   0.02021117
6952.00   0.34376463   0.01989242
6954.00   0.34902945   0.01959204
6956.00   0.34682679   0.01934818
6958.00   0.35668102   0.01938977
6960.00   0.35973033   0.01947349
6962.00   0.34895095   0.01940361
6964.00   0.35786328   0.01930710
6966.00   0.35663164   0.01914562
6968.00   0.35682508   0.01905284
6970.00   0.36018956   0.01907716
6972.00   0.36719954   0.01919075
6974.00   0.34526038   0.01907182
6976.00   0.34827387   0.01909029
6978.00   0.36099696   0.01918489
6980.00   0.36795267   0.01919297
6982.00   0.35839561   0.01898700
6984.00   0.36141273   0.01892228
6986.00   0.35404846   0.01890725
6988.00   0.36540151   0.01910212
6990.00   0.38127515   0.01934548
6992.00   0.37621650   0.01942717
6994.00   0.37427115   0.01943931
6996.00   0.38003793   0.01939903
6998.00   0.37442526   0.01925025
7000.00   0.36287633   0.01909613
7002.00   0.37972152   0.01917278
7004.00   0.37830833   0.01927501
7006.00   0.37894535   0.01943109
7008.00   0.37712726   0.01945945
7010.00   0.37106177   0.01928475
7012.00   0.36424223   0.01906309
7014.00   0.36496028   0.01901619
7016.00   0.37428498   0.01911801
7018.00   0.37010908   0.01900300
7020.00   0.35010123   0.01861590
7022.00   0.35547885   0.01865690
7024.00   0.36414298   0.01877858
7026.00   0.36481652   0.01900455
7028.00   0.36567557   0.01935199
7030.00   0.36848715   0.01963002
7032.00   0.35322881   0.01935267
7034.00   0.35607541   0.01912295
7036.00   0.36462840   0.01896331
7038.00   0.37495494   0.01891069
7040.00   0.37622151   0.01887367
7042.00   0.36148492   0.01883200
7044.00   0.35264790   0.01880309
7046.00   0.35741106   0.01883687
7048.00   0.37271929   0.01892591
7050.00   0.37096158   0.01886968
7052.00   0.35502580   0.01884090
7054.00   0.35831133   0.01885152
7056.00   0.35799345   0.01878885
7058.00   0.34880689   0.01869133
7060.00   0.36214694   0.01878496
7062.00   0.36337316   0.01884164
7064.00   0.36318842   0.01890683
7066.00   0.35708222   0.01892477
7068.00   0.35600635   0.01891401
7070.00   0.36821389   0.01879880
7072.00   0.35739884   0.01864477
7074.00   0.35995674   0.01862458
7076.00   0.36744371   0.01868054
7078.00   0.35714343   0.01866939
7080.00   0.36249211   0.01875270
7082.00   0.37264273   0.01880363
7084.00   0.37711310   0.01880801
7086.00   0.37482521   0.01883203
7088.00   0.37801173   0.01899277
7090.00   0.38610387   0.01895475
7092.00   0.37348795   0.01882975
7094.00   0.37018046   0.01872519
7096.00   0.38020119   0.01864544
7098.00   0.36944115   0.01841200
7100.00   0.37308350   0.01836854
7102.00   0.37041011   0.01832053
7104.00   0.36963129   0.01832013
7106.00   0.37741911   0.01838212
7108.00   0.38490474   0.01837291
7110.00   0.38188449   0.01832189
7112.00   0.37341192   0.01828633
7114.00   0.36619616   0.01827493
7116.00   0.36767545   0.01832433
7118.00   0.38689864   0.01849277
7120.00   0.37942061   0.01853659
7122.00   0.38021806   0.01858950
7124.00   0.39144316   0.01865059
7126.00   0.39718536   0.01865720
7128.00   0.38139474   0.01852353
7130.00   0.38438272   0.01850715
7132.00   0.39421573   0.01850804
7134.00   0.39844915   0.01845696
7136.00   0.38969874   0.01835159
7138.00   0.37849942   0.01843297
7140.00   0.39608178   0.01858265
7142.00   0.40483892   0.01862599
7144.00   0.39697993   0.01860509
7146.00   0.40503383   0.01872631
7148.00   0.40511307   0.01869804
7150.00   0.41617671   0.01877885
7152.00   0.42328826   0.01882221
7154.00   0.41936103   0.01873875
7156.00   0.43557119   0.01876573
7158.00   0.43453744   0.01874143
7160.00   0.42337719   0.01860438
7162.00   0.41559768   0.01853351
7164.00   0.41812697   0.01871680
7166.00   0.44248438   0.01927514
7168.00   0.43854424   0.01968047
7170.00   0.42960677   0.02016765
7172.00   0.43472981   0.02087321
7174.00   0.45561472   0.02163789
7176.00   0.44919682   0.02180249
7178.00   0.44499883   0.02173576
7180.00   0.46374115   0.02158516
7182.00   0.48618412   0.02153602
7184.00   0.47095236   0.02171282
7186.00   0.48467264   0.02218219
7188.00   0.48126814   0.02218665
7190.00   0.48086429   0.02219363
7192.00   0.49691939   0.02236269
7194.00   0.49754843   0.02223348
7196.00   0.48719013   0.02196258
7198.00   0.49095726   0.02204685
7200.00   0.50620466   0.02232425
7202.00   0.52112913   0.02255327
7204.00   0.51350582   0.02254180
7206.00   0.50796139   0.02233611
7208.00   0.51206237   0.02182406
7210.00   0.51017833   0.02106921
7212.00   0.50304985   0.02032766
7214.00   0.52356929   0.01994635
7216.00   0.52220589   0.01967798
7218.00   0.51671904   0.01955621
7220.00   0.50891548   0.01949942
7222.00   0.49603072   0.01944841
7224.00   0.52079290   0.01967238
7226.00   0.52434683   0.01964708
7228.00   0.51584405   0.01955137
7230.00   0.51175898   0.01977579
7232.00   0.52446175   0.02073345
7234.00   0.52273875   0.02221149
7236.00   0.51255971   0.02351930
7238.00   0.52124500   0.02485103
7240.00   0.54364377   0.02612708
7242.00   0.53458393   0.02687803
7244.00   0.55314440   0.02652593
7246.00   0.54869920   0.02539997
7248.00   0.54427832   0.02423471
7250.00   0.55901903   0.02352145
7252.00   0.56482482   0.02288949
7254.00   0.55857414   0.02245063
7256.00   0.54966539   0.02202526
7258.00   0.55511016   0.02169599
7260.00   0.57383007   0.02158204
7262.00   0.58187032   0.02170313
7264.00   0.58556831   0.02191315
7266.00   0.56684095   0.02183437
7268.00   0.54789948   0.02168593
7270.00   0.55499023   0.02198374
7272.00   0.56787956   0.02303831
7274.00   0.57225710   0.02413332
7276.00   0.59615368   0.02540533
7278.00   0.60884291   0.02622702
7280.00   0.56045842   0.02565339
7282.00   0.56377190   0.02415649
7284.00   0.57951015   0.02268698
7286.00   0.59369946   0.02187994
7288.00   0.59579372   0.02182336
7290.00   0.59236592   0.02203468
7292.00   0.58119702   0.02220427
7294.00   0.58819121   0.02232601
7296.00   0.60042179   0.02217489
7298.00   0.60444063   0.02180527
7300.00   0.62282807   0.02194610
7302.00   0.62755734   0.02231774
7304.00   0.61138612   0.02234871
7306.00   0.59817797   0.02219974
7308.00   0.61222142   0.02230581
7310.00   0.63603830   0.02293680
7312.00   0.61927426   0.02356042
7314.00   0.61198938   0.02407238
7316.00   0.61763120   0.02440483
7318.00   0.62605888   0.02448432
7320.00   0.64960432   0.02389813
7322.00   0.64056087   0.02258107
7324.00   0.63349432   0.02157960
7326.00   0.63509679   0.02128767
7328.00   0.63298684   0.02128812
7330.00   0.62511659   0.02125504
7332.00   0.62360138   0.02133245
7334.00   0.62781370   0.02174402
7336.00   0.63189179   0.02238950
7338.00   0.63989562   0.02286557
7340.00   0.63923150   0.02278977
7342.00   0.63293093   0.02265774
7344.00   0.62535751   0.02231237
7346.00   0.61776662   0.02154564
7348.00   0.62407774   0.02052574
7350.00   0.63553172   0.02028515
7352.00   0.63192534   0.02036032
7354.00   0.61794382   0.02051994
7356.00   0.60800141   0.02063216
7358.00   0.62589335   0.02077930
7360.00   0.62216431   0.02080444
7362.00   0.62563068   0.02097183
7364.00   0.62242043   0.02117715
7366.00   0.59910101   0.02127524
7368.00   0.60204083   0.02147221
7370.00   0.60004550   0.02145802
7372.00   0.58882064   0.02111879
7374.00   0.57853574   0.02049773
7376.00   0.58437753   0.01980097
7378.00   0.59351337   0.01943647
7380.00   0.59857923   0.01938371
7382.00   0.59311199   0.01946851
7384.00   0.58252543   0.01957259
7386.00   0.59500867   0.01975008
7388.00   0.59090370   0.01983663
7390.00   0.58456248   0.01986774
7392.00   0.58309311   0.01994198
7394.00   0.58643174   0.02013532
7396.00   0.57918447   0.02038683
7398.00   0.57337624   0.02051699
7400.00   0.56819725   0.02045529
7402.00   0.57038313   0.02035286
7404.00   0.57744807   0.02028691
7406.00   0.58060890   0.01999974
7408.00   0.57467085   0.01944870
7410.00   0.56760210   0.01904331
7412.00   0.57189131   0.01898606
7414.00   0.58206880   0.01908840
7416.00   0.57535493   0.01890118
7418.00   0.56934422   0.01879553
7420.00   0.56192297   0.01874054
7422.00   0.55475903   0.01875262
7424.00   0.56480056   0.01893941
7426.00   0.56404620   0.01906135
7428.00   0.56561142   0.01915769
7430.00   0.57391530   0.01930557
7432.00   0.58327585   0.01951102
7434.00   0.58256388   0.01966713
7436.00   0.58221442   0.01973182
7438.00   0.58216041   0.01970662
7440.00   0.57974046   0.01959392
7442.00   0.57968831   0.01942602
7444.00   0.59253287   0.01924461
7446.00   0.60906643   0.01914750
7448.00   0.61404103   0.01910975
7450.00   0.60194689   0.01903540
7452.00   0.58370304   0.01893103
7454.00   0.59442419   0.01902219
7456.00   0.61326784   0.01922332
7458.00   0.61658883   0.01929911
7460.00   0.61201572   0.01931844
7462.00   0.60974461   0.01940993
7464.00   0.61055475   0.01949963
7466.00   0.61623186   0.01968981
7468.00   0.61731476   0.01988152
7470.00   0.61953467   0.02004067
7472.00   0.63030219   0.02013794
7474.00   0.62202376   0.02012114
7476.00   0.62695736   0.02023813
7478.00   0.62951452   0.02033442
7480.00   0.62408793   0.02031759
7482.00   0.62403727   0.02025065
7484.00   0.63693643   0.02022243
7486.00   0.63722074   0.02002760
7488.00   0.63468343   0.01976025
7490.00   0.64224786   0.01958252
7492.00   0.64056963   0.01945119
7494.00   0.64876980   0.01945084
7496.00   0.65123796   0.01946087
7498.00   0.64942974   0.01945380
7500.00   0.64728707   0.01941510
7502.00   0.64418620   0.01933409
7504.00   0.63746810   0.01925862
7506.00   0.64524364   0.01927819
7508.00   0.65337700   0.01930684
7510.00   0.63467145   0.01919263
7512.00   0.63032734   0.01925644
7514.00   0.62389201   0.01927118
7516.00   0.61722976   0.01945342
7518.00   0.61552948   0.01993571
7520.00   0.62307441   0.02065061
7522.00   0.63175780   0.02103394
7524.00   0.63354647   0.02119645
7526.00   0.62965572   0.02117434
7528.00   0.62723345   0.02090638
7530.00   0.62969273   0.02020575
7532.00   0.62074405   0.01968784
7534.00   0.61254889   0.01945141
7536.00   0.61882198   0.01939129
7538.00   0.63489038   0.01933799
7540.00   0.62785238   0.01923802
7542.00   0.61232167   0.01911538
7544.00   0.61095834   0.01906008
7546.00   0.61468816   0.01902099
7548.00   0.60867041   0.01894387
7550.00   0.59662646   0.01888530
7552.00   0.60106736   0.01903662
7554.00   0.60593390   0.01917272
7556.00   0.60224122   0.01919418
7558.00   0.59592766   0.01915682
7560.00   0.59289950   0.01912451
7562.00   0.59746248   0.01906735
7564.00   0.59411418   0.01911327
7566.00   0.59140879   0.01945987
7568.00   0.60269076   0.02012255
7570.00   0.60976523   0.02043521
7572.00   0.60190201   0.02036189
7574.00   0.59668118   0.02014461
7576.00   0.59844524   0.01987219
7578.00   0.59303498   0.01939373
7580.00   0.58144850   0.01903246
7582.00   0.56724167   0.01890564
7584.00   0.56255192   0.01884458
7586.00   0.56565970   0.01903313
7588.00   0.55593091   0.01993637
7590.00   0.52765697   0.01952054
7592.00   0.49997106   0.01908882
7594.00   0.57967913   0.02043441
7596.00   0.53111076   0.02447829
7598.00   0.54583359   0.03005309
7600.00   0.49118891   0.03848196
7602.00   0.46965265   0.04751901
7604.00   0.46873781   0.05546033
7606.00   0.43940663   0.06122926
7608.00   0.45088115   0.06415774
7610.00   0.51793212   0.06119997
7612.00   0.53319424   0.05294301
7614.00   0.47848761   0.04117541
7616.00   0.44102535   0.03054961
7618.00   0.45407376   0.02472902
7620.00   0.49003792   0.02285357
7622.00   0.51706666   0.02349317
7624.00   0.51016945   0.02517784
7626.00   0.46335554   0.02743559
7628.00   0.43920049   0.02998223
7630.00   0.43539765   0.03115219
7632.00   0.44594374   0.03120009
7634.00   0.46207428   0.03066975
7636.00   0.45848942   0.02953975
7638.00   0.45520028   0.02866411
7640.00   0.46150351   0.02800175
7642.00   0.47580442   0.02739605
7644.00   0.48837426   0.02673147
7646.00   0.48525986   0.02606767
7648.00   0.48574123   0.02537762
7650.00   0.49154568   0.02458925
7652.00   0.49143717   0.02379557
7654.00   0.47667834   0.02318082
7656.00   0.47567973   0.02283271
7658.00   0.48022485   0.02274279
7660.00   0.48044649   0.02252570
7662.00   0.47939721   0.02206260
7664.00   0.49308833   0.02161242
7666.00   0.50121933   0.02116082
7668.00   0.50312227   0.02064817
7670.00   0.50222391   0.02013432
7672.00   0.50418860   0.01969302
7674.00   0.50944942   0.01931662
7676.00   0.52399921   0.01928248
7678.00   0.53155994   0.01931859
7680.00   0.53380251   0.01929791
7682.00   0.53568101   0.01922043
7684.00   0.53574002   0.01921146
7686.00   0.52807808   0.01910487
7688.00   0.53812641   0.01917156
7690.00   0.55176830   0.01929978
7692.00   0.54928398   0.01934734
7694.00   0.55873895   0.01972307
7696.00   0.56898403   0.02007146
7698.00   0.56623966   0.02011248
7700.00   0.55931497   0.01992174
7702.00   0.56873113   0.01978435
7704.00   0.58065236   0.01958690
7706.00   0.58149678   0.01973245
7708.00   0.58393008   0.02053312
7710.00   0.58906496   0.02171156
7712.00   0.58792090   0.02262823
7714.00   0.58449930   0.02317427
7716.00   0.58177876   0.02312294
7718.00   0.58555943   0.02262669
7720.00   0.59434241   0.02189436
7722.00   0.60342282   0.02108586
7724.00   0.60772616   0.02029633
7726.00   0.61882776   0.01996574
7728.00   0.62094784   0.01981157
7730.00   0.60460466   0.01949853
7732.00   0.60119003   0.01925535
7734.00   0.61312056   0.01924337
7736.00   0.62506992   0.01929174
7738.00   0.63254827   0.01931660
7740.00   0.63687545   0.01931379
7742.00   0.63267618   0.01942443
7744.00   0.63082248   0.02033971
7746.00   0.63673478   0.02163667
7748.00   0.64566123   0.02262511
7750.00   0.64926106   0.02278878
7752.00   0.65420574   0.02284514
7754.00   0.65439886   0.02261144
7756.00   0.65258384   0.02184948
7758.00   0.64896423   0.02084999
7760.00   0.64895028   0.02049517
7762.00   0.67480326   0.02059872
7764.00   0.67395568   0.02033291
7766.00   0.66404158   0.01995041
7768.00   0.66945964   0.01981951
7770.00   0.67761731   0.01991760
7772.00   0.68082780   0.02000543
7774.00   0.66565442   0.02013699
7776.00   0.65733534   0.02032092
7778.00   0.67177540   0.02046878
7780.00   0.66642636   0.02025315
7782.00   0.67663985   0.02032092
7784.00   0.67167068   0.02015205
7786.00   0.66797924   0.02013516
7788.00   0.67677474   0.02071785
7790.00   0.68446559   0.02169341
7792.00   0.67654794   0.02216436
7794.00   0.67695761   0.02233860
7796.00   0.68175250   0.02221332
7798.00   0.67821282   0.02166210
7800.00   0.67317563   0.02043891
7802.00   0.66451740   0.01988173
7804.00   0.66781688   0.02004706
7806.00   0.68259817   0.02046702
7808.00   0.68934876   0.02053650
7810.00   0.66785222   0.02042053
7812.00   0.65009600   0.02013780
7814.00   0.65275139   0.02033187
7816.00   0.66704386   0.02121499
7818.00   0.66084892   0.02222219
7820.00   0.66551447   0.02258502
7822.00   0.65707743   0.02263402
7824.00   0.64915639   0.02228015
7826.00   0.65361530   0.02139487
7828.00   0.65705645   0.02003661
7830.00   0.65167665   0.01935693
7832.00   0.63991386   0.01915415
7834.00   0.63259220   0.01929791
7836.00   0.63457865   0.01962915
7838.00   0.63738900   0.01998391
7840.00   0.62799782   0.02006310
7842.00   0.62603897   0.02007016
7844.00   0.62912494   0.02013508
7846.00   0.61891794   0.02034551
7848.00   0.60048723   0.02124668
7850.00   0.59337860   0.02211324
7852.00   0.60397279   0.02269672
7854.00   0.61571598   0.02295004
7856.00   0.59889919   0.02297206
7858.00   0.59297007   0.02216871
7860.00   0.60289317   0.02126379
7862.00   0.60200006   0.02074698
7864.00   0.58454722   0.02075463
7866.00   0.58429164   0.02092118
7868.00   0.60036176   0.02104201
7870.00   0.59986895   0.02106232
7872.00   0.58235222   0.02096152
7874.00   0.56346482   0.02075877
7876.00   0.56364936   0.02047727
7878.00   0.56496924   0.02029274
7880.00   0.56841654   0.02022988
7882.00   0.57011056   0.02032593
7884.00   0.56544638   0.02054671
7886.00   0.54602444   0.02066119
7888.00   0.54629040   0.02065199
7890.00   0.54983729   0.02071692
7892.00   0.54052323   0.02068471
7894.00   0.51280624   0.02020329
7896.00   0.51098067   0.01939898
7898.00   0.51783258   0.01892049
7900.00   0.51953983   0.01874584
7902.00   0.51278621   0.01868027
7904.00   0.50513083   0.01854928
7906.00   0.49968687   0.01923317
7908.00   0.49698114   0.02097112
7910.00   0.49203566   0.02256480
7912.00   0.48899493   0.02337112
7914.00   0.49486920   0.02367236
7916.00   0.48170772   0.02385160
7918.00   0.46082130   0.02298606
7920.00   0.45376658   0.02153680
7922.00   0.46442962   0.02041746
7924.00   0.46352720   0.02020946
7926.00   0.44499478   0.01983179
7928.00   0.43257949   0.01951172
7930.00   0.43342757   0.01938680
7932.00   0.44227520   0.01940930
7934.00   0.43267319   0.01907673
7936.00   0.44061008   0.01858912
7938.00   0.44415030   0.01799569
7940.00   0.43641639   0.01757311
7942.00   0.42217556   0.01764196
7944.00   0.41121340   0.01800859
7946.00   0.39825854   0.01826777
7948.00   0.39815834   0.01839787
7950.00   0.40258884   0.01837414
7952.00   0.38903356   0.01815735
7954.00   0.38019404   0.01758264
7956.00   0.38188431   0.01738014
7958.00   0.37945274   0.01812515
7960.00   0.37232414   0.01969573
7962.00   0.38129544   0.02121313
7964.00   0.36975673   0.02163387
7966.00   0.36605465   0.02152329
7968.00   0.37328067   0.02086571
7970.00   0.37809086   0.01960085
7972.00   0.35684553   0.01811365
7974.00   0.35091600   0.01810072
7976.00   0.34322301   0.01842413
7978.00   0.33192876   0.01859692
7980.00   0.32030234   0.01854697
7982.00   0.32918456   0.01842653
7984.00   0.33868957   0.01801451
7986.00   0.33429602   0.01810008
7988.00   0.32148018   0.01906404
7990.00   0.32771790   0.02060026
7992.00   0.33065060   0.02099706
7994.00   0.32244414   0.02086895
7996.00   0.30993465   0.02027412
7998.00   0.29993820   0.01917790
8000.00   0.29820052   0.01760426
8002.00   0.30913863   0.01693854
8004.00   0.30016068   0.01661360
8006.00   0.28539675   0.01664155
8008.00   0.27539918   0.01692777
8010.00   0.27792189   0.01729203
8012.00   0.28467476   0.01746719
8014.00   0.28278816   0.01754916
8016.00   0.28023282   0.01755121
8018.00   0.28050712   0.01758394
8020.00   0.28357813   0.01823850
8022.00   0.27841687   0.01906946
8024.00   0.27507073   0.01955846
8026.00   0.27738309   0.01970664
8028.00   0.27915701   0.01960999
8030.00   0.26967776   0.01880898
8032.00   0.26341945   0.01749039
8034.00   0.26389137   0.01658007
8036.00   0.26998520   0.01636306
8038.00   0.27920625   0.01638008
8040.00   0.28217566   0.01626457
8042.00   0.27096972   0.01620020
8044.00   0.26225874   0.01630525
8046.00   0.26537117   0.01658081
8048.00   0.27536955   0.01687451
8050.00   0.27882528   0.01693528
8052.00   0.28018668   0.01688352
8054.00   0.27811053   0.01690807
8056.00   0.27267793   0.01708191
8058.00   0.27242202   0.01729658
8060.00   0.27862656   0.01744771
8062.00   0.28119478   0.01757599
8064.00   0.27954677   0.01756488
8066.00   0.27432790   0.01725526
8068.00   0.26704526   0.01655412
8070.00   0.25675881   0.01602822
8072.00   0.25354442   0.01584276
8074.00   0.25506809   0.01592569
8076.00   0.26013246   0.01609015
8078.00   0.25762582   0.01599864
8080.00   0.25118777   0.01600240
8082.00   0.25236419   0.01609796
8084.00   0.26233888   0.01619100
8086.00   0.27007088   0.01616520
8088.00   0.26527870   0.01615183
8090.00   0.25747633   0.01614242
8092.00   0.25226009   0.01616262
8094.00   0.25559953   0.01627565
8096.00   0.27059159   0.01656707
8098.00   0.28074852   0.01685219
8100.00   0.27690479   0.01693839
8102.00   0.26840374   0.01688539
8104.00   0.26617861   0.01681727
8106.00   0.26648235   0.01674715
8108.00   0.26832080   0.01668653
8110.00   0.27010411   0.01675549
8112.00   0.27088848   0.01687671
8114.00   0.26700053   0.01688755
8116.00   0.26746944   0.01681634
8118.00   0.26289406   0.01669674
8120.00   0.25788486   0.01659285
8122.00   0.25741979   0.01658069
8124.00   0.26420271   0.01667989
8126.00   0.26216412   0.01661259
8128.00   0.26777193   0.01660369
8130.00   0.27809528   0.01684068
8132.00   0.28126547   0.01727957
8134.00   0.26582602   0.01773238
8136.00   0.26362786   0.01807728
8138.00   0.26892993   0.01811029
8140.00   0.27006832   0.01801531
8142.00   0.26965475   0.01799112
8144.00   0.27550349   0.01809020
8146.00   0.27659726   0.01831037
8148.00   0.27703351   0.01865741
8150.00   0.27774760   0.01888230
8152.00   0.27481636   0.01886802
8154.00   0.26272997   0.01886212
8156.00   0.26555523   0.01864719
8158.00   0.26337454   0.01825138
8160.00   0.25679016   0.01826520
8162.00   0.25692248   0.01906863
8164.00   0.27667001   0.02002681
8166.00   0.27214134   0.02015900
8168.00   0.26912054   0.02037388
8170.00   0.26744223   0.02035843
8172.00   0.25701895   0.01962290
8174.00   0.24404955   0.01925466
8176.00   0.24196501   0.02132112
8178.00   0.25889599   0.02553362
8180.00   0.27568191   0.02928329
8182.00   0.25557467   0.03017333
8184.00   0.24579160   0.02950077
8186.00   0.24325144   0.02907344
8188.00   0.25156260   0.02933254
8190.00   0.25870612   0.03026488
8192.00   0.25738147   0.03158352
8194.00   0.23542292   0.03151327
8196.00   0.21917045   0.03130183
8198.00   0.21580642   0.03035553
8200.00   0.21387637   0.02791987
8202.00   0.19053888   0.02375679
8204.00   0.19567573   0.02131050
8206.00   0.18202798   0.01963246
8208.00   0.16723709   0.01846756
8210.00   0.16615285   0.01774070
8212.00   0.15846157   0.01733363
8214.00   0.14187026   0.01690057
8216.00   0.12938574   0.01657097
8218.00   0.12936862   0.01637459
8220.00   0.13642384   0.01621428
8222.00   0.13532317   0.01581302
8224.00   0.12334035   0.01574719
8226.00   0.11680267   0.01646968
8228.00   0.11749393   0.01781161
8230.00   0.10703895   0.01911621
8232.00   0.09369528   0.02026976
8234.00   0.09004086   0.02010394
8236.00   0.09377096   0.01857517
8238.00   0.10011556   0.01657285
8240.00   0.09773777   0.01582374
8242.00   0.09253488   0.01581804
8244.00   0.08471651   0.01578383
8246.00   0.08021736   0.01549807
8248.00   0.08483386   0.01507515
8250.00   0.08908147   0.01472184
8252.00   0.08307370   0.01441263
8254.00   0.07942778   0.01444376
8256.00   0.07566696   0.01471204
8258.00   0.06924301   0.01499767
8260.00   0.06123506   0.01507463
8262.00   0.06401574   0.01511122
8264.00   0.06350889   0.01497082
8266.00   0.06260026   0.01464264
8268.00   0.07014069   0.01423548
8270.00   0.07740364   0.01404891
8272.00   0.07458601   0.01464724
8274.00   0.06183514   0.01598704
8276.00   0.04666510   0.01763987
8278.00   0.03552861   0.01905025
8280.00   0.05437343   0.02005692
8282.00   0.05484754   0.02069926
8284.00   0.05455698   0.02099162
8286.00   0.06462252   0.02090555
8288.00   0.07604282   0.02040435
8290.00   0.07354251   0.02029149
8292.00   0.07449369   0.02094830
8294.00   0.07352033   0.02158759
8296.00   0.06390179   0.02151496
8298.00   0.05687724   0.02079314
8300.00   0.04442940   0.02027133
8302.00   0.04435540   0.01938386
8304.00   0.05471668   0.01815072
8306.00   0.06656238   0.01696843
8308.00   0.06337035   0.01641288
8310.00   0.06212577   0.01608252
8312.00   0.06556918   0.01591676
8314.00   0.06839561   0.01567968
8316.00   0.06303923   0.01521252
8318.00   0.06180887   0.01514331
8320.00   0.07285971   0.01545347
8322.00   0.06852740   0.01539433
8324.00   0.06024780   0.01495050
8326.00   0.07718467   0.01467370
8328.00   0.07393243   0.01428568
8330.00   0.06900293   0.01407146
8332.00   0.07482613   0.01413173
8334.00   0.08635756   0.01456240
8336.00   0.08291648   0.01549340
8338.00   0.08216789   0.01884683
8340.00   0.08099128   0.02273088
8342.00   0.07852140   0.02489661
8344.00   0.07738864   0.02492804
8346.00   0.07953808   0.02476365
8348.00   0.08967670   0.02392905
8350.00   0.08972892   0.02144867
8352.00   0.08127138   0.01874740
8354.00   0.07315899   0.01791097
8356.00   0.08238324   0.01771578
8358.00   0.08257313   0.01670885
8360.00   0.08639575   0.01605240
8362.00   0.09027492   0.01595311
8364.00   0.08808040   0.01593777
8366.00   0.08559411   0.01580173
8368.00   0.09459490   0.01545820
8370.00   0.09151459   0.01471776
8372.00   0.08650333   0.01408139
8374.00   0.09963315   0.01439372
8376.00   0.08498934   0.01525385
8378.00   0.09236529   0.01633449
8380.00   0.09490173   0.01685924
8382.00   0.08063084   0.01670780
8384.00   0.07280944   0.01650359
8386.00   0.08605221   0.01604498
8388.00   0.08448604   0.01502008
8390.00   0.08197864   0.01433753
8392.00   0.09099928   0.01530597
8394.00   0.09003589   0.01847015
8396.00   0.08678778   0.02048784
8398.00   0.09076086   0.02128368
8400.00   0.09137575   0.02116761
8402.00   0.08498254   0.02038834
8404.00   0.09165859   0.01801236
8406.00   0.08438259   0.01541693
8408.00   0.08651609   0.01461621
8410.00   0.09639945   0.01558951
8412.00   0.09362337   0.01656144
8414.00   0.09858775   0.01672257
8416.00   0.10482604   0.01655478
8418.00   0.10186354   0.01610451
8420.00   0.09612405   0.01545418
8422.00   0.10227688   0.01502423
8424.00   0.11124187   0.01732857
8426.00   0.12122118   0.01995517
8428.00   0.12172302   0.02137126
8430.00   0.11558962   0.02146764
8432.00   0.11339251   0.02123517
8434.00   0.11335913   0.01946619
8436.00   0.11353073   0.01672320
8438.00   0.12172866   0.01442070
8440.00   0.13340169   0.01377771
8442.00   0.12673278   0.01386647
8444.00   0.12716286   0.01411827
8446.00   0.13132887   0.01491335
8448.00   0.13830687   0.01587279
8450.00   0.14239453   0.01645848
8452.00   0.13381673   0.01638652
8454.00   0.12380174   0.01615999
8456.00   0.12838672   0.01579472
8458.00   0.13756275   0.01593151
8460.00   0.14143702   0.01723546
8462.00   0.14580955   0.01902576
8464.00   0.14911903   0.01950895
8466.00   0.15195791   0.01950573
8468.00   0.15836087   0.01908393
8470.00   0.15906413   0.01756238
8472.00   0.15173829   0.01538722
8474.00   0.14235054   0.01431243
8476.00   0.13958728   0.01412305
8478.00   0.14722149   0.01418091
8480.00   0.16640811   0.01423519
8482.00   0.16999413   0.01417047
8484.00   0.16145301   0.01408690
8486.00   0.15851539   0.01429853
8488.00   0.16553177   0.01486974
8490.00   0.16780080   0.01548070
8492.00   0.16269024   0.01551225
8494.00   0.16479272   0.01542987
8496.00   0.17521138   0.01547894
8498.00   0.18348338   0.01576271
8500.00   0.19476394   0.01652321
8502.00   0.19995940   0.01709638
8504.00   0.19670266   0.01734273
8506.00   0.19802047   0.01732210
8508.00   0.21584611   0.01705601
8510.00   0.22153050   0.01597019
8512.00   0.23753154   0.01509783
8514.00   0.25093257   0.01475461
8516.00   0.25685087   0.01485490
8518.00   0.25654474   0.01498666
8520.00   0.27045795   0.01516646
8522.00   0.28498411   0.01534603
8524.00   0.29533219   0.01543197
8526.00   0.30112711   0.01542293
8528.00   0.31042662   0.01543829
8530.00   0.30701876   0.01538212
8532.00   0.32138112   0.01555748
8534.00   0.33486915   0.01575209
8536.00   0.33525786   0.01577349
8538.00   0.33787918   0.01565325
8540.00   0.33366194   0.01557413
8542.00   0.32911015   0.01572468
8544.00   0.33977190   0.01611985
8546.00   0.36518231   0.01657752
8548.00   0.35159883   0.01668279
8550.00   0.35333061   0.01679400
8552.00   0.36570355   0.01671921
8554.00   0.37764883   0.01641482
8556.00   0.37339601   0.01594554
8558.00   0.38538298   0.01588389
8560.00   0.39393827   0.01593568
8562.00   0.40221605   0.01603075
8564.00   0.41209257   0.01613403
8566.00   0.41066694   0.01614469
8568.00   0.40548325   0.01612115
8570.00   0.40591076   0.01614618
8572.00   0.40447190   0.01619109
8574.00   0.40000924   0.01622523
8576.00   0.40253702   0.01621326
8578.00   0.41346827   0.01620478
8580.00   0.42547321   0.01626536
8582.00   0.42651382   0.01633913
8584.00   0.41618061   0.01638817
8586.00   0.41194102   0.01641927
8588.00   0.41959468   0.01650272
8590.00   0.42893997   0.01666083
8592.00   0.43080059   0.01676591
8594.00   0.42419553   0.01671322
8596.00   0.41828617   0.01659315
8598.00   0.42300925   0.01661978
8600.00   0.42478499   0.01658708
8602.00   0.42315653   0.01644610
8604.00   0.42771497   0.01631397
8606.00   0.43733868   0.01638475
8608.00   0.44188640   0.01655982
8610.00   0.44808686   0.01680222
8612.00   0.45596191   0.01710189
8614.00   0.45408738   0.01744376
8616.00   0.45050037   0.01792178
8618.00   0.44718921   0.01841999
8620.00   0.43643475   0.01887334
8622.00   0.42120436   0.01928229
8624.00   0.42716396   0.01975592
8626.00   0.43777099   0.02016906
8628.00   0.43807879   0.02036371
8630.00   0.43695948   0.02036112
8632.00   0.44131374   0.02021049
8634.00   0.44314411   0.01991826
8636.00   0.44773647   0.01941842
8638.00   0.43673816   0.01877396
8640.00   0.42483672   0.01816515
8642.00   0.42772666   0.01778911
8644.00   0.43886176   0.01781137
8646.00   0.43654287   0.01811907
8648.00   0.43732151   0.01862727
8650.00   0.44456562   0.01923348
8652.00   0.45324612   0.01982465
8654.00   0.45469019   0.02008228
8656.00   0.45057926   0.02008577
8658.00   0.45274553   0.01998419
8660.00   0.45380405   0.01982195
8662.00   0.44355777   0.01960789
8664.00   0.43678704   0.01944745
8666.00   0.43684182   0.01927311
8668.00   0.44275251   0.01912626
8670.00   0.44698301   0.01895496
8672.00   0.44180825   0.01863562
8674.00   0.44842640   0.01836113
8676.00   0.45451081   0.01810131
8678.00   0.46070132   0.01788741
8680.00   0.46836397   0.01771777
8682.00   0.47543979   0.01750208
8684.00   0.46519220   0.01721506
8686.00   0.46425676   0.01698982
8688.00   0.46303403   0.01682634
8690.00   0.45120811   0.01668253
8692.00   0.44922778   0.01655966
8694.00   0.45166281   0.01655574
8696.00   0.45657775   0.01661590
8698.00   0.46178946   0.01666724
8700.00   0.46396232   0.01662766
8702.00   0.47232357   0.01673055
8704.00   0.46900406   0.01667047
8706.00   0.46687090   0.01658508
8708.00   0.47022057   0.01653742
8710.00   0.48308468   0.01656892
8712.00   0.47561643   0.01638260
8714.00   0.47327831   0.01627088
8716.00   0.47161904   0.01622883
8718.00   0.47098121   0.01624288
8720.00   0.47772419   0.01632611
8722.00   0.47698164   0.01633205
8724.00   0.47315490   0.01628251
8726.00   0.47247317   0.01626353
8728.00   0.47632298   0.01630931
8730.00   0.48508868   0.01636053
8732.00   0.49657786   0.01642216
8734.00   0.49771106   0.01643241
8736.00   0.48917317   0.01639265
8738.00   0.47963119   0.01634990
8740.00   0.49633154   0.01651085
8742.00   0.50678778   0.01659457
8744.00   0.50809997   0.01659118
8746.00   0.50201756   0.01653196
8748.00   0.49740592   0.01650500
8750.00   0.49661198   0.01647933
8752.00   0.50806695   0.01686982
8754.00   0.51658779   0.01798360
8756.00   0.51610059   0.01948595
8758.00   0.50898975   0.02067246
8760.00   0.50066042   0.02162719
8762.00   0.49927297   0.02299682
8764.00   0.50983644   0.02378455
8766.00   0.52408397   0.02344035
8768.00   0.51657993   0.02233799
8770.00   0.50405329   0.02216133
8772.00   0.50783998   0.02243525
8774.00   0.51615906   0.02266958
8776.00   0.51293355   0.02260315
8778.00   0.51593590   0.02259093
8780.00   0.51262403   0.02199393
8782.00   0.51126665   0.02051775
8784.00   0.51866424   0.01882206
8786.00   0.53365207   0.01804403
8788.00   0.52990782   0.01840103
8790.00   0.52501410   0.01844508
8792.00   0.52162081   0.01838440
8794.00   0.52122164   0.01814773
8796.00   0.51926804   0.01749780
8798.00   0.50498575   0.01661639
8800.00   0.50699669   0.01633135
8802.00   0.51578611   0.01637160
8804.00   0.52089053   0.01650542
8806.00   0.51708704   0.01668324
8808.00   0.51279634   0.01657491
8810.00   0.51671898   0.01658580
8812.00   0.52407295   0.01673562
8814.00   0.52404433   0.01682974
8816.00   0.51767188   0.01660716
8818.00   0.52291626   0.01697952
8820.00   0.52033418   0.01984124
8822.00   0.52068835   0.02366441
8824.00   0.53106999   0.02660429
8826.00   0.53081584   0.02730621
8828.00   0.51062113   0.02763226
8830.00   0.50019819   0.02716229
8832.00   0.50117177   0.02537470
8834.00   0.50979847   0.02240110
8836.00   0.51422054   0.02140057
8838.00   0.53343731   0.02110206
8840.00   0.53495258   0.02019011
8842.00   0.52477795   0.01873320
8844.00   0.52527142   0.01791717
8846.00   0.51997972   0.01806853
8848.00   0.51812762   0.01830388
8850.00   0.52940995   0.01855205
8852.00   0.54277247   0.01862369
8854.00   0.53853488   0.01824910
8856.00   0.55274916   0.01795396
8858.00   0.55174464   0.01779724
8860.00   0.54163784   0.01816277
8862.00   0.52983028   0.01898047
8864.00   0.51216483   0.01958671
8866.00   0.50370854   0.01967234
8868.00   0.49577188   0.01954134
8870.00   0.49080372   0.01905950
8872.00   0.48998559   0.01807818
8874.00   0.50052375   0.01685065
8876.00   0.49831128   0.01611875
8878.00   0.49307141   0.01748037
8880.00   0.49347126   0.02042617
8882.00   0.50214952   0.02335505
8884.00   0.49545518   0.02440454
8886.00   0.48376843   0.02449026
8888.00   0.48112705   0.02362052
8890.00   0.48570970   0.02162868
8892.00   0.48901859   0.01854703
8894.00   0.47612873   0.01656857
8896.00   0.47012815   0.01693449
8898.00   0.47422650   0.01839114
8900.00   0.48378730   0.01961085
8902.00   0.49005213   0.01998374
8904.00   0.48613617   0.02010736
8906.00   0.47911620   0.01955205
8908.00   0.47676668   0.01820850
8910.00   0.48006490   0.01683862
8912.00   0.47538880   0.01744626
8914.00   0.48273423   0.02067435
8916.00   0.49123240   0.02343032
8918.00   0.48874941   0.02479582
8920.00   0.47369492   0.02475419
8922.00   0.44368851   0.02392098
8924.00   0.45414114   0.02150480
8926.00   0.46680403   0.01855230
8928.00   0.46744844   0.01658710
8930.00   0.45240080   0.01662151
8932.00   0.45824930   0.01682492
8934.00   0.44565371   0.01676505
8936.00   0.43458161   0.01710005
8938.00   0.43050012   0.01805200
8940.00   0.42913747   0.01926470
8942.00   0.42411217   0.01960310
8944.00   0.42674053   0.01981579
8946.00   0.42980218   0.01958611
8948.00   0.42588189   0.01879138
8950.00   0.41082647   0.01788219
8952.00   0.44104838   0.02095421
8954.00   0.43186221   0.02401024
8956.00   0.41016635   0.02536959
8958.00   0.40464044   0.02500346
8960.00   0.41744018   0.02453607
8962.00   0.42639855   0.02344245
8964.00   0.42251956   0.02124541
8966.00   0.40242648   0.01891727
8968.00   0.38802567   0.01791390
8970.00   0.41274819   0.01813777
8972.00   0.42332581   0.01861269
8974.00   0.40739450   0.01865437
8976.00   0.39124861   0.01833856
8978.00   0.39837489   0.01802210
8980.00   0.39478421   0.01766199
8982.00   0.37576780   0.01752771
8984.00   0.36810970   0.01798463
8986.00   0.38169384   0.01941348
8988.00   0.40026724   0.02187927
8990.00   0.39162135   0.02501449
8992.00   0.39270291   0.02574267
8994.00   0.39758778   0.02478128
8996.00   0.39583752   0.02312551
8998.00   0.38429102   0.02176978
9000.00   0.38550878   0.02223813
9002.00   0.37327966   0.02377552
9004.00   0.37351289   0.02469733
9006.00   0.39156628   0.02390868
9008.00   0.40483269   0.02138913
9010.00   0.40181497   0.01953256
9012.00   0.39034167   0.01845069
9014.00   0.37867200   0.01804194
9016.00   0.37217757   0.01793862
9018.00   0.35427642   0.01757920
9020.00   0.35028097   0.01728520
9022.00   0.35950461   0.01742019
9024.00   0.36918402   0.01781721
9026.00   0.36493945   0.01804578
9028.00   0.35152021   0.01787733
9030.00   0.35706076   0.01781147
9032.00   0.35891578   0.01765931
9034.00   0.34417844   0.01721995
9036.00   0.31951404   0.01648196
9038.00   0.32771289   0.01620545
9040.00   0.33703533   0.01641150
9042.00   0.33270153   0.01696356
9044.00   0.31962883   0.01759509
9046.00   0.31821015   0.01800653
9048.00   0.32120425   0.01782459
9050.00   0.32207975   0.01791671
9052.00   0.32866856   0.01800621
9054.00   0.33922222   0.01756501
9056.00   0.32625994   0.01607996
9058.00   0.31516892   0.01542639
9060.00   0.31028596   0.01549951
9062.00   0.31220466   0.01592862
9064.00   0.31472886   0.01626885
9066.00   0.30330142   0.01624623
9068.00   0.31634071   0.01665510
9070.00   0.33180299   0.01748950
9072.00   0.32923892   0.01802013
9074.00   0.30337441   0.01757585
9076.00   0.31258628   0.01684195
9078.00   0.31378326   0.01685054
9080.00   0.31409615   0.01718271
9082.00   0.30658111   0.01731837
9084.00   0.29599735   0.01715353
9086.00   0.32643083   0.01781790
9088.00   0.33649579   0.01789496
9090.00   0.32201579   0.01760891
9092.00   0.30746031   0.01738553
9094.00   0.32534978   0.01751212
9096.00   0.30303097   0.01749504
9098.00   0.30718896   0.01836544
9100.00   0.32100078   0.01901290
9102.00   0.32290086   0.01888814
9104.00   0.32576802   0.01896342
9106.00   0.33160403   0.01953166
9108.00   0.32790652   0.01903601
9110.00   0.31252924   0.01745790
9112.00   0.29780832   0.01569493
9114.00   0.30835083   0.01515590
9116.00   0.33416387   0.01590299
9118.00   0.34885776   0.01708918
9120.00   0.34452298   0.01777790
9122.00   0.33112371   0.01740606
9124.00   0.32452130   0.01627179
9126.00   0.31548598   0.01571861
9128.00   0.30776277   0.01622462
9130.00   0.29930928   0.01727189
9132.00   0.29767346   0.01816559
9134.00   0.33019057   0.01985376
9136.00   0.33727136   0.02063188
9138.00   0.32896560   0.02013829
9140.00   0.32785842   0.01873685
9142.00   0.33827159   0.01731269
9144.00   0.31672326   0.01614470
9146.00   0.29481739   0.01540316
9148.00   0.29279968   0.01534844
9150.00   0.30862793   0.01613618
9152.00   0.31968069   0.01780845
9154.00   0.31780097   0.02040683
9156.00   0.31748340   0.02184484
9158.00   0.32694295   0.02149098
9160.00   0.34093976   0.01969435
9162.00   0.32394719   0.01792607
9164.00   0.31328705   0.01677298
9166.00   0.31755716   0.01617900
9168.00   0.31938925   0.01589415
9170.00   0.30226406   0.01581226
9172.00   0.29936099   0.01672016
9174.00   0.31323445   0.01862099
9176.00   0.31750277   0.01976597
9178.00   0.30716500   0.01939298
9180.00   0.29947558   0.01774923
9182.00   0.30358961   0.01694015
9184.00   0.31567872   0.01699964
9186.00   0.32351664   0.01693528
9188.00   0.32169798   0.01630863
9190.00   0.31955433   0.01561280
9192.00   0.32926619   0.01553616
9194.00   0.33004010   0.01598869
9196.00   0.33169207   0.01654492
9198.00   0.33710119   0.01669724
9200.00   0.32208598   0.01590885
9202.00   0.31389996   0.01520043
9204.00   0.32203981   0.01512886
9206.00   0.33002821   0.01544327
9208.00   0.32399043   0.01568553
9210.00   0.31901982   0.01577077
9212.00   0.32310921   0.01619689
9214.00   0.33674765   0.01693366
9216.00   0.34830669   0.01777739
9218.00   0.34538624   0.01843703
9220.00   0.34959766   0.01874544
9222.00   0.36868393   0.01841581
9224.00   0.37130067   0.01772683
9226.00   0.35506216   0.01699067
9228.00   0.34404615   0.01648644
9230.00   0.33555874   0.01606863
9232.00   0.33390760   0.01588830
9234.00   0.33415270   0.01591950
9236.00   0.33682314   0.01613955
9238.00   0.34857044   0.01653201
9240.00   0.34513354   0.01641984
9242.00   0.35119852   0.01663747
9244.00   0.35990334   0.01701775
9246.00   0.35896906   0.01716854
9248.00   0.36212981   0.01698701
9250.00   0.36450562   0.01699899
9252.00   0.36196005   0.01674238
9254.00   0.35457480   0.01622307
9256.00   0.35208869   0.01579258
9258.00   0.36852369   0.01607706
9260.00   0.37025142   0.01655213
9262.00   0.36709961   0.01675854
9264.00   0.36649871   0.01658797
9266.00   0.36790189   0.01615142
9268.00   0.35849151   0.01561457
9270.00   0.37050569   0.01561753
9272.00   0.37896463   0.01592390
9274.00   0.37944570   0.01635795
9276.00   0.38179001   0.01692947
9278.00   0.39738283   0.01825950
9280.00   0.38432097   0.01901035
9282.00   0.37971511   0.01951307
9284.00   0.39748621   0.02009699
9286.00   0.41538826   0.02077381
9288.00   0.38175607   0.02032981
9290.00   0.37147942   0.01982675
9292.00   0.39106002   0.01987071
9294.00   0.41852871   0.02058838
9296.00   0.41304675   0.02143171
9298.00   0.39680901   0.02332802
9300.00   0.41467991   0.02772894
9302.00   0.44226730   0.03175914
9304.00   0.44465831   0.03425315
9306.00   0.43074313   0.03822658
9308.00   0.45033062   0.04722443
9310.00   0.44632867   0.05203252
9312.00   0.42766440   0.05235831
9314.00   0.43122765   0.05164897
9316.00   0.43438587   0.05496953
9318.00   0.36163220   0.05471781
9320.00   0.34895256   0.05250949
9322.00   0.42488763   0.05165849
9324.00   0.50708491   0.05475664
9326.00   0.45771110   0.05451761
9328.00   0.41775152   0.04621079
9330.00   0.42483184   0.03627014
9332.00   0.46334231   0.03309345
9334.00   0.47287712   0.03778468
9336.00   0.40600249   0.04221687
9338.00   0.40983376   0.04876825
9340.00   0.45247957   0.05396573
9342.00   0.49906766   0.05888680
9344.00   0.56298381   0.06894944
9346.00   0.46874070   0.05310140
9348.00   0.38100442   0.03518603
9350.00   0.38498488   0.02627363
9352.00   0.45309910   0.02667663
9354.00   0.44242358   0.02845673
9356.00   0.43515226   0.03950982
9358.00   0.43723404   0.04445590
9360.00   0.42747489   0.03735808
9362.00   0.42640391   0.03112596
9364.00   0.45455536   0.02943398
9366.00   0.48312867   0.03124311
9368.00   0.48265317   0.05555476
9370.00   0.43438512   0.09427696
#9372.00   0.66207355   0.13046913
9374.00   0.41301763   0.10803884
9376.00   0.41271475   0.09888783
9378.00   0.46600524   0.09788629
9380.00   0.43535456   0.09534416
9382.00   0.44069397   0.06911150
9384.00   0.45985433   0.04672239
9386.00   0.48569155   0.03435048
9388.00   0.47501716   0.02993147
9390.00   0.42464098   0.02532769
9392.00   0.41621456   0.02243719
9394.00   0.41766158   0.02093209
9396.00   0.41446725   0.02127136
9398.00   0.41601253   0.02328672
9400.00   0.42139184   0.02608575
9402.00   0.41317418   0.02849557
9404.00   0.39908791   0.02898885
9406.00   0.42340270   0.02783029
9408.00   0.45884928   0.02654072
9410.00   0.45213783   0.02692676
9412.00   0.41973618   0.02888736
9414.00   0.40269265   0.03202687
9416.00   0.40975383   0.03403887
9418.00   0.42471716   0.03456688
9420.00   0.42012867   0.03434573
9422.00   0.39416656   0.03311568
9424.00   0.40189037   0.03092029
9426.00   0.42251530   0.03011063
9428.00   0.43058208   0.03267683
9430.00   0.41371059   0.03739994
9432.00   0.38620540   0.03318982
9434.00   0.38420928   0.02929061
9436.00   0.40533400   0.02949352
9438.00   0.42280018   0.03524750
9440.00   0.39162448   0.04656554
9442.00   0.43215129   0.06968543
9444.00   0.52027971   0.06942242
9446.00   0.53300625   0.04621702
9448.00   0.43764055   0.02836079
9450.00   0.41020846   0.02482022
9452.00   0.42808792   0.02815922
9454.00   0.44382510   0.03650949
9456.00   0.45145953   0.04579430
9458.00   0.45878783   0.05356969
9460.00   0.54376024   0.05959662
9462.00   0.50764263   0.05084999
9464.00   0.44293651   0.03733449
9466.00   0.41506442   0.02882919
9468.00   0.43916512   0.03005152
9470.00   0.40971538   0.03419382
9472.00   0.43500149   0.04002906
9474.00   0.46607485   0.04295437
9476.00   0.46632347   0.04294396
9478.00   0.45145178   0.04419838
9480.00   0.47541025   0.04727943
9482.00   0.44929060   0.04378951
9484.00   0.40778387   0.03607306
9486.00   0.40106368   0.02901999
9488.00   0.40775469   0.02419257
9490.00   0.39657867   0.02153891
9492.00   0.40660062   0.02190977
9494.00   0.40872869   0.02463819
9496.00   0.38042867   0.03322733
9498.00   0.38284358   0.05587162
9500.00   0.43858793   0.07114556
9502.00   0.48507199   0.06337094
9504.00   0.48715356   0.04388562
9506.00   0.44951400   0.03236370
9508.00   0.39257696   0.02395928
9510.00   0.38439441   0.02009553
9512.00   0.39400771   0.01968406
9514.00   0.40859997   0.02126464
9516.00   0.43473271   0.02459668
9518.00   0.44698104   0.03035098
9520.00   0.45105013   0.03644922
9522.00   0.44465366   0.03921488
9524.00   0.43242231   0.03787136
9526.00   0.45261109   0.03501528
9528.00   0.45166573   0.03315591
9530.00   0.44989383   0.03108046
9532.00   0.45308247   0.02893697
9534.00   0.46388939   0.02749683
9536.00   0.48073187   0.02729992
9538.00   0.47644249   0.02710274
9540.00   0.46938422   0.02681852
9542.00   0.47017506   0.02748997
9544.00   0.47430310   0.02972708
9546.00   0.43025947   0.03259835
9548.00   0.40790740   0.03294715
9550.00   0.39960554   0.03135094
9552.00   0.41315246   0.03057224
9554.00   0.45227313   0.03335517
9556.00   0.45161510   0.03681471
9558.00   0.41892287   0.03340869
9560.00   0.40678239   0.02982212
9562.00   0.43303403   0.03193185
9564.00   0.46327713   0.03906271
9566.00   0.44440511   0.04547560
9568.00   0.42233112   0.04634591
9570.00   0.42505810   0.04107688
9572.00   0.44198737   0.03145361
9574.00   0.42626914   0.02390495
9576.00   0.41422224   0.02068795
9578.00   0.43013093   0.02099522
9580.00   0.45903778   0.02318249
9582.00   0.47430611   0.02510788
9584.00   0.45990375   0.02454573
9586.00   0.45336553   0.02383445
9588.00   0.44664791   0.02491253
9590.00   0.43927085   0.02851827
9592.00   0.43697324   0.03282894
9594.00   0.45616245   0.03319534
9596.00   0.47082832   0.03061008
9598.00   0.46583804   0.02758095
9600.00   0.44036150   0.02524114
9602.00   0.41471758   0.02398084
9604.00   0.43980420   0.02542657
9606.00   0.44540635   0.02726932
9608.00   0.43954071   0.02788135
9610.00   0.43099973   0.02665186
9612.00   0.42349610   0.02411442
9614.00   0.41270995   0.02277549
9616.00   0.41453150   0.02317717
9618.00   0.40969750   0.02460285
9620.00   0.39385572   0.02656988
9622.00   0.38902906   0.02919117
9624.00   0.36787891   0.03037356
9626.00   0.38277230   0.02950832
9628.00   0.40522826   0.02696018
9630.00   0.40756238   0.02360200
9632.00   0.39895687   0.02076122
9634.00   0.39267942   0.01971183
9636.00   0.38718930   0.02086165
9638.00   0.38160864   0.02289729
9640.00   0.37623429   0.02401125
9642.00   0.39400789   0.02295150
9644.00   0.41290116   0.02289777
9646.00   0.40651587   0.02327661
9648.00   0.37809697   0.02326388
9650.00   0.36783400   0.02263893
9652.00   0.41190520   0.02250145
9654.00   0.39192334   0.02186981
9656.00   0.36723247   0.02109034
9658.00   0.36590073   0.02083089
9660.00   0.37561989   0.02189224
9662.00   0.37832761   0.02483332
9664.00   0.36796999   0.02825762
9666.00   0.36737025   0.02982871
9668.00   0.38798261   0.02909561
9670.00   0.38965669   0.02727942
9672.00   0.38677403   0.02442016
9674.00   0.37292087   0.02178991
9676.00   0.36061001   0.02064684
9678.00   0.35841551   0.02149155
9680.00   0.37162888   0.02341461
9682.00   0.35877803   0.02469828
9684.00   0.33906528   0.02432377
9686.00   0.32760271   0.02259982
9688.00   0.33290806   0.02068059
9690.00   0.33302274   0.02007562
9692.00   0.32636425   0.02148452
9694.00   0.32401642   0.02315478
9696.00   0.32292557   0.02419927
9698.00   0.31660137   0.02466372
9700.00   0.32092145   0.02568691
9702.00   0.32592419   0.02504651
9704.00   0.32701644   0.02308240
9706.00   0.32679558   0.02099634
9708.00   0.32506320   0.02039066
9710.00   0.31231782   0.02028521
9712.00   0.30758896   0.02180985
9714.00   0.31081212   0.02450695
9716.00   0.31309733   0.02678184
9718.00   0.30503342   0.02663069
9720.00   0.30470952   0.02591856
9722.00   0.30251622   0.02531135
9724.00   0.29662052   0.02411083
9726.00   0.28912205   0.02191220
9728.00   0.29628852   0.02023585
9730.00   0.29878691   0.01994506
9732.00   0.29677808   0.02060705
9734.00   0.29554027   0.02224451
9736.00   0.30098143   0.02445853
9738.00   0.28535405   0.02545988
9740.00   0.28519967   0.02479457
9742.00   0.29876879   0.02342051
9744.00   0.30838656   0.02194911
9746.00   0.29191992   0.02069990
9748.00   0.28673342   0.02029564
9750.00   0.29595670   0.01970203
9752.00   0.29383838   0.01902950
9754.00   0.28003800   0.01874851
9756.00   0.27402639   0.01928228
9758.00   0.26841429   0.01958417
9760.00   0.26564589   0.01979744
9762.00   0.26851904   0.02011442
9764.00   0.27456966   0.02033798
9766.00   0.26830718   0.01974056
9768.00   0.26420334   0.01854928
9770.00   0.26421940   0.01740003
9772.00   0.26374123   0.01687047
9774.00   0.25951445   0.01711705
9776.00   0.25028029   0.01748279
9778.00   0.25843477   0.01798793
9780.00   0.25969264   0.01862281
9782.00   0.25760677   0.01978908
9784.00   0.25796181   0.02154854
9786.00   0.23032321   0.02287980
9788.00   0.24533413   0.02358683
9790.00   0.26657930   0.02488475
9792.00   0.26841021   0.02655096
9794.00   0.24370007   0.02734316
9796.00   0.22791024   0.02536287
9798.00   0.23933011   0.02393041
9800.00   0.25393286   0.02381755
9802.00   0.25347203   0.02415329
9804.00   0.24212138   0.02318454
9806.00   0.25379246   0.02184360
9808.00   0.24631238   0.02081235
9810.00   0.24314082   0.02040986
9812.00   0.25427866   0.02052029
9814.00   0.26593050   0.02075458
9816.00   0.26377073   0.02037827
9818.00   0.25762048   0.01955753
9820.00   0.24819763   0.01872940
9822.00   0.24104349   0.01845117
9824.00   0.23870246   0.01896817
9826.00   0.24722029   0.01965909
9828.00   0.25149742   0.01978331
9830.00   0.25381783   0.01946588
9832.00   0.25800905   0.01907584
9834.00   0.26465410   0.01850149
9836.00   0.27404809   0.01808958
9838.00   0.26947546   0.01777182
9840.00   0.25529155   0.01818562
9842.00   0.25096110   0.02004784
9844.00   0.27016628   0.02279395
9846.00   0.28495523   0.02418311
9848.00   0.28829148   0.02468375
9850.00   0.28453311   0.02434030
9852.00   0.28530529   0.02274299
9854.00   0.27947882   0.02035159
9856.00   0.28275588   0.01883582
9858.00   0.28745261   0.01827642
9860.00   0.28714946   0.01823057
9862.00   0.28570807   0.01834199
9864.00   0.29478326   0.02100174
9866.00   0.30492374   0.02640034
9868.00   0.31878710   0.03142844
9870.00   0.33542952   0.03435224
9872.00   0.32567886   0.03506541
9874.00   0.29573968   0.03440446
9876.00   0.27848247   0.03066216
9878.00   0.28255084   0.02507780
9880.00   0.29385594   0.02093458
9882.00   0.29732445   0.02025892
9884.00   0.30659336   0.01992692
9886.00   0.32384846   0.02050174
9888.00   0.34057021   0.02213714
9890.00   0.33821931   0.02428092
9892.00   0.33039692   0.02553923
9894.00   0.31083527   0.02585723
9896.00   0.29601303   0.02571951
9898.00   0.29798934   0.02499437
9900.00   0.31238055   0.02298016
9902.00   0.31143257   0.02092185
9904.00   0.31761792   0.02024378
9906.00   0.33393049   0.02205041
9908.00   0.34365144   0.02623662
9910.00   0.33845744   0.03196589
9912.00   0.32919720   0.03439974
9914.00   0.32945168   0.03525600
9916.00   0.33440313   0.03470331
9918.00   0.34240481   0.03238225
9920.00   0.34760049   0.02696826
9922.00   0.35268351   0.02303602
9924.00   0.35348979   0.02126755
9926.00   0.34524497   0.02090672
9928.00   0.33292195   0.02059337
9930.00   0.33207074   0.02045416
9932.00   0.33998433   0.02087819
9934.00   0.35262164   0.02263996
9936.00   0.36053264   0.02580334
9938.00   0.36686492   0.02999838
9940.00   0.37096539   0.03495221
9942.00   0.35566631   0.03906041
9944.00   0.34997782   0.04104435
9946.00   0.35365665   0.04067621
9948.00   0.36164430   0.03885322
9950.00   0.36888614   0.03776119
9952.00   0.36944953   0.03678232
9954.00   0.37969241   0.03694883
9956.00   0.38980213   0.03851233
9958.00   0.36473802   0.04033012
9960.00   0.37726083   0.03937403
9962.00   0.39696476   0.03672042
9964.00   0.40295541   0.03374560
9966.00   0.39195791   0.03143174
9968.00   0.39899921   0.02900550
9970.00   0.39835355   0.02770997
9972.00   0.40107608   0.02746076
9974.00   0.40280065   0.02742417
9976.00   0.39271751   0.02666393
9978.00   0.41106939   0.02536450
9980.00   0.41442856   0.02434533
9982.00   0.41309285   0.02369210
9984.00   0.41849089   0.02334348
9986.00   0.43011549   0.02307754
9988.00   0.41256285   0.02282437
9990.00   0.42470929   0.02303624
9992.00   0.43758321   0.02366659
9994.00   0.43748450   0.02458121
9996.00   0.43630144   0.02559059
9998.00   0.44481906   0.02627287
10000.00   0.44176683   0.02659945
10002.00   0.44370973   0.02691285
10004.00   0.45734525   0.02870233
10006.00   0.47407117   0.03414977
10008.00   0.46181169   0.04110578
10010.00   0.44552413   0.04532646
10012.00   0.42461643   0.04696064
10014.00   0.40899634   0.04659494
10016.00   0.41118273   0.04364879
10018.00   0.42766830   0.03856192
10020.00   0.44085154   0.03492574
10022.00   0.45313683   0.03408134
10024.00   0.46980810   0.03472787
10026.00   0.47791624   0.03441903
10028.00   0.47168979   0.03288974
10030.00   0.47187686   0.03037787
10032.00   0.47211480   0.02771986
10034.00   0.45423236   0.02620702
10036.00   0.43974361   0.02643337
10038.00   0.47084072   0.02767064
10040.00   0.48991236   0.02861673
10042.00   0.48083654   0.02887095
10044.00   0.48474991   0.02890050
10046.00   0.49841091   0.02857991
10048.00   0.48717308   0.02739708
10050.00   0.47567996   0.02634587
10052.00   0.47386542   0.02651807
10054.00   0.44983640   0.02821781
10056.00   0.50045872   0.03072379
10058.00   0.48947307   0.03223259
10060.00   0.47330207   0.03291201
10062.00   0.46688098   0.03325941
10064.00   0.46711203   0.03331719
10066.00   0.48107186   0.03231827
10068.00   0.49108836   0.03144274
10070.00   0.49741325   0.03093736
10072.00   0.48314333   0.03071665
10074.00   0.48470294   0.03171440
10076.00   0.49093309   0.03570475
10078.00   0.49914768   0.04021068
10080.00   0.50065583   0.04318071
10082.00   0.49009967   0.04366994
10084.00   0.51532078   0.04348109
10086.00   0.48123193   0.04017093
10088.00   0.46525046   0.03511237
10090.00   0.48772144   0.03071439
10092.00   0.49672088   0.02978803
10094.00   0.47714901   0.02948852
10096.00   0.48551759   0.03094789
10098.00   0.49374548   0.03341286
10100.00   0.48034945   0.03553753
10102.00   0.46622643   0.03606096
10104.00   0.45391476   0.03617536
10106.00   0.45910645   0.03553378
10108.00   0.48034918   0.03388872
10110.00   0.48629722   0.03145237
10112.00   0.45303440   0.03003357
10114.00   0.47508049   0.03051101
10116.00   0.48789039   0.03410386
10118.00   0.47788429   0.04012626
10120.00   0.46109176   0.04635498
10122.00   0.45937636   0.04906723
10124.00   0.46862197   0.05002472
10126.00   0.45872816   0.04911160
10128.00   0.44114494   0.04554662
10130.00   0.46536902   0.03898072
10132.00   0.47838941   0.03545876
10134.00   0.45989147   0.03440852
10136.00   0.43544897   0.03437779
10138.00   0.43544576   0.03464890
10140.00   0.45531201   0.03537166
10142.00   0.46399310   0.03582675
10144.00   0.46808633   0.03646208
10146.00   0.45062900   0.03784130
10148.00   0.43210015   0.03993708
10150.00   0.44690907   0.04159951
10152.00   0.43686518   0.04246115
10154.00   0.42878404   0.04293664
10156.00   0.42913625   0.04247155
10158.00   0.45036796   0.04120422
10160.00   0.47152305   0.04073011
10162.00   0.46420944   0.03958371
10164.00   0.45210573   0.04274794
10166.00   0.45393705   0.04893376
10168.00   0.47113410   0.05689822
10170.00   0.47091112   0.05745296
10172.00   0.42402300   0.05787574
10174.00   0.39740601   0.05657849
10176.00   0.40772817   0.05284098
10178.00   0.41925725   0.04680258
10180.00   0.40568945   0.04310470
10182.00   0.41848591   0.04469092
10184.00   0.41945991   0.04855162
10186.00   0.39773038   0.05162387
10188.00   0.38894174   0.05252822
10190.00   0.39551839   0.05296227
10192.00   0.38463774   0.05177193
10194.00   0.37219226   0.04870284
10196.00   0.37705353   0.04494895
10198.00   0.40777889   0.04412585
10200.00   0.41293648   0.04571533
10202.00   0.39722243   0.04868018
10204.00   0.40420723   0.05402615
10206.00   0.44387564   0.06078574
10208.00   0.42119768   0.06409759
10210.00   0.38841215   0.06394421
10212.00   0.38417611   0.06260426
10214.00   0.39684704   0.05927923
10216.00   0.39337146   0.05267988
10218.00   0.38732228   0.04716437
10220.00   0.37535915   0.04766923
10222.00   0.37212899   0.05098197
10224.00   0.37789181   0.05437310
10226.00   0.39488766   0.05684742
10228.00   0.40764490   0.05790741
10230.00   0.38016465   0.05573186
10232.00   0.36447957   0.05196174
10234.00   0.36955926   0.04811073
10236.00   0.34285274   0.04467190
10238.00   0.36392060   0.04219190
10240.00   0.35687351   0.04057717
10242.00   0.34351349   0.03964407
10244.00   0.34405687   0.03925268
10246.00   0.35902742   0.03986151
10248.00   0.35712591   0.04007766
10250.00   0.33769616   0.04015264
10252.00   0.33599052   0.04047840
10254.00   0.36536598   0.04116619
10256.00   0.35858491   0.04143381
10258.00   0.35981527   0.04206999
10260.00   0.35934839   0.04261710
10262.00   0.34408104   0.04309458
10264.00   0.33257487   0.04421692
10266.00   0.31018195   0.04619002
10268.00   0.30387318   0.04770486
10270.00   0.30362085   0.04855777
10272.00   0.32447696   0.04937777
10274.00   0.37118140   0.05080912
10276.00   0.36282369   0.05145257
10278.00   0.38946751   0.05874157
10280.00   0.41218719   0.07560616
10282.00   0.41912732   0.09419460
10284.00   0.50197250   0.10572360
10286.00   0.48362470   0.10983130
10288.00   0.44527516   0.11123084
10290.00   0.36736658   0.10646985
10292.00   0.30928102   0.09488812
10294.00   0.37347221   0.08389845
10296.00   0.38110927   0.07879544
10298.00   0.38103107   0.07579490
10300.00   0.39165780   0.07119288
10302.00   0.39863381   0.06388385
10304.00   0.37809357   0.06101450
10306.00   0.36564159   0.06062913
10308.00   0.34121099   0.06051769
10310.00   0.31274137   0.05982108
10312.00   0.29902244   0.05849147
10314.00   0.32656804   0.05623041
10316.00   0.34147570   0.05420708
10318.00   0.34375182   0.05286688
10320.00   0.33851686   0.05272559
10322.00   0.32928702   0.05375673
10324.00   0.30781466   0.05392440
10326.00   0.32766065   0.05493466
10328.00   0.33966410   0.05575525
10330.00   0.32499740   0.05578126
10332.00   0.30618989   0.05510829
10334.00   0.31514716   0.05589834
10336.00   0.31641266   0.05701237
10338.00   0.29965466   0.05892445
10340.00   0.29486975   0.06282706
10342.00   0.36930904   0.07033934
10344.00   0.35637012   0.07526471
10346.00   0.31965378   0.07743540
10348.00   0.28982574   0.07830109
10350.00   0.27932772   0.07843931
10352.00   0.29549122   0.07531167
10354.00   0.35127807   0.07183912
10356.00   0.34406340   0.06860694
10358.00   0.29994622   0.06638969
10360.00   0.28442010   0.06558483
10362.00   0.29165575   0.06605680
10364.00   0.36354676   0.07165454
10366.00   0.41405192   0.08597467
10368.00   0.40054080   0.10334563
10370.00   0.38387671   0.11687239
10372.00   0.41699448   0.12174655
10374.00   0.36576506   0.12264756
10376.00   0.30431822   0.11641493
10378.00   0.29891956   0.10253844
10380.00   0.31310117   0.08554983
10382.00   0.27066609   0.07753262
10384.00   0.34108561   0.07531604
10386.00   0.37117317   0.07544820
10388.00   0.32363191   0.07684070
10390.00   0.28875482   0.08249482
10392.00   0.28734100   0.09213638
10394.00   0.32627872   0.09874734
10396.00   0.37548181   0.10183400
10398.00   0.37240484   0.10178199
10400.00   0.30458266   0.09730784
10402.00   0.30270663   0.09074641
10404.00   0.30224177   0.08523407
10406.00   0.30385962   0.08303616
10408.00   0.33993843   0.08543278
10410.00   0.31781104   0.09265802
10412.00   0.27109036   0.11068364
10414.00   0.28009537   0.13078634
10416.00   0.33057031   0.14543095
10418.00   0.30634743   0.14986044
10420.00   0.31978869   0.15039819
10422.00   0.42874110   0.14233519
10424.00   0.47549620   0.12532340
10426.00   0.42958626   0.10558765
10428.00   0.39455438   0.09863747
10430.00   0.38441357   0.09522671
10432.00   0.29069144   0.09087162
10434.00   0.26170161   0.08834785
10436.00   0.35299668   0.08909758
10438.00   0.38478208   0.08962261
10440.00   0.36160019   0.08900364
10442.00   0.33304295   0.09016625
10444.00   0.34638306   0.09635603
10446.00   0.37290046   0.10564545
10448.00   0.29414579   0.10984466
10450.00   0.28456709   0.11144958
10452.00   0.26421770   0.11031618
10454.00   0.26440790   0.10715821
10456.00   0.35186276   0.10324963
10458.00   0.36373520   0.09729865
10460.00   0.38961673   0.09902030
10462.00   0.39265725   0.11090081
10464.00   0.36283109   0.12683924
10466.00   0.33447990   0.13912416
10468.00   0.33190492   0.14452660
10470.00   0.40751073   0.14570199
10472.00   0.32106343   0.13982330
10474.00   0.24637012   0.12630585
10476.00   0.32645336   0.10999861
10478.00   0.45759737   0.10157337
10480.00   0.36002815   0.09836356
10482.00   0.34252334   0.09786880
10484.00   0.32241213   0.09788980
10486.00   0.30121657   0.09705909
10488.00   0.30640087   0.09711167
10490.00   0.36451563   0.09825525
10492.00   0.40987623   0.09881430
10494.00   0.36603722   0.09738938
10496.00   0.20738955   0.09700314
10498.00   0.25892127   0.09670153
10500.00   0.26710948   0.09771282
10502.00   0.28769287   0.10098542
10504.00   0.32970902   0.10680420
10506.00   0.37466097   0.11129323
10508.00   0.28066123   0.11485992
10510.00   0.28511479   0.11394311
10512.00   0.33851519   0.11496511
10514.00   0.26461932   0.10987713
10516.00   0.39934275   0.11011245
10518.00   0.41004431   0.11477768
10520.00   0.31374931   0.11998904
10522.00   0.25081429   0.12448273
10524.00   0.34262255   0.12892061
10526.00   0.36687586   0.13022225
10528.00   0.36296651   0.12664367
10530.00   0.35983777   0.11860213
10532.00   0.40936482   0.11371519
10534.00   0.40680870   0.10723438
10536.00   0.35384631   0.10511422
10538.00   0.30758369   0.10307395
10540.00   0.26750901   0.10135260
10542.00   0.24868302   0.10150433
10544.00   0.24605186   0.10235151
10546.00   0.23529816   0.10544597
10548.00   0.27798027   0.10757955
10550.00   0.27502877   0.10768849
10552.00   0.29383779   0.10639659
10554.00   0.33134186   0.10802108
10556.00   0.35337088   0.10804084
10558.00   0.35232580   0.11016223
10560.00   0.33039829   0.11042118
10562.00   0.27877721   0.10713509
10564.00   0.29898199   0.10857630
10566.00   0.32483700   0.11192814
10568.00   0.34661028   0.11619959
10570.00   0.34529939   0.11898730
10572.00   0.35019186   0.11906137
10574.00   0.33578756   0.12124182
10576.00   0.27629384   0.11973179
10578.00   0.23715317   0.11684791
10580.00   0.26797163   0.11970982
10582.00   0.32936218   0.12947908
10584.00   0.25208658   0.13251375
10586.00   0.36177215   0.13093016
10588.00   0.34827676   0.13128211
10590.00   0.30818784   0.12949716
10592.00   0.27323017   0.12480932
10594.00   0.23213261   0.12362830
10596.00   0.26368910   0.12336854
10598.00   0.32997108   0.12313501
10600.00   0.27981099   0.12294570
10602.00   0.33231956   0.12565251
10604.00   0.36138156   0.12617750
10606.00   0.36979327   0.12666006
10608.00   0.37604061   0.12822670
10610.00   0.40991089   0.12965244
10612.00   0.37917438   0.12804057
10614.00   0.35443369   0.12814991
10616.00   0.33789638   0.12871861
10618.00   0.32509217   0.12915994
10620.00   0.18103778   0.12775555
10622.00   0.25881046   0.13161960
10624.00   0.26252034   0.13166912
10626.00   0.20221861   0.13286436
10628.00   0.29901496   0.13459261
10630.00   0.24737918   0.13557017
10632.00   0.25514683   0.13333279
10634.00   0.26922348   0.13354129
10636.00   0.33476529   0.13947996
10638.00   0.49625278   0.14397639
10640.00   0.24337931   0.14274000
10642.00   0.29257977   0.14551580
10644.00   0.33107620   0.14687949
10646.00   0.34175172   0.14964078
10648.00   0.40391323   0.15264255
10650.00   0.35853061   0.14974688
10652.00   0.30569547   0.15090758
10654.00   0.41499662   0.15416808
10656.00   0.38831615   0.15684144
10658.00   0.18397164   0.14948916
10660.00   0.33004487   0.15154040
10662.00   0.30829489   0.15206757
10664.00   0.31179860   0.15674263
10666.00   0.36095873   0.16193174
10668.00   0.34153187   0.15867651
10670.00   0.28531492   0.15578842
10672.00   0.20344785   0.16497459
10674.00   0.32014361   0.16414402
10676.00   0.33768854   0.16104838
10678.00   0.41753650   0.17400844
10680.00   0.38429868   0.17821987
10682.00   0.24303164   0.18476978
10684.00   0.24786977   0.18469955
10686.00   0.04587379   0.18472299
10688.00   0.08307025   0.18831456
10690.00   0.34574777   0.19263828
10692.00   0.34195572   0.20484094
10694.00   0.63843822   0.21120983
10696.00   0.35610986   0.20896690
10698.00   0.13716377   0.20186433
10700.00   0.28413767   0.20594300
10702.00   0.35572234   0.21995084
10704.00   0.50447410   0.22620329
10706.00   0.22057411   0.23220830
10708.00   -0.02255165   0.24130768
10710.00   0.23060769   0.24806862
10712.00   0.58072436   0.25538900
10714.00   0.53765678   0.25803509
10716.00   0.28574020   0.24808915
10718.00   0.18122567   0.25097284
