# File created by shivutils (I.Shivvers)
# wl(A)   flm    er(optional)
3620.00   13.35263157   0.16984969
3622.00   12.80741405   0.16639473
3624.00   12.51276588   0.16403033
3626.00   12.21107197   0.16173843
3628.00   12.01126480   0.15998749
3630.00   11.53728390   0.15713131
3632.00   11.52776051   0.15637103
3634.00   11.57932758   0.15625247
3636.00   11.15312195   0.15325291
3638.00   10.85859013   0.15078422
3640.00   10.65872192   0.14908844
3642.00   10.35353374   0.14676239
3644.00   10.13931561   0.14498211
3646.00   10.18459415   0.14537956
3648.00   9.92967796   0.14623412
3650.00   9.85662270   0.14599317
3652.00   9.46955299   0.14143039
3654.00   9.42291069   0.13983674
3656.00   9.21018791   0.13690799
3658.00   8.99624634   0.13396122
3660.00   8.72536945   0.13255371
3662.00   8.71936703   0.13259417
3664.00   8.48605251   0.13002799
3666.00   8.37254047   0.12748764
3668.00   8.14518356   0.12509134
3670.00   8.03059292   0.12381949
3672.00   7.89750433   0.12290824
3674.00   7.68039560   0.12071273
3676.00   7.66288996   0.12001312
3678.00   7.45152855   0.11795315
3680.00   7.16000080   0.11591057
3682.00   7.09649801   0.11482869
3684.00   7.08449841   0.11420529
3686.00   6.96381569   0.11261901
3688.00   6.88405418   0.11203532
3690.00   6.76410055   0.11089484
3692.00   6.71376228   0.10998865
3694.00   6.71327209   0.10984420
3696.00   6.67498493   0.10913537
3698.00   6.52022266   0.10786172
3700.00   6.49456739   0.10753687
3702.00   6.26651335   0.10563569
3704.00   6.24835777   0.10494317
3706.00   6.10041666   0.10329607
3708.00   5.97623253   0.10211268
3710.00   5.94363070   0.10137454
3712.00   5.70802355   0.09950291
3714.00   6.04186058   0.10136100
3716.00   5.86648893   0.09962028
3718.00   5.74821281   0.09841000
3720.00   5.58451319   0.09674602
3722.00   5.68158531   0.09702124
3724.00   5.78484964   0.09745657
3726.00   5.63805103   0.09647568
3728.00   5.75348759   0.09708383
3730.00   5.61232281   0.09569506
3732.00   5.50476170   0.09488154
3734.00   5.61859417   0.09544650
3736.00   5.37485218   0.09361769
3738.00   5.53232670   0.09449954
3740.00   5.43425703   0.09340382
3742.00   5.51350975   0.09334457
3744.00   5.52211523   0.09283164
3746.00   5.46220875   0.09233261
3748.00   5.38173342   0.09129186
3750.00   5.64127064   0.09282432
3752.00   5.72247791   0.09298188
3754.00   5.60712147   0.09215627
3756.00   5.78728390   0.09292439
3758.00   5.82146311   0.09295879
3760.00   6.08412170   0.09412152
3762.00   6.28491116   0.09548404
3764.00   6.54024982   0.09662980
3766.00   6.43457174   0.09576961
3768.00   6.72753906   0.09742600
3770.00   6.74462843   0.09713335
3772.00   6.86626720   0.09762286
3774.00   6.91663456   0.09781962
3776.00   7.10383940   0.09892287
3778.00   7.36894226   0.10016805
3780.00   7.59828091   0.10118230
3782.00   7.94599915   0.10292155
3784.00   7.92050743   0.10255003
3786.00   8.00981617   0.10273830
3788.00   8.21999168   0.10375354
3790.00   8.32647038   0.10417841
3792.00   8.85600948   0.10680396
3794.00   9.01501846   0.10756158
3796.00   9.40431786   0.10890633
3798.00   9.65882683   0.10998656
3800.00   9.71569729   0.11018104
3802.00   10.23283291   0.11280746
3804.00   10.52054787   0.11378293
3806.00   10.78277588   0.11464990
3808.00   10.89841366   0.11491276
3810.00   11.28596497   0.11676111
3812.00   11.54282475   0.11765338
3814.00   11.71596146   0.11825921
3816.00   12.19367886   0.12007348
3818.00   12.44019699   0.12089570
3820.00   12.74186420   0.12187047
3822.00   12.99409962   0.12276895
3824.00   13.38226032   0.12410644
3826.00   13.79734421   0.12561111
3828.00   14.31292248   0.12781669
3830.00   14.64561844   0.12899518
3832.00   15.10257530   0.13052918
3834.00   15.11819172   0.13017806
3836.00   15.66858768   0.13205130
3838.00   16.08323669   0.13313779
3840.00   16.72335243   0.13525462
3842.00   16.99569130   0.13603167
3844.00   17.22208786   0.13655238
3846.00   17.80649567   0.13859153
3848.00   18.42144394   0.14028154
3850.00   18.76181793   0.14132208
3852.00   19.09324074   0.14209710
3854.00   19.66597366   0.14360455
3856.00   20.13752174   0.14485416
3858.00   20.58245850   0.14595853
3860.00   20.86822891   0.14653520
3862.00   21.01611710   0.14684150
3864.00   21.60510635   0.14844909
3866.00   22.16055679   0.14976558
3868.00   22.35480118   0.15002498
3870.00   22.93867683   0.15151469
3872.00   23.54486275   0.15309693
3874.00   23.92807961   0.15400350
3876.00   24.28654289   0.15470266
3878.00   24.25561714   0.15421152
3880.00   24.99879837   0.15605569
3882.00   25.48546410   0.15707381
3884.00   25.78648758   0.15756649
3886.00   26.37715721   0.15890974
3888.00   26.30630684   0.15822625
3890.00   26.38033295   0.15814883
3892.00   26.91373062   0.15924366
3894.00   27.26075935   0.15995106
3896.00   27.29166794   0.15974215
3898.00   27.22837257   0.15917109
3900.00   27.70531273   0.16009302
3902.00   27.88609123   0.16034254
3904.00   28.08010101   0.16060276
3906.00   28.28652954   0.16121936
3908.00   28.43991661   0.16126093
3910.00   28.83102798   0.16189404
3912.00   28.82549667   0.16157138
3914.00   28.76939392   0.16077173
3916.00   28.77757263   0.16022289
3918.00   28.55679893   0.15909132
3920.00   28.73406982   0.15915908
3922.00   28.77647781   0.15879135
3924.00   28.67870712   0.15823308
3926.00   28.26041985   0.15660955
3928.00   28.45166206   0.15680832
3930.00   28.10176659   0.15551394
3932.00   26.97450638   0.15212977
3934.00   27.00173759   0.15184404
3936.00   27.49353790   0.15267211
3938.00   27.44327736   0.15242346
3940.00   27.20467186   0.15145126
3942.00   26.93156242   0.15047263
3944.00   26.42905045   0.14887485
3946.00   26.42567253   0.14834516
3948.00   25.99843407   0.14685915
3950.00   25.91891098   0.14626150
3952.00   25.85869789   0.14578888
3954.00   25.69344330   0.14491257
3956.00   25.41453743   0.14387222
3958.00   25.58045769   0.14400014
3960.00   25.35577011   0.14322028
3962.00   24.85312653   0.14146534
3964.00   24.31446838   0.13949700
3966.00   24.45019722   0.13953830
3968.00   24.11595154   0.13833839
3970.00   24.70796967   0.13973550
3972.00   24.64136124   0.13925292
3974.00   24.56917953   0.13884339
3976.00   24.17366219   0.13744918
3978.00   23.99594307   0.13673516
3980.00   23.90609932   0.13617224
3982.00   23.55882263   0.13490519
3984.00   23.37521172   0.13409714
3986.00   23.26149559   0.13347949
3988.00   23.27033997   0.13326544
3990.00   23.27185822   0.13305344
3992.00   22.60875702   0.13082288
3994.00   22.77232361   0.13114832
3996.00   22.67044830   0.13062106
3998.00   22.06156349   0.12857789
4000.00   22.36686134   0.12912990
4002.00   22.13231850   0.12811369
4004.00   21.87731743   0.12713885
4006.00   21.86207390   0.12690189
4008.00   21.65388870   0.12618425
4010.00   21.73736763   0.12621449
4012.00   21.86341286   0.12624183
4014.00   21.54755020   0.12500165
4016.00   21.56063461   0.12484282
4018.00   21.45705032   0.12455564
4020.00   21.37091064   0.12420779
4022.00   21.31664276   0.12376907
4024.00   21.02837181   0.12268278
4026.00   21.10558319   0.12242393
4028.00   21.09857559   0.12207510
4030.00   20.80153084   0.12099372
4032.00   20.81453705   0.12066133
4034.00   20.84059143   0.12048753
4036.00   20.96827316   0.12060194
4038.00   20.81381035   0.11992838
4040.00   21.07903290   0.12050252
4042.00   20.97552681   0.12029283
4044.00   21.10503960   0.12259018
4046.00   21.12502670   0.12374429
4048.00   21.25477409   0.12238906
4050.00   21.22581100   0.12022049
4052.00   21.28936768   0.11984008
4054.00   21.51212120   0.12011635
4056.00   21.43476677   0.11965514
4058.00   21.79867363   0.12024868
4060.00   21.73446465   0.11997746
4062.00   22.08696556   0.12062480
4064.00   22.39821815   0.12124214
4066.00   22.36582375   0.12095557
4068.00   22.62101173   0.12136344
4070.00   22.84481239   0.12165332
4072.00   23.17446518   0.12224891
4074.00   23.38632202   0.12275403
4076.00   23.58315659   0.12330189
4078.00   23.82708359   0.12376214
4080.00   23.80387497   0.12340153
4082.00   24.14941978   0.12393428
4084.00   24.40839767   0.12429094
4086.00   24.59547234   0.12442347
4088.00   24.72058678   0.12444547
4090.00   24.75387383   0.12419995
4092.00   24.92814064   0.12441754
4094.00   25.11451340   0.12466539
4096.00   25.40353394   0.12513852
4098.00   25.30155945   0.12467058
4100.00   25.56064224   0.12508313
4102.00   25.22361374   0.12397687
4104.00   25.52545738   0.12451466
4106.00   25.44693756   0.12419438
4108.00   25.42787361   0.12394913
4110.00   25.63445473   0.12422922
4112.00   25.47630119   0.12361895
4114.00   25.33671570   0.12316396
4116.00   25.33659744   0.12295276
4118.00   25.49024963   0.12299390
4120.00   25.40309334   0.12265296
4122.00   25.65241051   0.12310474
4124.00   25.20765686   0.12193550
4126.00   25.47055817   0.12228752
4128.00   25.36062241   0.12184477
4130.00   25.39350319   0.12177881
4132.00   25.20927620   0.12120695
4134.00   25.30936241   0.12125427
4136.00   24.79590607   0.11982264
4138.00   24.84227180   0.11982744
4140.00   24.80688095   0.11948120
4142.00   24.65825653   0.11887114
4144.00   24.50741196   0.11831551
4146.00   24.38795280   0.11787330
4148.00   24.25785828   0.11736899
4150.00   24.19832420   0.11716513
4152.00   24.11730385   0.11678540
4154.00   24.00151062   0.11633958
4156.00   24.00990677   0.11621659
4158.00   23.76323128   0.11537611
4160.00   23.48239136   0.11453688
4162.00   23.67748070   0.11497299
4164.00   23.27023697   0.11397248
4166.00   23.26351929   0.11373578
4168.00   23.11665154   0.11308468
4170.00   23.24086952   0.11314591
4172.00   22.93485451   0.11227036
4174.00   22.96696663   0.11209446
4176.00   23.00545311   0.11204308
4178.00   22.91423416   0.11165636
4180.00   22.64538383   0.11084283
4182.00   23.04663086   0.11157070
4184.00   23.03267288   0.11133620
4186.00   23.01071548   0.11115471
4188.00   22.80686188   0.11053361
4190.00   22.81925583   0.11032537
4192.00   22.75874710   0.11002323
4194.00   22.68076706   0.10968049
4196.00   22.73099709   0.10961901
4198.00   22.88691139   0.10978720
4200.00   22.91855240   0.10969824
4202.00   22.70209122   0.10906937
4204.00   22.79483414   0.10911439
4206.00   22.95118523   0.10936188
4208.00   22.90010071   0.10905407
4210.00   22.96078682   0.10904127
4212.00   22.83551788   0.10862602
4214.00   22.92298317   0.10861894
4216.00   22.59482765   0.10771366
4218.00   22.67402458   0.10771380
4220.00   22.69146538   0.10758020
4222.00   22.72780800   0.10750733
4224.00   22.61893082   0.10705263
4226.00   22.45116806   0.10655535
4228.00   22.24396896   0.10595834
4230.00   22.13106728   0.10549130
4232.00   21.96996689   0.10502432
4234.00   21.86763573   0.10464951
4236.00   21.63589668   0.10392055
4238.00   21.55885887   0.10365302
4240.00   21.37835693   0.10300841
4242.00   21.06918716   0.10209461
4244.00   20.73060989   0.10135651
4246.00   20.52873421   0.10094827
4248.00   20.26069832   0.10003460
4250.00   19.72877502   0.09841023
4252.00   19.70451355   0.09817086
4254.00   19.38190842   0.09722569
4256.00   19.03535461   0.09625392
4258.00   18.61742783   0.09504894
4260.00   18.36540604   0.09429082
4262.00   18.21061325   0.09375180
4264.00   17.70710182   0.09232965
4266.00   17.49367523   0.09164394
4268.00   17.25782967   0.09090181
4270.00   16.69612122   0.08938679
4272.00   16.39376450   0.08850642
4274.00   16.10416603   0.08755615
4276.00   15.80266666   0.08667605
4278.00   15.39281464   0.08550552
4280.00   15.05805683   0.08446467
4282.00   14.84147549   0.08374921
4284.00   14.63119507   0.08304144
4286.00   14.49898720   0.08250841
4288.00   14.20573235   0.08157960
4290.00   13.90745258   0.08065163
4292.00   13.62351131   0.07982054
4294.00   13.39873505   0.07901480
4296.00   13.35949326   0.07878908
4298.00   13.06493092   0.07776441
4300.00   12.82528400   0.07701785
4302.00   12.66696453   0.07642230
4304.00   12.56624699   0.07601795
4306.00   12.34833813   0.07543054
4308.00   12.07399368   0.07445260
4310.00   11.88881683   0.07381452
4312.00   11.83685112   0.07380929
4314.00   11.55395126   0.07299713
4316.00   11.42714500   0.07239779
4318.00   11.22511959   0.07168933
4320.00   11.09073925   0.07120740
4322.00   10.96645641   0.07068969
4324.00   10.81003380   0.07008655
4326.00   10.61390495   0.06938268
4328.00   10.77514935   0.06964543
4330.00   10.69400978   0.06934360
4332.00   10.43521881   0.06843628
4334.00   10.43185806   0.06834640
4336.00   10.25802135   0.06773485
4338.00   10.23861790   0.06760515
4340.00   10.26224136   0.06771011
4342.00   10.18117428   0.06733381
4344.00   10.18369865   0.06731856
4346.00   10.14007473   0.06729982
4348.00   10.08651257   0.06706899
4350.00   9.94497871   0.06645127
4352.00   9.96531391   0.06639845
4354.00   9.96150303   0.06698631
4356.00   10.02355480   0.07095236
4358.00   10.01659870   0.07298155
4360.00   10.03485966   0.07085624
4362.00   9.94824409   0.06742932
4364.00   9.98571110   0.06629009
4366.00   10.09990215   0.06635811
4368.00   10.06659126   0.06608613
4370.00   10.19079018   0.06641267
4372.00   10.20339394   0.06642506
4374.00   10.35362816   0.06694786
4376.00   10.33206367   0.06666607
4378.00   10.46574783   0.06688658
4380.00   10.65631771   0.06730918
4382.00   10.61070347   0.06708685
4384.00   10.79582596   0.06750822
4386.00   10.94819164   0.06783262
4388.00   11.03158474   0.06806426
4390.00   11.25519466   0.06868365
4392.00   11.44908810   0.06911929
4394.00   11.57388306   0.06938065
4396.00   11.70021343   0.06970837
4398.00   11.95659924   0.07042802
4400.00   12.07395744   0.07071218
4402.00   12.29951382   0.07129779
4404.00   12.44801235   0.07155313
4406.00   12.66243839   0.07202283
4408.00   12.84335709   0.07250328
4410.00   12.93146515   0.07269664
4412.00   13.12849522   0.07314678
4414.00   13.37543964   0.07377584
4416.00   13.69947433   0.07454970
4418.00   13.77358913   0.07463562
4420.00   14.02607727   0.07512536
4422.00   14.21274567   0.07551696
4424.00   14.44450951   0.07601897
4426.00   14.69939613   0.07657782
4428.00   14.75274944   0.07660194
4430.00   15.24312115   0.07772718
4432.00   15.55222607   0.07841809
4434.00   15.79708004   0.07891802
4436.00   16.01939583   0.07940589
4438.00   16.30097198   0.07994288
4440.00   16.48138428   0.08034453
4442.00   17.04308510   0.08158431
4444.00   17.28277588   0.08202597
4446.00   17.48770714   0.08239477
4448.00   17.96029091   0.08335556
4450.00   18.31884956   0.08408713
4452.00   18.69174385   0.08482832
4454.00   18.97649384   0.08531463
4456.00   19.35011482   0.08605333
4458.00   19.70932388   0.08675112
4460.00   19.98270798   0.08725972
4462.00   20.35044670   0.08792023
4464.00   20.64115715   0.08843859
4466.00   20.85841560   0.08883010
4468.00   21.31474876   0.08966083
4470.00   21.57642365   0.09014243
4472.00   21.89069748   0.09068509
4474.00   22.21625137   0.09125831
4476.00   22.39009476   0.09154766
4478.00   22.68727684   0.09206358
4480.00   22.96306038   0.09248547
4482.00   23.24656868   0.09292494
4484.00   23.46368217   0.09332336
4486.00   24.00551796   0.09428450
4488.00   24.05395508   0.09431900
4490.00   24.35799026   0.09480654
4492.00   24.60071564   0.09518429
4494.00   24.77042770   0.09541773
4496.00   25.05866432   0.09589713
4498.00   25.20678329   0.09607589
4500.00   25.43009377   0.09643315
4502.00   25.52325439   0.09651199
4504.00   25.71883965   0.09678090
4506.00   25.99017906   0.09717694
4508.00   26.13818169   0.09739491
4510.00   26.27010918   0.09754628
4512.00   26.58016396   0.09799597
4514.00   26.39926720   0.09765678
4516.00   26.55257225   0.09777002
4518.00   26.65550041   0.09793246
4520.00   26.76907730   0.09806808
4522.00   26.77927589   0.09796450
4524.00   27.01468849   0.09829061
4526.00   27.08462524   0.09836654
4528.00   27.36034393   0.09880729
4530.00   27.40377235   0.09883257
4532.00   27.44963264   0.09882911
4534.00   27.57179451   0.09897413
4536.00   27.64818382   0.09905286
4538.00   27.61937904   0.09896162
4540.00   27.62394524   0.09890391
4542.00   27.74929428   0.09906109
4544.00   27.73357201   0.09896836
4546.00   27.72131729   0.09887720
4548.00   27.87014771   0.09900363
4550.00   27.61698914   0.09855264
4552.00   27.57878876   0.09839813
4554.00   27.59934616   0.09837264
4556.00   27.37096596   0.09790850
4558.00   27.23546791   0.09762599
4560.00   27.00148582   0.09715009
4562.00   26.80281258   0.09671619
4564.00   26.67919731   0.09645670
4566.00   26.54514503   0.09614401
4568.00   26.52294540   0.09606289
4570.00   26.40979385   0.09579479
4572.00   26.30418968   0.09554431
4574.00   26.11886978   0.09518170
4576.00   25.89068031   0.09477239
4578.00   25.60588646   0.09418385
4580.00   25.39803505   0.09376110
4582.00   25.30809593   0.09353618
4584.00   25.20934486   0.09330057
4586.00   24.87678909   0.09266598
4588.00   24.67765999   0.09227978
4590.00   24.45442963   0.09183605
4592.00   24.23335075   0.09141881
4594.00   24.16178513   0.09121771
4596.00   23.97739983   0.09083803
4598.00   23.64897537   0.09018343
4600.00   23.52672768   0.08992594
4602.00   23.46693230   0.08951096
4604.00   23.25878906   0.08901661
4606.00   22.96109390   0.08842525
4608.00   22.75226784   0.08804645
4610.00   22.67963982   0.08787911
4612.00   22.33686829   0.08714657
4614.00   22.22788429   0.08691871
4616.00   22.12092400   0.08668187
4618.00   21.86644554   0.08615160
4620.00   21.71528816   0.08585230
4622.00   21.73173332   0.08584829
4624.00   21.15749550   0.08470806
4626.00   21.12805176   0.08459371
4628.00   20.89612198   0.08414540
4630.00   20.73269081   0.08357015
4632.00   20.49610519   0.08775167
4634.00   20.33504486   0.08468994
4636.00   20.10727310   0.08491747
4638.00   19.82279778   0.08303247
4640.00   19.58457756   0.08158755
4642.00   19.15485382   0.08043258
4644.00   19.15896416   0.08039906
4646.00   18.79661179   0.08115116
4648.00   18.59074783   0.08066883
4650.00   18.11618042   0.07811855
4652.00   17.97968674   0.07790435
4654.00   17.70620537   0.07730273
4656.00   17.43014717   0.07671767
4658.00   17.18772697   0.07620400
4660.00   17.10402489   0.07605156
4662.00   16.78185463   0.07533525
4664.00   16.57074165   0.07492363
4666.00   16.27505684   0.07419728
4668.00   16.22208595   0.07396656
4670.00   15.87592983   0.07536125
4672.00   15.71062851   0.07298481
4674.00   15.55303288   0.07250831
4676.00   15.33563614   0.07211999
4678.00   15.09663105   0.07231785
4680.00   14.85643768   0.07162865
4682.00   14.68229389   0.07033309
4684.00   14.67804050   0.07029277
4686.00   14.48015976   0.06983212
4688.00   14.29080391   0.06937134
4690.00   14.18098068   0.06907731
4692.00   14.05503273   0.06877502
4694.00   13.92898178   0.06844952
4696.00   13.63405609   0.06770613
4698.00   13.60000706   0.06758134
4700.00   13.37155151   0.06701781
4702.00   13.25341988   0.06673338
4704.00   13.08151722   0.06627607
4706.00   12.73915005   0.06543254
4708.00   12.71424198   0.06538990
4710.00   12.54638577   0.06501222
4712.00   12.38512611   0.06453101
4714.00   12.26853275   0.06423149
4716.00   12.09796333   0.06376714
4718.00   12.12135315   0.06377576
4720.00   11.89267445   0.06321863
4722.00   11.83743382   0.06304741
4724.00   11.69777679   0.06267317
4726.00   11.45331860   0.06210471
4728.00   11.44906902   0.06211989
4730.00   11.38215351   0.06191170
4732.00   11.14001274   0.06129950
4734.00   11.06525517   0.06112189
4736.00   10.88873577   0.06066046
4738.00   10.84280586   0.06057945
4740.00   10.78094196   0.06048185
4742.00   10.75925350   0.06045375
4744.00   10.39217758   0.05939994
4746.00   10.34200478   0.05911487
4748.00   10.20456409   0.05863333
4750.00   10.34553719   0.05897991
4752.00   10.26295853   0.05876565
4754.00   10.09263897   0.05830048
4756.00   10.11869240   0.05826784
4758.00   9.99444962   0.05786720
4760.00   9.89968967   0.05756212
4762.00   9.85639954   0.05743697
4764.00   9.86314297   0.05739910
4766.00   9.72803879   0.05698665
4768.00   9.59724808   0.05663170
4770.00   9.66841221   0.05682880
4772.00   9.61820221   0.05671054
4774.00   9.55987358   0.05651768
4776.00   9.49207973   0.05634600
4778.00   9.48104191   0.05638752
4780.00   9.53408527   0.05648123
4782.00   9.47714710   0.05629179
4784.00   9.54537582   0.05642416
4786.00   9.59199524   0.05653091
4788.00   9.54828644   0.05641282
4790.00   9.49205875   0.05625576
4792.00   9.59674454   0.05649785
4794.00   9.49358654   0.05618299
4796.00   9.53607655   0.05627607
4798.00   9.53417778   0.05620741
4800.00   9.66880703   0.05660562
4802.00   9.68007183   0.05661134
4804.00   9.73760605   0.05673008
4806.00   9.86599159   0.05710686
4808.00   9.94473267   0.05732459
4810.00   9.92529774   0.05720378
4812.00   10.08255005   0.05763034
4814.00   10.11839104   0.05769828
4816.00   10.27262402   0.05811048
4818.00   10.37683105   0.05840370
4820.00   10.40113163   0.05850677
4822.00   10.40616989   0.05846583
4824.00   10.53406048   0.05878227
4826.00   10.62505341   0.05900348
4828.00   10.67482567   0.05909709
4830.00   10.72280025   0.05921631
4832.00   10.86398411   0.05954680
4834.00   10.83851910   0.05948942
4836.00   10.89443588   0.05957894
4838.00   10.92767239   0.05968867
4840.00   10.94457245   0.05972633
4842.00   11.01717949   0.05988067
4844.00   11.13625050   0.06008818
4846.00   11.20210838   0.06025942
4848.00   11.13720989   0.06005869
4850.00   11.26308250   0.06039848
4852.00   11.16780663   0.06008075
4854.00   11.19695091   0.06010569
4856.00   11.07184982   0.05970605
4858.00   11.10315418   0.05978267
4860.00   11.09093094   0.05978976
4862.00   10.93598080   0.05933301
4864.00   10.87703037   0.05916224
4866.00   10.88117027   0.05913716
4868.00   10.78517056   0.05885351
4870.00   10.59168148   0.05829285
4872.00   10.59616947   0.05828307
4874.00   10.58450317   0.05827848
4876.00   10.29998016   0.05746204
4878.00   10.30459976   0.05745501
4880.00   10.15331078   0.05709107
4882.00   10.13852978   0.05698591
4884.00   10.08197594   0.05675893
4886.00   9.88526249   0.05622185
4888.00   9.87101841   0.05612807
4890.00   9.87874889   0.05611030
4892.00   9.72708797   0.05567623
4894.00   9.70673180   0.05559464
4896.00   9.70290375   0.05555672
4898.00   9.53664684   0.05502803
4900.00   9.52161598   0.05498990
4902.00   9.54564190   0.05498926
4904.00   9.55502415   0.05499037
4906.00   9.44324589   0.05471267
4908.00   9.36743641   0.05449881
4910.00   9.28765678   0.05424695
4912.00   9.31271172   0.05430567
4914.00   9.32066250   0.05426692
4916.00   9.30267429   0.05417318
4918.00   9.27812862   0.05405918
4920.00   9.24372005   0.05394660
4922.00   9.26873875   0.05397955
4924.00   9.27129936   0.05394122
4926.00   9.30813122   0.05396085
4928.00   9.23779869   0.05379691
4930.00   9.17512703   0.05356183
4932.00   9.24075794   0.05370915
4934.00   9.17500591   0.05350776
4936.00   9.16294479   0.05346741
4938.00   9.18775654   0.05351971
4940.00   9.14732933   0.05340590
4942.00   9.13001442   0.05335447
4944.00   9.06929111   0.05311655
4946.00   9.18878651   0.05340600
4948.00   9.17718792   0.05335202
4950.00   9.16900158   0.05334428
4952.00   9.31054401   0.05373497
4954.00   9.21334743   0.05346167
4956.00   9.29155731   0.05362367
4958.00   9.20629883   0.05339208
4960.00   9.31563377   0.05371667
4962.00   9.42213345   0.05396483
4964.00   9.30351830   0.05365986
4966.00   9.27543926   0.05361838
4968.00   9.33691120   0.05379064
4970.00   9.36602497   0.05390389
4972.00   9.33411884   0.05381744
4974.00   9.35358143   0.05392443
4976.00   9.37640476   0.05410114
4978.00   9.33942986   0.05407245
4980.00   9.34972954   0.05419064
4982.00   9.47692680   0.05464160
4984.00   9.36837578   0.05434743
4986.00   9.45300674   0.05450676
4988.00   9.37373447   0.05420630
4990.00   9.36479568   0.05410258
4992.00   9.34500599   0.05394861
4994.00   9.30708694   0.05372975
4996.00   9.43705273   0.05399599
4998.00   9.38178444   0.05380765
5000.00   9.45193100   0.05394845
5002.00   9.30844116   0.05354685
5004.00   9.32381058   0.05354365
5006.00   9.23058891   0.05332954
5008.00   9.30494022   0.05368923
5010.00   9.29637432   0.05364543
5012.00   9.29545784   0.05362120
5014.00   9.29226398   0.05358703
5016.00   9.25874519   0.05354773
5018.00   9.30384731   0.05372172
5020.00   9.28458118   0.05368377
5022.00   9.26368427   0.05358300
5024.00   9.29967213   0.05365520
5026.00   9.45047283   0.05409352
5028.00   9.38481331   0.05391629
5030.00   9.38579369   0.05394461
5032.00   9.42907047   0.05405468
5034.00   9.42807579   0.05403622
5036.00   9.57418728   0.05443878
5038.00   9.66282463   0.05469680
5040.00   9.66289043   0.05462652
5042.00   9.66121387   0.05464076
5044.00   9.76480675   0.05490094
5046.00   9.83934402   0.05517566
5048.00   9.89841747   0.05527254
5050.00   9.98313522   0.05551675
5052.00   10.06525993   0.05571844
5054.00   10.20089722   0.05610572
5056.00   10.26289082   0.05623735
5058.00   10.47257900   0.05682912
5060.00   10.51824188   0.05693683
5062.00   10.63193989   0.05722954
5064.00   10.76072407   0.05762493
5066.00   10.82862091   0.05785937
5068.00   10.96129799   0.05821005
5070.00   11.03046036   0.05835246
5072.00   11.17817783   0.05869778
5074.00   11.27114391   0.05890655
5076.00   11.43209934   0.05931537
5078.00   11.57870865   0.05971998
5080.00   11.72465038   0.06018391
5082.00   11.83035469   0.06061365
5084.00   11.93582535   0.06103076
5086.00   12.10498524   0.06141790
5088.00   12.30030918   0.06175235
5090.00   12.43399906   0.06191573
5092.00   12.62122631   0.06221706
5094.00   12.73268509   0.06242703
5096.00   12.98947525   0.06308388
5098.00   13.17644787   0.06352226
5100.00   13.41511726   0.06407357
5102.00   13.59596825   0.06439702
5104.00   13.78883743   0.06481292
5106.00   13.97551537   0.06518854
5108.00   14.17709923   0.06558540
5110.00   14.41007137   0.06611309
5112.00   14.44959831   0.06618257
5114.00   14.72988319   0.06679851
5116.00   15.00435066   0.06740766
5118.00   15.09874439   0.06759480
5120.00   15.19635677   0.06777520
5122.00   15.45190716   0.06830287
5124.00   15.61987782   0.06863506
5126.00   16.01144981   0.06943396
5128.00   16.20303726   0.06986880
5130.00   16.34542656   0.07017082
5132.00   16.53355217   0.07052065
5134.00   16.79882240   0.07228474
5136.00   17.03542519   0.07281663
5138.00   17.13058662   0.07174820
5140.00   17.36985397   0.07223814
5142.00   17.49637985   0.07248593
5144.00   17.77172852   0.07302848
5146.00   18.02469444   0.07355400
5148.00   18.04404449   0.07356481
5150.00   18.41408920   0.07434438
5152.00   18.42547607   0.07440571
5154.00   18.62475777   0.07478470
5156.00   18.84335899   0.07515907
5158.00   19.10253906   0.07698422
5160.00   19.28313828   0.07693852
5162.00   19.45064163   0.07624532
5164.00   19.44003105   0.07618405
5166.00   19.72287369   0.07669368
5168.00   19.83852196   0.07685196
5170.00   20.06647873   0.07727329
5172.00   20.35454559   0.07777044
5174.00   20.33769989   0.07774377
5176.00   20.46275330   0.07798287
5178.00   20.67659760   0.07834948
5180.00   20.87512207   0.07867385
5182.00   20.90841675   0.07868906
5184.00   20.87156487   0.07859566
5186.00   21.10741234   0.07903878
5188.00   21.16569901   0.07912328
5190.00   21.23785973   0.07921023
5192.00   21.17706490   0.07906023
5194.00   21.33248138   0.07929255
5196.00   21.33697510   0.07931566
5198.00   21.22465134   0.07908695
5200.00   21.31774712   0.07922819
5202.00   21.40594292   0.07933501
5204.00   21.43350410   0.07933168
5206.00   21.49657440   0.07941929
5208.00   21.40657997   0.07923837
5210.00   21.54001427   0.07942038
5212.00   21.22068214   0.07882407
5214.00   21.34789848   0.07902443
5216.00   21.37123299   0.07900206
5218.00   21.40696144   0.07906239
5220.00   21.17777061   0.07861339
5222.00   21.23062706   0.07868929
5224.00   21.20518494   0.07858901
5226.00   21.02959824   0.07820342
5228.00   21.11933708   0.07834972
5230.00   20.90463257   0.07788293
5232.00   20.91704369   0.07789365
5234.00   20.79280472   0.07766184
5236.00   20.66792488   0.07739787
5238.00   20.66118050   0.07736412
5240.00   20.57938576   0.07717180
5242.00   20.52325439   0.07698710
5244.00   20.34399223   0.07664009
5246.00   20.25552940   0.07644486
5248.00   20.12038803   0.07615089
5250.00   20.04711151   0.07594278
5252.00   19.94254112   0.07572321
5254.00   19.84069443   0.07549711
5256.00   19.78276443   0.07537192
5258.00   19.61394310   0.07503735
5260.00   19.57382584   0.07486691
5262.00   19.34416199   0.07438553
5264.00   19.32962799   0.07431917
5266.00   19.16809464   0.07396468
5268.00   19.28143120   0.07410653
5270.00   19.16471100   0.07385743
5272.00   18.96368027   0.07347637
5274.00   18.79931641   0.07312761
5276.00   18.81744003   0.07316480
5278.00   18.62285805   0.07276442
5280.00   18.53557587   0.07259686
5282.00   18.61522865   0.07269670
5284.00   18.41848946   0.07233380
5286.00   18.34200859   0.07212815
5288.00   18.18496704   0.07184204
5290.00   18.13910294   0.07173654
5292.00   18.02090263   0.07149435
5294.00   17.97380257   0.07138486
5296.00   17.86919594   0.07117512
5298.00   17.95408058   0.07136003
5300.00   17.75885201   0.07096116
5302.00   17.72197533   0.07088427
5304.00   17.53952599   0.07051167
5306.00   17.65200043   0.07075209
5308.00   17.54581070   0.07055471
5310.00   17.45911598   0.07041691
5312.00   17.35653687   0.07029844
5314.00   17.49367905   0.07239331
5316.00   17.31611824   0.07003414
5318.00   17.31012535   0.07013400
5320.00   17.27794838   0.07010456
5322.00   17.28187180   0.07014779
5324.00   17.18579483   0.06995599
5326.00   17.19940567   0.07000398
5328.00   17.17186356   0.06998385
5330.00   17.21582222   0.07012012
5332.00   17.13666153   0.06996485
5334.00   17.16472816   0.07007063
5336.00   17.01524734   0.06979464
5338.00   16.97710609   0.06976537
5340.00   17.03074646   0.06992440
5342.00   17.12384033   0.07014958
5344.00   17.02803421   0.06993493
5346.00   16.86895561   0.06969751
5348.00   16.89829445   0.06981769
5350.00   16.94250488   0.06993952
5352.00   16.83072853   0.06979038
5354.00   16.71756744   0.06961259
5356.00   16.79127693   0.06976887
5358.00   16.65477943   0.06952034
5360.00   16.58768654   0.06941541
5362.00   16.51579094   0.06929022
5364.00   16.43426704   0.06914496
5366.00   16.39250183   0.06913194
5368.00   16.37790680   0.06915402
5370.00   16.42443657   0.06928362
5372.00   16.35176086   0.06923884
5374.00   16.19772720   0.06905603
5376.00   16.29974556   0.06935528
5378.00   16.18932915   0.06921633
5380.00   16.08088112   0.06910163
5382.00   16.08759308   0.06922983
5384.00   16.09671593   0.06935320
5386.00   15.94723034   0.06920128
5388.00   15.96534920   0.06940867
5390.00   15.97266674   0.06959990
5392.00   15.77651119   0.06938040
5394.00   15.92154980   0.06986762
5396.00   15.97871876   0.07013900
5398.00   15.73922157   0.06987926
5400.00   15.71133423   0.07003983
5402.00   15.71596813   0.07027333
5404.00   15.57774639   0.07019527
5406.00   15.71393204   0.07070842
5408.00   15.76325035   0.07110288
5410.00   15.60149097   0.07102101
5412.00   15.52732944   0.07115495
5414.00   15.75483990   0.07191321
5416.00   15.51769257   0.07334815
5418.00   15.59111214   0.07642416
5420.00   15.73590279   0.07363369
5422.00   15.75091839   0.07673834
5424.00   15.66379261   0.07316416
5426.00   15.79311180   0.07670430
5428.00   15.59724331   0.07839648
5430.00   15.65154743   0.07485129
5432.00   15.57505512   0.07497932
5434.00   15.63357258   0.07626083
5436.00   15.47009659   0.07464755
5438.00   15.32624245   0.07868346
5440.00   15.53642273   0.08056156
5442.00   15.54340839   0.07735073
5444.00   15.43926144   0.07573689
5446.00   15.46832466   0.07613654
5448.00   15.53675747   0.07662532
5450.00   15.52674484   0.07686344
5452.00   15.42847347   0.07747865
5454.00   15.50078869   0.07798371
5456.00   15.42616844   0.07764178
5458.00   15.33947754   0.07869251
5460.00   15.23706150   0.07959356
5462.00   15.36077499   0.08004252
5464.00   15.27172184   0.07951296
5466.00   15.25161648   0.07920982
5468.00   15.20040512   0.07896130
5470.00   15.27948284   0.07902637
5472.00   15.35514069   0.07919582
5474.00   15.15797329   0.07882015
5476.00   15.19815445   0.07899236
5478.00   15.41327095   0.07970163
5480.00   15.27341366   0.07955401
5482.00   15.21694374   0.07964449
5484.00   15.15085888   0.07961269
5486.00   15.14834690   0.07978975
5488.00   15.14583874   0.07985027
5490.00   15.05130196   0.07975405
5492.00   14.98425102   0.07966332
5494.00   15.17925167   0.08024008
5496.00   15.00035954   0.07992530
5498.00   15.14034271   0.08041662
5500.00   15.27348804   0.08086739
5502.00   15.12377357   0.08061770
5504.00   15.12370968   0.08076041
5506.00   15.16996098   0.08104701
5508.00   15.16810608   0.08111816
5510.00   15.19873428   0.08137086
5512.00   15.21559811   0.08158147
5514.00   15.20012951   0.08175006
5516.00   15.36957264   0.08231722
5518.00   15.45246315   0.08275117
5520.00   15.39269161   0.08279269
5522.00   15.47549629   0.08314105
5524.00   15.52672958   0.08340062
5526.00   15.40052891   0.08322138
5528.00   15.45066071   0.08352175
5530.00   15.62929249   0.08409289
5532.00   15.55659008   0.08403417
5534.00   15.55013084   0.08419482
5536.00   15.56604004   0.08447319
5538.00   15.67642689   0.08497050
5540.00   15.70144939   0.08518645
5542.00   15.70768547   0.08547659
5544.00   15.79012489   0.08583413
5546.00   15.94696617   0.08640438
5548.00   15.86492538   0.08638972
5550.00   15.80850124   0.08635732
5552.00   16.05676460   0.08719558
5554.00   15.96501637   0.08707212
5556.00   15.95930386   0.08732197
5558.00   16.08362389   0.08778571
5560.00   16.09902000   0.08804151
5562.00   16.09944153   0.08818226
5564.00   15.98305798   0.08808063
5566.00   15.99802303   0.08828142
5568.00   16.04984474   0.08857129
5570.00   16.16758537   0.08915128
5572.00   16.04135132   0.08937770
5574.00   16.15945244   0.09339304
5576.00   16.36509895   0.09771647
5578.00   16.35148811   0.09833658
5580.00   16.11308479   0.09587503
5582.00   16.21956444   0.09502917
5584.00   16.38111877   0.09444617
5586.00   16.33217239   0.09363382
5588.00   16.37187767   0.09306193
5590.00   16.26663780   0.09238563
5592.00   16.21100807   0.09253641
5594.00   16.43494415   0.12219387
5596.00   16.36039925   0.12330290
5598.00   16.28383827   0.12064284
5600.00   16.30043983   0.11966532
5602.00   16.37582970   0.11963677
5604.00   16.40268135   0.11889557
5606.00   16.43056107   0.11747497
5608.00   16.43707466   0.11704779
5610.00   16.40250397   0.11722141
5612.00   16.35229301   0.11768837
5614.00   16.37790680   0.11944932
5616.00   16.40268326   0.11732554
5618.00   16.37216759   0.11486254
5620.00   16.34729576   0.11371400
5622.00   16.39839935   0.11401295
5624.00   16.53906441   0.11307117
5626.00   16.57727051   0.11370265
5628.00   16.55170059   0.11264423
5630.00   16.48313522   0.11081561
5632.00   16.41861153   0.11015451
5634.00   16.23616791   0.10873266
5636.00   16.17746162   0.10858604
5638.00   16.23256493   0.10935616
5640.00   16.23722839   0.10884196
5642.00   16.08584976   0.10634758
5644.00   15.89747334   0.10523375
5646.00   15.86837769   0.10479754
5648.00   15.78433228   0.10416444
5650.00   15.58983612   0.10317788
5652.00   15.33697891   0.10210093
5654.00   15.24048710   0.10132328
5656.00   15.11109829   0.10058475
5658.00   14.87463284   0.10119846
5660.00   14.54738331   0.10325947
5662.00   14.18605709   0.10565034
5664.00   13.91003895   0.10971209
5666.00   13.70875263   0.11462011
5668.00   13.52406311   0.11774522
5670.00   13.30431271   0.12070835
5672.00   13.18171406   0.13329577
5674.00   13.13294697   0.13044854
5676.00   13.00466824   0.13151456
5678.00   12.92908478   0.13277470
5680.00   13.06576538   0.13656151
5682.00   12.80363941   0.15965271
5684.00   13.13423538   0.14664108
5686.00   13.47711182   0.15118223
5688.00   13.94106293   0.16500512
5690.00   13.93505764   0.14248590
5692.00   14.20030403   0.13863157
5694.00   15.65767670   0.13446221
5696.00   16.40143013   0.11643962
5698.00   16.49930000   0.11030438
5700.00   16.34543419   0.10413799
5702.00   16.31714821   0.10041937
5704.00   16.37259674   0.09854826
5706.00   16.44978523   0.09812716
5708.00   16.55137825   0.09826896
5710.00   16.62217712   0.09821648
5712.00   16.61841011   0.09798596
5714.00   16.61497498   0.09774367
5716.00   16.60864258   0.09747116
5718.00   16.62239075   0.09724153
5720.00   16.61946297   0.09697733
5722.00   16.55470848   0.09655807
5724.00   16.46674538   0.09606724
5726.00   16.38728905   0.09560709
5728.00   16.33343315   0.09524563
5730.00   16.31424522   0.09499168
5732.00   16.22596550   0.09452125
5734.00   16.14637184   0.09406269
5736.00   16.08499146   0.09368382
5738.00   16.01374817   0.09331363
5740.00   15.98669529   0.09303918
5742.00   15.96568298   0.09281224
5744.00   15.87618923   0.09241900
5746.00   15.75645924   0.09193718
5748.00   15.73597813   0.09170283
5750.00   15.76030731   0.09162938
5752.00   15.67860508   0.09129018
5754.00   15.61638355   0.09101793
5756.00   15.61315918   0.09089339
5758.00   15.59747410   0.09071147
5760.00   15.52146053   0.09042197
5762.00   15.49221516   0.09026245
5764.00   15.46705627   0.09013597
5766.00   15.45705795   0.09007856
5768.00   15.38808537   0.08983755
5770.00   15.37615204   0.08971148
5772.00   15.33691883   0.08946714
5774.00   15.32949162   0.08925869
5776.00   15.34377670   0.08906663
5778.00   15.28113079   0.08864316
5780.00   15.21590137   0.08829733
5782.00   15.18420792   0.08804294
5784.00   15.18972683   0.08812889
5786.00   15.23741245   0.08852962
5788.00   15.23237514   0.08845397
5790.00   15.24886608   0.08810714
5792.00   15.25907516   0.08790424
5794.00   15.25041866   0.08775901
5796.00   15.22725010   0.08750514
5798.00   15.21152496   0.08724286
5800.00   15.24215698   0.08711172
5802.00   15.28218842   0.08704276
5804.00   15.25352955   0.08683274
5806.00   15.25393200   0.08670351
5808.00   15.26249409   0.08661360
5810.00   15.31031513   0.08661317
5812.00   15.36559296   0.08664483
5814.00   15.36871243   0.08656377
5816.00   15.28463745   0.08624687
5818.00   15.33528614   0.08628762
5820.00   15.36357880   0.08627528
5822.00   15.36768818   0.08621601
5824.00   15.35227680   0.08611540
5826.00   15.39516830   0.08614945
5828.00   15.36915112   0.08601260
5830.00   15.39117336   0.08599911
5832.00   15.44029236   0.08606241
5834.00   15.48455715   0.08612334
5836.00   15.53492451   0.08620548
5838.00   15.57877827   0.08625685
5840.00   15.57819843   0.08620582
5842.00   15.52942944   0.08604032
5844.00   15.51573086   0.08596478
5846.00   15.53855610   0.08600184
5848.00   15.56997681   0.08601716
5850.00   15.59971142   0.08601663
5852.00   15.63533401   0.08606189
5854.00   15.64296246   0.08606871
5856.00   15.66419220   0.08609674
5858.00   15.68022919   0.08612549
5860.00   15.71792316   0.08621759
5862.00   15.73725605   0.08627045
5864.00   15.74342442   0.08630771
5866.00   15.79215717   0.08638825
5868.00   15.81383801   0.08638776
5870.00   15.77537251   0.08626404
5872.00   15.74531078   0.08621059
5874.00   15.75955200   0.08631095
5876.00   15.75485992   0.08647605
5878.00   15.71893311   0.08663186
5880.00   15.67019272   0.08683307
5882.00   15.59589386   0.08713579
5884.00   15.54316044   0.08794526
5886.00   15.46259594   0.08912339
5888.00   15.30481625   0.09047300
5890.00   15.10424900   0.09181655
5892.00   14.96831799   0.09280022
5894.00   15.02481747   0.09268776
5896.00   15.17144108   0.09046136
5898.00   15.35151958   0.08946783
5900.00   15.50157547   0.08824908
5902.00   15.50390911   0.08732502
5904.00   15.54708099   0.08989248
5906.00   15.64083385   0.08761239
5908.00   15.70252895   0.08777241
5910.00   15.66222763   0.08806112
5912.00   15.67414093   0.08647173
5914.00   15.66987133   0.08543891
5916.00   15.65090656   0.08511945
5918.00   15.60779953   0.08511707
5920.00   15.54928112   0.08492780
5922.00   15.47741985   0.08472516
5924.00   15.43140697   0.08457273
5926.00   15.40798950   0.08447349
5928.00   15.39986420   0.08444204
5930.00   15.35408783   0.08435405
5932.00   15.35002136   0.08432698
5934.00   15.30899143   0.08411837
5936.00   15.21421337   0.08406639
5938.00   15.11233997   0.08418077
5940.00   14.96997356   0.08331531
5942.00   14.82530880   0.08260855
5944.00   14.66123962   0.08227325
5946.00   14.52884293   0.08208940
5948.00   14.45291519   0.08193406
5950.00   14.34805679   0.08188128
5952.00   14.19646740   0.08156338
5954.00   14.09197330   0.08126117
5956.00   14.01905537   0.08126415
5958.00   13.92282200   0.08150505
5960.00   13.75862885   0.08129985
5962.00   13.48724461   0.08150410
5964.00   13.24203205   0.08078001
5966.00   13.04206562   0.07891508
5968.00   12.82321167   0.07648487
5970.00   12.57514191   0.07585237
5972.00   12.40307236   0.07536371
5974.00   12.18044281   0.07469691
5976.00   11.93614101   0.07393596
5978.00   11.70365524   0.07319728
5980.00   11.41888905   0.07229231
5982.00   11.21448517   0.07162456
5984.00   11.03327465   0.07103905
5986.00   10.81221008   0.07032480
5988.00   10.59351635   0.06958998
5990.00   10.30089474   0.06864687
5992.00   10.01053524   0.06768688
5994.00   9.79565716   0.06693390
5996.00   9.61934757   0.06629486
5998.00   9.32170963   0.06528129
6000.00   9.12710476   0.06458125
6002.00   8.93909168   0.06391475
6004.00   8.74383831   0.06322468
6006.00   8.53557873   0.06247496
6008.00   8.34893703   0.06177625
6010.00   8.15467358   0.06102375
6012.00   7.98861504   0.06039784
6014.00   7.83812523   0.05982691
6016.00   7.69347620   0.05924461
6018.00   7.50497007   0.05852813
6020.00   7.36894417   0.05800876
6022.00   7.25294685   0.05754865
6024.00   7.14373255   0.05708926
6026.00   7.01890039   0.05656555
6028.00   6.86193800   0.05598468
6030.00   6.74125433   0.05550567
6032.00   6.61590147   0.05497791
6034.00   6.48365927   0.05441135
6036.00   6.38252401   0.05398560
6038.00   6.23653984   0.05339168
6040.00   6.13129234   0.05295150
6042.00   6.01804543   0.05246210
6044.00   5.89635324   0.05190290
6046.00   5.82604551   0.05155359
6048.00   5.73689795   0.05117555
6050.00   5.64610434   0.05077707
6052.00   5.54344702   0.05032021
6054.00   5.44755316   0.04988651
6056.00   5.35523653   0.04946934
6058.00   5.27888298   0.04910362
6060.00   5.20424223   0.04877028
6062.00   5.12309980   0.04839961
6064.00   5.05258989   0.04805003
6066.00   4.95993137   0.04763880
6068.00   4.89037943   0.04730986
6070.00   4.85819101   0.04712345
6072.00   4.83346176   0.04695849
6074.00   4.78173447   0.04669843
6076.00   4.73617220   0.04647266
6078.00   4.75123358   0.04650518
6080.00   4.73589373   0.04641756
6082.00   4.68537521   0.04617673
6084.00   4.64858007   0.04599598
6086.00   4.68028450   0.04612374
6088.00   4.66239357   0.04604141
6090.00   4.62759209   0.04588215
6092.00   4.61377192   0.04581769
6094.00   4.61715746   0.04583944
6096.00   4.64592886   0.04598809
6098.00   4.65988302   0.04606470
6100.00   4.68409586   0.04620357
6102.00   4.72575426   0.04644794
6104.00   4.72328806   0.04648318
6106.00   4.72318554   0.04657368
6108.00   4.75171232   0.04684135
6110.00   4.80201674   0.04717789
6112.00   4.83722830   0.04736023
6114.00   4.83212376   0.04735985
6116.00   4.86653376   0.04747944
6118.00   4.96063995   0.04779179
6120.00   5.05324697   0.04805754
6122.00   5.09593153   0.04808958
6124.00   5.16526699   0.04823081
6126.00   5.23029661   0.04843138
6128.00   5.28750992   0.04863056
6130.00   5.35550880   0.04887241
6132.00   5.41518784   0.04908368
6134.00   5.51447725   0.04953177
6136.00   5.59249115   0.04998049
6138.00   5.67944336   0.05038230
6140.00   5.75053072   0.05066480
6142.00   5.78914642   0.05081837
6144.00   5.87184477   0.05114758
6146.00   5.97606468   0.05153965
6148.00   6.07428312   0.05192620
6150.00   6.15244293   0.05231777
6152.00   6.25308657   0.05286030
6154.00   6.31702423   0.05310698
6156.00   6.42357254   0.05352865
6158.00   6.54508257   0.05403753
6160.00   6.64289474   0.05441273
6162.00   6.75699282   0.05473144
6164.00   6.87299395   0.05508177
6166.00   6.97087526   0.05538931
6168.00   7.07319880   0.05570721
6170.00   7.20880461   0.05610962
6172.00   7.35035372   0.05654651
6174.00   7.45331812   0.05681486
6176.00   7.59246016   0.05762430
6178.00   7.75554895   0.05838013
6180.00   7.89805365   0.05854315
6182.00   7.99114084   0.05861715
6184.00   8.07316589   0.05890854
6186.00   8.21404362   0.05940994
6188.00   8.38688374   0.05998333
6190.00   8.47975254   0.06028463
6192.00   8.54538631   0.06046667
6194.00   8.65753269   0.06082039
6196.00   8.80167675   0.06128217
6198.00   8.89609337   0.06156340
6200.00   8.99699497   0.06189409
6202.00   9.14347839   0.06238068
6204.00   9.29598618   0.06286675
6206.00   9.41742802   0.06325653
6208.00   9.48589039   0.06346720
6210.00   9.61567688   0.06385558
6212.00   9.70625782   0.06411649
6214.00   9.81544018   0.06442967
6216.00   9.94394016   0.06479920
6218.00   10.03863430   0.06507625
6220.00   10.12335491   0.06533556
6222.00   10.22414207   0.06562532
6224.00   10.30856609   0.06585252
6226.00   10.40161991   0.06610836
6228.00   10.51354122   0.06643727
6230.00   10.63788128   0.06681854
6232.00   10.70669460   0.06708892
6234.00   10.79861069   0.06743587
6236.00   10.91604233   0.06782954
6238.00   10.96825314   0.06799922
6240.00   11.07271671   0.06828696
6242.00   11.19719219   0.06857916
6244.00   11.29388142   0.06875325
6246.00   11.35481167   0.06881687
6248.00   11.43070698   0.06896161
6250.00   11.52358246   0.06920198
6252.00   11.59151173   0.06938761
6254.00   11.65761948   0.06961497
6256.00   11.75218296   0.07000007
6258.00   11.93472290   0.07067624
6260.00   12.03676891   0.07093264
6262.00   12.06340790   0.07093862
6264.00   12.06343174   0.07080156
6266.00   12.09778309   0.07069247
6268.00   12.20610142   0.07101426
6270.00   12.31080914   0.07139514
6272.00   12.37401867   0.07158478
6274.00   12.41356373   0.07172170
6276.00   12.48649311   0.07218120
6278.00   12.48296070   0.07265572
6280.00   12.48876667   0.07302963
6282.00   12.52865887   0.07332999
6284.00   12.63357449   0.07357105
6286.00   12.77406979   0.07360734
6288.00   12.87404633   0.07362866
6290.00   12.94036961   0.07370777
6292.00   12.94029522   0.07365656
6294.00   12.91232204   0.07360368
6296.00   12.94715786   0.07402121
6298.00   13.01632214   0.07448509
6300.00   13.06816006   0.07472396
6302.00   13.09229279   0.07470932
6304.00   13.08605480   0.07450190
6306.00   13.13000774   0.07437322
6308.00   13.15272236   0.07391528
6310.00   13.15838718   0.07361840
6312.00   13.19037628   0.07352329
6314.00   13.26440525   0.07343986
6316.00   13.24481964   0.07327792
6318.00   13.22020340   0.07315906
6320.00   13.17898083   0.07297086
6322.00   13.19174671   0.07287545
6324.00   13.26313782   0.07294017
6326.00   13.30380917   0.07322167
6328.00   13.29407978   0.07323587
6330.00   13.30468845   0.07323154
6332.00   13.36494923   0.07330048
6334.00   13.41564274   0.07322825
6336.00   13.40050220   0.07355640
6338.00   13.35024261   0.07430395
6340.00   13.30586147   0.07440763
6342.00   13.25387859   0.07354319
6344.00   13.19455338   0.07330447
6346.00   13.23516083   0.07307709
6348.00   13.26388836   0.07280578
6350.00   13.28384781   0.07266933
6352.00   13.33759975   0.07285783
6354.00   13.35669422   0.07293571
6356.00   13.27990055   0.07267354
6358.00   13.24992847   0.07274631
6360.00   13.29337406   0.07319161
6362.00   13.33438587   0.07353552
6364.00   13.21704960   0.07303761
6366.00   13.14753437   0.07232210
6368.00   13.12379456   0.07184896
6370.00   13.11476612   0.07165280
6372.00   13.11539745   0.07155813
6374.00   13.15132427   0.07155993
6376.00   13.14472866   0.07150929
6378.00   13.09689331   0.07136672
6380.00   13.05277252   0.07122234
6382.00   13.06667995   0.07124069
6384.00   13.10287476   0.07130384
6386.00   13.10012722   0.07126361
6388.00   13.04604340   0.07108399
6390.00   12.98373318   0.07087004
6392.00   13.00904465   0.07087077
6394.00   12.96460819   0.07070331
6396.00   12.96479797   0.07067288
6398.00   12.97593212   0.07067912
6400.00   12.95730114   0.07060557
6402.00   12.93738270   0.07054389
6404.00   12.95882893   0.07057416
6406.00   12.93754673   0.07048216
6408.00   12.89880657   0.07034028
6410.00   12.89140797   0.07028838
6412.00   12.86338043   0.07021111
6414.00   12.85980225   0.07018406
6416.00   12.83310699   0.07008938
6418.00   12.78494740   0.06993707
6420.00   12.79746246   0.06994125
6422.00   12.84191036   0.07000870
6424.00   12.80037403   0.06986558
6426.00   12.73859024   0.06966928
6428.00   12.72285366   0.06959481
6430.00   12.72685623   0.06957247
6432.00   12.69684219   0.06947655
6434.00   12.63708115   0.06928729
6436.00   12.62360859   0.06922839
6438.00   12.63279438   0.06925032
6440.00   12.61293030   0.06918269
6442.00   12.60020924   0.06911822
6444.00   12.57870007   0.06904969
6446.00   12.55440521   0.06898346
6448.00   12.50691605   0.06884973
6450.00   12.50491619   0.06881788
6452.00   12.47104645   0.06872230
6454.00   12.45805359   0.06867194
6456.00   12.46085835   0.06866480
6458.00   12.41881561   0.06855740
6460.00   12.35750866   0.06840053
6462.00   12.28697586   0.06823506
6464.00   12.26537800   0.06820277
6466.00   12.26919556   0.06822758
6468.00   12.21095181   0.06806425
6470.00   12.15056515   0.06786939
6472.00   12.10173702   0.06768110
6474.00   12.05547047   0.06748748
6476.00   11.99156857   0.06725553
6478.00   11.92240810   0.06701776
6480.00   11.86854839   0.06682602
6482.00   11.85848522   0.06677280
6484.00   11.84529781   0.06671147
6486.00   11.80513000   0.06656713
6488.00   11.77709293   0.06646041
6490.00   11.77354050   0.06644524
6492.00   11.77451801   0.06645378
6494.00   11.74414539   0.06640992
6496.00   11.68990421   0.06633655
6498.00   11.60854053   0.06614435
6500.00   11.58744049   0.06612442
6502.00   11.61247730   0.06599930
6504.00   11.61814880   0.06615455
6506.00   11.49179459   0.06736378
6508.00   11.56427765   0.06712808
6510.00   11.34452724   0.06592844
6512.00   11.41942596   0.06515139
6514.00   11.42827988   0.06541727
6516.00   11.32491016   0.06542931
6518.00   11.19669056   0.06557234
6520.00   11.12472820   0.06614026
6522.00   11.12000370   0.06674241
6524.00   11.15038300   0.06685638
6526.00   11.15127850   0.06567443
6528.00   11.12720394   0.06447852
6530.00   11.14623642   0.06446423
6532.00   11.13700962   0.06435317
6534.00   11.04250622   0.06413990
6536.00   11.01723766   0.06394188
6538.00   10.95265675   0.06372179
6540.00   10.94292927   0.06369528
6542.00   10.94627094   0.06672852
6544.00   10.89888000   0.06365675
6546.00   10.79726028   0.06301129
6548.00   10.75235081   0.06294774
6550.00   10.70745182   0.06289572
6552.00   10.63613605   0.06268350
6554.00   10.60132885   0.06254316
6556.00   10.57757092   0.06247758
6558.00   10.55036163   0.06240708
6560.00   10.56304932   0.06242879
6562.00   10.55474758   0.06236277
6564.00   10.48608017   0.06212177
6566.00   10.42434216   0.06192945
6568.00   10.41342449   0.06181521
6570.00   10.40473747   0.06169766
6572.00   10.35387325   0.06150538
6574.00   10.28281498   0.06129265
6576.00   10.26697063   0.06124243
6578.00   10.25631618   0.06118085
6580.00   10.24040699   0.06108956
6582.00   10.23673153   0.06103155
6584.00   10.19740963   0.06084317
6586.00   10.15121460   0.06063557
6588.00   10.10199642   0.06045087
6590.00   10.07662868   0.06035080
6592.00   10.07314396   0.06032008
6594.00   10.03205681   0.06019620
6596.00   9.98956585   0.06007285
6598.00   9.95601654   0.05995478
6600.00   9.92232418   0.05982983
6602.00   9.89122868   0.05972630
6604.00   9.88979244   0.05969963
6606.00   9.83769608   0.05951576
6608.00   9.78336716   0.05932148
6610.00   9.77673626   0.05926308
6612.00   9.80085087   0.05928539
6614.00   9.81492901   0.05927584
6616.00   9.76406765   0.05910286
6618.00   9.71709538   0.05895207
6620.00   9.68976974   0.05885835
6622.00   9.66705513   0.05878707
6624.00   9.63162518   0.05866176
6626.00   9.58951283   0.05852559
6628.00   9.56532001   0.05844687
6630.00   9.54739857   0.05838229
6632.00   9.54360676   0.05836476
6634.00   9.51505184   0.05826260
6636.00   9.49216366   0.05815874
6638.00   9.47975826   0.05808788
6640.00   9.46022511   0.05800873
6642.00   9.44939709   0.05795187
6644.00   9.41888809   0.05783078
6646.00   9.42565536   0.05782779
6648.00   9.41343689   0.05777693
6650.00   9.35565281   0.05759141
6652.00   9.31312561   0.05744873
6654.00   9.31317616   0.05743663
6656.00   9.31771183   0.05742716
6658.00   9.31035900   0.05738141
6660.00   9.28596973   0.05730599
6662.00   9.27534485   0.05727142
6664.00   9.26701164   0.05723016
6666.00   9.23833466   0.05712144
6668.00   9.20328236   0.05699038
6670.00   9.19916439   0.05696288
6672.00   9.21108150   0.05698967
6674.00   9.18421650   0.05689470
6676.00   9.12688828   0.05670510
6678.00   9.08934498   0.05658051
6680.00   9.11608219   0.05664721
6682.00   9.13226414   0.05667904
6684.00   9.07434559   0.05647744
6686.00   9.02062511   0.05629098
6688.00   9.01208305   0.05624111
6690.00   9.01884556   0.05624034
6692.00   8.98222446   0.05612783
6694.00   8.94699574   0.05601763
6696.00   8.92253208   0.05592586
6698.00   8.90879536   0.05587041
6700.00   8.88444805   0.05579815
6702.00   8.86649323   0.05574336
6704.00   8.84119129   0.05566473
6706.00   8.80978870   0.05556839
6708.00   8.81228638   0.05557488
6710.00   8.80360889   0.05553146
6712.00   8.78494358   0.05545918
6714.00   8.74139309   0.05529298
6716.00   8.70382500   0.05513394
6718.00   8.69278240   0.05506466
6720.00   8.68183517   0.05502552
6722.00   8.66734219   0.05496061
6724.00   8.64415455   0.05486814
6726.00   8.59434795   0.05470240
6728.00   8.52988052   0.05450018
6730.00   8.53831577   0.05451283
6732.00   8.51695919   0.05443436
6734.00   8.46511173   0.05425895
6736.00   8.42201900   0.05411224
6738.00   8.38281536   0.05399008
6740.00   8.39333153   0.05401249
6742.00   8.38069534   0.05395702
6744.00   8.36479664   0.05388967
6746.00   8.35424423   0.05384981
6748.00   8.32059765   0.05372973
6750.00   8.28751850   0.05360938
6752.00   8.25036526   0.05347933
6754.00   8.20840740   0.05333939
6756.00   8.16038990   0.05318445
6758.00   8.22481823   0.05337932
6760.00   8.19613552   0.05326379
6762.00   8.16570187   0.05314549
6764.00   8.15496922   0.05310347
6766.00   8.08909321   0.05290208
6768.00   8.07960892   0.05287892
6770.00   8.07262611   0.05282739
6772.00   8.06945229   0.05279970
6774.00   8.06190395   0.05278136
6776.00   8.05552769   0.05276067
6778.00   8.04675007   0.05272378
6780.00   8.03786564   0.05268809
6782.00   8.03314114   0.05266663
6784.00   8.00382042   0.05257006
6786.00   7.96827698   0.05244671
6788.00   7.98475599   0.05250795
6790.00   7.99736643   0.05253274
6792.00   7.98135757   0.05245868
6794.00   7.95906258   0.05238063
6796.00   7.96159220   0.05236060
6798.00   7.93594551   0.05229465
6800.00   7.93621063   0.05231087
6802.00   7.93733168   0.05230801
6804.00   7.92686033   0.05225989
6806.00   7.93635941   0.05228941
6808.00   7.88454866   0.05212972
6810.00   7.86543798   0.05206190
6812.00   7.88019562   0.05209035
6814.00   7.82930946   0.05192891
6816.00   7.84614420   0.05198104
6818.00   7.83277893   0.05194141
6820.00   7.81932449   0.05190611
6822.00   7.79914236   0.05187947
6824.00   7.74798727   0.05183495
6826.00   7.75163221   0.05201863
6828.00   7.75174904   0.05217494
6830.00   7.74449015   0.05227314
6832.00   7.73825836   0.05232531
6834.00   7.69970322   0.05217248
6836.00   7.72067404   0.05214182
6838.00   7.67526388   0.05185037
6840.00   7.61521673   0.05150223
6842.00   7.61997032   0.05139215
6844.00   7.62840509   0.05136583
6846.00   7.68275213   0.05163090
6848.00   7.66832018   0.05155373
6850.00   7.59512568   0.05122280
6852.00   7.57471228   0.05118534
6854.00   7.58696222   0.05118071
6856.00   7.61801147   0.05142709
6858.00   7.62100744   0.05162306
6860.00   7.58286285   0.05165244
6862.00   7.51235962   0.05160831
6864.00   7.44302130   0.05165382
6866.00   7.47409582   0.05298759
6868.00   7.44675064   0.05550044
#6870.00   7.27817917   0.05804846
#6872.00   7.09452105   0.05770094
#6874.00   7.16252899   0.05861959
#6876.00   7.38536072   0.05928067
#6878.00   7.54779482   0.05861397
#6880.00   7.53047514   0.05668604
#6882.00   7.50448990   0.05496149
#6884.00   7.51737356   0.05427471
#6886.00   7.46828032   0.05381737
#6888.00   7.36967468   0.05353652
6890.00   7.29109430   0.05366352
6892.00   7.27507401   0.05396057
6894.00   7.26401329   0.05400547
6896.00   7.24982405   0.05395449
6898.00   7.24325418   0.05382237
6900.00   7.25797796   0.05359062
6902.00   7.25049591   0.05341658
6904.00   7.25084114   0.05312554
6906.00   7.23494959   0.05281015
6908.00   7.19956779   0.05251254
6910.00   7.19275618   0.05228828
6912.00   7.16768789   0.05192345
6914.00   7.12194824   0.05156344
6916.00   7.07722235   0.05126257
6918.00   7.08375883   0.05120113
6920.00   7.13312101   0.05137781
6922.00   7.12508345   0.05120499
6924.00   7.08208227   0.05092975
6926.00   7.03024721   0.05066906
6928.00   6.97136259   0.05038536
6930.00   6.96519041   0.05021883
6932.00   6.95484161   0.04997276
6934.00   6.94299936   0.04990149
6936.00   6.93321991   0.04993665
6938.00   6.92456436   0.04995381
6940.00   6.91429377   0.05008862
6942.00   6.84068489   0.04992781
6944.00   6.78141403   0.04970928
6946.00   6.79168558   0.04970782
6948.00   6.85519743   0.04996854
6950.00   6.83503199   0.04988426
6952.00   6.76695633   0.04937214
6954.00   6.73409605   0.04899886
6956.00   6.74935675   0.04895481
6958.00   6.75585175   0.04897133
6960.00   6.70286798   0.04868313
6962.00   6.65910149   0.04843457
6964.00   6.64180613   0.04828222
6966.00   6.66001320   0.04822992
6968.00   6.66070318   0.04805945
6970.00   6.62706232   0.04786362
6972.00   6.62599134   0.04791631
6974.00   6.61171722   0.04799491
6976.00   6.55004930   0.04785327
6978.00   6.51559973   0.04762939
6980.00   6.53993082   0.04774076
6982.00   6.52442932   0.04773489
6984.00   6.49493790   0.04761853
6986.00   6.48035097   0.04748051
6988.00   6.45036697   0.04735832
6990.00   6.41721535   0.04734114
6992.00   6.41473722   0.04745487
6994.00   6.42082834   0.04755496
6996.00   6.43160582   0.04762463
6998.00   6.45332527   0.04774454
7000.00   6.43643570   0.04765692
7002.00   6.40230370   0.04745255
7004.00   6.37800741   0.04730144
7006.00   6.37067270   0.04732884
7008.00   6.35460901   0.04740379
7010.00   6.34711313   0.04736476
7012.00   6.31880617   0.04716324
7014.00   6.26144075   0.04685248
7016.00   6.20868444   0.04658581
7018.00   6.20182037   0.04655548
7020.00   6.22494364   0.04667024
7022.00   6.24673462   0.04679317
7024.00   6.24675322   0.04681835
7026.00   6.21063995   0.04666139
7028.00   6.18198776   0.04657149
7030.00   6.16454268   0.04650544
7032.00   6.15984344   0.04639612
7034.00   6.16062117   0.04622197
7036.00   6.14776421   0.04611042
7038.00   6.09489441   0.04592181
7040.00   6.06747866   0.04585740
7042.00   6.07473803   0.04591744
7044.00   6.06510401   0.04590935
7046.00   6.04804754   0.04588009
7048.00   6.05183601   0.04587631
7050.00   6.05261612   0.04589302
7052.00   6.03756762   0.04590637
7054.00   6.03054237   0.04592021
7056.00   6.03118086   0.04582763
7058.00   6.00925875   0.04570368
7060.00   5.98227644   0.04557221
7062.00   5.96173620   0.04544604
7064.00   5.94924927   0.04536526
7066.00   5.91313982   0.04522285
7068.00   5.90965128   0.04521191
7070.00   5.91723108   0.04524438
7072.00   5.91089106   0.04521424
7074.00   5.88271284   0.04508540
7076.00   5.90728521   0.04515736
7078.00   5.89333153   0.04512405
7080.00   5.84758425   0.04498024
7082.00   5.81389236   0.04485273
7084.00   5.80057001   0.04479173
7086.00   5.79276609   0.04473711
7088.00   5.80145121   0.04474797
7090.00   5.81542778   0.04478422
7092.00   5.80756903   0.04472532
7094.00   5.76368189   0.04452740
7096.00   5.73961639   0.04441034
7098.00   5.73412561   0.04438880
7100.00   5.73370886   0.04439028
7102.00   5.71880579   0.04430085
7104.00   5.68335533   0.04416612
7106.00   5.67533922   0.04411757
7108.00   5.67948008   0.04411711
7110.00   5.67502642   0.04411197
7112.00   5.65951157   0.04411471
7114.00   5.64685106   0.04406790
7116.00   5.64479780   0.04403158
7118.00   5.64232635   0.04401937
7120.00   5.64101076   0.04406221
7122.00   5.63792181   0.04408667
7124.00   5.61282492   0.04391238
7126.00   5.58434057   0.04379353
7128.00   5.57786179   0.04382700
7130.00   5.59525442   0.04391608
7132.00   5.56889725   0.04371904
7134.00   5.55128622   0.04365593
7136.00   5.52830172   0.04358172
7138.00   5.51311684   0.04352924
7140.00   5.52879906   0.04364118
7142.00   5.54015112   0.04386865
7144.00   5.50533628   0.04375913
7146.00   5.47672462   0.04360035
7148.00   5.48219538   0.04358713
7150.00   5.50149584   0.04367806
7152.00   5.46773720   0.04350530
7154.00   5.43480158   0.04331531
7156.00   5.41830969   0.04318726
7158.00   5.41967154   0.04319041
7160.00   5.42906809   0.04338551
7162.00   5.43759394   0.04350520
7164.00   5.44498396   0.04365010
7166.00   5.42167854   0.04376846
7168.00   5.37030172   0.04390879
7170.00   5.36619902   0.04435320
7172.00   5.38436127   0.04492091
7174.00   5.38709688   0.04536735
7176.00   5.39937258   0.04574560
7178.00   5.43077850   0.04604912
7180.00   5.41934013   0.04590951
7182.00   5.38623619   0.04568189
7184.00   5.38716555   0.04585721
7186.00   5.37561035   0.04614469
7188.00   5.28108358   0.04594898
7190.00   5.26725340   0.04584074
7192.00   5.36047602   0.04628606
7194.00   5.43266630   0.04656171
7196.00   5.42316580   0.04634943
7198.00   5.38261271   0.04597726
7200.00   5.40852737   0.04613942
7202.00   5.38959360   0.04612829
7204.00   5.34132004   0.04591791
7206.00   5.30079603   0.04558316
7208.00   5.32168341   0.04529713
7210.00   5.34237242   0.04479356
7212.00   5.34723139   0.04422621
7214.00   5.35106468   0.04376731
7216.00   5.36080933   0.04351825
7218.00   5.34096575   0.04334308
7220.00   5.33176184   0.04329221
7222.00   5.31586123   0.04325270
7224.00   5.30461025   0.04327251
7226.00   5.30274534   0.04336583
7228.00   5.29216051   0.04336412
7230.00   5.30480623   0.04357218
7232.00   5.31718111   0.04403268
7234.00   5.28615475   0.04462601
7236.00   5.20662165   0.04523082
7238.00   5.21966410   0.04594372
7240.00   5.26925516   0.04675971
7242.00   5.30373812   0.04734594
7244.00   5.28696823   0.04738079
7246.00   5.22750139   0.04676595
7248.00   5.22302866   0.04612394
7250.00   5.27667379   0.04580664
7252.00   5.29453897   0.04549654
7254.00   5.23794794   0.04499365
7256.00   5.13927794   0.04432359
7258.00   5.17258978   0.04421843
7260.00   5.22595263   0.04420313
7262.00   5.24839163   0.04414881
7264.00   5.22924042   0.04408686
7266.00   5.18749285   0.04408309
7268.00   5.14434958   0.04385779
7270.00   5.15439796   0.04400275
7272.00   5.17163420   0.04456329
7274.00   5.12495232   0.04519437
7276.00   5.07664680   0.04562112
7278.00   5.05951309   0.04599708
7280.00   5.08119822   0.04611064
7282.00   5.13315201   0.04574351
7284.00   5.17819262   0.04488185
7286.00   5.19599295   0.04435494
7288.00   5.15104055   0.04402410
7290.00   5.08203459   0.04382667
7292.00   5.02179337   0.04367653
7294.00   4.98168278   0.04347729
7296.00   5.00513124   0.04341672
7298.00   5.02914095   0.04334843
7300.00   5.01934910   0.04322762
7302.00   4.99183702   0.04316991
7304.00   4.99464083   0.04336854
7306.00   4.97620630   0.04339738
7308.00   4.96698427   0.04327816
7310.00   4.96359253   0.04322080
7312.00   4.94804335   0.04335845
7314.00   4.91412258   0.04359479
7316.00   4.94849348   0.04402250
7318.00   4.97046471   0.04422085
7320.00   4.94268370   0.04384011
7322.00   4.87325907   0.04284263
7324.00   4.88185167   0.04215334
7326.00   4.89872932   0.04198861
7328.00   4.90970945   0.04206673
7330.00   4.88804102   0.04205158
7332.00   4.82724428   0.04178650
7334.00   4.79626513   0.04167235
7336.00   4.81424665   0.04205222
7338.00   4.82455015   0.04243995
7340.00   4.80183411   0.04250005
7342.00   4.78415966   0.04228818
7344.00   4.76065826   0.04210757
7346.00   4.76083851   0.04179962
7348.00   4.75129271   0.04128658
7350.00   4.72750616   0.04078646
7352.00   4.70489359   0.04068694
7354.00   4.70692825   0.04087761
7356.00   4.71628523   0.04103760
7358.00   4.71387243   0.04106653
7360.00   4.68393517   0.04095788
7362.00   4.64541483   0.04082718
7364.00   4.65821838   0.04097691
7366.00   4.66862297   0.04127007
7368.00   4.65698481   0.04146713
7370.00   4.62293816   0.04138954
7372.00   4.60078382   0.04119898
7374.00   4.60102701   0.04098454
7376.00   4.61341333   0.04057652
7378.00   4.60920525   0.04008199
7380.00   4.56613445   0.03972094
7382.00   4.52467346   0.03956227
7384.00   4.48600483   0.03938794
7386.00   4.46677160   0.03934799
7388.00   4.47022295   0.03949731
7390.00   4.47191334   0.03968672
7392.00   4.46055984   0.03968744
7394.00   4.46219349   0.03970471
7396.00   4.42643785   0.03962413
7398.00   4.35967493   0.03948814
7400.00   4.34910917   0.03955715
7402.00   4.38644648   0.03972715
7404.00   4.38041735   0.03967761
7406.00   4.36741638   0.03948897
7408.00   4.37275171   0.03924587
7410.00   4.34306335   0.03887259
7412.00   4.31090307   0.03858254
7414.00   4.28238249   0.03835412
7416.00   4.25320292   0.03813044
7418.00   4.20779800   0.03785323
7420.00   4.18401337   0.03776966
7422.00   4.15826082   0.03766578
7424.00   4.15433693   0.03768298
7426.00   4.16183043   0.03777992
7428.00   4.16420507   0.03785822
7430.00   4.14511204   0.03778925
7432.00   4.13096857   0.03778082
7434.00   4.11489725   0.03781379
7436.00   4.09513855   0.03781592
7438.00   4.08920240   0.03776736
7440.00   4.07231283   0.03765040
7442.00   4.06676626   0.03758194
7444.00   4.05750036   0.03744081
7446.00   4.05181074   0.03725962
7448.00   4.05056858   0.03713384
7450.00   4.03121948   0.03702009
7452.00   3.99632931   0.03686760
7454.00   3.99115014   0.03685245
7456.00   4.02099943   0.03699845
7458.00   3.98869538   0.03687949
7460.00   3.96031880   0.03679140
7462.00   3.97151208   0.03689674
7464.00   3.98277211   0.03700803
7466.00   3.95230603   0.03693678
7468.00   3.92024589   0.03690385
7470.00   3.92655849   0.03702746
7472.00   3.93302155   0.03709272
7474.00   3.91270709   0.03703131
7476.00   3.87152576   0.03693416
7478.00   3.87317157   0.03700523
7480.00   3.86409760   0.03696061
7482.00   3.84736037   0.03685723
7484.00   3.83763814   0.03676663
7486.00   3.83454680   0.03665237
7488.00   3.82164693   0.03643436
7490.00   3.81469178   0.03626539
7492.00   3.80326462   0.03611643
7494.00   3.79478455   0.03602867
7496.00   3.81196952   0.03610028
7498.00   3.77168632   0.03591505
7500.00   3.74751782   0.03575457
7502.00   3.75094318   0.03572783
7504.00   3.76271558   0.03578048
7506.00   3.74586797   0.03569764
7508.00   3.72039032   0.03554483
7510.00   3.71530318   0.03550931
7512.00   3.72183490   0.03556563
7514.00   3.72221088   0.03561207
7516.00   3.70905948   0.03560650
7518.00   3.68082356   0.03570865
7520.00   3.68292618   0.03609909
7522.00   3.69264889   0.03649947
7524.00   3.67790413   0.03658827
7526.00   3.67192006   0.03662055
7528.00   3.66314816   0.03652753
7530.00   3.64962506   0.03618792
7532.00   3.63810444   0.03572924
7534.00   3.61141586   0.03537644
7536.00   3.61382294   0.03530678
7538.00   3.60984039   0.03519261
7540.00   3.59490466   0.03506200
7542.00   3.58268046   0.03499861
7544.00   3.58591080   0.03499555
7546.00   3.56484699   0.03486589
7548.00   3.54139113   0.03472102
7550.00   3.54381847   0.03471561
7552.00   3.56780052   0.03486896
7554.00   3.53627801   0.03482655
7556.00   3.53627491   0.03489329
7558.00   3.53052592   0.03488293
7560.00   3.51933479   0.03481100
7562.00   3.50174594   0.03471006
7564.00   3.51183224   0.03477070
7566.00   3.51586723   0.03506508
7568.00   3.51534343   0.03537341
7570.00   3.51445103   0.03560853
7572.00   3.51943326   0.03575888
7574.00   3.51460719   0.03570510
7576.00   3.51677203   0.03556120
7578.00   3.51314735   0.03528935
7580.00   3.49670601   0.03495888
7582.00   3.46556759   0.03473575
7584.00   3.45390701   0.03477363
7586.00   3.47251773   0.03492202
7588.00   3.48705125   0.03501686
7590.00   3.47245812   0.03507214
7592.00   3.47553062   0.03557073
7594.00   3.52637696   0.03819614
7596.00   3.44998741   0.04175361
#7598.00   3.23879409   0.04489679
#7600.00   3.04988313   0.04967847
#7602.00   3.23138165   0.06235952
#7604.00   3.29708576   0.06931651
#7606.00   3.28376007   0.07280173
#7608.00   3.30657697   0.07409887
#7610.00   3.39586520   0.07300562
#7612.00   3.50430417   0.06813523
#7614.00   3.50117660   0.06133797
#7616.00   3.38736534   0.05317120
#7618.00   3.35490012   0.04624100
#7620.00   3.58065128   0.04390520
#7622.00   3.75277162   0.04500422
#7624.00   3.61059833   0.04492633
#7626.00   3.35603714   0.04538924
#7628.00   3.19865632   0.04678598
#7630.00   3.23675799   0.04822361
#7632.00   3.32572174   0.04988316
7634.00   3.39626694   0.05014539
7636.00   3.41358948   0.04934811
7638.00   3.40416050   0.04827788
7640.00   3.41227150   0.04751775
7642.00   3.40315127   0.04639428
7644.00   3.39687133   0.04527354
7646.00   3.41145897   0.04444784
7648.00   3.44079661   0.04388325
7650.00   3.41480350   0.04289025
7652.00   3.41266632   0.04195104
7654.00   3.45854783   0.04141499
7656.00   3.48565984   0.04099530
7658.00   3.47331333   0.04049362
7660.00   3.51371932   0.04015349
7662.00   3.47475362   0.03926523
7664.00   3.43981004   0.03842140
7666.00   3.43649983   0.03788296
7668.00   3.42970157   0.03743849
7670.00   3.38229752   0.03664500
7672.00   3.39362454   0.03634893
7674.00   3.40971828   0.03613321
7676.00   3.41282582   0.03589853
7678.00   3.43896461   0.03591964
7680.00   3.42013288   0.03564214
7682.00   3.42328429   0.03547511
7684.00   3.43404365   0.03546299
7686.00   3.44018006   0.03551818
7688.00   3.43735886   0.03545383
7690.00   3.44066358   0.03542249
7692.00   3.42947698   0.03531916
7694.00   3.40656018   0.03516638
7696.00   3.37888408   0.03501181
7698.00   3.38547444   0.03505847
7700.00   3.38858485   0.03493674
7702.00   3.38073540   0.03475616
7704.00   3.37678719   0.03463216
7706.00   3.39456868   0.03475977
7708.00   3.39306045   0.03532622
7710.00   3.40260792   0.03607327
7712.00   3.40234828   0.03682979
7714.00   3.40025139   0.03747681
7716.00   3.42354774   0.03788796
7718.00   3.40515137   0.03748758
7720.00   3.39776635   0.03699482
7722.00   3.41018033   0.03649057
7724.00   3.42734265   0.03592415
7726.00   3.40533733   0.03523314
7728.00   3.40865588   0.03507712
7730.00   3.41672206   0.03509384
7732.00   3.42877769   0.03502279
7734.00   3.43944359   0.03484906
7736.00   3.43887973   0.03478450
7738.00   3.41762424   0.03466307
7740.00   3.43862081   0.03476809
7742.00   3.45986366   0.03493551
7744.00   3.45035863   0.03517376
7746.00   3.46992111   0.03609910
7748.00   3.48516345   0.03701029
7750.00   3.46017098   0.03728316
7752.00   3.43273664   0.03719419
7754.00   3.44450784   0.03717216
7756.00   3.45421410   0.03692701
7758.00   3.43687248   0.03616937
7760.00   3.44820142   0.03575054
7762.00   3.48972511   0.03582075
7764.00   3.50344586   0.03585187
7766.00   3.46568489   0.03532613
7768.00   3.47111678   0.03515260
7770.00   3.50151086   0.03528493
7772.00   3.52324677   0.03549061
7774.00   3.51168895   0.03556094
7776.00   3.49861026   0.03571275
7778.00   3.49128723   0.03575462
7780.00   3.48662639   0.03565910
7782.00   3.48275948   0.03550823
7784.00   3.47530651   0.03539829
7786.00   3.47210693   0.03529730
7788.00   3.48049712   0.03554549
7790.00   3.50390434   0.03619830
7792.00   3.51999021   0.03688931
7794.00   3.50632453   0.03702969
7796.00   3.48878479   0.03690885
7798.00   3.49881244   0.03668874
7800.00   3.52637982   0.03628612
7802.00   3.55501628   0.03578578
7804.00   3.56701684   0.03571415
7806.00   3.57057357   0.03596647
7808.00   3.56679988   0.03606543
7810.00   3.57625699   0.03609784
7812.00   3.59997940   0.03626509
7814.00   3.62420821   0.03634201
7816.00   3.61767173   0.03652125
7818.00   3.61559486   0.03712130
7820.00   3.62175751   0.03780891
7822.00   3.62440753   0.03798053
7824.00   3.59673381   0.03783783
7826.00   3.61516309   0.03755469
7828.00   3.64705825   0.03693417
7830.00   3.65146422   0.03607156
7832.00   3.64271903   0.03565200
7834.00   3.66084099   0.03583109
7836.00   3.68896365   0.03618538
7838.00   3.68850875   0.03646770
7840.00   3.66051960   0.03657153
7842.00   3.64295578   0.03648194
7844.00   3.66460419   0.03654842
7846.00   3.67821121   0.03673666
7848.00   3.67853093   0.03709352
7850.00   3.68053627   0.03765970
7852.00   3.68413758   0.03823113
7854.00   3.68737292   0.03855671
7856.00   3.69557190   0.03885321
7858.00   3.70542121   0.03879296
7860.00   3.69232082   0.03798137
7862.00   3.67637897   0.03714184
7864.00   3.68149662   0.03709906
7866.00   3.68557858   0.03730987
7868.00   3.67602801   0.03738179
7870.00   3.66345668   0.03727266
7872.00   3.65756488   0.03723982
7874.00   3.67879510   0.03738629
7876.00   3.67829132   0.03735409
7878.00   3.67457318   0.03720826
7880.00   3.71104550   0.03731075
7882.00   3.70038033   0.03727752
7884.00   3.68600464   0.03727578
7886.00   3.67420650   0.03739155
7888.00   3.65430665   0.03749665
7890.00   3.67834401   0.03759240
7892.00   3.67027736   0.03765929
7894.00   3.64392948   0.03742526
7896.00   3.61711240   0.03689488
7898.00   3.60162044   0.03626390
7900.00   3.61547661   0.03605650
7902.00   3.61978459   0.03600677
7904.00   3.58971024   0.03581507
7906.00   3.55065441   0.03572157
7908.00   3.54400849   0.03625574
7910.00   3.55136585   0.03767176
7912.00   3.55704975   0.03855376
7914.00   3.53522110   0.03883466
7916.00   3.49417329   0.03878966
7918.00   3.46848965   0.03868916
7920.00   3.47493863   0.03788164
7922.00   3.44925213   0.03693530
7924.00   3.42154717   0.03639534
7926.00   3.41020083   0.03630596
7928.00   3.40474200   0.03621239
7930.00   3.36483788   0.03597721
7932.00   3.33607101   0.03572247
7934.00   3.33036160   0.03555385
7936.00   3.35368133   0.03547960
7938.00   3.35169959   0.03513448
7940.00   3.33428311   0.03473875
7942.00   3.29337621   0.03434336
7944.00   3.25554585   0.03422190
7946.00   3.23415399   0.03443832
7948.00   3.21020055   0.03459236
7950.00   3.21261144   0.03458888
7952.00   3.19971633   0.03449257
7954.00   3.16139960   0.03418592
7956.00   3.13449597   0.03375049
7958.00   3.14048958   0.03378211
7960.00   3.11053777   0.03455896
7962.00   3.07300782   0.03536040
7964.00   3.04219437   0.03572783
7966.00   3.01429629   0.03557471
7968.00   2.99795341   0.03533548
7970.00   2.97446084   0.03462135
7972.00   2.93828130   0.03365660
7974.00   2.89793396   0.03293130
7976.00   2.89131999   0.03300614
7978.00   2.84620476   0.03302459
7980.00   2.81983542   0.03299009
7982.00   2.79417825   0.03278922
7984.00   2.75800538   0.03238680
7986.00   2.75176311   0.03205621
7988.00   2.74193120   0.03253054
7990.00   2.72350621   0.03327792
7992.00   2.70317817   0.03382780
7994.00   2.68465447   0.03396377
7996.00   2.64604449   0.03381375
7998.00   2.60833669   0.03311725
8000.00   2.58272362   0.03205141
8002.00   2.55918312   0.03102178
8004.00   2.52080274   0.03040545
8006.00   2.48174882   0.03017314
8008.00   2.45922184   0.03016247
8010.00   2.43178701   0.03027334
8012.00   2.39768505   0.03036718
8014.00   2.38320613   0.03040024
8016.00   2.35166287   0.03019742
8018.00   2.31840372   0.03001666
8020.00   2.29451561   0.03007887
8022.00   2.27001691   0.03035471
8024.00   2.20929980   0.03051401
8026.00   2.15976119   0.03054354
8028.00   2.12487936   0.03043948
8030.00   2.09751296   0.02991305
8032.00   2.07028270   0.02892374
8034.00   2.04197860   0.02792954
8036.00   2.01897907   0.02752770
8038.00   1.99622500   0.02730031
8040.00   1.97608197   0.02711853
8042.00   1.96662617   0.02702161
8044.00   1.92696178   0.02679195
8046.00   1.87214243   0.02654418
8048.00   1.82706773   0.02639716
8050.00   1.80656588   0.02637627
8052.00   1.78793848   0.02628695
8054.00   1.76651382   0.02612275
8056.00   1.73122585   0.02593371
8058.00   1.69881105   0.02591475
8060.00   1.67649591   0.02601673
8062.00   1.66384566   0.02604741
8064.00   1.64395511   0.02596609
8066.00   1.61141884   0.02559802
8068.00   1.58448470   0.02504436
8070.00   1.56225312   0.02444780
8072.00   1.54128325   0.02410440
8074.00   1.52822578   0.02403259
8076.00   1.49768448   0.02381850
8078.00   1.47658777   0.02362373
8080.00   1.46611035   0.02352045
8082.00   1.43835175   0.02338030
8084.00   1.41547823   0.02328738
8086.00   1.40320456   0.02319085
8088.00   1.38930666   0.02309384
8090.00   1.36528826   0.02299916
8092.00   1.35000944   0.02295582
8094.00   1.33546031   0.02285282
8096.00   1.32274067   0.02277005
8098.00   1.30453980   0.02272658
8100.00   1.27554750   0.02269169
8102.00   1.26128972   0.02255754
8104.00   1.25091505   0.02250261
8106.00   1.24220788   0.02245670
8108.00   1.22428942   0.02222497
8110.00   1.20694435   0.02184420
8112.00   1.18508434   0.02157739
8114.00   1.17812932   0.02152810
8116.00   1.16210997   0.02139862
8118.00   1.13541520   0.02114653
8120.00   1.11681640   0.02100443
8122.00   1.12871945   0.02114594
8124.00   1.10388565   0.02097718
8126.00   1.07929480   0.02082359
8128.00   1.07956362   0.02089792
8130.00   1.07430923   0.02090657
8132.00   1.08378637   0.02109501
8134.00   1.07872093   0.02128778
8136.00   1.06160843   0.02136332
8138.00   1.05510557   0.02137492
8140.00   1.04506588   0.02131537
8142.00   1.03182817   0.02128846
8144.00   1.02357566   0.02127169
8146.00   1.02289045   0.02128454
8148.00   1.02752638   0.02138121
8150.00   1.01536214   0.02136284
8152.00   1.02187061   0.02142254
8154.00   1.02412093   0.02138436
8156.00   1.01143301   0.02116813
8158.00   0.99248570   0.02085061
8160.00   0.99332124   0.02094453
8162.00   0.98874885   0.02123628
8164.00   0.97051269   0.02132500
8166.00   0.95511872   0.02122715
8168.00   0.97937399   0.02139665
8170.00   0.99766779   0.02155306
8172.00   0.97654152   0.02111363
8174.00   0.96353936   0.02075867
8176.00   0.97865891   0.02101730
8178.00   0.98967296   0.02173708
8180.00   0.96300596   0.02210032
8182.00   0.94592208   0.02224352
8184.00   0.96332318   0.02242506
8186.00   0.99760789   0.02265825
8188.00   0.98961860   0.02254268
8190.00   0.96074849   0.02235886
8192.00   0.94446915   0.02237330
8194.00   0.94947624   0.02252508
8196.00   0.96148878   0.02257726
8198.00   0.96028239   0.02252582
8200.00   0.95081073   0.02217882
8202.00   0.95204133   0.02163424
8204.00   0.96740657   0.02111500
8206.00   0.98568106   0.02085136
8208.00   0.98859125   0.02060834
8210.00   0.97809190   0.02038137
8212.00   0.96569300   0.02019504
8214.00   0.95956081   0.02007968
8216.00   0.96734476   0.02010095
8218.00   0.98130578   0.02023587
8220.00   0.98556048   0.02027433
8222.00   0.98673844   0.02034539
8224.00   0.99242145   0.02061097
8226.00   1.01341021   0.02125911
8228.00   1.01627183   0.02207730
8230.00   0.99308300   0.02253603
8232.00   0.97783166   0.02259009
8234.00   0.99980354   0.02237685
8236.00   1.02855647   0.02193947
8238.00   1.04006863   0.02144536
8240.00   1.05514824   0.02123252
8242.00   1.07044160   0.02124078
8244.00   1.07274199   0.02125606
8246.00   1.04913652   0.02098806
8248.00   1.04822433   0.02079991
8250.00   1.06419885   0.02077745
8252.00   1.07451332   0.02079203
8254.00   1.06080675   0.02069674
8256.00   1.07971203   0.02097291
8258.00   1.09897196   0.02129115
8260.00   1.11471450   0.02151977
8262.00   1.12112904   0.02155792
8264.00   1.11674011   0.02137254
8266.00   1.11596334   0.02114014
8268.00   1.12305808   0.02105534
8270.00   1.13633811   0.02117028
8272.00   1.15683901   0.02160356
8274.00   1.18486750   0.02259097
8276.00   1.18767178   0.02364497
8278.00   1.19325292   0.02464031
8280.00   1.21218598   0.02550998
8282.00   1.25221860   0.02632882
8284.00   1.26714218   0.02697871
8286.00   1.29596329   0.02735868
8288.00   1.32531691   0.02736432
8290.00   1.33045292   0.02712619
8292.00   1.32786548   0.02704867
8294.00   1.37252462   0.02760330
8296.00   1.40103471   0.02795910
8298.00   1.40616834   0.02793331
8300.00   1.41039431   0.02773155
8302.00   1.45279264   0.02767943
8304.00   1.47496021   0.02711499
8306.00   1.47062933   0.02623920
8308.00   1.49202061   0.02578285
8310.00   1.53987563   0.02584559
8312.00   1.57275593   0.02594071
8314.00   1.61476672   0.02617546
8316.00   1.61982691   0.02610007
8318.00   1.62657547   0.02601404
8320.00   1.65843260   0.02619337
8322.00   1.70797384   0.02666107
8324.00   1.72897613   0.02666037
8326.00   1.76899016   0.02666131
8328.00   1.80057943   0.02661572
8330.00   1.81521463   0.02657318
8332.00   1.83747375   0.02673636
8334.00   1.85627973   0.02696068
8336.00   1.89185572   0.02772384
8338.00   1.93788326   0.03018251
8340.00   1.96313703   0.03391505
8342.00   1.97718048   0.03268078
8344.00   2.02522349   0.03555059
8346.00   2.06837440   0.03458320
8348.00   2.09375882   0.03430146
8350.00   2.11423874   0.03391336
8352.00   2.13262820   0.03220764
8354.00   2.18347239   0.03130113
8356.00   2.22753310   0.03106850
8358.00   2.24503517   0.03092957
8360.00   2.25463462   0.03042568
8362.00   2.29546261   0.03030805
8364.00   2.33460402   0.03043129
8366.00   2.36927605   0.03063502
8368.00   2.40701485   0.03079183
8370.00   2.45093083   0.03078552
8372.00   2.49104857   0.03057961
8374.00   2.52292919   0.03057463
8376.00   2.55960274   0.03104769
8378.00   2.60365605   0.03191378
8380.00   2.64778423   0.03265571
8382.00   2.68581510   0.03298973
8384.00   2.72038198   0.03315888
8386.00   2.75177956   0.03313204
8388.00   2.77602792   0.03279401
8390.00   2.79738355   0.03228241
8392.00   2.83576941   0.03254677
8394.00   2.88197923   0.03382127
8396.00   2.91783118   0.03546862
8398.00   2.93917251   0.03657544
8400.00   2.96092319   0.03687144
8402.00   3.01304317   0.03707157
8404.00   3.05488014   0.03657333
8406.00   3.08060336   0.03530821
8408.00   3.11167526   0.03402194
8410.00   3.14269710   0.03423864
8412.00   3.17256260   0.03503737
8414.00   3.19261241   0.03559173
8416.00   3.20014572   0.03559563
8418.00   3.22811246   0.03556746
8420.00   3.27498126   0.03551993
8422.00   3.31519675   0.03525713
8424.00   3.36044955   0.03565772
8426.00   3.40824580   0.03718400
8428.00   3.41946316   0.03877041
8430.00   3.41543221   0.03920402
8432.00   3.43512440   0.03932722
8434.00   3.47391534   0.03909569
8436.00   3.51415062   0.03816467
8438.00   3.55244708   0.03655301
8440.00   3.59279823   0.03593558
8442.00   3.61614037   0.03585608
8444.00   3.63198733   0.03596477
8446.00   3.65850067   0.03620448
8448.00   3.68577409   0.03684991
8450.00   3.71589088   0.03737685
8452.00   3.74703097   0.03769641
8454.00   3.77764773   0.03784369
8456.00   3.80116558   0.03785836
8458.00   3.82670307   0.03764517
8460.00   3.82895350   0.03799579
8462.00   3.86696053   0.03897196
8464.00   3.92987728   0.03996242
8466.00   3.92434096   0.04009529
8468.00   3.93461680   0.04013712
8470.00   3.93374658   0.03960836
8472.00   3.94974399   0.03869092
8474.00   4.00064135   0.03790610
8476.00   4.01765013   0.03766898
8478.00   4.02953100   0.03771546
8480.00   4.05883265   0.03783571
8482.00   4.07875061   0.03786464
8484.00   4.06617975   0.03776887
8486.00   4.09125710   0.03788671
8488.00   4.11447573   0.03819904
8490.00   4.12098455   0.03851152
8492.00   4.13046503   0.03877467
8494.00   4.15915346   0.03896998
8496.00   4.17040873   0.03900699
8498.00   4.18556356   0.03907994
8500.00   4.20759439   0.03935745
8502.00   4.21965265   0.03972768
8504.00   4.23031759   0.03998601
8506.00   4.26102304   0.04014613
8508.00   4.26527834   0.04006645
8510.00   4.26201105   0.03967127
8512.00   4.26740646   0.03907711
8514.00   4.28783274   0.03870301
8516.00   4.31258154   0.03872631
8518.00   4.33205795   0.03880658
8520.00   4.34677219   0.03886677
8522.00   4.35954714   0.03891480
8524.00   4.36789703   0.03895745
8526.00   4.38191509   0.03899426
8528.00   4.41222143   0.03908592
8530.00   4.43052435   0.03913978
8532.00   4.43210173   0.03916845
8534.00   4.45653248   0.03937846
8536.00   4.47746992   0.03958990
8538.00   4.49289417   0.03971719
8540.00   4.50164366   0.03976202
8542.00   4.50458097   0.03980354
8544.00   4.50132418   0.03991217
8546.00   4.52409172   0.04013764
8548.00   4.56067228   0.04035491
8550.00   4.58557558   0.04045421
8552.00   4.57912016   0.04040596
8554.00   4.57074738   0.04019480
8556.00   4.58308840   0.03995736
8558.00   4.58908463   0.03976536
8560.00   4.59388685   0.03973867
8562.00   4.61116552   0.03980359
8564.00   4.63543367   0.03991146
8566.00   4.68094397   0.04009852
8568.00   4.69341516   0.04015985
8570.00   4.65957403   0.04004369
8572.00   4.62837172   0.03992183
8574.00   4.64612436   0.04002200
8576.00   4.68214178   0.04016824
8578.00   4.69945097   0.04021902
8580.00   4.67030334   0.04008263
8582.00   4.70300484   0.04021099
8584.00   4.71897697   0.04032346
8586.00   4.70937061   0.04033451
8588.00   4.71599436   0.04039662
8590.00   4.72666216   0.04046251
8592.00   4.72460985   0.04051669
8594.00   4.73369455   0.04060406
8596.00   4.74373865   0.04064710
8598.00   4.72470236   0.04053243
8600.00   4.68122864   0.04032245
8602.00   4.71705914   0.04042177
8604.00   4.76222372   0.04052332
8606.00   4.77551079   0.04053616
8608.00   4.76961279   0.04056001
8610.00   4.77819586   0.04071905
8612.00   4.78187037   0.04089484
8614.00   4.75188208   0.04100044
8616.00   4.72564363   0.04118299
8618.00   4.72980165   0.04152388
8620.00   4.73903131   0.04188402
8622.00   4.74871969   0.04224513
8624.00   4.74348879   0.04253620
8626.00   4.74097300   0.04278492
8628.00   4.75650167   0.04299542
8630.00   4.77832651   0.04310508
8632.00   4.79837370   0.04313957
8634.00   4.79151392   0.04295535
8636.00   4.77556086   0.04261191
8638.00   4.76396370   0.04219252
8640.00   4.77222395   0.04180102
8642.00   4.77342796   0.04146191
8644.00   4.78906488   0.04122863
8646.00   4.80477619   0.04150504
8648.00   4.78828430   0.04286714
8650.00   4.79854345   0.04400800
8652.00   4.80685949   0.04503005
8654.00   4.79987955   0.04606084
8656.00   4.78769588   0.04279384
8658.00   4.79368496   0.04281902
8660.00   4.79393148   0.04634103
8662.00   4.77293587   0.04557398
8664.00   4.74758196   0.04459550
8666.00   4.74463606   0.04363514
8668.00   4.77197886   0.04304393
8670.00   4.77342796   0.04260702
8672.00   4.75604057   0.04225792
8674.00   4.73836422   0.04191074
8676.00   4.72986078   0.04150726
8678.00   4.72148657   0.04121624
8680.00   4.71940804   0.04102796
8682.00   4.72457743   0.04088260
8684.00   4.73308802   0.04075401
8686.00   4.72922277   0.04061408
8688.00   4.71305227   0.04040573
8690.00   4.70886326   0.04028138
8692.00   4.69465637   0.04013709
8694.00   4.67832136   0.03999787
8696.00   4.69299555   0.04000416
8698.00   4.69974089   0.04001026
8700.00   4.67124939   0.03985277
8702.00   4.66467667   0.03981362
8704.00   4.70118952   0.03997582
8706.00   4.71500969   0.03999629
8708.00   4.65051699   0.03968216
8710.00   4.61862946   0.03950146
8712.00   4.64151764   0.03953911
8714.00   4.66538572   0.03957090
8716.00   4.65011215   0.03945390
8718.00   4.64818907   0.03941241
8720.00   4.63466644   0.03935863
8722.00   4.60690260   0.03925620
8724.00   4.58435345   0.03916844
8726.00   4.58672094   0.03917877
8728.00   4.59048223   0.03917767
8730.00   4.61327028   0.03923981
8732.00   4.62165070   0.03925575
8734.00   4.58289194   0.03910241
8736.00   4.56450033   0.03903351
8738.00   4.55216551   0.03900411
8740.00   4.55276060   0.03901535
8742.00   4.56194830   0.03904464
8744.00   4.53306770   0.03891086
8746.00   4.50963449   0.03879664
8748.00   4.51740408   0.03881377
8750.00   4.52749681   0.03883453
8752.00   4.50969172   0.03880094
8754.00   4.50229645   0.03904514
8756.00   4.48498726   0.03977656
8758.00   4.47384882   0.04057431
8760.00   4.46712065   0.04124479
8762.00   4.44842291   0.04182817
8764.00   4.43759298   0.04276644
8766.00   4.43187952   0.04291506
8768.00   4.42310572   0.04237452
8770.00   4.40143728   0.04174704
8772.00   4.37120581   0.04160364
8774.00   4.35391617   0.04171440
8776.00   4.34706163   0.04171136
8778.00   4.33988333   0.04166541
8780.00   4.32865477   0.04150070
8782.00   4.32405710   0.04103177
8784.00   4.30087519   0.03973918
8786.00   4.29747009   0.03887982
8788.00   4.29038763   0.03862496
8790.00   4.28926706   0.03878915
8792.00   4.28376055   0.03883990
8794.00   4.26577854   0.03876458
8796.00   4.24791527   0.03840372
8798.00   4.24983835   0.03794669
8800.00   4.25409698   0.03755828
8802.00   4.22875834   0.03733535
8804.00   4.24008846   0.03749445
8806.00   4.24890566   0.03773765
8808.00   4.25010347   0.03783271
8810.00   4.24785948   0.03776317
8812.00   4.24412107   0.03781847
8814.00   4.23426294   0.03781942
8816.00   4.22237253   0.03773993
8818.00   4.19733572   0.03764508
8820.00   4.16536188   0.03800600
8822.00   4.17457962   0.04008806
8824.00   4.15427065   0.04264482
8826.00   4.12430048   0.04387587
8828.00   4.10192871   0.04402043
8830.00   4.09755516   0.04423415
8832.00   4.10270834   0.04388234
8834.00   4.09786940   0.04218264
8836.00   4.08019018   0.04054810
8838.00   4.07316017   0.03987064
8840.00   4.07027292   0.03967415
8842.00   4.08274603   0.03898108
8844.00   4.10454893   0.03819540
8846.00   4.10840273   0.03789132
8848.00   4.08692551   0.03811542
8850.00   4.10901785   0.03840312
8852.00   4.14595079   0.03870611
8854.00   4.17512846   0.03887666
8856.00   4.19859648   0.03886922
8858.00   4.20439005   0.03865416
8860.00   4.15654230   0.03827876
8862.00   4.10490274   0.03826797
8864.00   4.05126619   0.03856850
8866.00   4.01540136   0.03885105
8868.00   3.99669385   0.03880006
8870.00   3.99518895   0.03870873
8872.00   3.94704247   0.03813623
8874.00   3.92836952   0.03727390
8876.00   3.91553998   0.03638718
8878.00   3.87012696   0.03595236
8880.00   3.85330129   0.03672672
8882.00   3.83518219   0.03883218
8884.00   3.82905078   0.04037763
8886.00   3.83057141   0.04079269
8888.00   3.82226491   0.04066513
8890.00   3.81511116   0.04019088
8892.00   3.80211639   0.03848804
8894.00   3.79186702   0.03662201
8896.00   3.77700591   0.03571929
8898.00   3.76713538   0.03618632
8900.00   3.75023460   0.03711134
8902.00   3.75425720   0.03771939
8904.00   3.76155019   0.03789017
8906.00   3.76188827   0.03773721
8908.00   3.72801328   0.03716045
8910.00   3.69928741   0.03612530
8912.00   3.68996215   0.03551827
8914.00   3.68982339   0.03637196
8916.00   3.69970393   0.03877857
8918.00   3.70834041   0.04067064
8920.00   3.69000149   0.04117841
8922.00   3.67043614   0.04109070
8924.00   3.67398810   0.04030966
8926.00   3.68898892   0.03833180
8928.00   3.65360856   0.03617540
8930.00   3.60974383   0.03530366
8932.00   3.58538270   0.03520177
8934.00   3.57711530   0.03521125
8936.00   3.56437039   0.03506309
8938.00   3.59241176   0.03565546
8940.00   3.62633348   0.03667806
8942.00   3.62202764   0.03728346
8944.00   3.57956195   0.03725206
8946.00   3.55352092   0.03722997
8948.00   3.53127456   0.03696064
8950.00   3.51170230   0.03628870
8952.00   3.50361276   0.03642708
8954.00   3.51046658   0.03809250
8956.00   3.48013949   0.04006264
8958.00   3.43048024   0.04022713
8960.00   3.43431735   0.04026857
8962.00   3.47775292   0.04037971
8964.00   3.49520397   0.03987404
8966.00   3.40825582   0.03772597
8968.00   3.34769344   0.03628601
8970.00   3.37551403   0.03605519
8972.00   3.44887805   0.03658901
8974.00   3.45286298   0.03688801
8976.00   3.38142514   0.03634778
8978.00   3.36491656   0.03587295
8980.00   3.37588310   0.03570880
8982.00   3.36435056   0.03575915
8984.00   3.32832909   0.03601018
8986.00   3.34359455   0.03714832
8988.00   3.34279156   0.03880011
8990.00   3.29674935   0.04034222
8992.00   3.25307560   0.04120327
8994.00   3.29645824   0.04090480
8996.00   3.37217259   0.03899883
8998.00   3.40935612   0.03839592
9000.00   3.42303967   0.03916515
9002.00   3.40864658   0.04008034
9004.00   3.30363083   0.04060669
9006.00   3.35295868   0.04088524
9008.00   3.40533471   0.03997973
9010.00   3.40812516   0.03839020
9012.00   3.37755942   0.03716756
9014.00   3.33644414   0.03655915
9016.00   3.31989861   0.03649327
9018.00   3.21793246   0.03587937
9020.00   3.10517812   0.03494932
9022.00   3.11784291   0.03471033
9024.00   3.16676331   0.03533354
9026.00   3.14700985   0.03534080
9028.00   3.08061862   0.03471106
9030.00   3.03414226   0.03399776
9032.00   3.08360791   0.03400600
9034.00   3.07722974   0.03388365
9036.00   3.05660558   0.03350341
9038.00   3.04071903   0.03315701
9040.00   3.03128982   0.03308678
9042.00   3.02540970   0.03332643
9044.00   2.98743939   0.03339182
9046.00   2.96254468   0.03349679
9048.00   2.98021626   0.03373623
9050.00   3.01337075   0.03403175
9052.00   3.00188708   0.03425654
9054.00   2.96150780   0.03393891
9056.00   2.93750191   0.03315953
9058.00   2.94331646   0.03252888
9060.00   2.96062088   0.03254877
9062.00   2.96962333   0.03304222
9064.00   2.92236829   0.03307483
9066.00   2.88152695   0.03291609
9068.00   2.87921453   0.03299771
9070.00   2.91035438   0.03361415
9072.00   2.88918757   0.03416115
9074.00   2.85373998   0.03405426
9076.00   2.83686829   0.03358936
9078.00   2.86249375   0.03340561
9080.00   2.93031192   0.03406431
9082.00   2.89096570   0.03415046
9084.00   2.82373428   0.03368977
9086.00   2.82430434   0.03368196
9088.00   2.87280965   0.03418627
9090.00   2.81431985   0.03393259
9092.00   2.79134750   0.03353355
9094.00   2.79958224   0.03339148
9096.00   2.80397129   0.03336329
9098.00   2.79400635   0.03344697
9100.00   2.81637669   0.03407319
9102.00   2.76247144   0.03402237
9104.00   2.75610518   0.03399993
9106.00   2.79876590   0.03429213
9108.00   2.82237649   0.03452274
9110.00   2.75158501   0.03340035
9112.00   2.75212097   0.03235377
9114.00   2.78334427   0.03187485
9116.00   2.80171514   0.03202014
9118.00   2.79036641   0.03254355
9120.00   2.72637153   0.03274431
9122.00   2.69154930   0.03233083
9124.00   2.71080852   0.03190430
9126.00   2.74879551   0.03177471
9128.00   2.73476124   0.03191327
9130.00   2.69780278   0.03249466
9132.00   2.67066026   0.03314051
9134.00   2.68009639   0.03384862
9136.00   2.71072888   0.03445388
9138.00   2.69337773   0.03442661
9140.00   2.68186378   0.03345829
9142.00   2.72701836   0.03272990
9144.00   2.75280070   0.03215285
9146.00   2.71475673   0.03156501
9148.00   2.67250562   0.03134316
9150.00   2.68720889   0.03193277
9152.00   2.70886135   0.03318632
9154.00   2.70724869   0.03459327
9156.00   2.67896748   0.03547476
9158.00   2.64350128   0.03502598
9160.00   2.67942810   0.03423848
9162.00   2.71843910   0.03343653
9164.00   2.71612525   0.03264276
9166.00   2.68235183   0.03189184
9168.00   2.68973088   0.03162892
9170.00   2.65633178   0.03153940
9172.00   2.64220333   0.03200207
9174.00   2.65272832   0.03292429
9176.00   2.62936020   0.03363253
9178.00   2.59414268   0.03335114
9180.00   2.62354684   0.03281399
9182.00   2.67431736   0.03240880
9184.00   2.70066953   0.03227681
9186.00   2.66944981   0.03213118
9188.00   2.60283184   0.03147037
9190.00   2.60569644   0.03111451
9192.00   2.65623093   0.03124003
9194.00   2.69323945   0.03164039
9196.00   2.63977432   0.03173755
9198.00   2.59229255   0.03145699
9200.00   2.59659553   0.03109869
9202.00   2.63823771   0.03090013
9204.00   2.66100979   0.03086869
9206.00   2.65366054   0.03095860
9208.00   2.64843941   0.03112829
9210.00   2.63708115   0.03124192
9212.00   2.63160920   0.03143875
9214.00   2.66415882   0.03202678
9216.00   2.70788836   0.03290598
9218.00   2.76766610   0.03384624
9220.00   2.82082653   0.03447078
9222.00   2.84750152   0.03455249
9224.00   2.82337070   0.03398076
9226.00   2.75718021   0.03310409
9228.00   2.69205976   0.03238569
9230.00   2.64480138   0.03186359
9232.00   2.60788202   0.03142445
9234.00   2.56130385   0.03095097
9236.00   2.57005572   0.03100173
9238.00   2.57967591   0.03120612
9240.00   2.56193900   0.03125099
9242.00   2.52618527   0.03110424
9244.00   2.54431248   0.03126762
9246.00   2.53970456   0.03131394
9248.00   2.54312420   0.03133710
9250.00   2.54528284   0.03130664
9252.00   2.54861641   0.03127451
9254.00   2.54602408   0.03115840
9256.00   2.51222396   0.03072022
9258.00   2.52104759   0.03065096
9260.00   2.54027081   0.03082461
9262.00   2.51166034   0.03078117
9264.00   2.44561028   0.03036857
9266.00   2.45741487   0.03028461
9268.00   2.48077583   0.03023514
9270.00   2.48783588   0.03017315
9272.00   2.49411225   0.03032941
9274.00   2.45388579   0.03032285
9276.00   2.44065166   0.03063035
9278.00   2.45328164   0.03137590
9280.00   2.46672416   0.03226313
9282.00   2.45689988   0.03268277
9284.00   2.47125888   0.03294410
9286.00   2.49149251   0.03335242
9288.00   2.48349738   0.03345794
9290.00   2.44578528   0.03311677
9292.00   2.44027257   0.03301400
9294.00   2.47235894   0.03346957
9296.00   2.44911695   0.03389653
9298.00   2.42025828   0.03450431
9300.00   2.45437741   0.03590917
9302.00   2.46708035   0.03843664
9304.00   2.40967870   0.03990715
9306.00   2.43204379   0.04185580
9308.00   2.49336076   0.04552246
9310.00   2.46972537   0.05019205
9312.00   2.36490440   0.05034588
9314.00   2.41911483   0.04964667
9316.00   2.51035523   0.05116351
9318.00   2.48294067   0.05317388
9320.00   2.27847648   0.05151767
9322.00   2.33399391   0.05029452
9324.00   2.48203826   0.05220026
9326.00   2.48406625   0.05327554
9328.00   2.33961773   0.05069638
9330.00   2.33029580   0.04478145
9332.00   2.41810131   0.04167594
9334.00   2.44614124   0.04296818
9336.00   2.43552899   0.04648222
9338.00   2.42178035   0.04917771
9340.00   2.42092443   0.04924555
9342.00   2.49644446   0.05134243
9344.00   2.57482409   0.05501345
9346.00   2.43459439   0.05471028
9348.00   2.06348205   0.04665394
9350.00   2.09297585   0.03974947
9352.00   2.31772518   0.03721211
9354.00   2.43616605   0.04000457
9356.00   2.38084888   0.04397246
9358.00   2.25690651   0.04506112
9360.00   2.23644066   0.04354603
9362.00   2.28476644   0.04073873
9364.00   2.38683081   0.03920456
9366.00   2.46287274   0.03984441
9368.00   2.40407586   0.04234709
9370.00   2.31632876   0.05136691
9372.00   2.25332904   0.06378383
9374.00   2.25750422   0.06880831
9376.00   2.31887698   0.06615260
9378.00   2.38052154   0.06538436
9380.00   2.31362462   0.06654420
9382.00   2.21576381   0.05995731
9384.00   2.19295430   0.04894933
9386.00   2.26258659   0.04095075
9388.00   2.29398942   0.03867708
9390.00   2.21939015   0.03540115
9392.00   2.19940972   0.03316362
9394.00   2.22765040   0.03225713
9396.00   2.24446845   0.03226076
9398.00   2.23539448   0.03337478
9400.00   2.22757220   0.03537286
9402.00   2.22743964   0.03683422
9404.00   2.21957088   0.03718196
9406.00   2.21817279   0.03665670
9408.00   2.26560044   0.03611681
9410.00   2.26543260   0.03581225
9412.00   2.19720578   0.03543406
9414.00   2.14167523   0.03554100
9416.00   2.19689727   0.03707349
9418.00   2.20920277   0.03834064
9420.00   2.20561028   0.03892063
9422.00   2.19875169   0.03894904
9424.00   2.20654702   0.03877166
9426.00   2.24029446   0.03886661
9428.00   2.21375179   0.04090702
9430.00   2.11563683   0.04123788
9432.00   2.09311771   0.04042676
9434.00   2.21924400   0.04010108
9436.00   2.37413955   0.04268780
9438.00   2.25638270   0.04561517
9440.00   2.11784291   0.05118502
9442.00   2.03148913   0.05750551
9444.00   1.99516189   0.05994886
9446.00   2.08407331   0.05043266
9448.00   2.17876720   0.04156375
9450.00   2.16263509   0.03567077
9452.00   2.09478688   0.03434008
9454.00   2.11974692   0.03745165
9456.00   2.13130403   0.04303354
9458.00   2.07889533   0.04662352
9460.00   2.06392026   0.04873245
9462.00   2.08692670   0.04839957
9464.00   2.02906108   0.04338570
9466.00   2.01955771   0.03801927
9468.00   2.03855109   0.03558382
9470.00   2.01720929   0.03614544
9472.00   1.97038877   0.03876684
9474.00   2.05486822   0.04298432
9476.00   2.09960866   0.04540377
9478.00   2.06003976   0.04627885
9480.00   2.03359032   0.04725610
9482.00   2.06721210   0.04797445
9484.00   1.97032869   0.04367799
9486.00   1.94999504   0.03780471
9488.00   1.97422600   0.03357324
9490.00   2.01146746   0.03200933
9492.00   2.03620458   0.03241719
9494.00   2.10623884   0.03499024
9496.00   2.03052306   0.03830582
9498.00   1.95794439   0.04294882
9500.00   1.98082483   0.04820615
9502.00   2.05978298   0.05156045
9504.00   1.98753035   0.04673465
9506.00   1.92712533   0.04059013
9508.00   1.93137348   0.03536076
9510.00   1.96231651   0.03212677
9512.00   1.96437299   0.03089488
9514.00   1.96530688   0.03171236
9516.00   2.01877093   0.03486244
9518.00   2.02514267   0.03879914
9520.00   1.95983839   0.04194305
9522.00   1.94376743   0.04276785
9524.00   1.90558302   0.04143358
9526.00   1.89638913   0.03888584
9528.00   1.90785754   0.03673317
9530.00   1.92200243   0.03581085
9532.00   1.90941679   0.03492253
9534.00   1.97689021   0.03498292
9536.00   2.08236217   0.03594362
9538.00   2.13611054   0.03667245
9540.00   2.07576203   0.03624939
9542.00   2.04290485   0.03588172
9544.00   1.99021208   0.03609478
9546.00   1.91446733   0.03641789
9548.00   1.85022867   0.03645653
9550.00   1.82155287   0.03606950
9552.00   1.86690807   0.03619204
9554.00   1.87692606   0.03791166
9556.00   1.86433804   0.03981761
9558.00   1.82842743   0.03965729
9560.00   1.76729906   0.03587776
9562.00   1.81123030   0.03557779
9564.00   1.87608922   0.03931414
9566.00   1.87607861   0.04323012
9568.00   1.82536650   0.04489836
9570.00   1.81748772   0.04353935
9572.00   1.82180631   0.03977146
9574.00   1.78985441   0.03481761
9576.00   1.77467358   0.03102222
9578.00   1.78970957   0.03014779
9580.00   1.84946096   0.03193615
9582.00   1.80167830   0.03296775
9584.00   1.74169409   0.03235668
9586.00   1.73969615   0.03158328
9588.00   1.80362451   0.03243225
9590.00   1.79653275   0.03438036
9592.00   1.73904276   0.03572652
9594.00   1.71569633   0.03568144
9596.00   1.74622917   0.03465930
9598.00   1.79279673   0.03353912
9600.00   1.75924015   0.03215117
9602.00   1.72675598   0.03139142
9604.00   1.74597454   0.03207760
9606.00   1.78071415   0.03351152
9608.00   1.74871457   0.03415090
9610.00   1.69295156   0.03339129
9612.00   1.70002735   0.03238158
9614.00   1.71913397   0.03163637
9616.00   1.71524429   0.03159968
9618.00   1.69737685   0.03251395
9620.00   1.70074844   0.03372886
9622.00   1.69795609   0.03476776
9624.00   1.70071065   0.03535983
9626.00   1.71625078   0.03520591
9628.00   1.69729102   0.03367596
9630.00   1.67724454   0.03153015
9632.00   1.66909981   0.02970597
9634.00   1.67320096   0.02900100
9636.00   1.68781030   0.02994938
9638.00   1.68553591   0.03146432
9640.00   1.63242090   0.03153487
9642.00   1.59563506   0.03078909
9644.00   1.61395967   0.03041761
9646.00   1.66866636   0.03108341
9648.00   1.66072404   0.03136100
9650.00   1.62485850   0.03068503
9652.00   1.63123608   0.03011634
9654.00   1.65725124   0.02997238
9656.00   1.61396253   0.02969012
9658.00   1.57942331   0.02944688
9660.00   1.59276903   0.02992043
9662.00   1.61995351   0.03119610
9664.00   1.61041057   0.03252259
9666.00   1.57786131   0.03309560
9668.00   1.56983817   0.03288182
9670.00   1.58064640   0.03259383
9672.00   1.58361804   0.03188778
9674.00   1.58335304   0.03075534
9676.00   1.57451248   0.02968019
9678.00   1.55179214   0.02988714
9680.00   1.56389439   0.03111506
9682.00   1.55284357   0.03199889
9684.00   1.50967789   0.03186753
9686.00   1.53747845   0.03130020
9688.00   1.55172837   0.03011430
9690.00   1.53506327   0.02901289
9692.00   1.53019273   0.02883757
9694.00   1.54259980   0.02971856
9696.00   1.52832460   0.03093069
9698.00   1.53950584   0.03183398
9700.00   1.54024410   0.03235780
9702.00   1.52075994   0.03236216
9704.00   1.49379694   0.03159374
9706.00   1.51380205   0.03006079
9708.00   1.51552522   0.02910870
9710.00   1.50886786   0.02883627
9712.00   1.50842559   0.02924483
9714.00   1.49939978   0.03040900
9716.00   1.49365795   0.03251754
9718.00   1.48897207   0.03338910
9720.00   1.48965490   0.03337787
9722.00   1.48960364   0.03318893
9724.00   1.50365210   0.03328123
9726.00   1.46505487   0.03155791
9728.00   1.45232999   0.02968748
9730.00   1.45102310   0.02857470
9732.00   1.45273721   0.02876747
9734.00   1.47021806   0.03008893
9736.00   1.49246705   0.03173310
9738.00   1.46894550   0.03233118
9740.00   1.43464530   0.03202744
9742.00   1.44199026   0.03153759
9744.00   1.43683434   0.03073020
9746.00   1.42278492   0.02988532
9748.00   1.42810202   0.02947241
9750.00   1.44906676   0.02953947
9752.00   1.44241714   0.02949759
9754.00   1.42686307   0.02950239
9756.00   1.42109311   0.02923818
9758.00   1.41578925   0.02883426
9760.00   1.40529859   0.02848053
9762.00   1.39927018   0.02854203
9764.00   1.40982914   0.02880870
9766.00   1.39928377   0.02852291
9768.00   1.38503075   0.02784619
9770.00   1.38513660   0.02720797
9772.00   1.41351688   0.02720076
9774.00   1.41521871   0.02733175
9776.00   1.39970112   0.02745998
9778.00   1.38266718   0.02759450
9780.00   1.37825835   0.02789924
9782.00   1.38159466   0.02851284
9784.00   1.37486446   0.02957418
9786.00   1.36262071   0.03157827
9788.00   1.35874510   0.03396233
9790.00   1.34898794   0.03573233
9792.00   1.32712710   0.03691804
9794.00   1.30012810   0.03747325
9796.00   1.30949771   0.03655369
9798.00   1.33566999   0.03437938
9800.00   1.31536520   0.03223259
9802.00   1.32762575   0.03220999
9804.00   1.32534957   0.03178767
9806.00   1.30512571   0.03061165
9808.00   1.29833233   0.02943885
9810.00   1.34278023   0.02962082
9812.00   1.32841969   0.02971809
9814.00   1.32314599   0.02976831
9816.00   1.31252491   0.02953592
9818.00   1.29509437   0.02896608
9820.00   1.30111301   0.02844718
9822.00   1.31617284   0.02837835
9824.00   1.31345975   0.02844109
9826.00   1.29797435   0.02851401
9828.00   1.28524363   0.02854285
9830.00   1.27507639   0.02832093
9832.00   1.27884471   0.02810543
9834.00   1.27685964   0.02774843
9836.00   1.27481461   0.02737190
9838.00   1.26964033   0.02709269
9840.00   1.26328337   0.02704142
9842.00   1.28057027   0.02791232
9844.00   1.28791559   0.02940154
9846.00   1.27343786   0.03072914
9848.00   1.27961671   0.03148903
9850.00   1.30564237   0.03193605
9852.00   1.28849208   0.03158771
9854.00   1.26294303   0.03031714
9856.00   1.24585998   0.02854980
9858.00   1.24353957   0.02750701
9860.00   1.23224366   0.02722286
9862.00   1.22449756   0.02704403
9864.00   1.22180068   0.02746371
9866.00   1.22585309   0.02956253
9868.00   1.22887385   0.03407630
9870.00   1.20721090   0.03733203
9872.00   1.19791186   0.03879321
9874.00   1.21277678   0.03921782
9876.00   1.23299134   0.03875355
9878.00   1.21274185   0.03531532
9880.00   1.19740093   0.03132522
9882.00   1.19334078   0.02895488
9884.00   1.19558394   0.02843759
9886.00   1.19082034   0.02849817
9888.00   1.18622696   0.02882670
9890.00   1.18823552   0.03021723
9892.00   1.17784977   0.03168328
9894.00   1.15539110   0.03255455
9896.00   1.15076041   0.03274865
9898.00   1.17524481   0.03296370
9900.00   1.17764139   0.03194106
9902.00   1.16577673   0.03018079
9904.00   1.15696895   0.02863261
9906.00   1.14697289   0.02829235
9908.00   1.15867805   0.02994026
9910.00   1.17716539   0.03392996
9912.00   1.18109536   0.03778553
9914.00   1.17483914   0.03994161
9916.00   1.17875767   0.04023024
9918.00   1.16642487   0.03964404
9920.00   1.15661168   0.03698249
9922.00   1.14740241   0.03299503
9924.00   1.14614046   0.02962705
9926.00   1.12779534   0.02878319
9928.00   1.11847627   0.02841912
9930.00   1.12745678   0.02842686
9932.00   1.13634861   0.02861251
9934.00   1.12546933   0.02900710
9936.00   1.12212455   0.03058117
9938.00   1.13175142   0.03391444
9940.00   1.13396502   0.03793391
9942.00   1.14292657   0.04216659
9944.00   1.17489612   0.04613749
9946.00   1.13747108   0.04725127
9948.00   1.11607444   0.04643820
9950.00   1.09817708   0.04496343
9952.00   1.09359360   0.04387646
9954.00   1.09935391   0.04320976
9956.00   1.10445988   0.04339062
9958.00   1.12765563   0.04507190
9960.00   1.14444017   0.04621512
9962.00   1.13472545   0.04515726
9964.00   1.12777603   0.04185973
9966.00   1.11991894   0.03933309
9968.00   1.11308014   0.03711860
9970.00   1.10852802   0.03539194
9972.00   1.11996245   0.03468744
9974.00   1.14002550   0.03490769
9976.00   1.14446557   0.03485617
9978.00   1.11708784   0.03377645
9980.00   1.10409606   0.03245600
9982.00   1.11054671   0.03172497
9984.00   1.10605192   0.03127803
9986.00   1.12435079   0.03098004
9988.00   1.12907934   0.03071244
9990.00   1.12244546   0.03058014
9992.00   1.11634874   0.03072582
9994.00   1.12335491   0.03127723
9996.00   1.12068629   0.03222584
9998.00   1.12342107   0.03314619
10000.00   1.12823927   0.03368488
10002.00   1.12908876   0.03399816
10004.00   1.13275290   0.03449010
10006.00   1.11558032   0.03687794
10008.00   1.11847842   0.04234504
10010.00   1.15043461   0.04887924
10012.00   1.12594044   0.05243387
10014.00   1.08577776   0.05331422
10016.00   1.09753788   0.05265505
10018.00   1.11274636   0.04954603
10020.00   1.10322320   0.04429194
10022.00   1.08273411   0.04148322
10024.00   1.09376276   0.04124512
10026.00   1.11589527   0.04158791
10028.00   1.12337327   0.04125833
10030.00   1.12720239   0.03995064
10032.00   1.12886083   0.03724771
10034.00   1.11684811   0.03505870
10036.00   1.11174297   0.03426671
10038.00   1.12223947   0.03483886
10040.00   1.14882958   0.03604925
10042.00   1.12507951   0.03647968
10044.00   1.10857308   0.03662534
10046.00   1.10847521   0.03660857
10048.00   1.10927093   0.03615920
10050.00   1.09358168   0.03491683
10052.00   1.10739076   0.03430985
10054.00   1.13688934   0.03534058
10056.00   1.14774477   0.03728462
10058.00   1.12775743   0.03912912
10060.00   1.10270870   0.04019388
10062.00   1.10409892   0.04107039
10064.00   1.10608470   0.04143953
10066.00   1.09414375   0.04089716
10068.00   1.09020197   0.03975923
10070.00   1.09832609   0.03900606
10072.00   1.09667683   0.03858844
10074.00   1.08535850   0.03855569
10076.00   1.08619392   0.04024224
10078.00   1.09440267   0.04419169
10080.00   1.08470058   0.04859466
10082.00   1.07869434   0.05067376
10084.00   1.08235943   0.05125001
10086.00   1.08988357   0.05022420
10088.00   1.10600817   0.04699559
10090.00   1.11567366   0.04200969
10092.00   1.10418952   0.03892516
10094.00   1.08202803   0.03784778
10096.00   1.09160554   0.03842690
10098.00   1.10257220   0.03993532
10100.00   1.08312714   0.04221498
10102.00   1.07060087   0.04391648
10104.00   1.07839191   0.04482371
10106.00   1.09416330   0.04489000
10108.00   1.08176601   0.04389183
10110.00   1.04690254   0.04138258
10112.00   1.05983806   0.03946420
10114.00   1.07430708   0.03871838
10116.00   1.04603159   0.03950617
10118.00   1.05119598   0.04363863
10120.00   1.06127656   0.05062189
10122.00   1.08863533   0.05601884
10124.00   1.09797144   0.05859217
10126.00   1.08150530   0.05868459
10128.00   1.07855880   0.05723929
10130.00   1.03870213   0.05171063
10132.00   1.04292440   0.04605028
10134.00   1.06919348   0.04291155
10136.00   1.05677283   0.04208683
10138.00   1.03849518   0.04163647
10140.00   1.02381742   0.04174221
10142.00   1.02272463   0.04237084
10144.00   1.02550447   0.04341054
10146.00   1.01859844   0.04470032
10148.00   1.02939558   0.04733077
10150.00   1.01917183   0.04946905
10152.00   1.01496708   0.05110482
10154.00   1.02847087   0.05236426
10156.00   1.02742863   0.05278850
10158.00   1.05254066   0.05205867
10160.00   1.03060007   0.05012766
10162.00   1.01861846   0.04888793
10164.00   1.04504192   0.05004114
10166.00   1.09040987   0.05459452
10168.00   1.08962679   0.06155641
10170.00   1.05937481   0.06626146
10172.00   1.03735971   0.06814953
10174.00   1.04466403   0.06823813
10176.00   1.01825666   0.06624831
10178.00   1.00548923   0.06064272
10180.00   1.04051721   0.05559899
10182.00   1.07263100   0.05387758
10184.00   1.01177847   0.05534875
10186.00   1.05979931   0.05974767
10188.00   1.05947340   0.06212895
10190.00   1.04515398   0.06301361
10192.00   1.04129994   0.06287021
10194.00   1.02890289   0.06149338
10196.00   1.02366960   0.05734770
10198.00   1.05697238   0.05550440
10200.00   1.06757915   0.05591478
10202.00   1.01985276   0.05742269
10204.00   0.94752598   0.06023907
10206.00   0.97028500   0.06728502
10208.00   0.97769856   0.07255991
10210.00   1.00387704   0.07515881
10212.00   1.05624580   0.07536241
10214.00   1.04213929   0.07354070
10216.00   0.99788171   0.06771627
10218.00   0.99454141   0.06174470
10220.00   1.00918436   0.05923931
10222.00   0.99170297   0.06153861
10224.00   0.96174693   0.06489270
10226.00   0.96050042   0.06808213
10228.00   0.93734890   0.06987453
10230.00   0.93613380   0.06976623
10232.00   1.00994456   0.06764022
10234.00   1.03791606   0.06433564
10236.00   0.97930163   0.05992795
10238.00   0.95303422   0.05641563
10240.00   0.96486378   0.05456178
10242.00   0.93463939   0.05361547
10244.00   0.92451626   0.05326730
10246.00   0.95426518   0.05367276
10248.00   0.97236902   0.05408901
10250.00   0.96480322   0.05422262
10252.00   0.97373551   0.05479280
10254.00   0.96858364   0.05535466
10256.00   0.95596021   0.05579506
10258.00   0.95307976   0.05629086
10260.00   0.97052264   0.05720408
10262.00   0.95084667   0.05779091
10264.00   0.91439992   0.05854857
10266.00   0.91712290   0.06070088
10268.00   0.95337039   0.06349453
10270.00   0.96772575   0.06526820
10272.00   0.95773596   0.06615971
10274.00   0.96936291   0.06728024
10276.00   0.98196763   0.06785759
10278.00   0.94395471   0.07044057
10280.00   0.86113834   0.08030290
10282.00   0.79579651   0.10164648
10284.00   0.90147215   0.11854038
10286.00   0.89301699   0.12738337
10288.00   0.88004762   0.12989609
10290.00   0.92549342   0.12978746
10292.00   0.87776423   0.12100895
10294.00   0.91349322   0.10890019
10296.00   0.96878815   0.09995949
10298.00   0.98807126   0.09673981
10300.00   0.92082906   0.09287304
10302.00   0.99864531   0.08629658
10304.00   0.92512411   0.08008648
10306.00   0.88941383   0.07778186
10308.00   0.93121070   0.07928634
10310.00   0.85972255   0.07832962
10312.00   0.87260073   0.07824378
10314.00   0.91327643   0.07739981
10316.00   0.91324306   0.07499605
10318.00   0.84373474   0.07159410
10320.00   0.83835477   0.07129368
10322.00   0.90630341   0.07285728
10324.00   0.95934278   0.07484731
10326.00   0.95788932   0.07587703
10328.00   0.92074853   0.07576106
10330.00   0.86888218   0.07486119
10332.00   0.88909745   0.07593260
10334.00   0.90144509   0.07693268
10336.00   0.97484785   0.07778946
10338.00   1.00654817   0.08083733
10340.00   0.87292266   0.08239641
10342.00   0.86302304   0.08763363
10344.00   0.88570952   0.09402094
10346.00   0.88181537   0.09807681
10348.00   0.78312153   0.09862491
10350.00   0.84825754   0.10064179
10352.00   0.87905914   0.09923872
10354.00   0.87465078   0.09529874
10356.00   0.85952282   0.09085830
10358.00   0.80404788   0.08797730
10360.00   0.84273130   0.08740598
10362.00   0.83469301   0.08655536
10364.00   0.80298275   0.08803872
10366.00   0.82165498   0.09673915
10368.00   0.92241687   0.11763784
10370.00   0.89265221   0.13304467
10372.00   0.85124099   0.13993962
10374.00   0.83765864   0.14167084
10376.00   0.74963391   0.14151019
10378.00   0.89439756   0.13123912
10380.00   0.83967763   0.11407506
10382.00   0.77774578   0.10029310
10384.00   0.76693249   0.09540661
10386.00   0.82713461   0.09588280
10388.00   0.83200401   0.09674480
10390.00   0.83565509   0.10321242
10392.00   0.92520404   0.11112356
10394.00   0.84503812   0.11685661
10396.00   0.81919295   0.11988912
10398.00   0.78454572   0.12038952
10400.00   0.74920082   0.11769713
10402.00   0.78357571   0.11355319
10404.00   0.80983996   0.10790923
10406.00   0.89024472   0.10725012
10408.00   0.86157846   0.10593433
10410.00   0.79038745   0.10838435
10412.00   0.73123330   0.12150254
10414.00   0.65255851   0.14465602
10416.00   0.81894350   0.16227211
10418.00   0.68784612   0.17014332
10420.00   0.66834033   0.17269067
10422.00   0.71468484   0.16814303
10424.00   0.98072958   0.15234526
10426.00   0.72745204   0.13008691
10428.00   0.76332527   0.12071513
10430.00   0.89536166   0.11822515
10432.00   0.80410415   0.11526408
10434.00   0.77233601   0.11248580
10436.00   0.82580775   0.11299866
10438.00   0.83792925   0.11313728
10440.00   0.81745237   0.11295962
10442.00   0.80912179   0.11426883
10444.00   0.83752060   0.11990400
10446.00   0.82827884   0.12728584
10448.00   0.83784252   0.13416159
10450.00   0.78002995   0.13832498
10452.00   0.81163198   0.13896118
10454.00   0.67935085   0.13421227
10456.00   0.78277969   0.13154536
10458.00   0.83955932   0.12790345
10460.00   0.85975313   0.12511753
10462.00   0.56191134   0.12962469
10464.00   0.88412511   0.15059860
10466.00   0.88084626   0.16663523
10468.00   0.81226724   0.17465758
10470.00   0.90698767   0.17701600
10472.00   0.90082550   0.17683274
10474.00   0.99639511   0.16408008
10476.00   0.85094535   0.14788036
10478.00   0.90586907   0.13672389
10480.00   0.86779302   0.13339359
10482.00   0.82488465   0.13210037
10484.00   0.77703840   0.13129216
10486.00   0.73167020   0.12991512
10488.00   0.61900765   0.12826608
10490.00   0.62591690   0.12812133
10492.00   0.73088282   0.13015251
10494.00   0.78575850   0.13275918
10496.00   0.74943048   0.13327612
10498.00   0.72686148   0.13337629
10500.00   0.75525284   0.13438188
10502.00   0.89211136   0.13775146
10504.00   0.85092139   0.14634651
10506.00   0.90518624   0.15300345
10508.00   0.92067909   0.15477324
10510.00   0.78696412   0.15596747
10512.00   0.79493868   0.15520434
10514.00   0.81909198   0.15493329
10516.00   0.82334834   0.15394045
10518.00   0.72092152   0.15416929
10520.00   0.71167451   0.16112204
10522.00   0.77496928   0.16901684
10524.00   0.76783997   0.17309241
10526.00   0.66729200   0.17490554
10528.00   0.66728258   0.17282768
10530.00   0.67915767   0.16152309
10532.00   0.77677411   0.15291391
10534.00   0.81988478   0.15137483
10536.00   0.81938809   0.15121181
10538.00   0.84185946   0.14892024
10540.00   0.75287580   0.14781925
10542.00   0.75484198   0.14847262
10544.00   0.72563678   0.14673795
10546.00   0.67057353   0.14391564
10548.00   0.68154782   0.14515664
10550.00   0.70613396   0.14691250
10552.00   0.92880261   0.15675697
10554.00   0.79053783   0.15207170
10556.00   0.67586142   0.15288159
10558.00   0.66437173   0.15202351
10560.00   0.50845826   0.14954410
10562.00   0.64723516   0.15154353
10564.00   0.71414876   0.15356116
10566.00   0.74503535   0.15546419
10568.00   0.76924831   0.15631330
10570.00   0.66378307   0.15882558
10572.00   0.68907541   0.16059889
10574.00   0.60118163   0.15905580
10576.00   0.85103738   0.16345607
10578.00   0.67020881   0.16227774
10580.00   0.83637571   0.16946250
10582.00   0.87285572   0.17450307
10584.00   0.78762466   0.17413594
10586.00   0.71862626   0.17244227
10588.00   0.67370099   0.17340647
10590.00   0.90448701   0.17616464
10592.00   0.82109714   0.17095308
10594.00   0.71329480   0.16460939
10596.00   0.73944312   0.16499901
10598.00   0.62796658   0.16628678
10600.00   0.81266731   0.16974442
10602.00   1.06628919   0.17501122
10604.00   0.86864120   0.17577577
10606.00   0.90215456   0.17285919
10608.00   0.84964705   0.17133783
10610.00   0.71154922   0.16741095
10612.00   0.65347338   0.16816340
10614.00   0.60480690   0.16979937
10616.00   0.65905482   0.16480680
10618.00   0.59085506   0.17153175
10620.00   0.71805841   0.17338514
10622.00   0.71120352   0.17240798
10624.00   0.69003075   0.17220609
10626.00   1.01121092   0.18542200
10628.00   0.84720230   0.17831564
10630.00   0.44886217   0.17012073
10632.00   0.28503603   0.16123763
10634.00   0.47092971   0.16535790
10636.00   0.88123786   0.17707461
10638.00   0.62795496   0.17603308
10640.00   0.60433245   0.17537178
10642.00   0.65677410   0.17740403
10644.00   0.81327486   0.17745210
10646.00   0.78895408   0.18768798
10648.00   0.69414407   0.18468140
10650.00   0.70681494   0.18464966
10652.00   0.53867245   0.18817461
10654.00   0.59388953   0.18994914
10656.00   0.51810312   0.18790329
10658.00   0.64465415   0.18721426
10660.00   0.66595316   0.18958862
10662.00   0.70930272   0.19511692
10664.00   0.59878421   0.20465845
10666.00   0.85908473   0.20294772
10668.00   0.61862040   0.19040695
10670.00   0.58621299   0.19679773
10672.00   0.47106498   0.19795030
10674.00   0.90863127   0.21631059
10676.00   0.82026732   0.21561956
10678.00   0.66553670   0.20658801
10680.00   0.65569371   0.20249413
10682.00   0.69248915   0.21563256
10684.00   0.65996683   0.22370766
10686.00   0.64700985   0.22367285
10688.00   0.66398698   0.22961415
10690.00   0.70182872   0.23818320
10692.00   0.56954551   0.23532949
10694.00   0.48340952   0.24405731
10696.00   0.48382473   0.24538337
10698.00   0.39125687   0.24652036
10700.00   0.54984421   0.25035831
10702.00   0.60440022   0.25297341
10704.00   0.65101612   0.27069506
10706.00   0.68718880   0.28275341
10708.00   0.64997113   0.29305637
