# File created by shivutils (I.Shivvers)
# wl(A)   flm    er(optional)
3596.00   22.21123123   0.35777456
3598.00   22.22538567   0.35692742
3600.00   21.71446419   0.35049433
3602.00   21.87039375   0.34852362
3604.00   21.61929512   0.34453058
3606.00   21.55892372   0.34054801
3608.00   21.05982780   0.33614892
3610.00   20.52912140   0.33365926
3612.00   20.51511765   0.33396053
3614.00   20.18300247   0.33216292
3616.00   20.10792160   0.32974830
3618.00   20.10051346   0.32747012
3620.00   19.98076248   0.32632962
3622.00   19.08195496   0.32064834
3624.00   18.75691414   0.31988758
3626.00   18.31752777   0.31858349
3628.00   18.13175201   0.31426537
3630.00   17.32398033   0.30714378
3632.00   17.22848511   0.30347177
3634.00   16.26877975   0.29630512
3636.00   16.05717850   0.29506612
3638.00   15.84649372   0.29352814
3640.00   15.15616608   0.28849146
3642.00   14.75447083   0.28443441
3644.00   14.17013359   0.27852374
3646.00   13.62079334   0.27621534
3648.00   13.48346043   0.28187025
3650.00   13.06852531   0.28104770
3652.00   12.17870712   0.27423561
3654.00   12.08362770   0.26983389
3656.00   11.22810555   0.24664803
3658.00   10.97957993   0.25316146
3660.00   10.47666740   0.24843878
3662.00   9.93990135   0.23219502
3664.00   9.72228622   0.22602712
3666.00   9.25501442   0.23174156
3668.00   8.86255646   0.22571237
3670.00   8.37240314   0.20523509
3672.00   8.09912586   0.20271949
3674.00   8.11427021   0.20198475
3676.00   7.86715984   0.19758523
3678.00   7.54190016   0.19244432
3680.00   7.20985937   0.20250402
3682.00   7.06034851   0.18837327
3684.00   6.87506771   0.18397817
3686.00   6.77846575   0.19455218
3688.00   6.63980722   0.18056230
3690.00   6.09267282   0.17850137
3692.00   6.18544054   0.17574331
3694.00   6.13010454   0.17635787
3696.00   5.99080420   0.17471334
3698.00   5.93058872   0.17408478
3700.00   5.71630430   0.17235111
3702.00   5.75772715   0.16903551
3704.00   5.69662666   0.16830431
3706.00   5.80876160   0.16839263
3708.00   5.76209593   0.16780993
3710.00   5.45642710   0.16498733
3712.00   5.64931107   0.16734131
3714.00   5.53773022   0.16504474
3716.00   5.46522284   0.16345733
3718.00   5.54697895   0.16089720
3720.00   5.44440699   0.17063814
3722.00   5.68439960   0.17175287
3724.00   5.64270639   0.17204545
3726.00   5.55537653   0.15871803
3728.00   5.59045029   0.17181808
3730.00   5.66209221   0.17016092
3732.00   5.58887672   0.16632365
3734.00   5.72503614   0.16466279
3736.00   5.82872295   0.16480146
3738.00   5.72424984   0.16620067
3740.00   5.74787045   0.16774422
3742.00   5.89604378   0.16743489
3744.00   5.98221779   0.16527663
3746.00   5.97982597   0.16319492
3748.00   6.20749092   0.16404215
3750.00   6.35573483   0.16720833
3752.00   6.43172884   0.16994651
3754.00   6.51470137   0.17184037
3756.00   6.60900259   0.17120712
3758.00   6.91343021   0.17171718
3760.00   6.95932484   0.17096493
3762.00   7.34217834   0.17300892
3764.00   7.60911274   0.17452811
3766.00   7.90330553   0.17558114
3768.00   8.11655998   0.17712535
3770.00   8.38840103   0.18144181
3772.00   8.77606010   0.18697467
3774.00   8.97696877   0.18455866
3776.00   9.21073055   0.17388487
3778.00   9.37277699   0.18687975
3780.00   9.76795864   0.17695586
3782.00   9.83705616   0.18886037
3784.00   9.98319912   0.18885297
3786.00   10.11756611   0.18775013
3788.00   10.22011662   0.18717870
3790.00   10.40494728   0.18827718
3792.00   10.56038284   0.18770437
3794.00   11.01694107   0.18938735
3796.00   11.04652214   0.18849134
3798.00   11.16027355   0.18906669
3800.00   11.53125477   0.19222355
3802.00   11.66914654   0.19446610
3804.00   11.81894588   0.19543537
3806.00   12.01259518   0.19706047
3808.00   12.27144814   0.19826765
3810.00   12.31616497   0.19742139
3812.00   12.61656189   0.19767062
3814.00   12.43419838   0.19520938
3816.00   12.80742550   0.19572935
3818.00   12.76598930   0.19366576
3820.00   12.92495537   0.19344953
3822.00   13.00002098   0.19323590
3824.00   13.32045460   0.19283983
3826.00   13.35605049   0.19195762
3828.00   13.67940331   0.19327872
3830.00   13.86948490   0.19312428
3832.00   13.82490730   0.19191499
3834.00   13.92485523   0.19130339
3836.00   14.04632473   0.19085018
3838.00   14.45890903   0.19181509
3840.00   14.65321445   0.19290105
3842.00   14.70582962   0.19320135
3844.00   15.05462265   0.19489914
3846.00   15.28522682   0.19615097
3848.00   15.54296207   0.19617958
3850.00   15.83284187   0.19674289
3852.00   15.95834637   0.19674025
3854.00   16.45802307   0.19801727
3856.00   16.69134331   0.19757068
3858.00   16.94416809   0.19777507
3860.00   17.24018669   0.19919801
3862.00   17.48230743   0.20080186
3864.00   18.18303871   0.20364556
3866.00   18.41417694   0.20439880
3868.00   18.98208237   0.20566997
3870.00   19.29774475   0.20624384
3872.00   19.99241257   0.20955476
3874.00   20.40470123   0.21107046
3876.00   20.82510567   0.21221411
3878.00   21.73526001   0.21506652
3880.00   22.30920982   0.21671382
3882.00   22.56714630   0.21703056
3884.00   22.87721825   0.21787167
3886.00   23.45233536   0.22052436
3888.00   24.07429314   0.22390123
3890.00   24.32820511   0.22203153
3892.00   24.44444847   0.22284819
3894.00   24.99535942   0.22490065
3896.00   25.24733925   0.22551900
3898.00   25.39230156   0.22590649
3900.00   25.72321892   0.22675265
3902.00   25.98483276   0.22699429
3904.00   25.98834229   0.22708726
3906.00   26.23884773   0.22859156
3908.00   26.59327698   0.23046471
3910.00   26.93045998   0.23219572
3912.00   26.75945282   0.23143400
3914.00   26.93437195   0.23064755
3916.00   26.76926613   0.22843477
3918.00   27.06145859   0.22737183
3920.00   27.10588646   0.22612363
3922.00   27.43090248   0.22592990
3924.00   27.01847076   0.22362556
3926.00   27.24167442   0.22255489
3928.00   27.46689796   0.22201626
3930.00   27.15955353   0.22018848
3932.00   26.41592407   0.21693254
3934.00   26.87917328   0.21740688
3936.00   27.56670380   0.21966766
3938.00   27.60467529   0.21993124
3940.00   27.78113556   0.22112343
3942.00   28.26082420   0.22310233
3944.00   28.22186661   0.22369698
3946.00   28.25417328   0.22366560
3948.00   28.53618431   0.22460052
3950.00   29.03246689   0.22622253
3952.00   29.06433487   0.22558051
3954.00   28.45357895   0.22302157
3956.00   27.94458199   0.22095835
3958.00   28.78272629   0.22341518
3960.00   29.24156189   0.22398758
3962.00   29.45158195   0.22311798
3964.00   29.60606384   0.22196911
3966.00   29.57069206   0.22079751
3968.00   29.57161903   0.21956584
3970.00   29.62166977   0.21948782
3972.00   29.59589195   0.21978295
3974.00   29.27801323   0.21919382
3976.00   29.05654907   0.21897554
3978.00   28.62242126   0.21832022
3980.00   28.22133255   0.21715048
3982.00   28.33145142   0.21701545
3984.00   27.93247032   0.21572556
3986.00   27.57018661   0.21426576
3988.00   27.18969345   0.21278487
3990.00   26.37413406   0.21011847
3992.00   26.52955627   0.21034631
3994.00   26.33652878   0.20954829
3996.00   26.15896034   0.20890027
3998.00   26.05677605   0.20776621
4000.00   25.78654861   0.20650667
4002.00   25.60301018   0.20530604
4004.00   25.20672798   0.20321472
4006.00   24.99680519   0.20192976
4008.00   24.52198982   0.20031615
4010.00   24.53607178   0.20019664
4012.00   24.48636627   0.19988385
4014.00   24.13488770   0.19861525
4016.00   24.25230217   0.19904166
4018.00   24.09502983   0.19887872
4020.00   23.99347687   0.19930094
4022.00   24.19026947   0.20002316
4024.00   24.13820076   0.19931994
4026.00   24.26622009   0.19874041
4028.00   24.20849037   0.19757386
4030.00   24.11943245   0.19610095
4032.00   24.41787529   0.19583935
4034.00   24.26804924   0.19498703
4036.00   24.42163277   0.19535601
4038.00   24.70887375   0.19598101
4040.00   24.66580582   0.19557437
4042.00   24.92834091   0.19852701
4044.00   24.99552155   0.20417295
4046.00   25.32332230   0.20747416
4048.00   25.47339821   0.20517938
4050.00   25.77425003   0.20402087
4052.00   26.01412773   0.20272136
4054.00   26.37607193   0.20101595
4056.00   26.68754196   0.19981652
4058.00   26.86826134   0.19964136
4060.00   27.26141739   0.20017077
4062.00   27.73036766   0.20086323
4064.00   27.82365036   0.20112331
4066.00   27.88434792   0.20138733
4068.00   28.01435661   0.20145322
4070.00   28.34482384   0.20217508
4072.00   28.69028282   0.20321399
4074.00   28.97032356   0.20443720
4076.00   29.01330185   0.20496231
4078.00   29.29248619   0.20591532
4080.00   29.29542542   0.20594099
4082.00   29.37664223   0.20589343
4084.00   29.56199074   0.20631868
4086.00   29.76585197   0.20684749
4088.00   29.93927193   0.20676869
4090.00   30.22891808   0.20704518
4092.00   30.23183060   0.20651761
4094.00   30.65503883   0.20723961
4096.00   30.70122147   0.20696859
4098.00   30.69836617   0.20606430
4100.00   31.07902336   0.20640863
4102.00   31.01442146   0.20600633
4104.00   31.10582352   0.20617136
4106.00   31.04502487   0.20610033
4108.00   31.00655365   0.20591682
4110.00   30.92016602   0.20588669
4112.00   30.93362617   0.20606750
4114.00   30.76348305   0.20553122
4116.00   30.66735649   0.20513816
4118.00   30.84417343   0.20479122
4120.00   30.58912468   0.20363116
4122.00   30.65649605   0.20382990
4124.00   30.78150368   0.20354614
4126.00   30.42111588   0.20193696
4128.00   30.31965065   0.20122103
4130.00   30.41629791   0.20101175
4132.00   29.95475197   0.19910511
4134.00   30.02774811   0.19898316
4136.00   29.64035034   0.19775908
4138.00   29.26030540   0.19643283
4140.00   29.05920029   0.19508226
4142.00   28.84587860   0.19358762
4144.00   28.44351768   0.19176374
4146.00   28.09186172   0.19024839
4148.00   28.04515457   0.18953528
4150.00   27.44447136   0.18779840
4152.00   27.42527199   0.18718599
4154.00   27.19339752   0.18604764
4156.00   27.34243202   0.18594840
4158.00   26.85595512   0.18439724
4160.00   26.83892441   0.18412109
4162.00   26.77749062   0.18400949
4164.00   26.62484932   0.18385082
4166.00   26.64363480   0.18334782
4168.00   26.58936310   0.18235661
4170.00   26.69097900   0.18204910
4172.00   26.42149353   0.18048286
4174.00   26.24518776   0.17972939
4176.00   26.13858795   0.17941971
4178.00   26.18570137   0.17938709
4180.00   26.07883835   0.17863239
4182.00   26.03041077   0.17844015
4184.00   25.83828354   0.17769459
4186.00   25.98400497   0.17769250
4188.00   25.89937782   0.17747605
4190.00   25.70614815   0.17690110
4192.00   25.89437485   0.17718494
4194.00   25.63115120   0.17613050
4196.00   25.83964920   0.17607027
4198.00   25.79191017   0.17556959
4200.00   25.65363121   0.17499626
4202.00   25.47265625   0.17414385
4204.00   25.12769508   0.17319699
4206.00   25.11935997   0.17309415
4208.00   24.93812370   0.17250898
4210.00   24.51538467   0.17141755
4212.00   24.17022324   0.17002819
4214.00   24.01046371   0.16901787
4216.00   23.79817200   0.16792877
4218.00   23.67733574   0.16734706
4220.00   23.46125793   0.16607259
4222.00   23.09134483   0.16411735
4224.00   22.86140823   0.16244020
4226.00   22.73877335   0.16166413
4228.00   22.54867363   0.16127770
4230.00   22.14910507   0.15987152
4232.00   21.99704361   0.15911347
4234.00   21.57853699   0.15768047
4236.00   21.48582077   0.15710357
4238.00   21.09595871   0.15559396
4240.00   20.81855392   0.15417366
4242.00   20.76159859   0.15417017
4244.00   20.52375984   0.15384053
4246.00   20.29444885   0.15292361
4248.00   20.09644508   0.15154055
4250.00   19.94737434   0.15053014
4252.00   19.68637085   0.14928593
4254.00   19.41647148   0.14806305
4256.00   19.26636124   0.14714509
4258.00   18.92237663   0.14549245
4260.00   18.79208374   0.14487426
4262.00   18.68700790   0.14455719
4264.00   18.49191093   0.14375940
4266.00   18.21730614   0.14267258
4268.00   18.03561974   0.14145018
4270.00   17.82326889   0.14017454
4272.00   17.66397476   0.13934845
4274.00   17.42465591   0.13861237
4276.00   17.43717003   0.13844486
4278.00   17.16804886   0.13764590
4280.00   16.88195801   0.13655916
4282.00   16.90221214   0.13672850
4284.00   16.83233833   0.13629960
4286.00   16.66659355   0.13529280
4288.00   16.41870499   0.13440649
4290.00   16.44478989   0.13436477
4292.00   16.23484039   0.13368975
4294.00   16.09299469   0.13302234
4296.00   15.85639286   0.13191214
4298.00   15.68127728   0.13091114
4300.00   15.70730209   0.13053678
4302.00   15.46466160   0.12939487
4304.00   15.28154469   0.12840649
4306.00   15.11104870   0.12750958
4308.00   14.92409611   0.12683569
4310.00   14.74707031   0.12716235
4312.00   14.53182316   0.12741771
4314.00   14.46642876   0.12784863
4316.00   14.30265903   0.12812658
4318.00   14.50688744   0.12945294
4320.00   14.46962738   0.12937619
4322.00   14.34168720   0.12837319
4324.00   14.45095825   0.12818170
4326.00   14.55445004   0.12859638
4328.00   14.61773968   0.12900229
4330.00   14.89543724   0.12933315
4332.00   14.86895943   0.12931205
4334.00   15.10471153   0.12995057
4336.00   15.12451649   0.12957083
4338.00   15.27785778   0.12948038
4340.00   15.49952698   0.13012993
4342.00   15.68529034   0.13108814
4344.00   15.78720665   0.13181777
4346.00   16.01871109   0.13315025
4348.00   16.30287170   0.13386747
4350.00   16.26148224   0.13357235
4352.00   16.59399796   0.13507113
4354.00   16.75689507   0.14225833
4356.00   16.74086952   0.15035872
4358.00   17.03843307   0.15231672
4360.00   16.97749138   0.14904444
4362.00   17.30870056   0.14857621
4364.00   17.44452477   0.14623183
4366.00   17.43092918   0.14250211
4368.00   17.74727631   0.13995758
4370.00   17.85640526   0.13888989
4372.00   17.82709312   0.13875814
4374.00   18.10803795   0.13925202
4376.00   18.13428307   0.13904205
4378.00   18.22262764   0.13901140
4380.00   18.47682571   0.13899273
4382.00   18.65419769   0.13859345
4384.00   18.63517189   0.13826892
4386.00   18.82027245   0.13842918
4388.00   18.91634941   0.13836402
4390.00   19.17680168   0.13897464
4392.00   19.17904663   0.13887313
4394.00   19.29186249   0.13919479
4396.00   19.60927963   0.14007840
4398.00   19.57939529   0.14000067
4400.00   19.79796219   0.14032349
4402.00   19.87673569   0.14026925
4404.00   20.15367508   0.14064015
4406.00   20.16658211   0.14053652
4408.00   20.17089462   0.14055130
4410.00   20.07231522   0.13998629
4412.00   20.16583633   0.14026657
4414.00   20.17327881   0.14018884
4416.00   20.18396187   0.13989960
4418.00   20.07681847   0.13935222
4420.00   19.94904137   0.13878751
4422.00   19.88836670   0.13822439
4424.00   19.68050575   0.13745676
4426.00   19.35529900   0.13637392
4428.00   19.42459297   0.13634504
4430.00   19.08154297   0.13517132
4432.00   19.08793831   0.13489562
4434.00   18.93486595   0.13444644
4436.00   18.78736687   0.13428710
4438.00   18.72550964   0.13395746
4440.00   18.67593002   0.13376063
4442.00   18.69589996   0.13370457
4444.00   18.62555885   0.13360204
4446.00   18.58863640   0.13351791
4448.00   18.50436401   0.13324414
4450.00   18.67469978   0.13359919
4452.00   18.61555290   0.13315843
4454.00   18.64584541   0.13307212
4456.00   18.59752274   0.13302128
4458.00   18.57691193   0.13279867
4460.00   18.66419792   0.13300553
4462.00   18.96753502   0.13387536
4464.00   18.79384995   0.13339499
4466.00   19.04991722   0.13382453
4468.00   19.24208832   0.13434513
4470.00   19.20781136   0.13414736
4472.00   19.55327606   0.13500027
4474.00   19.64867783   0.13508014
4476.00   19.89308167   0.13537759
4478.00   20.06727982   0.13548486
4480.00   20.06560135   0.13509780
4482.00   20.47421265   0.13610932
4484.00   20.77621460   0.13669898
4486.00   21.03694916   0.13721539
4488.00   21.10048103   0.13734238
4490.00   21.46626472   0.13832071
4492.00   21.66666794   0.13873962
4494.00   21.80422783   0.13894327
4496.00   22.05840874   0.13972834
4498.00   22.25347900   0.14010571
4500.00   22.29262543   0.14025281
4502.00   22.55268669   0.14079741
4504.00   22.90416527   0.14182463
4506.00   23.13896179   0.14240283
4508.00   23.25788116   0.14267348
4510.00   23.43631363   0.14303303
4512.00   23.58480453   0.14328347
4514.00   23.74395752   0.14361131
4516.00   24.04477119   0.14445615
4518.00   23.88495064   0.14404619
4520.00   23.96141243   0.14420159
4522.00   24.21411133   0.14468345
4524.00   24.24719429   0.14452682
4526.00   24.33483887   0.14456034
4528.00   24.38948631   0.14462824
4530.00   24.38850212   0.14458194
4532.00   24.56383896   0.14489534
4534.00   24.71984482   0.14519022
4536.00   24.72298241   0.14538997
4538.00   24.94787979   0.14586620
4540.00   24.84356880   0.14564945
4542.00   24.91590118   0.14568020
4544.00   25.03794098   0.14568852
4546.00   24.79599571   0.14485936
4548.00   24.91069412   0.14473772
4550.00   24.77960587   0.14428523
4552.00   24.71073914   0.14375125
4554.00   24.50760078   0.14319627
4556.00   24.27950287   0.14241469
4558.00   24.28042984   0.14215834
4560.00   24.10429955   0.14151236
4562.00   23.88738251   0.14066993
4564.00   23.68431282   0.13988313
4566.00   23.50687218   0.13919154
4568.00   23.29254341   0.13840140
4570.00   23.35585785   0.13819224
4572.00   23.20066071   0.13755761
4574.00   23.05405235   0.13696845
4576.00   22.74228096   0.13599887
4578.00   22.62768555   0.13536261
4580.00   22.61574173   0.13494082
4582.00   22.46124268   0.13426751
4584.00   22.46367264   0.13413866
4586.00   22.43716431   0.13403659
4588.00   22.33936691   0.13391691
4590.00   22.35343361   0.13390893
4592.00   22.48271370   0.13419491
4594.00   22.57131577   0.13444847
4596.00   22.20536423   0.13363144
4598.00   22.50407219   0.13437164
4600.00   22.34498596   0.13409624
4602.00   22.59553909   0.13471705
4604.00   22.51575851   0.13473982
4606.00   22.61607552   0.13535401
4608.00   22.75299835   0.13577458
4610.00   22.74109650   0.13592365
4612.00   22.98465538   0.13673349
4614.00   23.04817390   0.13701031
4616.00   23.13589859   0.13743691
4618.00   23.01833534   0.13723378
4620.00   23.09818649   0.13760859
4622.00   23.01898766   0.13752922
4624.00   23.15457153   0.13787599
4626.00   23.11970329   0.13777950
4628.00   23.00923729   0.13750957
4630.00   22.93873405   0.13725078
4632.00   22.80998802   0.13688290
4634.00   22.87232971   0.13695112
4636.00   22.77330971   0.13656506
4638.00   22.54044151   0.13580072
4640.00   22.51515579   0.13570319
4642.00   22.33122253   0.13503475
4644.00   22.12810898   0.13439967
4646.00   21.81064987   0.13351873
4648.00   21.82383537   0.13331653
4650.00   21.58394814   0.13256510
4652.00   21.24376297   0.13153875
4654.00   20.88475418   0.13062264
4656.00   20.83846855   0.13038509
4658.00   20.40986824   0.12928072
4660.00   20.10576439   0.12837012
4662.00   19.79456520   0.12729570
4664.00   19.43165016   0.12615258
4666.00   19.10240555   0.12500456
4668.00   18.92648315   0.12460062
4670.00   18.61953354   0.12353414
4672.00   18.34976006   0.12270591
4674.00   18.06945038   0.12167346
4676.00   17.87408066   0.12092243
4678.00   17.79420471   0.12039344
4680.00   17.53387451   0.11969174
4682.00   17.28661919   0.11876989
4684.00   17.22247505   0.11844911
4686.00   17.00817871   0.11764929
4688.00   16.99203682   0.11726239
4690.00   16.80805016   0.11681317
4692.00   16.94248009   0.11726262
4694.00   16.81839752   0.11663008
4696.00   16.70673943   0.11635649
4698.00   16.72007751   0.11604422
4700.00   16.73150253   0.11601132
4702.00   16.77593422   0.11594514
4704.00   16.80778503   0.11602957
4706.00   16.77092934   0.11600636
4708.00   16.94669914   0.11630216
4710.00   16.78493500   0.11602347
4712.00   16.77724266   0.11593659
4714.00   16.79588509   0.11596170
4716.00   16.85515404   0.11607385
4718.00   16.85071564   0.11622219
4720.00   16.89078903   0.11617242
4722.00   16.95900154   0.11633965
4724.00   16.80850601   0.11600135
4726.00   16.77514839   0.11601966
4728.00   16.79376793   0.11601342
4730.00   16.69640160   0.11575462
4732.00   16.53897667   0.11555644
4734.00   16.59968376   0.11568286
4736.00   16.31649208   0.11515105
4738.00   16.43686104   0.11562914
4740.00   16.26919746   0.11534324
4742.00   16.10474777   0.11487015
4744.00   15.98906612   0.11405978
4746.00   15.89109707   0.11355818
4748.00   15.72468472   0.11281365
4750.00   15.73999691   0.11253639
4752.00   15.42638588   0.11136405
4754.00   15.42229366   0.11090805
4756.00   15.26830292   0.11030265
4758.00   15.04400349   0.10956682
4760.00   14.78599167   0.10854372
4762.00   14.83141327   0.10823110
4764.00   14.76297474   0.10795194
4766.00   14.66189861   0.10758223
4768.00   14.49316597   0.10693058
4770.00   14.40891838   0.10662273
4772.00   14.40472317   0.10658796
4774.00   14.31429195   0.10641202
4776.00   14.16538048   0.10626192
4778.00   14.26609230   0.10654557
4780.00   14.19792366   0.10616716
4782.00   14.19655418   0.10598274
4784.00   14.28274822   0.10623949
4786.00   14.20436668   0.10594714
4788.00   14.17334652   0.10562565
4790.00   14.20234299   0.10561632
4792.00   14.29550266   0.10581728
4794.00   14.39601326   0.10609265
4796.00   14.55473423   0.10637227
4798.00   14.77066040   0.10708793
4800.00   14.80665112   0.10712322
4802.00   15.04668713   0.10779706
4804.00   15.18350506   0.10811517
4806.00   15.25972939   0.10834200
4808.00   15.53847980   0.10913137
4810.00   15.56339455   0.10920575
4812.00   15.83598423   0.10998806
4814.00   15.91840458   0.11025195
4816.00   15.94914818   0.11051455
4818.00   15.94794369   0.11047517
4820.00   16.00390434   0.11063763
4822.00   16.01411819   0.11067924
4824.00   15.91614056   0.11051989
4826.00   16.00166130   0.11073542
4828.00   15.91993904   0.11036692
4830.00   15.72941589   0.10989408
4832.00   15.72370911   0.10992023
4834.00   15.60343266   0.10957327
4836.00   15.50829887   0.10928170
4838.00   15.42778015   0.10901313
4840.00   15.15712738   0.10827692
4842.00   15.19866848   0.10829412
4844.00   14.99209976   0.10769626
4846.00   14.70703411   0.10681458
4848.00   14.56242752   0.10627879
4850.00   14.33578205   0.10547815
4852.00   14.28341579   0.10507964
4854.00   13.98555374   0.10402133
4856.00   13.71631336   0.10298973
4858.00   13.76520634   0.10269019
4860.00   13.37430954   0.10156060
4862.00   13.17410088   0.10084932
4864.00   13.12191486   0.10057302
4866.00   12.89227581   0.09998884
4868.00   12.71797085   0.09938039
4870.00   12.58789539   0.09900288
4872.00   12.39396477   0.09846058
4874.00   12.13541222   0.09782144
4876.00   11.96432686   0.09737153
4878.00   11.99311543   0.09732455
4880.00   11.84297562   0.09684165
4882.00   11.58349991   0.09600509
4884.00   11.60743713   0.09582426
4886.00   11.45202160   0.09518214
4888.00   11.46152878   0.09500625
4890.00   11.41782188   0.09487437
4892.00   11.49800873   0.09515709
4894.00   11.36011410   0.09459872
4896.00   11.43834019   0.09500396
4898.00   11.47016621   0.09511123
4900.00   11.54399490   0.09524658
4902.00   11.40597534   0.09483399
4904.00   11.40450191   0.09490898
4906.00   11.49162388   0.09512328
4908.00   11.52891445   0.09515464
4910.00   11.65265369   0.09549829
4912.00   11.77665710   0.09585581
4914.00   11.83009148   0.09608469
4916.00   11.81634903   0.09565594
4918.00   11.85644627   0.09571393
4920.00   11.99191475   0.09596597
4922.00   12.08633137   0.09617581
4924.00   12.18399715   0.09645623
4926.00   12.12314701   0.09630367
4928.00   12.24485779   0.09650425
4930.00   12.44632721   0.09712058
4932.00   12.40882492   0.09703273
4934.00   12.41779613   0.09694699
4936.00   12.45813560   0.09692956
4938.00   12.51402569   0.09702577
4940.00   12.47588444   0.09690519
4942.00   12.49076462   0.09695056
4944.00   12.50393009   0.09688674
4946.00   12.59366798   0.09717695
4948.00   12.56528568   0.09702090
4950.00   12.58287907   0.09715015
4952.00   12.73400497   0.09760532
4954.00   12.77330875   0.09746973
4956.00   12.76211643   0.09739369
4958.00   12.94042206   0.09801152
4960.00   12.86846447   0.09771193
4962.00   12.92969036   0.09793198
4964.00   12.92039871   0.09788170
4966.00   13.09548187   0.09831092
4968.00   13.01396561   0.09832454
4970.00   12.97466373   0.09841090
4972.00   13.03871155   0.09875026
4974.00   12.94955444   0.09857378
4976.00   13.01070690   0.09910179
4978.00   12.96832657   0.09930585
4980.00   12.90718365   0.09933663
4982.00   13.00114536   0.09965468
4984.00   12.96242714   0.09954018
4986.00   12.93364811   0.09944531
4988.00   12.88005924   0.09915903
4990.00   12.81925011   0.09876782
4992.00   12.81349850   0.09850497
4994.00   12.89087200   0.09838939
4996.00   12.79856300   0.09784596
4998.00   12.75843334   0.09743115
5000.00   12.74922943   0.09712274
5002.00   12.76503849   0.09708978
5004.00   12.86012173   0.09708620
5006.00   12.86303616   0.09704188
5008.00   12.92368507   0.09705897
5010.00   12.78400517   0.09649581
5012.00   13.06324482   0.09718964
5014.00   12.98601151   0.09700333
5016.00   13.07495880   0.09732669
5018.00   13.08943081   0.09733251
5020.00   13.08098125   0.09728950
5022.00   13.13291168   0.09740993
5024.00   13.31890965   0.09791854
5026.00   13.22893333   0.09770302
5028.00   13.25360966   0.09788474
5030.00   13.39794350   0.09830860
5032.00   13.49889374   0.09850382
5034.00   13.67848110   0.09883950
5036.00   13.67186260   0.09872763
5038.00   13.86817074   0.09925645
5040.00   13.83564949   0.09911110
5042.00   13.78407669   0.09895866
5044.00   13.86809254   0.09916799
5046.00   13.87175083   0.09899686
5048.00   13.99267292   0.09926420
5050.00   14.07629490   0.09960132
5052.00   14.13329506   0.09980287
5054.00   14.22470570   0.10013033
5056.00   14.27929020   0.10019484
5058.00   14.17800331   0.09995580
5060.00   14.39253521   0.10073663
5062.00   14.31814194   0.10054497
5064.00   14.40534973   0.10080149
5066.00   14.66527748   0.10171399
5068.00   14.73628616   0.10202374
5070.00   14.77686691   0.10208748
5072.00   14.95468903   0.10262806
5074.00   15.09059620   0.10285950
5076.00   15.18618584   0.10322217
5078.00   15.39749527   0.10410178
5080.00   15.43830395   0.10493311
5082.00   15.59144211   0.10580501
5084.00   15.67696762   0.10618942
5086.00   15.88637543   0.10669814
5088.00   16.03187561   0.10690280
5090.00   16.03903389   0.10666916
5092.00   16.24942017   0.10703079
5094.00   16.27960396   0.10676257
5096.00   16.28223228   0.10670281
5098.00   16.47463226   0.10690886
5100.00   16.60582352   0.10697500
5102.00   16.68873024   0.10704853
5104.00   16.88811302   0.10740959
5106.00   16.97655869   0.10750079
5108.00   17.04336166   0.10765538
5110.00   17.07074928   0.10763766
5112.00   17.09936714   0.10771597
5114.00   17.40568924   0.10847068
5116.00   17.46008492   0.10859752
5118.00   17.53305626   0.10873910
5120.00   17.61797905   0.10889073
5122.00   17.62146378   0.10875677
5124.00   17.85478020   0.10929105
5126.00   17.92153740   0.10946885
5128.00   18.19402885   0.11008550
5130.00   18.23784065   0.11008745
5132.00   18.17444801   0.10993642
5134.00   18.31167412   0.11028067
5136.00   18.34025002   0.11028686
5138.00   18.34530258   0.11031451
5140.00   18.45869827   0.11050829
5142.00   18.43591881   0.11049051
5144.00   18.49466133   0.11066548
5146.00   18.47930527   0.11071838
5148.00   18.49088669   0.11084086
5150.00   18.29340744   0.11047094
5152.00   18.39234352   0.11076248
5154.00   18.22125626   0.11037565
5156.00   18.30820656   0.11047681
5158.00   18.16441917   0.11009743
5160.00   18.16121292   0.10988185
5162.00   18.04132080   0.10948251
5164.00   17.99147224   0.10902882
5166.00   17.94214439   0.10876250
5168.00   17.82862091   0.10824256
5170.00   17.72072601   0.10773046
5172.00   17.77074432   0.10794297
5174.00   17.65582657   0.10768247
5176.00   17.56232452   0.10750639
5178.00   17.59995079   0.10745511
5180.00   17.51796532   0.10712107
5182.00   17.43003082   0.10688149
5184.00   17.38656616   0.10693859
5186.00   17.35187340   0.10689961
5188.00   17.50239944   0.10713264
5190.00   17.45430946   0.10705220
5192.00   17.46078873   0.10708944
5194.00   17.55402756   0.10757928
5196.00   17.55351448   0.10768423
5198.00   17.46986389   0.10786913
5200.00   17.46442413   0.10753857
5202.00   17.61177063   0.10784074
5204.00   17.55827522   0.10755033
5206.00   17.53100395   0.10754400
5208.00   17.73663521   0.10815022
5210.00   17.74382401   0.10817830
5212.00   17.73239899   0.10795259
5214.00   17.82929420   0.10823373
5216.00   17.91406822   0.10853241
5218.00   17.91267776   0.10857915
5220.00   18.11439514   0.10892673
5222.00   18.07383919   0.10875232
5224.00   18.02660561   0.10851669
5226.00   18.10255814   0.10871121
5228.00   18.10795403   0.10871466
5230.00   18.07467079   0.10852069
5232.00   18.02861023   0.10832696
5234.00   17.98803711   0.10822057
5236.00   17.95286560   0.10816522
5238.00   17.92393875   0.10803668
5240.00   17.82785797   0.10769592
5242.00   17.62000465   0.10718293
5244.00   17.46898842   0.10675210
5246.00   17.31895828   0.10623813
5248.00   17.19979668   0.10585573
5250.00   17.00451660   0.10527392
5252.00   16.84717560   0.10476630
5254.00   16.57104874   0.10407332
5256.00   16.33257866   0.10341015
5258.00   16.08097267   0.10264340
5260.00   15.78197765   0.10167859
5262.00   15.56764889   0.10091645
5264.00   15.30525398   0.10014983
5266.00   15.12369347   0.09949698
5268.00   14.82781982   0.09856871
5270.00   14.67000580   0.09806063
5272.00   14.41065407   0.09727599
5274.00   14.19299126   0.09663767
5276.00   13.88267517   0.09566286
5278.00   13.73658466   0.09530784
5280.00   13.52753830   0.09473647
5282.00   13.39591980   0.09427688
5284.00   13.18567657   0.09376258
5286.00   13.00439262   0.09315360
5288.00   12.88395309   0.09279299
5290.00   12.76013088   0.09242541
5292.00   12.69195747   0.09211365
5294.00   12.51942921   0.09150241
5296.00   12.48831749   0.09137942
5298.00   12.42544365   0.09126297
5300.00   12.21743393   0.09066155
5302.00   12.32616043   0.09085140
5304.00   12.21252441   0.09026455
5306.00   12.11153507   0.09021875
5308.00   12.05543900   0.08987197
5310.00   11.95743942   0.08967067
5312.00   12.03476048   0.08980019
5314.00   11.98316097   0.08959189
5316.00   11.92962265   0.08932737
5318.00   11.93421650   0.08938017
5320.00   12.09032917   0.08976203
5322.00   11.95535278   0.08920451
5324.00   11.98673820   0.08918276
5326.00   12.08241081   0.08946431
5328.00   11.96662140   0.08911788
5330.00   11.90266991   0.08890060
5332.00   12.00714588   0.08918896
5334.00   12.04979801   0.08925764
5336.00   11.97299194   0.08913959
5338.00   11.91798306   0.08900594
5340.00   12.04972649   0.08948528
5342.00   11.95800781   0.08920055
5344.00   12.01086521   0.08944542
5346.00   11.93163776   0.08947971
5348.00   12.06363964   0.08998220
5350.00   12.07758713   0.09003321
5352.00   12.10616016   0.09031069
5354.00   12.09603596   0.09040388
5356.00   12.22617149   0.09079066
5358.00   12.14454174   0.09039168
5360.00   12.23999882   0.09071041
5362.00   12.31161308   0.09085774
5364.00   12.39531898   0.09108163
5366.00   12.59009361   0.09160022
5368.00   12.60213852   0.09165751
5370.00   12.69068718   0.09197286
5372.00   12.83211708   0.09255490
5374.00   12.91494751   0.09300480
5376.00   12.86102581   0.09287972
5378.00   13.04384613   0.09354056
5380.00   13.19581604   0.09404220
5382.00   13.21114540   0.09419430
5384.00   13.30030727   0.09458190
5386.00   13.38284302   0.09499360
5388.00   13.49892902   0.09582719
5390.00   13.60879230   0.09641441
5392.00   13.60375404   0.09688136
5394.00   13.62432480   0.09730212
5396.00   13.86720753   0.09878045
5398.00   14.01717186   0.09991691
5400.00   14.09616661   0.10084064
5402.00   14.10376072   0.10141074
5404.00   14.21730423   0.10253410
5406.00   14.30395603   0.10343421
5408.00   14.42871189   0.10438451
5410.00   14.27843666   0.10451615
5412.00   14.24402237   0.10497945
5414.00   14.28685379   0.10572940
5416.00   14.34353256   0.10606115
5418.00   14.11431122   0.10578760
5420.00   14.10139370   0.10598081
5422.00   14.03379440   0.10605955
5424.00   13.96165562   0.10608225
5426.00   13.82083607   0.10565646
5428.00   13.71445942   0.10555763
5430.00   13.67807865   0.10552832
5432.00   13.43890953   0.10507511
5434.00   13.24068546   0.10464118
5436.00   13.21834946   0.10489652
5438.00   13.07289124   0.10476840
5440.00   12.92310333   0.10458464
5442.00   12.81270409   0.10471223
5444.00   12.63871288   0.10455349
5446.00   12.56629276   0.10480218
5448.00   12.39975357   0.10456580
5450.00   12.35200214   0.10484763
5452.00   12.14222050   0.10464461
5454.00   11.99888802   0.10569909
5456.00   11.79885006   0.10950176
5458.00   11.73962688   0.11295908
5460.00   11.65235996   0.11253174
5462.00   11.59305382   0.11143791
5464.00   11.38819790   0.11073077
5466.00   11.20324802   0.11020093
5468.00   11.13271332   0.10969831
5470.00   11.04212761   0.10830592
5472.00   10.98035049   0.10731199
5474.00   10.90815163   0.10637527
5476.00   10.80634403   0.10548980
5478.00   10.77922249   0.10544876
5480.00   10.59500313   0.10496871
5482.00   10.70566559   0.10529944
5484.00   10.64490509   0.10501547
5486.00   10.51451397   0.10477911
5488.00   10.52644444   0.10496472
5490.00   10.49979401   0.10502880
5492.00   10.46520138   0.10489221
5494.00   10.63972092   0.10556921
5496.00   10.63014126   0.10586262
5498.00   10.64247513   0.10600569
5500.00   10.60120010   0.10592944
5502.00   10.80021954   0.10665768
5504.00   10.82014561   0.10695903
5506.00   10.90120792   0.10767434
5508.00   10.99809265   0.10847741
5510.00   11.11898994   0.10926881
5512.00   11.24223518   0.10995017
5514.00   11.40498161   0.11086354
5516.00   11.60942268   0.11209780
5518.00   11.71073151   0.11285201
5520.00   11.85197544   0.11359411
5522.00   12.04835224   0.11446263
5524.00   12.32189178   0.12945522
5526.00   12.55645466   0.12887271
5528.00   12.78516769   0.12825793
5530.00   12.88984394   0.12710674
5532.00   12.99789047   0.12604986
5534.00   13.19117260   0.12543094
5536.00   13.41437435   0.12497034
5538.00   13.50089931   0.12404443
5540.00   13.58954620   0.12318331
5542.00   13.77722645   0.12270772
5544.00   13.98441792   0.12220246
5546.00   14.02710342   0.12111696
5548.00   14.19972134   0.12059931
5550.00   14.34001923   0.11988524
5552.00   14.46145630   0.11908338
5554.00   14.61165619   0.11839179
5556.00   14.82276440   0.11800023
5558.00   14.90607929   0.11727671
5560.00   14.96856785   0.11648795
5562.00   15.12751102   0.11616456
5564.00   15.34502697   0.11631969
5566.00   15.48496246   0.11630230
5568.00   15.57286549   0.11659684
5570.00   15.48067951   0.11713851
5572.00   15.42553997   0.11754987
5574.00   15.56996632   0.11790266
5576.00   15.69765949   0.11900180
5578.00   15.65327454   0.11801855
5580.00   15.56491375   0.11605646
5582.00   15.61210346   0.11398518
5584.00   15.75683308   0.11162781
5586.00   15.71242809   0.10840648
5588.00   15.67817211   0.10622992
5590.00   15.60510349   0.10489237
5592.00   15.54605770   0.10407275
5594.00   15.46483898   0.10318663
5596.00   15.37848282   0.10222990
5598.00   15.38429546   0.10159553
5600.00   15.38323975   0.10100508
5602.00   15.36472034   0.10034710
5604.00   15.38886738   0.09975245
5606.00   15.34032917   0.09906820
5608.00   15.41021252   0.09872222
5610.00   15.44627094   0.09826355
5612.00   15.44069767   0.09766901
5614.00   15.57091045   0.09748556
5616.00   15.62577820   0.09685957
5618.00   15.66977596   0.09744371
5620.00   15.75224781   0.09799454
5622.00   15.86669254   0.09752091
5624.00   15.87521267   0.09561557
5626.00   15.92934418   0.09548052
5628.00   15.91752625   0.09482826
5630.00   15.84429646   0.09400604
5632.00   15.77705860   0.09335760
5634.00   15.81548977   0.09298273
5636.00   15.85177135   0.09256113
5638.00   15.85192871   0.09205904
5640.00   15.82748127   0.09153955
5642.00   15.77972889   0.09100797
5644.00   15.75870800   0.09052598
5646.00   15.76453114   0.09006288
5648.00   15.72775650   0.08949882
5650.00   15.61072540   0.08872143
5652.00   15.49592876   0.08795426
5654.00   15.47293472   0.08762208
5656.00   15.37164688   0.08696105
5658.00   15.32829285   0.08624151
5660.00   15.29170704   0.08596898
5662.00   15.21375656   0.08666552
5664.00   15.11370850   0.09049124
5666.00   15.09598446   0.09023026
5668.00   15.12416458   0.09818640
5670.00   15.24433231   0.09637628
5672.00   15.39594173   0.10107159
5674.00   14.96720123   0.09685728
5676.00   14.78991222   0.10269462
5678.00   14.81850529   0.10088302
5680.00   15.26335621   0.09564839
5682.00   15.78363514   0.09961742
5684.00   15.54973698   0.12770505
5686.00   15.91527653   0.11468989
5688.00   16.18435097   0.11379497
5690.00   16.10299492   0.09789056
5692.00   15.69470501   0.08949000
5694.00   15.73886204   0.08681677
5696.00   15.81269836   0.08451986
5698.00   15.79089069   0.08328760
5700.00   15.75094604   0.08201858
5702.00   15.79422092   0.08006391
5704.00   15.83028793   0.07945737
5706.00   15.79281330   0.07901970
5708.00   15.80030727   0.07873652
5710.00   15.85118389   0.07856777
5712.00   15.83670044   0.07830717
5714.00   15.92040730   0.07827265
5716.00   15.87022114   0.07791537
5718.00   15.83769703   0.07755636
5720.00   15.90124798   0.07743400
5722.00   15.89411640   0.07721774
5724.00   15.87508678   0.07695008
5726.00   15.87350178   0.07671501
5728.00   15.88172150   0.07652652
5730.00   15.87090588   0.07632968
5732.00   15.81891632   0.07601749
5734.00   15.71466351   0.07557870
5736.00   15.69007492   0.07539492
5738.00   15.64413452   0.07520371
5740.00   15.54887867   0.07485023
5742.00   15.56663227   0.07472069
5744.00   15.51414490   0.07448371
5746.00   15.41028881   0.07416680
5748.00   15.29913807   0.07383271
5750.00   15.23095703   0.07357636
5752.00   15.14547253   0.07327988
5754.00   15.06820393   0.07298643
5756.00   14.97745228   0.07283025
5758.00   14.91285419   0.07297932
5760.00   14.89661884   0.07330012
5762.00   14.79644489   0.07266774
5764.00   14.69433689   0.07243955
5766.00   14.58006573   0.07243640
5768.00   14.48626041   0.07237657
5770.00   14.41360474   0.07216881
5772.00   14.35601807   0.07177706
5774.00   14.28237629   0.07132309
5776.00   14.19432354   0.07076275
5778.00   14.09941864   0.07019123
5780.00   14.01365566   0.06974878
5782.00   13.99729919   0.06969367
5784.00   14.01699066   0.06984404
5786.00   13.97182083   0.06993239
5788.00   13.88265228   0.06992840
5790.00   13.83967113   0.06993732
5792.00   13.77221012   0.06969080
5794.00   13.74221802   0.06941106
5796.00   13.76366425   0.06915427
5798.00   13.80620956   0.06888788
5800.00   13.81732655   0.06857251
5802.00   13.81238651   0.06834994
5804.00   13.78777313   0.06818173
5806.00   13.78491306   0.06808880
5808.00   13.78554440   0.06800412
5810.00   13.76725674   0.06786280
5812.00   13.71598530   0.06769764
5814.00   13.69505978   0.06761673
5816.00   13.72377396   0.06764019
5818.00   13.77991009   0.06772595
5820.00   13.79243565   0.06773105
5822.00   13.82553768   0.06776880
5824.00   13.89798069   0.06788809
5826.00   13.94244480   0.06796766
5828.00   13.94328594   0.06795961
5830.00   13.99727535   0.06806301
5832.00   14.03817654   0.06816360
5834.00   14.08993912   0.06805088
5836.00   14.14838409   0.06867979
5838.00   14.21661758   0.07067592
5840.00   14.27890110   0.06810607
5842.00   14.34427166   0.07109679
5844.00   14.39379406   0.06914642
5846.00   14.41454220   0.06857257
5848.00   14.40647602   0.06895107
5850.00   14.42572021   0.06894176
5852.00   14.51954651   0.06915071
5854.00   14.53841305   0.06921174
5856.00   14.54800129   0.06927090
5858.00   14.60894012   0.06942707
5860.00   14.64020061   0.06951986
5862.00   14.64094925   0.06958853
5864.00   14.68220139   0.06971700
5866.00   14.70258617   0.06981775
5868.00   14.67566967   0.06984098
5870.00   14.69995403   0.06989342
5872.00   14.70669460   0.06988570
5874.00   14.61604691   0.06970013
5876.00   14.49397564   0.07012903
5878.00   14.37059498   0.07203113
5880.00   14.22520924   0.07322377
5882.00   14.20156574   0.07339615
5884.00   14.23646069   0.07353034
5886.00   14.25408649   0.07471836
5888.00   14.14546871   0.07681008
5890.00   14.08418751   0.07823027
5892.00   13.99747753   0.07906052
5894.00   13.97959232   0.07946344
5896.00   14.08491993   0.07883010
5898.00   14.27970600   0.07692685
5900.00   14.52561665   0.07511637
5902.00   14.64916134   0.07353435
5904.00   14.76996326   0.07189412
5906.00   14.90398788   0.07074380
5908.00   14.99338245   0.07053118
5910.00   15.05022144   0.07064688
5912.00   15.01586437   0.07062989
5914.00   14.96345520   0.07055824
5916.00   14.92692661   0.07047534
5918.00   14.85935116   0.07031674
5920.00   14.82605743   0.07023004
5922.00   14.67599201   0.06993216
5924.00   14.52940750   0.06963087
5926.00   14.46562290   0.06950422
5928.00   14.47161579   0.06956100
5930.00   14.54153919   0.06977239
5932.00   14.72777176   0.07016356
5934.00   14.91919041   0.07050709
5936.00   15.05333996   0.07070699
5938.00   15.13640881   0.07080679
5940.00   15.22637939   0.07091309
5942.00   15.23207378   0.07083479
5944.00   15.21602345   0.07071260
5946.00   15.19012451   0.07060292
5948.00   15.20874310   0.07062789
5950.00   15.20432758   0.07064455
5952.00   15.19953442   0.07060574
5954.00   15.18350887   0.07051042
5956.00   15.17482471   0.07043198
5958.00   15.17481709   0.07039044
5960.00   15.18169689   0.07033349
5962.00   15.12070084   0.07011014
5964.00   15.06504536   0.06991285
5966.00   15.04666901   0.06986111
5968.00   15.06562042   0.06989715
5970.00   15.05425644   0.06982852
5972.00   14.98367786   0.06964155
5974.00   14.92563629   0.06947449
5976.00   14.90505219   0.06936977
5978.00   14.85690784   0.06918668
5980.00   14.82124615   0.06904863
5982.00   14.77916718   0.06889258
5984.00   14.76978016   0.06880800
5986.00   14.73836231   0.06870695
5988.00   14.69119549   0.06852502
5990.00   14.59211731   0.06829047
5992.00   14.56690693   0.06821149
5994.00   14.54538345   0.06811416
5996.00   14.46125412   0.06789243
5998.00   14.39961243   0.06772015
6000.00   14.34054184   0.06752178
6002.00   14.29232407   0.06734452
6004.00   14.23753357   0.06715896
6006.00   14.16027164   0.06692594
6008.00   14.08412933   0.06669482
6010.00   14.01483822   0.06647649
6012.00   13.95958996   0.06630394
6014.00   13.90025425   0.06612378
6016.00   13.81871700   0.06587919
6018.00   13.73695278   0.06565856
6020.00   13.66003132   0.06545907
6022.00   13.62843037   0.06536743
6024.00   13.59162903   0.06524714
6026.00   13.53085327   0.06508001
6028.00   13.45456314   0.06485292
6030.00   13.36108017   0.06462134
6032.00   13.27460766   0.06441282
6034.00   13.22256088   0.06425782
6036.00   13.13416386   0.06400173
6038.00   13.05004501   0.06376512
6040.00   13.01911068   0.06365347
6042.00   12.96870422   0.06348225
6044.00   12.89492798   0.06325816
6046.00   12.84016418   0.06310029
6048.00   12.80324268   0.06298989
6050.00   12.74399948   0.06281326
6052.00   12.67596531   0.06262702
6054.00   12.60037708   0.06242609
6056.00   12.51709747   0.06223045
6058.00   12.40729809   0.06203773
6060.00   12.32644367   0.06188544
6062.00   12.22734070   0.06161579
6064.00   12.11962414   0.06127724
6066.00   12.12088013   0.06114201
6068.00   12.09692001   0.06101234
6070.00   12.01104450   0.06075956
6072.00   11.89533329   0.06044257
6074.00   11.77682114   0.06014441
6076.00   11.65631580   0.05984437
6078.00   11.55897236   0.05954971
6080.00   11.42250061   0.05918137
6082.00   11.26764393   0.05879036
6084.00   11.12156677   0.05842352
6086.00   11.02944851   0.05815089
6088.00   10.88874054   0.05779964
6090.00   10.75628376   0.05746542
6092.00   10.58096790   0.05702827
6094.00   10.33510303   0.05642949
6096.00   10.07431507   0.05579849
6098.00   9.90447235   0.05538507
6100.00   9.70370293   0.05492808
6102.00   9.46679020   0.05441763
6104.00   9.21498775   0.05388309
6106.00   8.98928070   0.05346131
6108.00   8.75714016   0.05304201
6110.00   8.54678631   0.05267673
6112.00   8.36101055   0.05230576
6114.00   8.18157196   0.05183959
6116.00   7.98585367   0.05122216
6118.00   7.81344414   0.05058195
6120.00   7.66604233   0.04991525
6122.00   7.51803589   0.04921910
6124.00   7.35843229   0.04853739
6126.00   7.22769547   0.04798936
6128.00   7.09484625   0.04747512
6130.00   6.96778822   0.04702701
6132.00   6.82050705   0.04656289
6134.00   6.66612053   0.04606858
6136.00   6.54232550   0.04566047
6138.00   6.44425249   0.04535799
6140.00   6.35362196   0.04507405
6142.00   6.27499962   0.04481078
6144.00   6.19489527   0.04454273
6146.00   6.10906839   0.04426907
6148.00   6.05533600   0.04408824
6150.00   5.98880148   0.04391750
6152.00   5.90368509   0.04373388
6154.00   5.84762192   0.04362260
6156.00   5.84073973   0.04362349
6158.00   5.82049131   0.04357274
6160.00   5.80030584   0.04347648
6162.00   5.77507448   0.04329015
6164.00   5.72715950   0.04298864
6166.00   5.71226072   0.04285153
6168.00   5.72395325   0.04276593
6170.00   5.72605896   0.04258506
6172.00   5.73091125   0.04236102
6174.00   5.76271629   0.04232132
6176.00   5.80162668   0.04238956
6178.00   5.84626341   0.04247723
6180.00   5.88585329   0.04254425
6182.00   5.90712023   0.04257542
6184.00   5.92812204   0.04262739
6186.00   6.00866175   0.04287122
6188.00   6.07441711   0.04305870
6190.00   6.13542938   0.04321929
6192.00   6.21491766   0.04342119
6194.00   6.31890345   0.04371701
6196.00   6.36578512   0.04386012
6198.00   6.44677401   0.04410628
6200.00   6.55622673   0.04441743
6202.00   6.65765142   0.04469985
6204.00   6.74537802   0.04495126
6206.00   6.83310890   0.04522004
6208.00   6.94576979   0.04556810
6210.00   7.08991861   0.04596780
6212.00   7.23895502   0.04633364
6214.00   7.34485006   0.04656093
6216.00   7.49418974   0.04690490
6218.00   7.66240168   0.04731457
6220.00   7.80717850   0.04775345
6222.00   7.92901754   0.04829801
6224.00   8.06348610   0.04902466
6226.00   8.21902943   0.04987910
6228.00   8.38867664   0.05100745
6230.00   8.54364491   0.05276226
6232.00   8.66148853   0.04992180
6234.00   8.79727745   0.05030099
6236.00   8.93174648   0.05538511
6238.00   9.05792618   0.05398894
6240.00   9.17256260   0.05252609
6242.00   9.27971649   0.05143401
6244.00   9.42130280   0.05171530
6246.00   9.58714390   0.05208454
6248.00   9.70914078   0.05225348
6250.00   9.80243397   0.05246264
6252.00   9.92899895   0.05285795
6254.00   10.14383221   0.05358994
6256.00   10.35778332   0.05436730
6258.00   10.50157928   0.05484303
6260.00   10.59488010   0.05508887
6262.00   10.70882130   0.05531150
6264.00   10.79291916   0.05536935
6266.00   10.85999298   0.05540706
6268.00   10.97864056   0.05564636
6270.00   11.14374924   0.05613506
6272.00   11.30560303   0.05673806
6274.00   11.37655735   0.05705534
6276.00   11.37259674   0.05712228
6278.00   11.35225391   0.05714995
6280.00   11.38592529   0.05728774
6282.00   11.47653866   0.05750783
6284.00   11.62244415   0.05777442
6286.00   11.75342560   0.05794049
6288.00   11.85954762   0.05810924
6290.00   11.95630360   0.05838632
6292.00   12.06783390   0.05880961
6294.00   12.15628910   0.05940993
6296.00   12.21322155   0.06027257
6298.00   12.28163528   0.06116746
6300.00   12.37397003   0.06177637
6302.00   12.48794556   0.06198107
6304.00   12.55637646   0.06190261
6306.00   12.60990620   0.06143857
6308.00   12.68043995   0.06071231
6310.00   12.77154255   0.06000358
6312.00   12.79967785   0.05955657
6314.00   12.77805042   0.05920205
6316.00   12.78065968   0.05899410
6318.00   12.81026936   0.05896669
6320.00   12.87159252   0.05915433
6322.00   12.96232319   0.05936552
6324.00   13.01828480   0.05947944
6326.00   13.07001209   0.05964205
6328.00   13.13445568   0.05982743
6330.00   13.18588543   0.05990748
6332.00   13.18926144   0.05978239
6334.00   13.19534588   0.05963897
6336.00   13.24277210   0.05963305
6338.00   13.29541302   0.05971510
6340.00   13.34671497   0.05985276
6342.00   13.37786865   0.06003170
6344.00   13.37077618   0.06005913
6346.00   13.34758282   0.05993455
6348.00   13.33110809   0.05979683
6350.00   13.34603882   0.05982360
6352.00   13.36758327   0.05996080
6354.00   13.41872787   0.06025045
6356.00   13.44244671   0.06043085
6358.00   13.41371059   0.06046185
6360.00   13.36166859   0.06039789
6362.00   13.26088238   0.05998002
6364.00   13.19178009   0.05951227
6366.00   13.14594364   0.05922605
6368.00   13.13301945   0.05906014
6370.00   13.12030315   0.05876984
6372.00   13.12021160   0.05848749
6374.00   13.10852814   0.05830051
6376.00   13.09284496   0.05821996
6378.00   13.07393169   0.05818032
6380.00   13.07848072   0.05816509
6382.00   13.06132507   0.05812105
6384.00   13.02455997   0.05803260
6386.00   13.00047684   0.05795455
6388.00   12.99215603   0.05789030
6390.00   12.96827412   0.05779096
6392.00   12.94709778   0.05769316
6394.00   12.90768337   0.05757673
6396.00   12.89821529   0.05754729
6398.00   12.90328979   0.05756278
6400.00   12.85858631   0.05747311
6402.00   12.78842163   0.05732875
6404.00   12.76136780   0.05726786
6406.00   12.74327374   0.05720487
6408.00   12.69303799   0.05705981
6410.00   12.65646362   0.05693732
6412.00   12.62831497   0.05685404
6414.00   12.62758923   0.05684529
6416.00   12.62704754   0.05682725
6418.00   12.63405704   0.05680370
6420.00   12.64442062   0.05678860
6422.00   12.63521481   0.05673453
6424.00   12.56569195   0.05655707
6426.00   12.49305439   0.05637572
6428.00   12.44187164   0.05624829
6430.00   12.39085102   0.05611041
6432.00   12.35072041   0.05599253
6434.00   12.32379055   0.05591121
6436.00   12.28326797   0.05580349
6438.00   12.22994518   0.05567294
6440.00   12.19408894   0.05560097
6442.00   12.14806652   0.05549186
6444.00   12.12155247   0.05541589
6446.00   12.08530521   0.05532276
6448.00   12.01993847   0.05517524
6450.00   11.95830059   0.05501378
6452.00   11.90200424   0.05489041
6454.00   11.83342361   0.05474861
6456.00   11.76488018   0.05460095
6458.00   11.72489929   0.05449560
6460.00   11.68432999   0.05440520
6462.00   11.65751362   0.05437588
6464.00   11.61684132   0.05430781
6466.00   11.57013321   0.05420813
6468.00   11.51172638   0.05406295
6470.00   11.45847225   0.05391959
6472.00   11.40522099   0.05375830
6474.00   11.34340668   0.05354514
6476.00   11.28954983   0.05313458
6478.00   11.26418686   0.05348815
6480.00   11.26912022   0.05722025
6482.00   11.33057404   0.05239093
6484.00   11.32070637   0.05235743
6486.00   11.20195007   0.05345853
6488.00   11.04003143   0.05244104
6490.00   11.06044769   0.05267522
6492.00   11.03798008   0.05265595
6494.00   10.95901489   0.05252205
6496.00   10.90404510   0.05246653
6498.00   10.91829586   0.05256335
6500.00   10.91982746   0.05260179
6502.00   10.91850185   0.05261065
6504.00   10.89314747   0.05253537
6506.00   10.84166241   0.05235286
6508.00   10.80471325   0.05217394
6510.00   10.78499126   0.05203989
6512.00   10.75289822   0.05189381
6514.00   10.71520996   0.05174889
6516.00   10.68852329   0.05164616
6518.00   10.65674305   0.05155894
6520.00   10.60597706   0.05145000
6522.00   10.55498409   0.05135332
6524.00   10.53064346   0.05131571
6526.00   10.53534222   0.05134779
6528.00   10.53333664   0.05139285
6530.00   10.50877190   0.05135311
6532.00   10.46077061   0.05126533
6534.00   10.42487240   0.05118730
6536.00   10.40355778   0.05111087
6538.00   10.39318371   0.05101960
6540.00   10.37707806   0.05090642
6542.00   10.40328884   0.05091382
6544.00   10.40144539   0.05088731
6546.00   10.35087204   0.05076982
6548.00   10.32626057   0.05072774
6550.00   10.27695370   0.05064799
6552.00   10.25782013   0.05061181
6554.00   10.26976395   0.05062202
6556.00   10.26174450   0.05058635
6558.00   10.24212170   0.05052775
6560.00   10.22209454   0.05046767
6562.00   10.21773529   0.05042129
6564.00   10.22377491   0.05038120
6566.00   10.20170689   0.05028662
6568.00   10.14805126   0.05015283
6570.00   10.14200497   0.05009885
6572.00   10.13561726   0.05005127
6574.00   10.11623001   0.05000786
6576.00   10.08827972   0.04997273
6578.00   10.07029247   0.04993114
6580.00   10.05205536   0.04988210
6582.00   10.04624462   0.04984655
6584.00   10.02774525   0.04975597
6586.00   10.00090408   0.04961868
6588.00   9.96057606   0.04946724
6590.00   9.96219635   0.04945100
6592.00   9.94424152   0.04939625
6594.00   9.90808773   0.04930748
6596.00   9.88363457   0.04925822
6598.00   9.93150425   0.04937328
6600.00   9.94795799   0.04943192
6602.00   9.94268799   0.04941575
6604.00   9.92201519   0.04933179
6606.00   9.86039734   0.04916367
6608.00   9.82491207   0.04899974
6610.00   9.74372578   0.04873618
6612.00   9.66293335   0.04849541
6614.00   9.61912537   0.04834616
6616.00   9.63342381   0.04834726
6618.00   9.60128117   0.04826235
6620.00   9.55953503   0.04818084
6622.00   9.53867054   0.04812839
6624.00   9.51616764   0.04804733
6626.00   9.49205303   0.04797431
6628.00   9.47043610   0.04789356
6630.00   9.45610523   0.04783592
6632.00   9.40352154   0.04768048
6634.00   9.33933544   0.04748908
6636.00   9.33358288   0.04743361
6638.00   9.31519032   0.04736996
6640.00   9.28495693   0.04727882
6642.00   9.25613117   0.04718159
6644.00   9.23250389   0.04708271
6646.00   9.21715641   0.04702689
6648.00   9.16631794   0.04686630
6650.00   9.11740017   0.04673934
6652.00   9.08860874   0.04667075
6654.00   9.08147526   0.04663087
6656.00   9.05972195   0.04662025
6658.00   9.02526379   0.04665197
6660.00   8.99855900   0.04664104
6662.00   8.97780895   0.04656362
6664.00   8.97095776   0.04654913
6666.00   8.95408916   0.04698627
6668.00   8.94588757   0.04719175
6670.00   8.95283413   0.04685355
6672.00   8.91272163   0.04612330
6674.00   8.86305904   0.04591030
6676.00   8.89022160   0.04599453
6678.00   8.89885330   0.04600662
6680.00   8.84193897   0.04585369
6682.00   8.78330135   0.04569707
6684.00   8.77500534   0.04562884
6686.00   8.77593708   0.04561212
6688.00   8.73860455   0.04551261
6690.00   8.70376015   0.04541711
6692.00   8.68621063   0.04536304
6694.00   8.67883015   0.04533138
6696.00   8.67168808   0.04528264
6698.00   8.65137386   0.04527545
6700.00   8.60177326   0.04519747
6702.00   8.54951763   0.04510325
6704.00   8.54876232   0.04513520
6706.00   8.57678986   0.04523039
6708.00   8.57699394   0.04525152
6710.00   8.55916595   0.04520366
6712.00   8.52608013   0.04508474
6714.00   8.49105358   0.04493180
6716.00   8.47192860   0.04481137
6718.00   8.42097855   0.04463604
6720.00   8.40603733   0.04457198
6722.00   8.41302395   0.04457876
6724.00   8.38539791   0.04450807
6726.00   8.36034775   0.04442942
6728.00   8.36044598   0.04441066
6730.00   8.34437180   0.04436510
6732.00   8.30023289   0.04425673
6734.00   8.26694775   0.04418494
6736.00   8.24511814   0.04411688
6738.00   8.20912075   0.04401355
6740.00   8.18026447   0.04393227
6742.00   8.17188740   0.04390799
6744.00   8.15270615   0.04383616
6746.00   8.13311005   0.04376547
6748.00   8.11296844   0.04370875
6750.00   8.09790993   0.04366887
6752.00   8.08190536   0.04362322
6754.00   8.05119801   0.04354994
6756.00   8.03635025   0.04349112
6758.00   8.02619648   0.04345682
6760.00   8.02270794   0.04346302
6762.00   8.00265408   0.04342489
6764.00   7.95653534   0.04326601
6766.00   7.89919901   0.04309006
6768.00   7.87515116   0.04301880
6770.00   7.86800241   0.04299333
6772.00   7.84164286   0.04292141
6774.00   7.80621576   0.04284205
6776.00   7.77810907   0.04275821
6778.00   7.72190809   0.04261357
6780.00   7.66524649   0.04246637
6782.00   7.63071966   0.04235957
6784.00   7.63367128   0.04234768
6786.00   7.61249876   0.04228333
6788.00   7.58817244   0.04220401
6790.00   7.56961203   0.04214767
6792.00   7.55646944   0.04210002
6794.00   7.52750778   0.04199221
6796.00   7.51708651   0.04194903
6798.00   7.50012636   0.04189567
6800.00   7.46507454   0.04179101
6802.00   7.44112921   0.04172059
6804.00   7.44631529   0.04171243
6806.00   7.43276978   0.04165668
6808.00   7.40765238   0.04161653
6810.00   7.38779211   0.04163950
6812.00   7.37594843   0.04167500
6814.00   7.38352823   0.04163005
6816.00   7.38541985   0.04152715
6818.00   7.38600302   0.04149236
6820.00   7.36281586   0.04145863
6822.00   7.33595133   0.04144014
6824.00   7.33402491   0.04152591
6826.00   7.32177114   0.04163243
6828.00   7.32040405   0.04177222
6830.00   7.32247400   0.04187921
6832.00   7.29541397   0.04183748
6834.00   7.26326227   0.04170388
6836.00   7.27018023   0.04161054
6838.00   7.26778269   0.04145494
6840.00   7.25540495   0.04128178
6842.00   7.26222229   0.04120096
6844.00   7.27790070   0.04119607
6846.00   7.24598455   0.04111168
6848.00   7.21114731   0.04101825
6850.00   7.20191574   0.04095436
6852.00   7.23846054   0.04105106
6854.00   7.24736023   0.04115597
#6856.00   7.26878977   0.04136599
#6858.00   7.30274582   0.04174063
#6860.00   7.36885214   0.04244669
#6862.00   7.43704748   0.04345850
#6864.00   6.97939110   0.04507873
#6866.00   7.00350189   0.04667914
#6868.00   7.46291780   0.04796289
#6870.00   7.30488443   0.04838118
#6872.00   7.18623114   0.04798193
#6874.00   7.02847290   0.04689134
#6876.00   6.95991659   0.04553863
#6878.00   6.96346664   0.04430625
#6880.00   7.00091553   0.04353094
#6882.00   7.08931398   0.04338588
#6884.00   7.16308260   0.04353269
#6886.00   7.20660019   0.04381862
#6888.00   7.21684790   0.04408704
#6890.00   7.17239189   0.04410781
6892.00   7.09740210   0.04387514
6894.00   7.06936121   0.04369712
6896.00   7.05576944   0.04347160
6898.00   7.03046036   0.04321189
6900.00   6.98689795   0.04292311
6902.00   6.97548056   0.04261277
6904.00   6.95688963   0.04233111
6906.00   6.96686935   0.04224314
6908.00   6.97025490   0.04215401
6910.00   6.94960070   0.04196756
6912.00   6.94156408   0.04183525
6914.00   6.90869665   0.04154910
6916.00   6.86927462   0.04120749
6918.00   6.83918810   0.04094435
6920.00   6.80573463   0.04074430
6922.00   6.80475473   0.04070934
6924.00   6.82135010   0.04071975
6926.00   6.80839539   0.04061612
6928.00   6.77383471   0.04041435
6930.00   6.76297235   0.04021317
6932.00   6.74239731   0.04002200
6934.00   6.71451616   0.03993629
6936.00   6.71738243   0.04001519
6938.00   6.75286055   0.04021679
6940.00   6.78204393   0.04039387
6942.00   6.76020288   0.04036327
6944.00   6.72376299   0.04020673
6946.00   6.68527603   0.04003417
6948.00   6.69048262   0.04003793
6950.00   6.71899748   0.04010886
6952.00   6.70162058   0.03994959
6954.00   6.72526598   0.03992186
6956.00   6.73748589   0.03986055
6958.00   6.72155714   0.03974681
6960.00   6.68940592   0.03958159
6962.00   6.65102386   0.03938902
6964.00   6.68444443   0.03945967
6966.00   6.70577574   0.03950377
6968.00   6.70028830   0.03949175
6970.00   6.71905708   0.03957522
6972.00   6.75033617   0.03966816
6974.00   6.75418663   0.03970086
6976.00   6.73633718   0.03966503
6978.00   6.71557426   0.03960700
6980.00   6.73666239   0.03968188
6982.00   6.74229097   0.03972636
6984.00   6.73459387   0.03970302
6986.00   6.71604776   0.03964147
6988.00   6.69797182   0.03957232
6990.00   6.69625616   0.03956698
6992.00   6.73578024   0.03974589
6994.00   6.75431061   0.03982746
6996.00   6.73439741   0.03971428
6998.00   6.69526339   0.03950421
7000.00   6.69260931   0.03950682
7002.00   6.70190954   0.03960975
7004.00   6.70208979   0.03966228
7006.00   6.68652010   0.03961680
7008.00   6.67164087   0.03953878
7010.00   6.66604233   0.03948876
7012.00   6.67272043   0.03948975
7014.00   6.65984535   0.03942927
7016.00   6.64914465   0.03935174
7018.00   6.64101219   0.03922403
7020.00   6.61097097   0.03906203
7022.00   6.56569624   0.03894206
7024.00   6.57233381   0.03898307
7026.00   6.59468031   0.03906501
7028.00   6.60616493   0.03916152
7030.00   6.61008692   0.03919845
7032.00   6.59480858   0.03912101
7034.00   6.57294321   0.03903486
7036.00   6.57940817   0.03904691
7038.00   6.60263062   0.03910372
7040.00   6.60676718   0.03917992
7042.00   6.58763885   0.03916619
7044.00   6.58516836   0.03916518
7046.00   6.59089804   0.03917954
7048.00   6.59229708   0.03926063
7050.00   6.62224436   0.03939585
7052.00   6.60071325   0.03930738
7054.00   6.57581854   0.03923533
7056.00   6.60399103   0.03941084
7058.00   6.68975687   0.03987336
7060.00   6.83665323   0.04064503
7062.00   6.96108055   0.04144786
7064.00   7.02536726   0.04194088
7066.00   7.03723097   0.04206032
7068.00   7.02372026   0.04187788
7070.00   6.90985870   0.04113403
7072.00   6.71795893   0.04006031
7074.00   6.55725050   0.03913844
7076.00   6.48728561   0.03867621
7078.00   6.48612070   0.03860815
7080.00   6.45088053   0.03851152
7082.00   6.43188810   0.03843601
7084.00   6.43415213   0.03837484
7086.00   6.44373560   0.03834574
7088.00   6.45445251   0.03843080
7090.00   6.44905710   0.03847403
7092.00   6.43576956   0.03842661
7094.00   6.42228937   0.03832270
7096.00   6.40891790   0.03821725
7098.00   6.42661142   0.03828812
7100.00   6.43834543   0.03831365
7102.00   6.44182062   0.03830214
7104.00   6.43383026   0.03829373
7106.00   6.44037819   0.03837759
7108.00   6.43781281   0.03834942
7110.00   6.42903900   0.03822901
7112.00   6.42523336   0.03819245
7114.00   6.41322327   0.03819272
7116.00   6.38425398   0.03812132
7118.00   6.38275337   0.03804836
7120.00   6.38016891   0.03805121
7122.00   6.37980080   0.03805394
7124.00   6.37009859   0.03803957
7126.00   6.33999491   0.03794948
7128.00   6.33807707   0.03793644
7130.00   6.32728910   0.03795153
7132.00   6.34508514   0.03798509
7134.00   6.35860872   0.03801002
7136.00   6.33841658   0.03802802
7138.00   6.34386206   0.03809958
7140.00   6.32630539   0.03809926
7142.00   6.31217003   0.03805426
7144.00   6.30289316   0.03798224
7146.00   6.32450676   0.03798854
7148.00   6.31292343   0.03794907
7150.00   6.31233835   0.03793775
7152.00   6.31770563   0.03801534
7154.00   6.33557510   0.03810273
7156.00   6.34959221   0.03817580
7158.00   6.38505936   0.03839791
7160.00   6.37475395   0.03847046
7162.00   6.35448265   0.03848032
7164.00   6.35096121   0.03857630
7166.00   6.35703611   0.03872446
7168.00   6.35686922   0.03890171
7170.00   6.35954714   0.03915601
7172.00   6.34654856   0.03928947
7174.00   6.32258034   0.03931789
7176.00   6.30255651   0.03936036
7178.00   6.36666250   0.03972388
7180.00   6.42244720   0.04007804
7182.00   6.38693666   0.04009062
7184.00   6.27186441   0.03971532
7186.00   6.20824003   0.03939621
7188.00   6.22213554   0.03943551
7190.00   6.20031118   0.03933910
7192.00   6.18534279   0.03918413
7194.00   6.19773626   0.03906928
7196.00   6.22240448   0.03910383
7198.00   6.18822241   0.03904309
7200.00   6.15328074   0.03889899
7202.00   6.12521887   0.03869781
7204.00   6.12023783   0.03852016
7206.00   6.11445856   0.03831980
7208.00   6.09474182   0.03807096
7210.00   6.11152411   0.03790191
7212.00   6.13931799   0.03775434
7214.00   6.15183878   0.03757774
7216.00   6.11713171   0.03738333
7218.00   6.14147234   0.03756338
7220.00   6.17473078   0.03783812
7222.00   6.20317984   0.03808446
7224.00   6.19125605   0.03811638
7226.00   6.14565611   0.03798520
7228.00   6.16937637   0.03813030
7230.00   6.17751694   0.03836821
7232.00   6.14769125   0.03856589
7234.00   6.11677742   0.03885611
7236.00   6.10928583   0.03929387
7238.00   6.06808662   0.03955479
7240.00   6.00982523   0.03966874
7242.00   5.99956846   0.03985116
7244.00   6.02541208   0.03993095
7246.00   5.99078989   0.03950569
7248.00   5.98272467   0.03908947
7250.00   5.99381399   0.03878406
7252.00   5.99829245   0.03849453
7254.00   5.99696207   0.03825573
7256.00   5.98192739   0.03807909
7258.00   5.98682022   0.03792473
7260.00   5.99942732   0.03781906
7262.00   5.98572159   0.03764841
7264.00   5.94969940   0.03744204
7266.00   5.95772600   0.03759727
7268.00   5.95847321   0.03786428
7270.00   5.97295523   0.03828629
7272.00   5.98896217   0.03883821
7274.00   6.00469255   0.03949904
7276.00   5.99235582   0.03992954
7278.00   6.03237104   0.04022791
7280.00   6.12527514   0.04047956
7282.00   6.18714523   0.04047112
7284.00   6.15688896   0.03996416
7286.00   6.08055115   0.03912724
7288.00   5.99839783   0.03844647
7290.00   5.92100906   0.03798193
7292.00   5.86653662   0.03769935
7294.00   5.84951544   0.03747353
7296.00   5.83690882   0.03729248
7298.00   5.82922220   0.03721755
7300.00   5.82462454   0.03723704
7302.00   5.81318045   0.03723301
7304.00   5.80626440   0.03724409
7306.00   5.78574514   0.03725112
7308.00   5.76062155   0.03719124
7310.00   5.73674154   0.03716622
7312.00   5.73834372   0.03733213
7314.00   5.74763298   0.03769042
7316.00   5.72890663   0.03780096
7318.00   5.69592237   0.03756756
7320.00   5.65770483   0.03711008
7322.00   5.61685705   0.03661167
7324.00   5.57467270   0.03613510
7326.00   5.59295464   0.03603022
7328.00   5.62580490   0.03623227
7330.00   5.62866259   0.03643747
7332.00   5.59253168   0.03641918
7334.00   5.55043173   0.03629065
7336.00   5.53550196   0.03640908
7338.00   5.52219057   0.03662847
7340.00   5.50226355   0.03677651
7342.00   5.47996330   0.03675102
7344.00   5.48463297   0.03661607
7346.00   5.45862198   0.03625609
7348.00   5.41816759   0.03572863
7350.00   5.37811995   0.03520684
7352.00   5.34860659   0.03488173
7354.00   5.31915522   0.03485443
7356.00   5.32197714   0.03501917
7358.00   5.31412363   0.03513759
7360.00   5.29791498   0.03519145
7362.00   5.27920198   0.03522911
7364.00   5.27800560   0.03537342
7366.00   5.26697111   0.03558067
7368.00   5.24491835   0.03568853
7370.00   5.22945166   0.03569978
7372.00   5.20114183   0.03544731
7374.00   5.16775131   0.03502576
7376.00   5.14092445   0.03470767
7378.00   5.12991285   0.03437756
7380.00   5.11636591   0.03408297
7382.00   5.08761454   0.03391884
7384.00   5.06444883   0.03384338
7386.00   5.03599977   0.03382632
7388.00   5.03617477   0.03391916
7390.00   5.05091095   0.03404531
7392.00   5.03632927   0.03407530
7394.00   4.99098635   0.03402675
7396.00   4.99919653   0.03412611
7398.00   4.98136854   0.03417436
7400.00   4.94918776   0.03415088
7402.00   4.95012236   0.03412625
7404.00   4.92773962   0.03397268
7406.00   4.92595434   0.03384070
7408.00   4.94670057   0.03379077
7410.00   4.96685553   0.03374314
7412.00   4.94936991   0.03355942
7414.00   4.92869759   0.03339412
7416.00   4.90997314   0.03323427
7418.00   4.87283564   0.03308003
7420.00   4.82718325   0.03296058
7422.00   4.81396103   0.03295900
7424.00   4.82556963   0.03303332
7426.00   4.80288744   0.03300825
7428.00   4.78875113   0.03301623
7430.00   4.79997110   0.03310110
7432.00   4.77518272   0.03308329
7434.00   4.74585295   0.03305532
7436.00   4.77170944   0.03317059
7438.00   4.79660749   0.03323570
7440.00   4.80131245   0.03321604
7442.00   4.80899239   0.03318932
7444.00   4.79483604   0.03305855
7446.00   4.77447557   0.03290603
7448.00   4.77454615   0.03283310
7450.00   4.78971958   0.03283043
7452.00   4.79020309   0.03281708
7454.00   4.75432014   0.03273532
7456.00   4.72947741   0.03269168
7458.00   4.72724867   0.03271184
7460.00   4.71877146   0.03270818
7462.00   4.69659567   0.03267729
7464.00   4.68901587   0.03271735
7466.00   4.66447210   0.03271097
7468.00   4.63322687   0.03268177
7470.00   4.60505772   0.03265799
7472.00   4.56732035   0.03259119
7474.00   4.50511789   0.03244441
7476.00   4.45581198   0.03232868
7478.00   4.41317701   0.03221926
7480.00   4.37025213   0.03209203
7482.00   4.30087662   0.03184801
7484.00   4.24244642   0.03161914
7486.00   4.19646120   0.03139402
7488.00   4.16134977   0.03117216
7490.00   4.12500620   0.03092797
7492.00   4.10711050   0.03078681
7494.00   4.09171104   0.03068303
7496.00   4.09471273   0.03066473
7498.00   4.08090782   0.03060919
7500.00   4.04084015   0.03045790
7502.00   4.03118658   0.03038779
7504.00   4.01312065   0.03031870
7506.00   3.99352455   0.03026295
7508.00   3.98609352   0.03023770
7510.00   3.99100614   0.03023614
7512.00   3.98479843   0.03023353
7514.00   3.98789668   0.03029496
7516.00   3.97599506   0.03038959
7518.00   3.96654010   0.03058586
7520.00   3.99123001   0.03093375
7522.00   4.01489305   0.03125873
7524.00   3.98770833   0.03130040
7526.00   3.97027040   0.03125580
7528.00   3.97854519   0.03119063
7530.00   3.97700191   0.03099406
7532.00   3.99986148   0.03077759
7534.00   4.01909590   0.03063543
7536.00   4.02396202   0.03054188
7538.00   4.01181030   0.03045267
7540.00   4.01475573   0.03039614
7542.00   4.03095484   0.03040998
7544.00   4.04712439   0.03044111
7546.00   4.05225754   0.03043897
7548.00   4.05620241   0.03043995
7550.00   4.06856489   0.03048555
7552.00   4.05715990   0.03048057
7554.00   4.07408524   0.03058938
7556.00   4.10102224   0.03071366
7558.00   4.10196638   0.03073689
7560.00   4.09880400   0.03077399
7562.00   4.11901903   0.03093640
7564.00   4.16127920   0.03122543
7566.00   4.19808960   0.03152529
7568.00   4.23450232   0.03183222
7570.00   4.25953674   0.03212872
7572.00   4.26039886   0.03217673
7574.00   4.22650528   0.03193222
7576.00   4.20446396   0.03165943
7578.00   4.21920919   0.03154550
7580.00   4.24031305   0.03153966
7582.00   4.29575348   0.03179960
#7584.00   4.38279438   0.03241345
#7586.00   4.48196840   0.03327344
#7588.00   4.57432604   0.03424101
#7590.00   4.61656952   0.03511469
#7592.00   4.06261253   0.03369038
#7594.00   4.01268625   0.03569885
#7596.00   4.46360874   0.04656879
#7598.00   5.27028656   0.06389624
#7600.00   5.59353971   0.07750725
#7602.00   4.72314882   0.07148144
#7604.00   4.13001585   0.06644670
#7606.00   3.93411183   0.06450493
#7608.00   3.94381022   0.06216393
#7610.00   4.49260139   0.06528102
#7612.00   4.39470577   0.05743103
#7614.00   3.82996845   0.04325322
#7616.00   3.92682338   0.03965608
#7618.00   4.21777868   0.03976317
#7620.00   4.39435005   0.04009379
#7622.00   4.48046827   0.04124998
#7624.00   4.53256083   0.04314560
#7626.00   4.52895737   0.04517299
#7628.00   4.40930033   0.04618378
7630.00   4.29291725   0.04585610
7632.00   4.26018953   0.04513728
7634.00   4.25621367   0.04421878
7636.00   4.26079798   0.04338495
7638.00   4.25785112   0.04248065
7640.00   4.23254251   0.04123957
7642.00   4.23773813   0.04026484
7644.00   4.25652647   0.03945406
7646.00   4.27500105   0.03869728
7648.00   4.28995943   0.03796839
7650.00   4.30958319   0.03734441
7652.00   4.33126783   0.03672590
7654.00   4.35159826   0.03620708
7656.00   4.36347914   0.03592095
7658.00   4.39682150   0.03617754
7660.00   4.40305662   0.03680420
7662.00   4.42489767   0.03672177
7664.00   4.44252920   0.03643594
7666.00   4.43412352   0.03604656
7668.00   4.43552351   0.03552995
7670.00   4.44329882   0.03522438
7672.00   4.44845009   0.03399060
7674.00   4.46756697   0.03318368
7676.00   4.50295019   0.03325243
7678.00   4.51307344   0.03324914
7680.00   4.53903723   0.03323914
7682.00   4.53334141   0.03311384
7684.00   4.52808428   0.03298962
7686.00   4.54029894   0.03292285
7688.00   4.54916906   0.03294658
7690.00   4.55305052   0.03303040
7692.00   4.55399752   0.03295952
7694.00   4.54732323   0.03281452
7696.00   4.54481840   0.03276111
7698.00   4.51981592   0.03270398
7700.00   4.50835276   0.03275983
7702.00   4.52763987   0.03285733
7704.00   4.54128647   0.03292163
7706.00   4.52787638   0.03298029
7708.00   4.52581215   0.03334652
7710.00   4.55023241   0.03406024
7712.00   4.57622147   0.03473962
7714.00   4.59287500   0.03519341
7716.00   4.61258888   0.03540811
7718.00   4.64079142   0.03541027
7720.00   4.65640259   0.03519475
7722.00   4.66612101   0.03480591
7724.00   4.67339897   0.03430748
7726.00   4.67209005   0.03378569
7728.00   4.63093328   0.03335103
7730.00   4.58672523   0.03301403
7732.00   4.55940390   0.03273874
7734.00   4.55280161   0.03253110
7736.00   4.54263067   0.03235030
7738.00   4.53722382   0.03228983
7740.00   4.51804972   0.03225433
7742.00   4.51177740   0.03237036
7744.00   4.52979803   0.03276010
7746.00   4.58117247   0.03356554
7748.00   4.59103060   0.03431738
7750.00   4.59346533   0.03473518
7752.00   4.59827900   0.03484009
7754.00   4.61285353   0.03471232
7756.00   4.62453556   0.03439017
7758.00   4.61195517   0.03390089
7760.00   4.63249254   0.03359277
7762.00   4.63861799   0.03336556
7764.00   4.62727213   0.03316205
7766.00   4.63274813   0.03298067
7768.00   4.65199041   0.03286410
7770.00   4.66604948   0.03291053
7772.00   4.68657732   0.03307569
7774.00   4.70118952   0.03321562
7776.00   4.70113993   0.03322231
7778.00   4.70995617   0.03328305
7780.00   4.72937346   0.03340240
7782.00   4.75773096   0.03350667
7784.00   4.79609728   0.03359892
7786.00   4.78172207   0.03362991
7788.00   4.79416132   0.03391375
7790.00   4.79610491   0.03428851
7792.00   4.81342649   0.03469113
7794.00   4.83701801   0.03490722
7796.00   4.87035322   0.03493861
7798.00   4.84611750   0.03464631
7800.00   4.83083534   0.03419884
7802.00   4.84215260   0.03385903
7804.00   4.85396242   0.03374022
7806.00   4.84229898   0.03374804
7808.00   4.86588573   0.03394837
7810.00   4.88998270   0.03413229
7812.00   4.90262794   0.03422898
7814.00   4.91600657   0.03435837
7816.00   4.88791656   0.03452949
7818.00   4.90144157   0.03496090
7820.00   4.92144537   0.03545355
7822.00   4.94652224   0.03570971
7824.00   4.98167419   0.03559264
7826.00   4.98872948   0.03519756
7828.00   4.98086357   0.03460742
7830.00   4.94658709   0.03398880
7832.00   4.91270447   0.03357020
7834.00   4.91821861   0.03351874
7836.00   4.96538019   0.03382042
7838.00   4.96554995   0.03400229
7840.00   4.95810175   0.03406880
7842.00   4.95252132   0.03408626
7844.00   4.97090483   0.03430473
7846.00   4.96461439   0.03449796
7848.00   4.94433928   0.03466050
7850.00   4.92584658   0.03496030
7852.00   4.93197107   0.03540461
7854.00   4.94955826   0.03569356
7856.00   4.97173071   0.03575912
7858.00   4.96846342   0.03560868
7860.00   4.93161631   0.03516594
7862.00   4.88637972   0.03463958
7864.00   4.88973856   0.03449861
7866.00   4.90500784   0.03465971
7868.00   4.90465975   0.03470621
7870.00   4.90269995   0.03466479
7872.00   4.88185883   0.03450880
7874.00   4.82438660   0.03426592
7876.00   4.80624390   0.03423903
7878.00   4.84317160   0.03435441
7880.00   4.86436796   0.03443297
7882.00   4.82555151   0.03434085
7884.00   4.78744316   0.03423686
7886.00   4.75697470   0.03415805
7888.00   4.71912003   0.03411740
7890.00   4.70077372   0.03406262
7892.00   4.69673777   0.03400087
7894.00   4.66313791   0.03381865
7896.00   4.63511276   0.03344508
7898.00   4.61176920   0.03304225
7900.00   4.57730341   0.03273305
7902.00   4.51053429   0.03246190
7904.00   4.47450781   0.03236428
7906.00   4.40506601   0.03251292
7908.00   4.35926008   0.03297482
7910.00   4.34617043   0.03369545
7912.00   4.34027147   0.03437333
7914.00   4.29044247   0.03459064
7916.00   4.24353027   0.03458633
7918.00   4.19604826   0.03416655
7920.00   4.15288305   0.03353672
7922.00   4.11654806   0.03287031
7924.00   4.07079744   0.03221212
7926.00   4.01581049   0.03179679
7928.00   3.96447182   0.03150169
7930.00   3.92396235   0.03125940
7932.00   3.89006114   0.03101783
7934.00   3.84613156   0.03076231
7936.00   3.79734302   0.03044787
7938.00   3.74368310   0.03008173
7940.00   3.69550824   0.02976055
7942.00   3.64760399   0.02959135
7944.00   3.60009503   0.02956422
7946.00   3.53668714   0.02941551
7948.00   3.47481894   0.02921595
7950.00   3.41121101   0.02894350
7952.00   3.35976434   0.02867951
7954.00   3.32344556   0.02852214
7956.00   3.30821228   0.02855901
7958.00   3.28309989   0.02879950
7960.00   3.23892903   0.02920184
7962.00   3.19191670   0.02965316
7964.00   3.15012455   0.02977835
7966.00   3.10293078   0.02981682
7968.00   3.05631900   0.02983183
7970.00   3.02190518   0.02968781
7972.00   2.98616982   0.02924628
7974.00   2.94823861   0.02883949
7976.00   2.91799641   0.02889034
7978.00   2.90390468   0.02872960
7980.00   2.88373208   0.02800184
7982.00   2.83627677   0.02692329
7984.00   2.75615573   0.02699000
7986.00   2.74933696   0.02783191
7988.00   2.75597358   0.02826686
7990.00   2.73945546   0.02814476
7992.00   2.68824196   0.02786973
7994.00   2.68564200   0.02799154
7996.00   2.66543221   0.02779609
7998.00   2.65532303   0.02732126
8000.00   2.66262436   0.02672587
8002.00   2.65403175   0.02612691
8004.00   2.63880801   0.02574179
8006.00   2.62349129   0.02566854
8008.00   2.60864186   0.02575046
8010.00   2.59421730   0.02583871
8012.00   2.59346581   0.02596314
8014.00   2.58851171   0.02610707
8016.00   2.60448194   0.02632554
8018.00   2.61156273   0.02651133
8020.00   2.60477328   0.02666278
8022.00   2.59996629   0.02691366
8024.00   2.60209560   0.02724234
8026.00   2.59302664   0.02733075
8028.00   2.58147264   0.02712412
8030.00   2.58081007   0.02673864
8032.00   2.56348991   0.02621240
8034.00   2.56658006   0.02575246
8036.00   2.56961846   0.02550106
8038.00   2.57960796   0.02541345
8040.00   2.58153057   0.02548682
8042.00   2.55639005   0.02584909
8044.00   2.55282807   0.02542651
8046.00   2.55949688   0.02560680
8048.00   2.56995273   0.02636651
8050.00   2.56698251   0.02716174
8052.00   2.54766941   0.02754098
8054.00   2.55271316   0.02709822
8056.00   2.56082487   0.02650608
8058.00   2.56060719   0.02607691
8060.00   2.56393743   0.02598193
8062.00   2.56094408   0.02592011
8064.00   2.52953839   0.02573057
8066.00   2.51816463   0.02556692
8068.00   2.52214050   0.02539644
8070.00   2.51929784   0.02518134
8072.00   2.52519774   0.02506854
8074.00   2.54083371   0.02508596
8076.00   2.53213882   0.02505122
8078.00   2.51121759   0.02497292
8080.00   2.50577545   0.02493577
8082.00   2.52012253   0.02497149
8084.00   2.53520226   0.02510724
8086.00   2.54030919   0.02525468
8088.00   2.53381991   0.02533665
8090.00   2.53090239   0.02529544
8092.00   2.54668260   0.02528818
8094.00   2.55744195   0.02540793
8096.00   2.57210231   0.02564691
8098.00   2.59730291   0.02588850
8100.00   2.60521722   0.02590010
8102.00   2.60882545   0.02592444
8104.00   2.60661483   0.02596867
8106.00   2.62237287   0.02598926
8108.00   2.63675714   0.02587239
8110.00   2.61853909   0.02560469
8112.00   2.64065623   0.02560638
8114.00   2.66467643   0.02571793
8116.00   2.67788100   0.02581630
8118.00   2.68987155   0.02589506
8120.00   2.73620534   0.02611054
8122.00   2.76119113   0.02628100
8124.00   2.77502823   0.02633663
8126.00   2.77885818   0.02632594
8128.00   2.77388477   0.02630164
8130.00   2.77691293   0.02639832
8132.00   2.79984975   0.02667600
8134.00   2.82061124   0.02688930
8136.00   2.85750890   0.02711069
8138.00   2.89549255   0.02726327
8140.00   2.90393996   0.02726862
8142.00   2.91666484   0.02741898
8144.00   2.93093371   0.02752982
8146.00   2.94920349   0.02764296
8148.00   2.98167706   0.02778655
8150.00   3.03413367   0.02809640
8152.00   3.07170773   0.02833068
8154.00   3.09236264   0.02843806
8156.00   3.11928630   0.02855548
8158.00   3.14722443   0.02873375
8160.00   3.18192577   0.02900120
8162.00   3.20769477   0.02919587
8164.00   3.22648501   0.02933176
8166.00   3.24942780   0.02939964
8168.00   3.29000020   0.02949795
8170.00   3.31118608   0.02952172
8172.00   3.34066701   0.02960780
8174.00   3.38401985   0.02996313
8176.00   3.42281556   0.03046724
8178.00   3.44066024   0.03093497
8180.00   3.45096493   0.03134218
8182.00   3.45438194   0.03152101
8184.00   3.47306800   0.03171046
8186.00   3.50338936   0.03198696
8188.00   3.53027153   0.03233858
8190.00   3.55508304   0.03269783
8192.00   3.57544446   0.03288518
8194.00   3.57848167   0.03282793
8196.00   3.56418991   0.03254233
8198.00   3.55140758   0.03214854
8200.00   3.54737973   0.03171113
8202.00   3.55606246   0.03124226
8204.00   3.56015611   0.03074211
8206.00   3.55830550   0.03035953
8208.00   3.54890633   0.03016323
8210.00   3.56582236   0.03009141
8212.00   3.57561612   0.03005196
8214.00   3.56952929   0.03002897
8216.00   3.56279016   0.03007551
8218.00   3.60394216   0.03041130
8220.00   3.62701797   0.03078867
8222.00   3.63907719   0.03118878
8224.00   3.62455583   0.03153639
8226.00   3.55836487   0.03163429
8228.00   3.47957611   0.03149518
8230.00   3.42690730   0.03131384
8232.00   3.42829585   0.03111511
#8234.00   3.45774531   0.03224288
#8236.00   3.53183484   0.03027107
#8238.00   3.68447185   0.03037556
#8240.00   3.50258923   0.03042686
#8242.00   3.76790929   0.03010192
#8244.00   3.47503376   0.02968554
8246.00   3.38909149   0.03040065
8248.00   3.37057376   0.02904088
8250.00   3.36959720   0.02908804
8252.00   3.35987115   0.02917010
8254.00   3.32450891   0.02904849
8256.00   3.29716277   0.02889343
8258.00   3.28957868   0.02887196
8260.00   3.27284622   0.02876571
8262.00   3.24874973   0.02858073
8264.00   3.23298049   0.02844950
8266.00   3.24013162   0.02851305
8268.00   3.26956058   0.02874306
8270.00   3.27509308   0.02888334
8272.00   3.25926518   0.02907118
8274.00   3.23476911   0.02937763
8276.00   3.21887875   0.02985464
8278.00   3.21070647   0.03031526
8280.00   3.19050717   0.03055643
8282.00   3.19376063   0.03088431
8284.00   3.22176576   0.03133738
8286.00   3.24778438   0.03169316
8288.00   3.23491120   0.03148555
8290.00   3.24231553   0.03133873
8292.00   3.26029134   0.03144939
8294.00   3.28079700   0.03173814
8296.00   3.30117035   0.03191165
8298.00   3.28969836   0.03169386
8300.00   3.29013515   0.03136798
8302.00   3.30581355   0.03100754
8304.00   3.32067418   0.03057723
8306.00   3.32002044   0.03010095
8308.00   3.35061479   0.02990110
8310.00   3.38637137   0.02989546
8312.00   3.40910530   0.02989680
8314.00   3.41042590   0.02980180
8316.00   3.40729403   0.02963884
8318.00   3.42638516   0.02953988
8320.00   3.42243123   0.02940710
8322.00   3.41356969   0.02920497
8324.00   3.41257119   0.02897844
8326.00   3.43150258   0.02890142
8328.00   3.45463562   0.02897410
8330.00   3.47467899   0.02899241
8332.00   3.48207402   0.02896943
8334.00   3.49239659   0.02909658
8336.00   3.49799657   0.02957717
8338.00   3.51522088   0.03082281
8340.00   3.52901483   0.03228761
8342.00   3.53301644   0.03348720
8344.00   3.53410339   0.03410506
8346.00   3.55198979   0.03427233
8348.00   3.54880786   0.03402207
8350.00   3.53357029   0.03307937
8352.00   3.54233551   0.03204544
8354.00   3.56957698   0.03146579
8356.00   3.61052704   0.03155257
8358.00   3.63839340   0.03108930
8360.00   3.62961745   0.03060657
8362.00   3.62532640   0.03032990
8364.00   3.64397264   0.03043045
8366.00   3.64756012   0.03066514
8368.00   3.61925101   0.03007033
8370.00   3.60378575   0.02955194
8372.00   3.59765220   0.02927522
8374.00   3.59737396   0.02929429
8376.00   3.58549881   0.02946716
8378.00   3.58547807   0.02978934
8380.00   3.59049439   0.02999533
8382.00   3.59488940   0.03024209
8384.00   3.59085083   0.03055406
8386.00   3.58351254   0.03086267
8388.00   3.59190464   0.03016092
8390.00   3.58816910   0.02954087
8392.00   3.57675147   0.02974634
8394.00   3.57595277   0.03082619
8396.00   3.59025097   0.03180415
8398.00   3.60096264   0.03224574
8400.00   3.61541104   0.03225142
8402.00   3.63397527   0.03208720
8404.00   3.65920258   0.03181026
8406.00   3.68610168   0.03118209
8408.00   3.73358798   0.03101129
8410.00   3.75258231   0.03086340
8412.00   3.74302197   0.03069875
8414.00   3.71349788   0.03056049
8416.00   3.73854089   0.03078474
8418.00   3.72356915   0.03126448
8420.00   3.72172856   0.03182086
8422.00   3.76347423   0.03194746
8424.00   3.84834218   0.03181860
8426.00   3.83009624   0.03289739
8428.00   3.83185124   0.03397173
8430.00   3.86203289   0.03412047
8432.00   3.90118241   0.03370940
8434.00   3.92959523   0.03335434
8436.00   3.98470497   0.03258183
8438.00   4.01392078   0.03153669
8440.00   4.02777576   0.03098166
8442.00   4.06993723   0.03108565
8444.00   4.15375280   0.03153295
8446.00   4.14522743   0.03188868
8448.00   4.11332130   0.03399867
8450.00   4.15314627   0.03434334
8452.00   4.22651815   0.03320755
8454.00   4.26047087   0.03274415
8456.00   4.31172180   0.03287325
8458.00   4.34612274   0.03323564
8460.00   4.38543177   0.03385893
8462.00   4.42871904   0.03449838
8464.00   4.45165205   0.03476264
8466.00   4.45464420   0.03454660
8468.00   4.50354624   0.03463788
8470.00   4.53795958   0.03422260
8472.00   4.52827263   0.03339744
8474.00   4.55918312   0.03319661
8476.00   4.60602427   0.03349086
8478.00   4.62921190   0.03339180
8480.00   4.64662504   0.03322159
8482.00   4.66273117   0.03345023
8484.00   4.69288206   0.03438525
8486.00   4.69634628   0.03484073
8488.00   4.72648573   0.03453583
8490.00   4.75444221   0.03408289
8492.00   4.78344059   0.03402112
8494.00   4.79135895   0.03424664
8496.00   4.79879093   0.03448122
8498.00   4.80656195   0.03450808
8500.00   4.81329584   0.03452349
8502.00   4.82244158   0.03464150
8504.00   4.85359049   0.03481060
8506.00   4.86154938   0.03576771
8508.00   4.85536766   0.03564560
8510.00   4.86734343   0.03492200
8512.00   4.90695190   0.03442029
8514.00   4.91664314   0.03447981
8516.00   4.89903116   0.03410502
8518.00   4.90959215   0.03412118
8520.00   4.93899679   0.03427663
8522.00   4.95498037   0.03425249
8524.00   4.94070816   0.03420236
8526.00   4.96454430   0.03449048
8528.00   4.98701191   0.03453461
8530.00   4.99325371   0.03442259
8532.00   4.97997141   0.03432238
8534.00   4.98343945   0.03410821
8536.00   4.96691942   0.03408803
8538.00   4.97120047   0.03442267
8540.00   4.98216820   0.03461078
8542.00   4.98945999   0.03440668
8544.00   4.97398520   0.03450784
8546.00   4.98123407   0.03455499
8548.00   5.00125170   0.03454973
8550.00   5.01178217   0.03471576
8552.00   5.02051163   0.03516064
8554.00   4.99867058   0.03549798
8556.00   5.03550482   0.03502832
8558.00   5.06187296   0.03486837
8560.00   5.05182600   0.03533713
8562.00   5.02486658   0.03585424
8564.00   5.07039499   0.03476136
8566.00   5.08430052   0.03446038
8568.00   5.07806969   0.03459104
8570.00   5.07524920   0.03467317
8572.00   5.07282639   0.03443707
8574.00   5.08428383   0.03456250
8576.00   5.09890127   0.03480267
8578.00   5.09234810   0.03481439
8580.00   5.06229782   0.03458362
8582.00   5.05091524   0.03443399
8584.00   5.05381489   0.03437740
8586.00   5.06660795   0.03457514
8588.00   5.05414152   0.03446420
8590.00   5.04349470   0.03427616
8592.00   5.07089472   0.03465428
8594.00   5.07822895   0.03474197
8596.00   5.08483124   0.03446014
8598.00   5.07874250   0.03470362
8600.00   5.06301689   0.03544321
8602.00   5.08944130   0.03587756
8604.00   5.07673693   0.03695167
8606.00   5.05160856   0.03768727
8608.00   5.05632973   0.03805697
8610.00   5.08547640   0.03792541
8612.00   5.08687782   0.03693583
8614.00   5.05255556   0.03566603
8616.00   5.02935362   0.03480545
8618.00   5.02261496   0.03453243
8620.00   5.00395966   0.03494859
8622.00   4.97464466   0.03629294
8624.00   4.97977209   0.03653176
8626.00   5.00644112   0.03621751
8628.00   5.01577139   0.03607820
8630.00   5.01315737   0.03639160
8632.00   5.01115274   0.03627791
8634.00   5.00595617   0.03614043
8636.00   4.99626207   0.03583199
8638.00   4.97644281   0.03559266
8640.00   4.93300056   0.03560854
8642.00   4.87878370   0.03596691
8644.00   4.89803648   0.03567669
8646.00   4.91271830   0.03521306
8648.00   4.92292786   0.03501542
8650.00   4.93305302   0.03524441
8652.00   4.92624092   0.03545462
8654.00   4.92287540   0.03564292
8656.00   4.92975950   0.03579257
8658.00   4.93575382   0.03587137
8660.00   4.91761017   0.03583927
8662.00   4.90836382   0.03565316
8664.00   4.89174509   0.03560155
8666.00   4.88450432   0.03548189
8668.00   4.86334991   0.03513689
8670.00   4.84660816   0.03470845
8672.00   4.90314627   0.03495182
8674.00   4.90060234   0.03504403
8676.00   4.85576773   0.03448670
8678.00   4.82163954   0.03408741
8680.00   4.85842085   0.03475943
8682.00   4.87138557   0.03415260
8684.00   4.88824224   0.03401098
8686.00   4.87230873   0.03382342
8688.00   4.83383226   0.03347846
8690.00   4.80754042   0.03328845
8692.00   4.79328680   0.03406419
8694.00   4.79944944   0.03382527
8696.00   4.82219887   0.03347872
8698.00   4.82742453   0.03355084
8700.00   4.80719614   0.03395223
8702.00   4.80214167   0.03353677
8704.00   4.80426407   0.03314099
8706.00   4.79779100   0.03297339
8708.00   4.80339003   0.03300420
8710.00   4.80361700   0.03285610
8712.00   4.79820681   0.03268975
8714.00   4.79136324   0.03287743
8716.00   4.78514147   0.03303544
8718.00   4.80287981   0.03312036
8720.00   4.82258797   0.03328800
8722.00   4.81492567   0.03298849
8724.00   4.80068970   0.03278789
8726.00   4.79473829   0.03294511
8728.00   4.78751421   0.03318869
8730.00   4.76170588   0.03284924
8732.00   4.76871061   0.03254442
8734.00   4.76735878   0.03265816
8736.00   4.75804329   0.03297791
8738.00   4.75646782   0.03313999
8740.00   4.76858521   0.03284359
8742.00   4.77029419   0.03271953
8744.00   4.77543592   0.03287685
8746.00   4.78022718   0.03297180
8748.00   4.77826691   0.03275327
8750.00   4.77086496   0.03241009
8752.00   4.73210859   0.03220693
8754.00   4.70967388   0.03261540
8756.00   4.71809626   0.03351854
8758.00   4.73994398   0.03444226
8760.00   4.73074198   0.03484654
8762.00   4.71434927   0.03534208
8764.00   4.69609261   0.03582194
8766.00   4.68439627   0.03586117
8768.00   4.67899656   0.03539682
8770.00   4.68479872   0.03551773
8772.00   4.68032074   0.03527473
8774.00   4.67299891   0.03517160
8776.00   4.66416168   0.03518434
8778.00   4.65883875   0.03508427
8780.00   4.62228870   0.03466440
8782.00   4.61991072   0.03400202
8784.00   4.62579918   0.03327188
8786.00   4.61786318   0.03270919
8788.00   4.61731911   0.03257264
8790.00   4.61395025   0.03257652
8792.00   4.59765959   0.03250009
8794.00   4.57629776   0.03229283
8796.00   4.57476568   0.03198600
8798.00   4.58190870   0.03166690
8800.00   4.58876467   0.03156319
8802.00   4.59158087   0.03154685
8804.00   4.59255219   0.03157969
8806.00   4.58659983   0.03153810
8808.00   4.56853151   0.03134948
8810.00   4.53791380   0.03126237
8812.00   4.52258873   0.03123889
8814.00   4.53248405   0.03129910
8816.00   4.55404091   0.03146955
8818.00   4.53192472   0.03181364
8820.00   4.52921677   0.03316095
8822.00   4.53579330   0.03494461
8824.00   4.50648451   0.03638232
8826.00   4.44861507   0.03714560
8828.00   4.45350790   0.03758731
8830.00   4.47728586   0.03753854
8832.00   4.48175907   0.03664611
8834.00   4.47094584   0.03537995
8836.00   4.45345259   0.03433527
8838.00   4.45618105   0.03378956
8840.00   4.45510340   0.03322897
8842.00   4.46266985   0.03264267
8844.00   4.46837425   0.03216783
8846.00   4.45994854   0.03196971
8848.00   4.42894411   0.03189031
8850.00   4.39342690   0.03168066
8852.00   4.37391281   0.03146198
8854.00   4.37309647   0.03129590
8856.00   4.37178373   0.03113556
8858.00   4.35197306   0.03101183
8860.00   4.34020948   0.03117814
8862.00   4.31718254   0.03153222
8864.00   4.26876020   0.03179996
8866.00   4.21939707   0.03189109
8868.00   4.19882250   0.03186897
8870.00   4.17386818   0.03159139
8872.00   4.14478636   0.03101904
8874.00   4.12052488   0.03040404
8876.00   4.10374117   0.03013398
8878.00   4.07839394   0.03066721
8880.00   4.07519770   0.03215739
8882.00   4.06846809   0.03359196
8884.00   4.05170584   0.03440314
8886.00   4.03625059   0.03452529
8888.00   3.97507453   0.03408534
8890.00   3.92417407   0.03295058
8892.00   3.88930774   0.03123702
8894.00   3.90041566   0.03005664
#8896.00   3.97717476   0.03132396
#8898.00   4.18083143   0.03052479
#8900.00   4.04664230   0.03084114
8902.00   3.86647868   0.03319763
8904.00   3.77411079   0.03055412
8906.00   3.78090549   0.03039652
8908.00   3.75905037   0.02987662
8910.00   3.73999119   0.02938690
8912.00   3.72744441   0.02978444
8914.00   3.70968652   0.03113039
8916.00   3.69040298   0.03265291
8918.00   3.69648075   0.03361421
8920.00   3.69513345   0.03394135
8922.00   3.69425583   0.03360343
8924.00   3.70072174   0.03250942
8926.00   3.69625545   0.03083856
8928.00   3.68841100   0.02969278
8930.00   3.66054606   0.02908748
8932.00   3.61113930   0.02860325
8934.00   3.57965755   0.02829068
8936.00   3.58647466   0.02854033
8938.00   3.59383011   0.02898931
8940.00   3.58019900   0.02936625
8942.00   3.57938480   0.02968288
8944.00   3.60295749   0.02992480
8946.00   3.62366366   0.02997535
8948.00   3.62787604   0.02978945
8950.00   3.63790917   0.03004820
8952.00   3.65407491   0.03099514
8954.00   3.65709877   0.03224146
8956.00   3.64720130   0.03311200
8958.00   3.61623883   0.03339797
8960.00   3.57739186   0.03306352
8962.00   3.56072998   0.03222809
8964.00   3.58051801   0.03120729
8966.00   3.59329796   0.03020426
8968.00   3.57816887   0.02958297
8970.00   3.58400154   0.02941882
8972.00   3.61427212   0.02952735
8974.00   3.63966489   0.02959337
8976.00   3.63901448   0.02952741
8978.00   3.67324734   0.02969162
8980.00   3.73094368   0.03019980
8982.00   3.77286792   0.03091442
8984.00   3.77742577   0.03167599
8986.00   3.74077344   0.03230438
8988.00   3.68872643   0.03251686
8990.00   3.63975835   0.03225426
8992.00   3.62501597   0.03170571
8994.00   3.66080451   0.03131082
8996.00   3.71962094   0.03171586
8998.00   3.75459981   0.03235952
9000.00   3.74718952   0.03289880
9002.00   3.72273254   0.03304584
9004.00   3.72618103   0.03266759
9006.00   3.73056579   0.03187544
9008.00   3.75682425   0.03115385
9010.00   3.78887105   0.03072984
9012.00   3.80176830   0.03058837
9014.00   3.79408717   0.03049925
9016.00   3.78426671   0.03039528
9018.00   3.79165816   0.03042472
9020.00   3.78334165   0.03038568
9022.00   3.74767756   0.03018699
9024.00   3.73560262   0.02997973
9026.00   3.68718600   0.02953307
9028.00   3.66970897   0.02927338
9030.00   3.68409705   0.02918611
9032.00   3.71194935   0.02921351
9034.00   3.71301937   0.02922400
9036.00   3.69728494   0.02922290
9038.00   3.72382665   0.02941158
9040.00   3.76757598   0.02972008
9042.00   3.78857040   0.02996848
9044.00   3.75859928   0.03002894
9046.00   3.75315666   0.03019671
9048.00   3.78219795   0.03052598
9050.00   3.81205964   0.03085073
9052.00   3.83112407   0.03103034
9054.00   3.83001328   0.03074279
9056.00   3.81210065   0.03015263
9058.00   3.79225612   0.02988667
9060.00   3.79439902   0.03002882
9062.00   3.82041550   0.03037229
9064.00   3.81008792   0.03048315
9066.00   3.75866604   0.03032375
9068.00   3.71886253   0.03019475
9070.00   3.70071340   0.03023817
9072.00   3.68846536   0.03033871
9074.00   3.66960454   0.03021026
9076.00   3.63662410   0.02990630
9078.00   3.60377383   0.02965011
9080.00   3.57397485   0.02951267
9082.00   3.55726266   0.02952004
9084.00   3.54897380   0.02950007
9086.00   3.53749847   0.03007357
9088.00   3.51377940   0.03055816
9090.00   3.50628638   0.03042592
9092.00   3.52141070   0.02967288
9094.00   3.51726079   0.02933627
9096.00   3.49886441   0.02939785
9098.00   3.49587703   0.02955237
9100.00   3.49134445   0.02963855
9102.00   3.45698929   0.02951302
9104.00   3.41944098   0.02918794
9106.00   3.40682697   0.02889754
9108.00   3.41205049   0.02861356
9110.00   3.43103600   0.02840482
9112.00   3.45941424   0.02832148
9114.00   3.43494582   0.02818195
9116.00   3.42040324   0.02820363
9118.00   3.41544914   0.02835895
9120.00   3.43587804   0.02852040
9122.00   3.46102214   0.02849023
9124.00   3.47491908   0.02857224
9126.00   3.48741722   0.02883936
9128.00   3.48689723   0.02913466
9130.00   3.45797944   0.02932246
9132.00   3.41311717   0.02934126
9134.00   3.36929297   0.02911760
9136.00   3.34276986   0.02875113
9138.00   3.33494735   0.02836286
9140.00   3.33648682   0.02796058
9142.00   3.37652564   0.02780160
9144.00   3.42777085   0.02810414
9146.00   3.49309373   0.02870513
9148.00   3.51801109   0.02928254
9150.00   3.49648738   0.02969878
9152.00   3.41630650   0.02972269
9154.00   3.37026310   0.02965510
9156.00   3.33906388   0.02941788
9158.00   3.34233403   0.02914551
9160.00   3.36957669   0.02886624
9162.00   3.39112210   0.02865131
9164.00   3.44976997   0.02881166
9166.00   3.49065304   0.02897214
9168.00   3.48480153   0.02897383
9170.00   3.45270610   0.02894146
9172.00   3.42072368   0.02904470
9174.00   3.40862250   0.02920541
9176.00   3.42273259   0.02934659
9178.00   3.43861127   0.02924425
9180.00   3.42712784   0.02881806
9182.00   3.41844440   0.02854754
9184.00   3.45053124   0.02861967
9186.00   3.47513747   0.02867616
9188.00   3.47915268   0.02865485
9190.00   3.48431206   0.02867283
9192.00   3.50573802   0.02881643
9194.00   3.51195264   0.02892836
9196.00   3.51085210   0.02888742
9198.00   3.51280212   0.02876217
9200.00   3.52135372   0.02867484
9202.00   3.53210092   0.02863726
9204.00   3.56035399   0.02875143
9206.00   3.57965541   0.02894861
9208.00   3.57547498   0.02908771
9210.00   3.55591941   0.02912952
9212.00   3.58361363   0.02942459
9214.00   3.58555889   0.02957792
9216.00   3.55723023   0.02948334
9218.00   3.54046321   0.02936392
9220.00   3.57273316   0.02946915
9222.00   3.60715938   0.02961831
9224.00   3.61176848   0.02960698
9226.00   3.58669019   0.02941127
9228.00   3.56078124   0.02920604
9230.00   3.58742547   0.02929503
9232.00   3.62727571   0.02955447
9234.00   3.63581634   0.02969791
9236.00   3.62936282   0.02968491
9238.00   3.60596466   0.02949182
9240.00   3.58835483   0.02936705
9242.00   3.56802058   0.02935309
9244.00   3.55318165   0.02929956
9246.00   3.54200673   0.02921352
9248.00   3.54890823   0.02921348
9250.00   3.56449533   0.02927404
9252.00   3.53723145   0.02906362
9254.00   3.53221035   0.02893130
9256.00   3.51115870   0.02873997
9258.00   3.48379111   0.02860479
9260.00   3.50102305   0.02869145
9262.00   3.51382899   0.02866189
9264.00   3.54232669   0.02877570
9266.00   3.56483674   0.02891406
9268.00   3.58335519   0.02905439
9270.00   3.58685493   0.02913309
9272.00   3.59726405   0.02930638
9274.00   3.58469892   0.02949485
9276.00   3.57032323   0.02976951
9278.00   3.54209900   0.02989163
9280.00   3.50913453   0.02977525
9282.00   3.50277710   0.02992001
9284.00   3.53041959   0.03021682
9286.00   3.56854725   0.03054906
9288.00   3.59242415   0.03083231
9290.00   3.59457231   0.03103532
9292.00   3.63036084   0.03147318
9294.00   3.64528847   0.03191847
9296.00   3.63948369   0.03224899
9298.00   3.62689209   0.03261706
9300.00   3.62815499   0.03373884
9302.00   3.60923767   0.03533285
9304.00   3.59643054   0.03706115
9306.00   3.59685349   0.03939586
9308.00   3.64424133   0.04233552
9310.00   3.72465515   0.04462586
9312.00   3.71824336   0.04530245
9314.00   3.69873309   0.04551755
9316.00   3.68244290   0.04593717
9318.00   3.66386056   0.04654339
9320.00   3.63057017   0.04604788
9322.00   3.60859370   0.04531126
9324.00   3.59412384   0.04474418
9326.00   3.61971784   0.04413079
9328.00   3.67739511   0.04263328
9330.00   3.74390864   0.04094164
9332.00   3.81526256   0.04122074
9334.00   3.90605736   0.04298631
9336.00   3.95856190   0.04470718
9338.00   3.88831925   0.04519121
9340.00   3.76754189   0.04494512
9342.00   3.65878892   0.04367392
9344.00   3.63633513   0.04196696
9346.00   3.67606473   0.04010197
9348.00   3.74353409   0.03834738
9350.00   3.81172442   0.03812451
9352.00   3.83533669   0.03903738
9354.00   3.74112511   0.03964207
9356.00   3.60679984   0.03934882
9358.00   3.54538369   0.03834083
9360.00   3.54975224   0.03697823
9362.00   3.59752822   0.03640123
9364.00   3.66414905   0.03671449
9366.00   3.68113971   0.03818535
9368.00   3.60490537   0.04163598
9370.00   3.52672768   0.04763586
9372.00   3.44467735   0.05125875
9374.00   3.42305493   0.05280399
9376.00   3.45103240   0.05339532
9378.00   3.44724917   0.05338800
9380.00   3.43585777   0.04949935
9382.00   3.35675120   0.04291680
9384.00   3.31581306   0.03695085
9386.00   3.33534884   0.03398775
9388.00   3.35398674   0.03251460
9390.00   3.37544227   0.03151420
9392.00   3.41287303   0.03098600
9394.00   3.46721530   0.03118874
9396.00   3.51126862   0.03209870
9398.00   3.48567772   0.03300385
9400.00   3.48174953   0.03357177
9402.00   3.48916054   0.03388309
9404.00   3.49300098   0.03392947
9406.00   3.48295808   0.03367258
9408.00   3.46722674   0.03310647
9410.00   3.45700955   0.03265973
9412.00   3.42954731   0.03293274
9414.00   3.41267657   0.03373580
9416.00   3.43940997   0.03464897
9418.00   3.47540975   0.03562407
9420.00   3.57090759   0.03692621
9422.00   3.62639809   0.03790124
9424.00   3.59214902   0.03824720
9426.00   3.48556781   0.03775021
9428.00   3.41591644   0.03635742
9430.00   3.39339995   0.03526808
9432.00   3.42212796   0.03607312
9434.00   3.49489427   0.03929527
9436.00   3.55758572   0.04367849
9438.00   3.51007557   0.04785248
9440.00   3.38642240   0.04985712
9442.00   3.21728063   0.04838350
9444.00   3.13137150   0.04415895
9446.00   3.22838521   0.03926900
9448.00   3.36542892   0.03732721
9450.00   3.54223251   0.03918906
9452.00   3.66757655   0.04264204
9454.00   3.62850690   0.04483165
9456.00   3.50319290   0.04406470
9458.00   3.45953560   0.04317411
9460.00   3.45375252   0.04228030
9462.00   3.42710900   0.04042809
9464.00   3.41373539   0.03766764
9466.00   3.43286729   0.03553226
9468.00   3.40254760   0.03496853
9470.00   3.38459277   0.03690178
9472.00   3.40154147   0.03985874
9474.00   3.40992618   0.04235660
9476.00   3.36639142   0.04380318
9478.00   3.31810451   0.04452345
9480.00   3.25652790   0.04262970
9482.00   3.20800471   0.03911052
9484.00   3.20279670   0.03538619
9486.00   3.24350142   0.03318857
9488.00   3.35055852   0.03307002
9490.00   3.47474599   0.03424913
9492.00   3.56161308   0.03598259
9494.00   3.54513359   0.03779070
9496.00   3.39696789   0.03944462
9498.00   3.25443077   0.04022337
9500.00   3.16463351   0.03974445
9502.00   3.11510396   0.03823490
9504.00   3.12979150   0.03637808
9506.00   3.27318478   0.03506752
9508.00   3.39835477   0.03419322
9510.00   3.51955485   0.03439558
9512.00   3.61668086   0.03606378
9514.00   3.64337564   0.03868452
9516.00   3.56357956   0.04093997
9518.00   3.46666312   0.04212713
9520.00   3.38599777   0.04191451
9522.00   3.31657672   0.04053023
9524.00   3.27555561   0.03839348
9526.00   3.26858234   0.03623056
9528.00   3.26668620   0.03505666
9530.00   3.27120709   0.03442751
9532.00   3.29813504   0.03431268
9534.00   3.33957195   0.03448423
9536.00   3.38404298   0.03470859
9538.00   3.39493370   0.03513991
9540.00   3.36489511   0.03520193
9542.00   3.33143330   0.03508198
9544.00   3.31182218   0.03514081
9546.00   3.30179596   0.03568459
9548.00   3.29958606   0.03655788
9550.00   3.26815200   0.03717599
9552.00   3.23144937   0.03761177
9554.00   3.21030354   0.03805139
9556.00   3.19326472   0.03753357
9558.00   3.14890671   0.03608067
9560.00   3.11159801   0.03594771
9562.00   3.09001732   0.03744850
9564.00   3.07195544   0.03919176
9566.00   2.97125435   0.03916199
9568.00   2.90843296   0.03805946
9570.00   2.91351199   0.03622518
9572.00   2.96792698   0.03431171
9574.00   3.02138066   0.03290836
9576.00   3.04614139   0.03235795
9578.00   3.05126834   0.03254311
9580.00   3.03464675   0.03260075
9582.00   3.01162910   0.03241910
9584.00   2.99018264   0.03236085
9586.00   2.99098873   0.03258735
9588.00   2.98595119   0.03308153
9590.00   2.94106889   0.03315922
9592.00   2.88310266   0.03272903
9594.00   2.85930753   0.03213420
9596.00   2.85457921   0.03138313
9598.00   2.85961246   0.03091461
9600.00   2.85287547   0.03093334
9602.00   2.83749270   0.03135186
9604.00   2.82115650   0.03178125
9606.00   2.81736851   0.03200151
9608.00   2.81812119   0.03200405
9610.00   2.82470012   0.03182473
9612.00   2.84107280   0.03165495
9614.00   2.87501931   0.03205458
9616.00   2.86894059   0.03282977
9618.00   2.85004687   0.03335417
9620.00   2.85183144   0.03381350
9622.00   2.85137558   0.03447399
9624.00   2.77963424   0.03488190
9626.00   2.72658277   0.03351156
9628.00   2.75430393   0.03167715
9630.00   2.80362988   0.03069975
9632.00   2.81283188   0.03075592
9634.00   2.79488349   0.03092094
9636.00   2.76465249   0.03080100
9638.00   2.72810912   0.03088354
9640.00   2.70038509   0.03192059
9642.00   2.69406128   0.03415407
9644.00   2.70831013   0.03520886
9646.00   2.72040439   0.03034262
9648.00   2.70771384   0.03023432
9650.00   2.68633842   0.03013070
9652.00   2.69475555   0.03197402
9654.00   2.66761231   0.02985069
9656.00   2.64205670   0.02945042
9658.00   2.63291454   0.02990028
9660.00   2.62648678   0.03025363
9662.00   2.59501362   0.03063794
9664.00   2.54902768   0.03089564
9666.00   2.58802605   0.03127133
9668.00   2.62646866   0.03139181
9670.00   2.63612819   0.03124897
9672.00   2.61241317   0.03071404
9674.00   2.60829949   0.03028507
9676.00   2.60306668   0.03077515
9678.00   2.60434127   0.03143776
9680.00   2.61418462   0.03196887
9682.00   2.60950732   0.03227851
9684.00   2.59414744   0.03181110
9686.00   2.56206894   0.03078249
9688.00   2.55625415   0.02998805
9690.00   2.58174324   0.02996378
9692.00   2.61546969   0.03076158
9694.00   2.55749488   0.03151724
9696.00   2.53306985   0.03196042
9698.00   2.54335666   0.03235747
9700.00   2.56128311   0.03270635
9702.00   2.54634213   0.03240060
9704.00   2.57270908   0.03155189
9706.00   2.59957218   0.03116380
9708.00   2.60823536   0.03107878
9710.00   2.60443115   0.03124020
9712.00   2.56788135   0.03179946
9714.00   2.55132174   0.03299927
9716.00   2.50990820   0.03353141
9718.00   2.49216342   0.03364044
9720.00   2.51332021   0.03376481
9722.00   2.51139379   0.03368264
9724.00   2.46423864   0.03243096
9726.00   2.47429299   0.03126048
9728.00   2.50711608   0.03076336
9730.00   2.52305865   0.03111172
9732.00   2.50342536   0.03179809
9734.00   2.49960113   0.03239765
9736.00   2.50554323   0.03282534
9738.00   2.48801112   0.03282094
9740.00   2.45785308   0.03235115
9742.00   2.48385429   0.03207812
9744.00   2.48752308   0.03179837
9746.00   2.48096728   0.03149487
9748.00   2.46091533   0.03100654
9750.00   2.44208217   0.03042548
9752.00   2.41888022   0.03008183
9754.00   2.42277813   0.03008844
9756.00   2.42026067   0.03010451
9758.00   2.39278054   0.02986300
9760.00   2.36906219   0.02958077
9762.00   2.36760998   0.02944413
9764.00   2.34707808   0.02901846
9766.00   2.33558822   0.02867938
9768.00   2.34491348   0.02857240
9770.00   2.35695744   0.02860717
9772.00   2.36303353   0.02871415
9774.00   2.36406493   0.02886928
9776.00   2.37070751   0.02908459
9778.00   2.36951399   0.02923944
9780.00   2.36665273   0.02942577
9782.00   2.35395312   0.03031456
9784.00   2.37250304   0.03301796
9786.00   2.37563396   0.03591302
9788.00   2.38012409   0.03801261
9790.00   2.35212731   0.03890150
9792.00   2.35649967   0.03962927
9794.00   2.38131404   0.03937197
9796.00   2.40087295   0.03796559
9798.00   2.38660622   0.03605479
9800.00   2.36673951   0.03490369
9802.00   2.35251689   0.03413505
9804.00   2.32228398   0.03292388
9806.00   2.31611443   0.03187132
9808.00   2.33291078   0.03139830
9810.00   2.33379173   0.03134121
9812.00   2.29174042   0.03122953
9814.00   2.28069711   0.03114385
9816.00   2.31069112   0.03106923
9818.00   2.34579349   0.03092726
9820.00   2.33300972   0.03070486
9822.00   2.28632641   0.03038189
9824.00   2.28535771   0.03024280
9826.00   2.29804349   0.03022759
9828.00   2.29775429   0.03025291
9830.00   2.29602361   0.03029767
9832.00   2.32444549   0.03034468
9834.00   2.31271625   0.03009682
9836.00   2.29082584   0.02984001
9838.00   2.28503442   0.02982178
9840.00   2.25795317   0.03001246
9842.00   2.25716949   0.03093563
9844.00   2.27672434   0.03197799
9846.00   2.28986549   0.03271044
9848.00   2.28644729   0.03303867
9850.00   2.26355362   0.03277928
9852.00   2.23630428   0.03192902
9854.00   2.22375894   0.03083360
9856.00   2.22298646   0.03013336
9858.00   2.23868465   0.03006903
9860.00   2.26881504   0.03019240
9862.00   2.26697135   0.03052018
9864.00   2.23358989   0.03189692
9866.00   2.23544478   0.03488351
9868.00   2.27189469   0.03813738
9870.00   2.26868892   0.03957045
9872.00   2.24923754   0.04022563
9874.00   2.25214124   0.03967096
9876.00   2.25471854   0.03772129
9878.00   2.21877003   0.03486753
9880.00   2.22346354   0.03307720
9882.00   2.25129533   0.03251852
9884.00   2.25826430   0.03232314
9886.00   2.24873352   0.03247116
9888.00   2.22753453   0.03312505
9890.00   2.22277665   0.03420886
9892.00   2.21077633   0.03491320
9894.00   2.21002126   0.03543939
9896.00   2.20527506   0.03545578
9898.00   2.20346475   0.03474529
9900.00   2.20927882   0.03355192
9902.00   2.18072104   0.03222222
9904.00   2.15181017   0.03143632
9906.00   2.15104795   0.03230839
9908.00   2.18230414   0.03544786
9910.00   2.16778207   0.03872271
9912.00   2.16824698   0.04055229
9914.00   2.16435504   0.04139047
9916.00   2.15945792   0.04127011
9918.00   2.14790368   0.03962205
9920.00   2.15538979   0.03660984
9922.00   2.16772485   0.03436535
9924.00   2.15548730   0.03305551
9926.00   2.13831353   0.03247220
9928.00   2.15116096   0.03227612
9930.00   2.13949966   0.03203413
9932.00   2.15812516   0.03223163
9934.00   2.17831016   0.03344317
9936.00   2.15138245   0.03556925
9938.00   2.09276986   0.03828088
9940.00   2.09833217   0.04192745
9942.00   2.06969929   0.04500666
9944.00   2.03773379   0.04654297
9946.00   2.03590035   0.04650636
9948.00   2.07478571   0.04584189
9950.00   2.08718133   0.04530987
9952.00   2.10632062   0.04486777
9954.00   2.10820079   0.04512822
9956.00   2.10547066   0.04631029
9958.00   2.14969015   0.04747752
9960.00   2.10878110   0.04638627
9962.00   2.06947112   0.04430083
9964.00   2.06205535   0.04221225
9966.00   2.07974792   0.04050007
9968.00   2.08998322   0.03903567
9970.00   2.06610560   0.03806451
9972.00   2.07207561   0.03784485
9974.00   2.07522225   0.03762443
9976.00   2.07720613   0.03698580
9978.00   2.07801008   0.03608057
9980.00   2.09207344   0.03548200
9982.00   2.08386636   0.03494819
9984.00   2.07113671   0.03450634
9986.00   2.06743312   0.03424989
9988.00   2.06631923   0.03415675
9990.00   2.06498337   0.03411534
9992.00   2.06689477   0.03449416
9994.00   2.06417847   0.03518432
9996.00   2.05789280   0.03585118
9998.00   2.06262827   0.03632298
10000.00   2.06132436   0.03653442
10002.00   2.06560111   0.03678807
10004.00   2.06549239   0.03870462
10006.00   2.05987477   0.04342604
10008.00   2.01591802   0.04899966
10010.00   1.98325574   0.05233540
10012.00   2.00881457   0.05409598
10014.00   2.05351901   0.05418866
10016.00   2.06536841   0.05202327
10018.00   2.04214740   0.04828287
10020.00   2.02968383   0.04592835
10022.00   2.01156545   0.04500416
10024.00   2.00666022   0.04477431
10026.00   2.01067519   0.04432143
10028.00   2.01811504   0.04314085
10030.00   1.99666023   0.04103136
10032.00   1.98614800   0.03903491
10034.00   1.99686086   0.03805150
10036.00   2.03121972   0.03843344
10038.00   2.04221272   0.03914173
10040.00   2.03153419   0.03949651
10042.00   2.01534581   0.03961545
10044.00   2.00772214   0.03963625
10046.00   2.00750303   0.03939511
10048.00   1.99570191   0.03859966
10050.00   1.98688138   0.03794571
10052.00   1.98359907   0.03821068
10054.00   1.98307657   0.03955096
10056.00   1.95609534   0.04128901
10058.00   1.88572633   0.04249190
10060.00   1.82255876   0.04317486
10062.00   1.84662247   0.04354008
10064.00   1.95350742   0.04353220
10066.00   2.00096869   0.04300431
10068.00   1.98225439   0.04234362
10070.00   1.95420325   0.04171037
10072.00   1.96678209   0.04173053
10074.00   2.00300121   0.04327011
10076.00   1.97110403   0.04666912
10078.00   1.95192385   0.05032912
10080.00   1.98623264   0.05275499
10082.00   2.00609970   0.05377454
10084.00   1.98049629   0.05326856
10086.00   1.99056399   0.05097852
10088.00   1.93491447   0.04693596
10090.00   1.92120171   0.04381525
10092.00   1.93959177   0.04239796
10094.00   1.95809615   0.04239373
10096.00   1.94359434   0.04327236
10098.00   1.92360449   0.04504912
10100.00   1.95492649   0.04672711
10102.00   1.97531211   0.04764624
10104.00   1.96267831   0.04779221
10106.00   1.97298491   0.04729195
10108.00   1.94257641   0.04553489
10110.00   1.92534888   0.04390507
10112.00   1.93583488   0.04316894
10114.00   1.94136989   0.04371379
10116.00   1.93829691   0.04667972
10118.00   1.94616067   0.05234119
10120.00   1.89677846   0.05672297
10122.00   1.84562600   0.05919777
10124.00   1.87635577   0.06056168
10126.00   1.84832394   0.05965922
10128.00   1.88522089   0.05634332
10130.00   1.90671003   0.05215247
10132.00   1.91516030   0.04905915
10134.00   1.91371250   0.04777960
10136.00   1.90210915   0.04715379
10138.00   1.86644685   0.04676831
10140.00   1.84873295   0.04680308
10142.00   1.86717212   0.04740895
10144.00   1.88437593   0.04847120
10146.00   1.91740072   0.05050397
10148.00   1.91405594   0.05247535
10150.00   1.90672433   0.05388145
10152.00   1.90773141   0.05485003
10154.00   1.90671742   0.05533342
10156.00   1.92351568   0.05483106
10158.00   1.92463410   0.05381483
10160.00   1.87450933   0.05262209
10162.00   1.82351351   0.05271602
10164.00   1.85240400   0.05604888
10166.00   1.83950627   0.06160245
10168.00   1.82799757   0.06591701
10170.00   1.81442261   0.06834681
10172.00   1.83527768   0.06925897
10174.00   1.85501540   0.06833538
10176.00   1.83683336   0.06459361
10178.00   1.84029257   0.06050572
10180.00   1.86839807   0.05837946
10182.00   1.86618912   0.05918973
10184.00   1.84621656   0.06213246
10186.00   1.84778607   0.06391720
10188.00   1.85679722   0.06483927
10190.00   1.86247063   0.06497123
10192.00   1.80800784   0.06371489
10194.00   1.78676593   0.06120214
10196.00   1.81271875   0.05960544
10198.00   1.83503091   0.05925918
10200.00   1.81042922   0.06007253
10202.00   1.78202438   0.06285837
10204.00   1.81590569   0.06830112
10206.00   1.79008257   0.07267711
10208.00   1.75298703   0.07514524
10210.00   1.76202142   0.07616810
10212.00   1.76776743   0.07538809
10214.00   1.77298546   0.07186828
10216.00   1.81954682   0.06739423
10218.00   1.84323156   0.06509992
10220.00   1.85476720   0.06573188
10222.00   1.77548945   0.06727973
10224.00   1.81362677   0.06996409
10226.00   1.78060496   0.07169482
10228.00   1.74373996   0.07161143
10230.00   1.76165974   0.07006234
10232.00   1.83520699   0.06805547
10234.00   1.81948137   0.06564733
10236.00   1.77642787   0.06260124
10238.00   1.78064215   0.06061661
10240.00   1.77798271   0.05944758
10242.00   1.73934650   0.05853147
10244.00   1.71995962   0.05815567
10246.00   1.76897085   0.05875353
10248.00   1.79964304   0.05919921
10250.00   1.77460587   0.05912283
10252.00   1.72579014   0.05894955
10254.00   1.74259090   0.05953769
10256.00   1.77431965   0.06038859
10258.00   1.75339687   0.06085774
10260.00   1.70225298   0.06105876
10262.00   1.69366801   0.06194120
10264.00   1.75681341   0.06396184
10266.00   1.79221213   0.06582306
10268.00   1.78798091   0.06723931
10270.00   1.75954247   0.06799190
10272.00   1.68784177   0.06791504
10274.00   1.66223204   0.06762177
10276.00   1.71274245   0.07055563
10278.00   1.75192177   0.08100151
10280.00   1.77511787   0.09673807
10282.00   1.75063705   0.11075336
10284.00   1.66388702   0.11963335
10286.00   1.64477336   0.12504131
10288.00   1.69180441   0.12589471
10290.00   1.67128563   0.12107316
10292.00   1.58680212   0.11233040
10294.00   1.57774878   0.10502302
10296.00   1.69894946   0.10093992
10298.00   1.76240122   0.09693772
10300.00   1.73148441   0.09127668
10302.00   1.60636425   0.08531591
10304.00   1.70794213   0.08353218
10306.00   1.72910976   0.08245245
10308.00   1.65952265   0.08132621
10310.00   1.59830248   0.08055138
10312.00   1.69631815   0.08012934
10314.00   1.68288743   0.07769888
10316.00   1.62361526   0.07563296
10318.00   1.60932207   0.07504424
10320.00   1.67299747   0.07584607
10322.00   1.72149956   0.07705430
10324.00   1.69736135   0.07703955
10326.00   1.61805475   0.07680596
10328.00   1.53030252   0.07633443
10330.00   1.57030737   0.07700955
10332.00   1.62218535   0.07817658
10334.00   1.59673536   0.07971155
10336.00   1.55114138   0.08044259
10338.00   1.54842532   0.08237308
10340.00   1.58914220   0.08665977
10342.00   1.62570584   0.09184276
10344.00   1.67359304   0.09611870
10346.00   1.65299833   0.09888914
10348.00   1.57906044   0.09955902
10350.00   1.51675320   0.09808417
10352.00   1.64088285   0.09693155
10354.00   1.59804118   0.09412194
10356.00   1.54233646   0.09102291
10358.00   1.57513773   0.08977198
10360.00   1.61556971   0.09025222
10362.00   1.58566678   0.09023800
10364.00   1.52175534   0.09809775
10366.00   1.53715122   0.11230490
10368.00   1.60262442   0.12636225
10370.00   1.56176293   0.13465065
10372.00   1.58511651   0.14045517
10374.00   1.56345069   0.13928775
10376.00   1.49324369   0.13149703
10378.00   1.48654735   0.12076658
10380.00   1.58296585   0.11213633
10382.00   1.54648745   0.10576826
10384.00   1.50640345   0.10169401
10386.00   1.53545868   0.10070648
10388.00   1.59886742   0.10317063
10390.00   1.59410286   0.10790261
10392.00   1.60641086   0.11412641
10394.00   1.53024769   0.11759704
10396.00   1.49935329   0.11901155
10398.00   1.50842965   0.11832263
10400.00   1.50154245   0.11544620
10402.00   1.48617947   0.11161401
10404.00   1.50388443   0.10890162
10406.00   1.53523409   0.10793716
10408.00   1.61359501   0.11186528
10410.00   1.60320818   0.12292487
10412.00   1.50744331   0.13699049
10414.00   1.48636007   0.14962952
10416.00   1.45634234   0.15838782
10418.00   1.50432873   0.16355766
10420.00   1.47247458   0.16081023
10422.00   1.47578990   0.15141489
10424.00   1.40520000   0.13977122
10426.00   1.39956200   0.13015915
10428.00   1.44095671   0.12388269
10430.00   1.47881091   0.12012499
10432.00   1.51054299   0.11715525
10434.00   1.45783746   0.11410815
10436.00   1.39997852   0.11177809
10438.00   1.45243490   0.11208739
10440.00   1.44670188   0.11306628
10442.00   1.46750259   0.11681297
10444.00   1.38183498   0.12090966
10446.00   1.32691467   0.12459419
10448.00   1.38554668   0.12822711
10450.00   1.40621102   0.13162486
10452.00   1.33208799   0.13010438
10454.00   1.34319055   0.12723261
10456.00   1.35627842   0.12348708
10458.00   1.35649812   0.12265383
10460.00   1.47767007   0.12956476
10462.00   1.46534204   0.13938701
10464.00   1.39938867   0.14835371
10466.00   1.32085097   0.15460898
10468.00   1.37575161   0.15983813
10470.00   1.36153090   0.15990171
10472.00   1.24889708   0.15204041
10474.00   1.24960268   0.14344509
10476.00   1.33864439   0.13706225
10478.00   1.30943191   0.13107385
10480.00   1.26372015   0.12832218
10482.00   1.28809297   0.12780933
10484.00   1.27240133   0.12560035
10486.00   1.24137676   0.12356286
10488.00   1.24041522   0.12415519
10490.00   1.20311594   0.12423444
10492.00   1.29067791   0.12641291
10494.00   1.33326387   0.12735695
10496.00   1.33149707   0.12766729
10498.00   1.29117298   0.12862134
10500.00   1.25655091   0.13023035
10502.00   1.30796957   0.13482229
10504.00   1.43119192   0.14151855
10506.00   1.51825094   0.14680494
10508.00   1.36309206   0.14623477
10510.00   1.15230048   0.14259811
10512.00   1.15449584   0.14169955
10514.00   1.28843212   0.14392494
10516.00   1.35910976   0.14819688
10518.00   1.21077526   0.15044984
10520.00   1.25454712   0.15604104
10522.00   1.23911440   0.15950081
10524.00   1.24302280   0.16206904
10526.00   1.29032147   0.16306333
10528.00   1.30550921   0.16017921
10530.00   1.32295096   0.15539271
10532.00   1.35666704   0.15262847
10534.00   1.37806118   0.15116952
10536.00   1.28189600   0.14827235
10538.00   1.21771133   0.14677811
10540.00   1.16528082   0.14561254
10542.00   1.26702595   0.14770174
10544.00   1.34501278   0.15021193
10546.00   1.28047979   0.15037048
10548.00   1.21835124   0.15069558
10550.00   1.34092712   0.15464993
10552.00   1.37743342   0.15724941
10554.00   1.33333528   0.15784200
10556.00   1.25089538   0.15709001
10558.00   1.38161981   0.16062383
10560.00   1.35196066   0.16148435
10562.00   1.31054509   0.16208251
10564.00   1.29893649   0.16354388
10566.00   1.33806193   0.16856234
10568.00   1.35746908   0.17077279
10570.00   1.45427275   0.17489874
10572.00   1.54145157   0.17740564
10574.00   1.55360663   0.17820673
10576.00   1.49769747   0.17889737
10578.00   1.37289941   0.17968458
10580.00   1.25413513   0.18182780
10582.00   1.32681119   0.18583202
10584.00   1.41802800   0.18957262
10586.00   1.52973711   0.19377623
10588.00   1.47815120   0.19246094
10590.00   1.64209080   0.19625266
10592.00   1.57611144   0.19505449
10594.00   1.44848502   0.19078451
10596.00   1.60626090   0.19326228
10598.00   1.43329680   0.18881337
10600.00   1.48324299   0.19043571
10602.00   1.52900016   0.19168849
10604.00   1.54070663   0.19218200
10606.00   1.48594654   0.18985045
10608.00   1.24973524   0.18424869
10610.00   1.19509065   0.18392901
10612.00   1.30363166   0.18747260
10614.00   1.45074737   0.19220048
10616.00   1.54872477   0.19480325
10618.00   1.54644537   0.19272824
10620.00   1.48571301   0.19063151
10622.00   1.48472464   0.19087249
10624.00   1.50214660   0.19179513
10626.00   1.41869736   0.19020186
10628.00   1.34482288   0.18972431
10630.00   1.38386333   0.19125296
10632.00   1.47555625   0.19283462
10634.00   1.53203344   0.19400807
10636.00   1.37571132   0.19113149
10638.00   1.30263937   0.19066532
10640.00   1.35239255   0.19104178
10642.00   1.34260035   0.18999863
10644.00   1.30240905   0.18939824
10646.00   1.34319067   0.19143923
10648.00   1.29912293   0.19374323
10650.00   1.30950248   0.18759120
10652.00   1.27899945   0.18740614
10654.00   1.16435492   0.18405275
10656.00   1.19220030   0.18186437
10658.00   1.38086808   0.18716170
10660.00   1.44690263   0.18900974
10662.00   1.43260193   0.18728852
10664.00   1.30805111   0.18270916
10666.00   1.26579201   0.18253613
10668.00   1.16324902   0.17931354
10670.00   1.12573540   0.17757712
10672.00   1.24168408   0.18110244
10674.00   1.34672892   0.18506689
10676.00   1.36012661   0.18557370
10678.00   1.24632013   0.18531547
10680.00   1.14496207   0.18513958
10682.00   1.09374940   0.18428035
10684.00   1.01622844   0.18401778
10686.00   1.04109585   0.18651412
10688.00   1.21382976   0.19368054
10690.00   1.23841619   0.19687258
10692.00   1.27915132   0.19835627
10694.00   1.34945774   0.19866137
10696.00   1.22117734   0.19906849
10698.00   1.12449789   0.19605263
10700.00   1.21428275   0.19934529
10702.00   1.37039745   0.20652403
10704.00   1.48934519   0.21134032
10706.00   1.32798183   0.21090059
10708.00   1.23063791   0.21233360
10710.00   1.09883642   0.21142401
10712.00   1.04297924   0.20853579
10714.00   1.09522831   0.20723291
10716.00   1.10476518   0.20962584
10718.00   1.04531705   0.21170147
10720.00   1.01519334   0.21667422
10722.00   1.06010854   0.22386040
10724.00   1.17740297   0.23144056
10726.00   1.26847327   0.23724140
10728.00   1.12228167   0.23624425
10730.00   1.06584060   0.23268612
10732.00   1.09038937   0.22880535
10734.00   1.13710582   0.22647506
10736.00   1.20655012   0.22434652
10738.00   1.26816893   0.22655179
10740.00   1.11156130   0.22814925
10742.00   0.97587776   0.23270755
10744.00   0.97707146   0.24028797
10746.00   1.07461536   0.24887367
10748.00   1.18076396   0.25930974
10750.00   1.16828620   0.26262540
10752.00   1.03769255   0.25650996
10754.00   1.02859151   0.24897356
10756.00   1.16871321   0.24557184
10758.00   1.19690192   0.23922534
10760.00   1.18321228   0.23254029
10762.00   1.21466172   0.22948308
10764.00   1.24940145   0.23170686
10766.00   1.20354211   0.23209943
10768.00   1.20762491   0.23718658
10770.00   1.23522246   0.23293324
10772.00   1.31411052   0.23630600
10774.00   1.29496145   0.23707803
10776.00   1.24835265   0.23503561
10778.00   1.23870623   0.23233008
10780.00   1.25485075   0.23099978
10782.00   1.25252950   0.23107141
10784.00   1.20380640   0.22987087
10786.00   1.13727248   0.22956507
10788.00   1.14840579   0.23077975
10790.00   1.14902008   0.22987877
10792.00   1.04176998   0.22650434
10794.00   1.04346192   0.22796483
10796.00   1.19260108   0.23480023
10798.00   1.19223821   0.23637152
10800.00   1.13196421   0.23364234
10802.00   1.13457024   0.23222826
10804.00   1.18566203   0.23569751
10806.00   1.14905596   0.23494954
10808.00   1.12448001   0.23297186
10810.00   1.16675520   0.23984826
10812.00   1.17400873   0.23415281
10814.00   1.14921951   0.23439877
10816.00   1.30849314   0.23909248
10818.00   1.30286252   0.24415791
10820.00   1.09053671   0.25363356
10822.00   0.96989298   0.27070770
10824.00   1.16546679   0.29677635
10826.00   1.19525135   0.31594953
10828.00   1.20138681   0.33344984
10830.00   1.21379459   0.33121666
10832.00   1.10432899   0.32680157
10834.00   1.10497952   0.31796774
10836.00   1.23835194   0.31010988
10838.00   1.15836275   0.29803637
10840.00   0.92252189   0.28063858
10842.00   1.05805290   0.27098587
10844.00   1.16985321   0.26034725
10846.00   1.15044999   0.25081202
10848.00   1.03834581   0.23996381
10850.00   1.00117826   0.23159622
10852.00   1.16133225   0.23010613
10854.00   1.34381974   0.23016451
10856.00   1.25918281   0.22498901
10858.00   1.08361411   0.21603149
10860.00   0.93321419   0.20632477
10862.00   1.07975709   0.20684858
10864.00   1.04257524   0.20214744
10866.00   1.01494586   0.19664319
10868.00   1.07424271   0.19533253
10870.00   1.08987820   0.19460094
10872.00   1.09849703   0.19333769
10874.00   0.95423764   0.18772699
10876.00   0.94739628   0.18192352
10878.00   1.02380002   0.17910318
10880.00   1.04011953   0.17841506
10882.00   0.98182505   0.17657042
10884.00   0.97689772   0.17359066
10886.00   0.86764842   0.16985123
10888.00   0.81512052   0.16875874
10890.00   0.90948468   0.17057277
10892.00   0.99336547   0.17331646
10894.00   1.04013860   0.17116062
10896.00   0.98918039   0.16654867
10898.00   0.90128928   0.16106348
10900.00   0.84780025   0.15662898
10902.00   0.84638196   0.15345354
10904.00   0.90888673   0.15164326
10906.00   0.91631508   0.14834024
10908.00   0.87615114   0.14409477
10910.00   0.77675438   0.14200796
10912.00   0.86983591   0.14759378
10914.00   0.82057112   0.15035097
10916.00   0.84545439   0.15389025
10918.00   0.93457240   0.15721275
10920.00   0.87626910   0.15647559
10922.00   0.86777067   0.15291487
10924.00   0.86870337   0.14891191
10926.00   0.84341174   0.14413868
10928.00   0.78620267   0.13890065
10930.00   0.72252184   0.13304232
10932.00   0.73148733   0.12764515
10934.00   0.76625061   0.12344935
10936.00   0.80622119   0.12156487
10938.00   0.79946476   0.11974013
10940.00   0.71164709   0.11665592
10942.00   0.74170208   0.11637670
10944.00   0.80687666   0.11625111
10946.00   0.79342836   0.11470037
10948.00   0.74846935   0.11279016
10950.00   0.81678325   0.11249807
10952.00   0.73314446   0.10866011
10954.00   0.64871788   0.10481966
10956.00   0.64953375   0.10263049
10958.00   0.72837967   0.10292382
10960.00   0.75363779   0.10378017
10962.00   0.72363782   0.10527065
10964.00   0.68849641   0.10585362
10966.00   0.67638683   0.10645732
10968.00   0.73178166   0.10810374
10970.00   0.73351175   0.10763506
10972.00   0.72319084   0.10549287
10974.00   0.67872381   0.10218692
10976.00   0.67983764   0.10005823
10978.00   0.69206744   0.09781557
10980.00   0.73683405   0.09548035
10982.00   0.69012189   0.09248313
10984.00   0.62808210   0.08888942
10986.00   0.61989361   0.08634461
10988.00   0.69698614   0.08647966
10990.00   0.71013564   0.08612261
10992.00   0.70973015   0.08537892
10994.00   0.73153353   0.08552504
10996.00   0.77564335   0.08625320
10998.00   0.80098313   0.08658590
11000.00   0.75349683   0.08479756
11002.00   0.76714772   0.08491913
11004.00   0.79758543   0.08485913
11006.00   0.78342700   0.08356050
11008.00   0.75735092   0.08219996
11010.00   0.78875440   0.08253241
11012.00   0.69168311   0.07929132
11014.00   0.71826887   0.07914075
11016.00   0.77372092   0.08063040
11018.00   0.76980305   0.08085417
11020.00   0.82321471   0.08215990
11022.00   0.83677030   0.08163335
11024.00   0.80318046   0.08065193
11026.00   0.74069762   0.07906542
11028.00   0.71885729   0.07727819
11030.00   0.80193537   0.07849579
11032.00   0.78504372   0.07706103
11034.00   0.79213828   0.07612585
11036.00   0.82588959   0.07538458
11038.00   0.83973640   0.07434684
11040.00   0.86136150   0.07475659
11042.00   0.84609938   0.07397125
11044.00   0.88067025   0.07346566
11046.00   0.94676000   0.07361589
11048.00   0.97485572   0.07380725
11050.00   0.85460109   0.07114757
11052.00   0.86890012   0.07194813
11054.00   0.91573340   0.07242586
11056.00   0.90211010   0.07107792
11058.00   0.84198952   0.06963744
11060.00   0.84118366   0.06953302
11062.00   0.89548630   0.07011911
11064.00   0.95249349   0.07095806
11066.00   1.00650322   0.07189199
11068.00   0.97669035   0.07092554
11070.00   0.91524726   0.06959579
11072.00   0.94902331   0.06991784
11074.00   0.99305910   0.07026435
11076.00   0.98666334   0.06985068
11078.00   0.97094274   0.07009742
11080.00   0.99776429   0.07060897
11082.00   1.02775490   0.07051287
11084.00   1.02110326   0.07027473
11086.00   0.97265196   0.06988434
11088.00   1.01443350   0.07000878
11090.00   1.09282196   0.07096077
11092.00   1.09807038   0.07068351
11094.00   1.04325616   0.06920615
11096.00   1.01497173   0.06841914
11098.00   1.03011346   0.06904450
11100.00   1.07691145   0.06942896
