# File created by shivutils (I.Shivvers)
# wl(A)   flm    er(optional)
3660.00   0.52785319   0.08109424
3662.00   0.45464417   0.08095439
3664.00   0.44815281   0.07907093
3666.00   0.41423583   0.07633910
3668.00   0.25948912   0.07292400
3670.00   0.31137311   0.07349673
3672.00   0.21577266   0.07419413
3674.00   0.27082646   0.07427913
3676.00   0.37895784   0.07220836
3678.00   0.32011825   0.06888784
3680.00   0.39747059   0.06920863
3682.00   0.42095339   0.07042374
3684.00   0.45775428   0.07020617
3686.00   0.40800196   0.06730688
3688.00   0.38837361   0.06784612
3690.00   0.33333275   0.07139782
3692.00   0.28539962   0.07143573
3694.00   0.42533100   0.07033581
3696.00   0.44435531   0.07108477
3698.00   0.25727513   0.07148247
3700.00   0.32336959   0.07237196
3702.00   0.36310440   0.06974483
3704.00   0.34881422   0.06573670
3706.00   0.31382346   0.06321955
3708.00   0.26779038   0.06354647
3710.00   0.26521328   0.06645513
3712.00   0.39274240   0.07074015
3714.00   0.42765275   0.07146072
3716.00   0.35918567   0.06888752
3718.00   0.39399430   0.06388921
3720.00   0.47221255   0.05923406
3722.00   0.39166749   0.05940784
3724.00   0.35332772   0.06356661
3726.00   0.33652124   0.06432523
3728.00   0.40251386   0.06407590
3730.00   0.37177086   0.06335914
3732.00   0.22128002   0.05751213
3734.00   0.40909529   0.05431581
3736.00   0.33867908   0.05394170
3738.00   0.36734951   0.05864306
3740.00   0.34401384   0.06227220
3742.00   0.31415188   0.06067609
3744.00   0.49980691   0.05766796
3746.00   0.49682373   0.05491303
3748.00   0.39533114   0.05297371
3750.00   0.42627737   0.05585001
3752.00   0.34123048   0.06041983
3754.00   0.35389632   0.06332923
3756.00   0.41871467   0.06078640
3758.00   0.39325777   0.05683751
3760.00   0.46818256   0.05765833
3762.00   0.39585641   0.05762057
3764.00   0.37130079   0.05698063
3766.00   0.43250096   0.05759604
3768.00   0.45783934   0.05741908
3770.00   0.32338259   0.05807268
3772.00   0.48295417   0.06073889
3774.00   0.54001844   0.06243641
3776.00   0.51674116   0.06228793
3778.00   0.41258398   0.06232063
3780.00   0.45534047   0.06295308
3782.00   0.58913016   0.06437182
3784.00   0.41757315   0.06171674
3786.00   0.50956583   0.05935770
3788.00   0.56667089   0.05703114
3790.00   0.61101097   0.05821985
3792.00   0.65476966   0.05760726
3794.00   0.53897047   0.05536976
3796.00   0.49931985   0.05281307
3798.00   0.55449784   0.05272763
3800.00   0.50605434   0.05478398
3802.00   0.45484042   0.05720562
3804.00   0.45192951   0.05708346
3806.00   0.53252101   0.05640286
3808.00   0.55084169   0.05683353
3810.00   0.47211751   0.05726640
3812.00   0.46084729   0.05521409
3814.00   0.45283771   0.05167364
3816.00   0.57605600   0.05157489
3818.00   0.54382241   0.05110459
3820.00   0.43762973   0.04851830
3822.00   0.45911855   0.04884668
3824.00   0.49237490   0.04719275
3826.00   0.44478631   0.04472794
3828.00   0.37937784   0.04500085
3830.00   0.47439471   0.04602669
3832.00   0.46107474   0.04423097
3834.00   0.55024403   0.04484199
3836.00   0.47930962   0.04485988
3838.00   0.44997311   0.04373340
3840.00   0.43127507   0.04472725
3842.00   0.38704672   0.04743012
3844.00   0.39648283   0.04924174
3846.00   0.47464246   0.04986648
3848.00   0.49008137   0.04918867
3850.00   0.55502927   0.04950877
3852.00   0.54599637   0.04964288
3854.00   0.47924632   0.04813146
3856.00   0.42686069   0.04609284
3858.00   0.42136589   0.04362784
3860.00   0.40728563   0.04423775
3862.00   0.37624690   0.04736131
3864.00   0.37386772   0.04881136
3866.00   0.39895856   0.04772427
3868.00   0.48118296   0.04657888
3870.00   0.37860757   0.04370753
3872.00   0.37031788   0.04388082
3874.00   0.40371528   0.04716719
3876.00   0.36645260   0.04702497
3878.00   0.40649453   0.04520794
3880.00   0.51595044   0.04497365
3882.00   0.50871772   0.04512427
3884.00   0.39086819   0.04452931
3886.00   0.44581914   0.04412795
3888.00   0.48246649   0.04398215
3890.00   0.34651038   0.04478910
3892.00   0.40188709   0.04766919
3894.00   0.37943739   0.04760005
3896.00   0.45814228   0.04838578
3898.00   0.38466990   0.04773086
3900.00   0.48391801   0.04805923
3902.00   0.40911478   0.04712387
3904.00   0.42430532   0.04653536
3906.00   0.46469668   0.04839125
3908.00   0.59790099   0.05102064
3910.00   0.50138038   0.05243954
3912.00   0.43640712   0.05268604
3914.00   0.38471395   0.05092224
3916.00   0.43502441   0.04835070
3918.00   0.43270898   0.04584286
3920.00   0.34119296   0.04375650
3922.00   0.39621294   0.04338244
3924.00   0.38068441   0.04328621
3926.00   0.34140700   0.04058793
3928.00   0.42841974   0.03774111
3930.00   0.46649772   0.03554030
3932.00   0.38779166   0.03374317
3934.00   0.46773356   0.03413107
3936.00   0.48240548   0.03588818
3938.00   0.42406982   0.03821706
3940.00   0.39735314   0.04018012
3942.00   0.47469550   0.04162634
3944.00   0.40278488   0.04237449
3946.00   0.46879148   0.04355269
3948.00   0.41271925   0.04422427
3950.00   0.44134048   0.04474503
3952.00   0.39442259   0.04436699
3954.00   0.32431889   0.04338244
3956.00   0.38917604   0.04350686
3958.00   0.33354664   0.04302258
3960.00   0.31289214   0.04119957
3962.00   0.38018006   0.03865974
3964.00   0.40790513   0.03627221
3966.00   0.45123741   0.03366096
3968.00   0.36759970   0.03151030
3970.00   0.43987155   0.03367535
3972.00   0.40285051   0.03676728
3974.00   0.49651179   0.04010274
3976.00   0.52883017   0.04235713
3978.00   0.46864143   0.04374284
3980.00   0.51605803   0.04478255
3982.00   0.48098913   0.04462993
3984.00   0.51638263   0.04443303
3986.00   0.41266802   0.04451650
3988.00   0.52385378   0.04570156
3990.00   0.55526310   0.04640390
3992.00   0.44716311   0.04624536
3994.00   0.55624151   0.04684236
3996.00   0.51460594   0.04591181
3998.00   0.57434422   0.04612575
4000.00   0.53576499   0.04657266
4002.00   0.51332599   0.04609891
4004.00   0.57657427   0.04506068
4006.00   0.59307647   0.04491239
4008.00   0.55492103   0.04592904
4010.00   0.58857465   0.04645534
4012.00   0.51169056   0.04624107
4014.00   0.49947321   0.04633747
4016.00   0.56331372   0.04632501
4018.00   0.53235579   0.04688501
4020.00   0.57458311   0.04828820
4022.00   0.62599474   0.04881377
4024.00   0.61786777   0.04808969
4026.00   0.60384691   0.04752742
4028.00   0.61014259   0.04700251
4030.00   0.64481807   0.04584535
4032.00   0.64435452   0.04469171
4034.00   0.62023664   0.04509509
4036.00   0.62848234   0.04624480
4038.00   0.67914993   0.04674097
4040.00   0.59357047   0.04614213
4042.00   0.65806347   0.04583386
4044.00   0.76856893   0.04932217
4046.00   0.66403288   0.05254408
4048.00   0.70981449   0.05128827
4050.00   0.69053406   0.04684747
4052.00   0.57654744   0.04489151
4054.00   0.66678429   0.04460760
4056.00   0.63139844   0.04379841
4058.00   0.61167753   0.04333331
4060.00   0.54774606   0.04313094
4062.00   0.50244683   0.04156977
4064.00   0.48280746   0.04125022
4066.00   0.34043148   0.04155833
4068.00   0.41971821   0.04269707
4070.00   0.53985214   0.04265608
4072.00   0.54185623   0.04252499
4074.00   0.54931188   0.04300020
4076.00   0.50940198   0.04280343
4078.00   0.58388901   0.04319894
4080.00   0.68463659   0.04419075
4082.00   0.63979679   0.04366249
4084.00   0.68625176   0.04320016
4086.00   0.63149357   0.04348439
4088.00   0.64320940   0.04401702
4090.00   0.62465298   0.04337905
4092.00   0.60003090   0.04264727
4094.00   0.47333303   0.04131261
4096.00   0.52315074   0.04080052
4098.00   0.52801931   0.03987254
4100.00   0.43195206   0.03759870
4102.00   0.40126985   0.03851555
4104.00   0.52530873   0.03984047
4106.00   0.48352528   0.04049426
4108.00   0.53586406   0.04099436
4110.00   0.62515247   0.04146481
4112.00   0.67182213   0.04230044
4114.00   0.62212008   0.04263071
4116.00   0.62877220   0.04261298
4118.00   0.65839225   0.04222677
4120.00   0.68353570   0.04183597
4122.00   0.64947063   0.04189994
4124.00   0.61813438   0.04178145
4126.00   0.70524073   0.04168172
4128.00   0.64369416   0.04099434
4130.00   0.60528713   0.04026613
4132.00   0.62317348   0.03989059
4134.00   0.62863946   0.04008812
4136.00   0.68950123   0.04124334
4138.00   0.66437519   0.04200737
4140.00   0.61580104   0.04163530
4142.00   0.64634448   0.04037282
4144.00   0.68305629   0.04013390
4146.00   0.69191891   0.04092273
4148.00   0.63668489   0.04086902
4150.00   0.68093956   0.04106752
4152.00   0.65038735   0.04083674
4154.00   0.69293737   0.04063537
4156.00   0.63726753   0.04044385
4158.00   0.61648184   0.04061182
4160.00   0.65746671   0.04136696
4162.00   0.68070132   0.04183446
4164.00   0.59233928   0.04164912
4166.00   0.57849807   0.04099511
4168.00   0.55544102   0.04021248
4170.00   0.62775743   0.03973240
4172.00   0.66997367   0.03892927
4174.00   0.67394954   0.03891394
4176.00   0.51843464   0.03860981
4178.00   0.62536097   0.03910787
4180.00   0.56664914   0.03869151
4182.00   0.59709942   0.03842364
4184.00   0.65234727   0.03870928
4186.00   0.66544557   0.03853440
4188.00   0.63231045   0.03834897
4190.00   0.54991347   0.03860852
4192.00   0.59780371   0.03908847
4194.00   0.59874010   0.03857976
4196.00   0.56284946   0.03730508
4198.00   0.55802298   0.03676325
4200.00   0.56046748   0.03660136
4202.00   0.56672567   0.03722392
4204.00   0.60917354   0.03805495
4206.00   0.65216130   0.03878940
4208.00   0.59074956   0.03869550
4210.00   0.61870229   0.03891347
4212.00   0.55502987   0.03855687
4214.00   0.57103437   0.03798120
4216.00   0.59418523   0.03766122
4218.00   0.68570465   0.03846448
4220.00   0.60722184   0.03823942
4222.00   0.71900070   0.03793729
4224.00   0.68078518   0.03592381
4226.00   0.64944685   0.03503654
4228.00   0.73634601   0.03676942
4230.00   0.69829816   0.03801129
4232.00   0.57610965   0.03750344
4234.00   0.65618026   0.03715212
4236.00   0.65604025   0.03655176
4238.00   0.61498147   0.03655464
4240.00   0.63696802   0.03674509
4242.00   0.63264501   0.03696651
4244.00   0.59310520   0.03748476
4246.00   0.56218272   0.03744392
4248.00   0.57618260   0.03641204
4250.00   0.62764394   0.03625710
4252.00   0.67913526   0.03673542
4254.00   0.73043436   0.03736887
4256.00   0.67044705   0.03720079
4258.00   0.60066199   0.03611691
4260.00   0.62680477   0.03577182
4262.00   0.60873085   0.03660309
4264.00   0.69275486   0.03761584
4266.00   0.68339509   0.03734158
4268.00   0.58648509   0.03591121
4270.00   0.67189109   0.03490908
4272.00   0.62406033   0.03389085
4274.00   0.60754931   0.03460190
4276.00   0.72603863   0.03633495
4278.00   0.64565444   0.03592766
4280.00   0.54957837   0.03504851
4282.00   0.62205023   0.03532666
4284.00   0.61254114   0.03518302
4286.00   0.62613779   0.03472964
4288.00   0.60380095   0.03414421
4290.00   0.64852393   0.03422137
4292.00   0.66126406   0.03482725
4294.00   0.63251686   0.03487783
4296.00   0.61793971   0.03396789
4298.00   0.62502563   0.03262343
4300.00   0.62041730   0.03166392
4302.00   0.71655190   0.03195769
4304.00   0.69830191   0.03195181
4306.00   0.68279743   0.03143277
4308.00   0.67331278   0.03087370
4310.00   0.64763373   0.03133494
4312.00   0.67043519   0.03353146
4314.00   0.71210802   0.03563912
4316.00   0.65107268   0.03660584
4318.00   0.67745143   0.03719050
4320.00   0.72197634   0.03708442
4322.00   0.71188253   0.03555452
4324.00   0.76365870   0.03435090
4326.00   0.61671829   0.03417255
4328.00   0.75536644   0.03597149
4330.00   0.74456578   0.03639742
4332.00   0.71194768   0.03616389
4334.00   0.71823204   0.03590688
4336.00   0.73804128   0.03480976
4338.00   0.64069593   0.03274126
4340.00   0.65579945   0.03250353
4342.00   0.70022792   0.03368400
4344.00   0.70593023   0.03503619
4346.00   0.76300699   0.03605035
4348.00   0.72678733   0.03582066
4350.00   0.66765457   0.03468285
4352.00   0.71453542   0.03436491
4354.00   0.73642921   0.03691324
4356.00   0.62987614   0.04473267
4358.00   0.67900419   0.04838994
4360.00   0.79376012   0.04430746
4362.00   0.64834952   0.03845013
4364.00   0.63569397   0.03649984
4366.00   0.61055279   0.03584659
4368.00   0.58772880   0.03556665
4370.00   0.63272071   0.03572903
4372.00   0.69294685   0.03573056
4374.00   0.69921160   0.03553425
4376.00   0.65615129   0.03544532
4378.00   0.70119238   0.03562060
4380.00   0.68213207   0.03491855
4382.00   0.75132424   0.03357177
4384.00   0.71389747   0.03268882
4386.00   0.73933053   0.03334476
4388.00   0.71356732   0.03354079
4390.00   0.68203485   0.03338313
4392.00   0.68628204   0.03346603
4394.00   0.69935238   0.03369665
4396.00   0.63482720   0.03379488
4398.00   0.67805076   0.03414056
4400.00   0.65950584   0.03410067
4402.00   0.68622768   0.03371589
4404.00   0.69558978   0.03339338
4406.00   0.65657574   0.03361304
4408.00   0.64478052   0.03437680
4410.00   0.66778636   0.03513029
4412.00   0.64154243   0.03497569
4414.00   0.62265390   0.03464717
4416.00   0.66541362   0.03468210
4418.00   0.63607675   0.03513061
4420.00   0.65474403   0.03517471
4422.00   0.69646192   0.03490585
4424.00   0.65354800   0.03447425
4426.00   0.66497433   0.03451350
4428.00   0.68868518   0.03460076
4430.00   0.58278972   0.03407431
4432.00   0.62499565   0.03374846
4434.00   0.65798151   0.03371795
4436.00   0.67505676   0.03407032
4438.00   0.71937639   0.03461225
4440.00   0.63907182   0.03383650
4442.00   0.64017326   0.03345227
4444.00   0.58701438   0.03315886
4446.00   0.58884406   0.03325254
4448.00   0.57273126   0.03305774
4450.00   0.54996979   0.03305459
4452.00   0.52940977   0.03256884
4454.00   0.60352892   0.03235685
4456.00   0.58819014   0.03216347
4458.00   0.64936852   0.03249542
4460.00   0.63022655   0.03269318
4462.00   0.68620139   0.03328102
4464.00   0.64045268   0.03352097
4466.00   0.62816799   0.03334264
4468.00   0.57206821   0.03305737
4470.00   0.63098401   0.03331066
4472.00   0.60955805   0.03359305
4474.00   0.73497260   0.03390973
4476.00   0.73043585   0.03360539
4478.00   0.69269043   0.03288531
4480.00   0.58654124   0.03174322
4482.00   0.56578809   0.03184497
4484.00   0.60695958   0.03263507
4486.00   0.56852430   0.03279777
4488.00   0.65162987   0.03298274
4490.00   0.62643450   0.03295097
4492.00   0.70822394   0.03338131
4494.00   0.70406073   0.03327794
4496.00   0.65266567   0.03334882
4498.00   0.64656991   0.03349443
4500.00   0.64017826   0.03347237
4502.00   0.62600940   0.03345251
4504.00   0.60612237   0.03351677
4506.00   0.65311497   0.03367702
4508.00   0.73184466   0.03378685
4510.00   0.65014791   0.03343332
4512.00   0.62841535   0.03311639
4514.00   0.62025797   0.03281860
4516.00   0.60257465   0.03263059
4518.00   0.59050024   0.03244855
4520.00   0.57265812   0.03230708
4522.00   0.59032100   0.03222783
4524.00   0.60677254   0.03177363
4526.00   0.59281790   0.03124666
4528.00   0.54057002   0.03074268
4530.00   0.53654432   0.03086288
4532.00   0.57990849   0.03102960
4534.00   0.56293356   0.03120962
4536.00   0.59461772   0.03167793
4538.00   0.62672108   0.03222242
4540.00   0.62173474   0.03232586
4542.00   0.59214538   0.03219425
4544.00   0.55639952   0.03181347
4546.00   0.59606433   0.03147561
4548.00   0.58789992   0.03113043
4550.00   0.60648650   0.03111670
4552.00   0.59631717   0.03122544
4554.00   0.58375341   0.03116546
4556.00   0.58220637   0.03143586
4558.00   0.60913152   0.03173462
4560.00   0.56011420   0.03169575
4562.00   0.62375540   0.03174118
4564.00   0.64101940   0.03146747
4566.00   0.63247705   0.03159927
4568.00   0.61085564   0.03161610
4570.00   0.62725818   0.03141383
4572.00   0.70033324   0.03155905
4574.00   0.59755588   0.03121738
4576.00   0.63530678   0.03100180
4578.00   0.65425992   0.03068588
4580.00   0.68606609   0.03041289
4582.00   0.63633972   0.03009014
4584.00   0.65433943   0.03016849
4586.00   0.67561442   0.03052004
4588.00   0.64014482   0.03061269
4590.00   0.69805253   0.03077804
4592.00   0.56867427   0.03018176
4594.00   0.66856515   0.03051146
4596.00   0.68142498   0.03033296
4598.00   0.74566185   0.03043007
4600.00   0.69425416   0.03009926
4602.00   0.68568951   0.03003993
4604.00   0.60247552   0.02965765
4606.00   0.62704080   0.02999159
4608.00   0.63624859   0.03022030
4610.00   0.63096839   0.03013804
4612.00   0.62010890   0.03008377
4614.00   0.67309594   0.03027855
4616.00   0.66298831   0.03034276
4618.00   0.72477758   0.03035275
4620.00   0.74183226   0.03065038
4622.00   0.73601365   0.03071998
4624.00   0.69302827   0.03027549
4626.00   0.72260666   0.03033009
4628.00   0.76137048   0.03011731
4630.00   0.63987231   0.02960946
4632.00   0.73701316   0.02989179
4634.00   0.73796415   0.02973304
4636.00   0.75395876   0.02988230
4638.00   0.80036390   0.03010595
4640.00   0.73296779   0.03002276
4642.00   0.70495474   0.02982340
4644.00   0.74737132   0.02979122
4646.00   0.73138255   0.02956256
4648.00   0.78204262   0.02985297
4650.00   0.79859537   0.03033821
4652.00   0.80014193   0.03059636
4654.00   0.83105832   0.03066121
4656.00   0.79868853   0.03062301
4658.00   0.83807927   0.03110766
4660.00   0.81504732   0.03108418
4662.00   0.80116504   0.03069836
4664.00   0.79132080   0.03020184
4666.00   0.79520565   0.02992514
4668.00   0.81681186   0.02982219
4670.00   0.80376804   0.02999924
4672.00   0.83751714   0.03025976
4674.00   0.84560680   0.03047757
4676.00   0.80233097   0.02998060
4678.00   0.80985147   0.02974729
4680.00   0.77494323   0.02950004
4682.00   0.80180734   0.02982062
4684.00   0.79419559   0.02973958
4686.00   0.82421148   0.02998619
4688.00   0.85502851   0.03008733
4690.00   0.84290224   0.02984836
4692.00   0.84199607   0.02992900
4694.00   0.88374597   0.03017882
4696.00   0.89125001   0.03000887
4698.00   0.86831415   0.02978031
4700.00   0.91243255   0.02964117
4702.00   0.89415747   0.02938762
4704.00   0.94909573   0.02967291
4706.00   0.92368770   0.02972467
4708.00   0.93851000   0.02993230
4710.00   0.95323336   0.03005014
4712.00   0.96551788   0.03012441
4714.00   0.99883795   0.03038022
4716.00   0.96649355   0.03025286
4718.00   1.03998399   0.03073516
4720.00   1.01644480   0.03066589
4722.00   1.03968608   0.03081073
4724.00   0.99498904   0.03076578
4726.00   1.03891850   0.03077677
4728.00   0.98359489   0.03040641
4730.00   1.02037203   0.03053041
4732.00   0.96512949   0.03049504
4734.00   1.00319135   0.03049148
4736.00   0.95706439   0.03034621
4738.00   1.02370262   0.03068992
4740.00   1.00428557   0.03087429
4742.00   0.97661233   0.03111315
4744.00   0.95294440   0.03077876
4746.00   0.98706102   0.03039847
4748.00   1.03802180   0.03036685
4750.00   0.94466090   0.02985145
4752.00   0.94161803   0.02984449
4754.00   1.02945805   0.02987783
4756.00   0.97324312   0.02960473
4758.00   1.00073230   0.02975190
4760.00   1.01116002   0.02979419
4762.00   1.01920593   0.02958585
4764.00   1.03172803   0.02938108
4766.00   1.02260387   0.02937251
4768.00   0.98694193   0.02926564
4770.00   1.04289412   0.02945623
4772.00   0.96246648   0.02925853
4774.00   1.00815356   0.02967859
4776.00   0.98669511   0.02970815
4778.00   1.03002119   0.02997956
4780.00   0.99496049   0.02973483
4782.00   1.01856005   0.02954121
4784.00   0.95741963   0.02908343
4786.00   0.96416396   0.02885797
4788.00   0.93111867   0.02870914
4790.00   0.92752528   0.02868134
4792.00   0.95231658   0.02872366
4794.00   0.99814945   0.02891864
4796.00   0.93888342   0.02862973
4798.00   0.89724511   0.02822789
4800.00   0.88524753   0.02808932
4802.00   0.85649002   0.02803351
4804.00   0.84389699   0.02798760
4806.00   0.90737647   0.02820794
4808.00   0.89008600   0.02811390
4810.00   0.84570849   0.02791208
4812.00   0.87947798   0.02807462
4814.00   0.91564459   0.02829472
4816.00   0.80327821   0.02796225
4818.00   0.89865440   0.02836554
4820.00   0.84429389   0.02805392
4822.00   0.83522165   0.02790924
4824.00   0.81522733   0.02786339
4826.00   0.83253038   0.02797093
4828.00   0.88822883   0.02835339
4830.00   0.83207762   0.02801439
4832.00   0.84751821   0.02807352
4834.00   0.84145963   0.02808373
4836.00   0.77016312   0.02783155
4838.00   0.77924150   0.02786700
4840.00   0.84590656   0.02798986
4842.00   0.82118553   0.02774012
4844.00   0.81445992   0.02773539
4846.00   0.79347080   0.02773977
4848.00   0.81246132   0.02766989
4850.00   0.85102612   0.02784144
4852.00   0.82079601   0.02759819
4854.00   0.77077192   0.02698817
4856.00   0.82106239   0.02669661
4858.00   0.79212075   0.02602648
4860.00   0.75202197   0.02529535
4862.00   0.76775861   0.02550182
4864.00   0.77495891   0.02613213
4866.00   0.78052086   0.02670919
4868.00   0.76846194   0.02663649
4870.00   0.75502795   0.02653324
4872.00   0.72630775   0.02653558
4874.00   0.76082921   0.02687573
4876.00   0.81289732   0.02730860
4878.00   0.78112000   0.02723063
4880.00   0.79202849   0.02724575
4882.00   0.81470513   0.02718087
4884.00   0.76460171   0.02661690
4886.00   0.78271973   0.02634330
4888.00   0.78951156   0.02616266
4890.00   0.69777286   0.02570306
4892.00   0.77368110   0.02629355
4894.00   0.78522760   0.02672562
4896.00   0.82264644   0.02725060
4898.00   0.74685842   0.02688636
4900.00   0.78371710   0.02692495
4902.00   0.80211252   0.02703207
4904.00   0.76931441   0.02689311
4906.00   0.78534669   0.02696892
4908.00   0.80631363   0.02694518
4910.00   0.78691673   0.02676049
4912.00   0.75309217   0.02678835
4914.00   0.75382447   0.02671811
4916.00   0.76339132   0.02664478
4918.00   0.81620878   0.02618689
4920.00   0.74906111   0.02571365
4922.00   0.76499486   0.02579085
4924.00   0.78464437   0.02611998
4926.00   0.72724319   0.02621205
4928.00   0.72889280   0.02636696
4930.00   0.76196879   0.02642948
4932.00   0.78097498   0.02633252
4934.00   0.75742477   0.02607703
4936.00   0.75990748   0.02596522
4938.00   0.73553532   0.02581153
4940.00   0.81224716   0.02611773
4942.00   0.74409771   0.02598520
4944.00   0.79806125   0.02624932
4946.00   0.79075557   0.02613258
4948.00   0.74147910   0.02596575
4950.00   0.76403552   0.02623833
4952.00   0.75633252   0.02625404
4954.00   0.75735474   0.02607178
4956.00   0.77611983   0.02574957
4958.00   0.79626739   0.02576800
4960.00   0.74717277   0.02574515
4962.00   0.79866147   0.02606782
4964.00   0.80576843   0.02604245
4966.00   0.80432063   0.02606791
4968.00   0.74572748   0.02582758
4970.00   0.80935758   0.02621439
4972.00   0.79346198   0.02643439
4974.00   0.79926854   0.02672914
4976.00   0.82849461   0.02684525
4978.00   0.78554243   0.02691052
4980.00   0.78646249   0.02676198
4982.00   0.77648425   0.02668395
4984.00   0.76392442   0.02649202
4986.00   0.82235992   0.02669384
4988.00   0.83175945   0.02654505
4990.00   0.80301625   0.02646618
4992.00   0.76823670   0.02619553
4994.00   0.77295518   0.02597697
4996.00   0.77120972   0.02580626
4998.00   0.80195671   0.02570058
5000.00   0.74657673   0.02521293
5002.00   0.78129494   0.02507199
5004.00   0.73018962   0.02467225
5006.00   0.74486363   0.02470136
5008.00   0.77266002   0.02478205
5010.00   0.79746306   0.02487359
5012.00   0.76975572   0.02446263
5014.00   0.74849212   0.02425117
5016.00   0.75049090   0.02417814
5018.00   0.73885196   0.02414875
5020.00   0.74243760   0.02420973
5022.00   0.70594299   0.02396603
5024.00   0.67841214   0.02368093
5026.00   0.68613452   0.02369383
5028.00   0.73062485   0.02389272
5030.00   0.77301043   0.02436366
5032.00   0.69215018   0.02405128
5034.00   0.67320055   0.02367607
5036.00   0.72388399   0.02377931
5038.00   0.75022942   0.02351761
5040.00   0.74040866   0.02338593
5042.00   0.74846774   0.02349431
5044.00   0.79314667   0.02389075
5046.00   0.74676353   0.02371676
5048.00   0.78824139   0.02369334
5050.00   0.73352510   0.02349232
5052.00   0.76176149   0.02363557
5054.00   0.74632627   0.02373829
5056.00   0.77302176   0.02395379
5058.00   0.81071460   0.02420342
5060.00   0.84167331   0.02448469
5062.00   0.85225171   0.02459024
5064.00   0.82605141   0.02440961
5066.00   0.80327684   0.02434577
5068.00   0.81114316   0.02456825
5070.00   0.83739281   0.02477198
5072.00   0.86822772   0.02491493
5074.00   0.76633763   0.02427667
5076.00   0.80418348   0.02436985
5078.00   0.81613088   0.02450716
5080.00   0.81554556   0.02490648
5082.00   0.79820359   0.02532258
5084.00   0.75055611   0.02564207
5086.00   0.79734361   0.02591678
5088.00   0.81287640   0.02550614
5090.00   0.84315616   0.02520572
5092.00   0.85795051   0.02490032
5094.00   0.92141950   0.02502534
5096.00   0.84677845   0.02463263
5098.00   0.78939629   0.02454490
5100.00   0.80666894   0.02447123
5102.00   0.81090814   0.02445377
5104.00   0.80741435   0.02422953
5106.00   0.81907463   0.02417435
5108.00   0.87398314   0.02427759
5110.00   0.86206818   0.02414891
5112.00   0.90845370   0.02456918
5114.00   0.82020861   0.02450684
5116.00   0.85069615   0.02459119
5118.00   0.83252472   0.02445558
5120.00   0.80700928   0.02419235
5122.00   0.80006742   0.02392202
5124.00   0.75985491   0.02353933
5126.00   0.83853811   0.02376562
5128.00   0.78659081   0.02351746
5130.00   0.75071132   0.02343921
5132.00   0.79805928   0.02362524
5134.00   0.80973053   0.02373686
5136.00   0.82971609   0.02373561
5138.00   0.84298950   0.02368463
5140.00   0.78214252   0.02333083
5142.00   0.78081107   0.02336818
5144.00   0.80117619   0.02351082
5146.00   0.78330368   0.02346945
5148.00   0.71363515   0.02333133
5150.00   0.78486019   0.02376762
5152.00   0.70008862   0.02351405
5154.00   0.75603312   0.02369487
5156.00   0.78405362   0.02376536
5158.00   0.77026308   0.02358023
5160.00   0.78396249   0.02362766
5162.00   0.77265418   0.02318194
5164.00   0.72181898   0.02270185
5166.00   0.73617470   0.02222562
5168.00   0.75801963   0.02208056
5170.00   0.73882359   0.02188816
5172.00   0.73783308   0.02173726
5174.00   0.75875342   0.02222110
5176.00   0.73186517   0.02254446
5178.00   0.75016570   0.02271844
5180.00   0.71199024   0.02225827
5182.00   0.74206823   0.02199525
5184.00   0.73398113   0.02188356
5186.00   0.71985590   0.02203903
5188.00   0.73188382   0.02224425
5190.00   0.73610812   0.02237877
5192.00   0.72874671   0.02226830
5194.00   0.65665555   0.02219714
5196.00   0.69331479   0.02265459
5198.00   0.75910187   0.02325157
5200.00   0.74612939   0.02327124
5202.00   0.74846399   0.02297832
5204.00   0.73079038   0.02260721
5206.00   0.70392638   0.02224731
5208.00   0.73069876   0.02235523
5210.00   0.72411776   0.02248203
5212.00   0.76813710   0.02265707
5214.00   0.80221403   0.02262934
5216.00   0.77909601   0.02259455
5218.00   0.76765883   0.02258630
5220.00   0.74841744   0.02254768
5222.00   0.80220979   0.02261977
5224.00   0.76897007   0.02223055
5226.00   0.77100712   0.02222806
5228.00   0.79074085   0.02217185
5230.00   0.76560712   0.02207032
5232.00   0.76181942   0.02196537
5234.00   0.75440979   0.02195609
5236.00   0.74692667   0.02205119
5238.00   0.72971231   0.02206975
5240.00   0.75609440   0.02208948
5242.00   0.74329853   0.02196559
5244.00   0.75872135   0.02188546
5246.00   0.73934358   0.02164998
5248.00   0.71714830   0.02154361
5250.00   0.74704224   0.02149873
5252.00   0.75172281   0.02144812
5254.00   0.77494836   0.02159521
5256.00   0.78166485   0.02182588
5258.00   0.74759483   0.02173621
5260.00   0.76930231   0.02153705
5262.00   0.75167149   0.02122530
5264.00   0.76244909   0.02099429
5266.00   0.76039231   0.02082478
5268.00   0.71707147   0.02046276
5270.00   0.76129305   0.02062024
5272.00   0.73126632   0.02058204
5274.00   0.72309095   0.02063037
5276.00   0.71703684   0.02065479
5278.00   0.76813638   0.02099908
5280.00   0.76382011   0.02088457
5282.00   0.71756256   0.02073366
5284.00   0.79232681   0.02112079
5286.00   0.75599897   0.02104134
5288.00   0.76369452   0.02111709
5290.00   0.76341599   0.02111027
5292.00   0.76682663   0.02103790
5294.00   0.74142039   0.02083742
5296.00   0.74035919   0.02077945
5298.00   0.74714220   0.02073819
5300.00   0.73624039   0.02068689
5302.00   0.72222012   0.02060861
5304.00   0.75513095   0.02074113
5306.00   0.78778994   0.02091683
5308.00   0.76165229   0.02072982
5310.00   0.73982924   0.02079562
5312.00   0.75821930   0.02086149
5314.00   0.77680635   0.02087033
5316.00   0.75737023   0.02070876
5318.00   0.75519568   0.02062536
5320.00   0.79191792   0.02081346
5322.00   0.74202555   0.02045009
5324.00   0.77554727   0.02051664
5326.00   0.76909900   0.02036935
5328.00   0.82120955   0.02063789
5330.00   0.83840442   0.02082139
5332.00   0.81946999   0.02080693
5334.00   0.78793561   0.02072802
5336.00   0.73384768   0.02049622
5338.00   0.75383985   0.02053534
5340.00   0.72478771   0.02041997
5342.00   0.69195408   0.02025202
5344.00   0.71696836   0.02053426
5346.00   0.67425823   0.02044645
5348.00   0.75290060   0.02093205
5350.00   0.75233895   0.02104699
5352.00   0.78447521   0.02125403
5354.00   0.77281636   0.02129086
5356.00   0.70401829   0.02096109
5358.00   0.72693801   0.02098621
5360.00   0.77297997   0.02112441
5362.00   0.78165519   0.02097525
5364.00   0.83707553   0.02106031
5366.00   0.78489614   0.02074676
5368.00   0.80381405   0.02073332
5370.00   0.80805534   0.02080586
5372.00   0.80343598   0.02104985
5374.00   0.87074882   0.02162040
5376.00   0.83527678   0.02145869
5378.00   0.84125870   0.02144416
5380.00   0.84257805   0.02146913
5382.00   0.78634042   0.02117014
5384.00   0.87228143   0.02172749
5386.00   0.86216408   0.02171773
5388.00   0.91372508   0.02204937
5390.00   0.85699880   0.02198862
5392.00   0.90852463   0.02226441
5394.00   0.91181445   0.02234837
5396.00   0.86963630   0.02222500
5398.00   0.86043406   0.02220638
5400.00   0.86294401   0.02219903
5402.00   0.89575088   0.02242607
5404.00   0.90651113   0.02260178
5406.00   0.85537517   0.02243604
5408.00   0.90041792   0.02279406
5410.00   0.87922323   0.02283872
5412.00   0.91115135   0.02326329
5414.00   0.94277108   0.02364659
5416.00   0.89200836   0.02372171
5418.00   0.94959140   0.02410311
5420.00   0.88629866   0.02394936
5422.00   0.93183601   0.02420048
5424.00   0.90036589   0.02411481
5426.00   0.87744075   0.02408650
5428.00   0.91463035   0.02432734
5430.00   0.87942922   0.02426502
5432.00   0.96088147   0.02464405
5434.00   0.90222096   0.02451092
5436.00   0.87274230   0.02449552
5438.00   0.85841370   0.02464524
5440.00   0.84366906   0.02472889
5442.00   0.82145000   0.02472463
5444.00   0.80150443   0.02467230
5446.00   0.83988941   0.02498345
5448.00   0.80094308   0.02507044
5450.00   0.83854777   0.02529155
5452.00   0.80845964   0.02528997
5454.00   0.85828656   0.02556481
5456.00   0.88754404   0.02737079
5458.00   0.83329707   0.03118164
5460.00   0.84607762   0.03337957
5462.00   0.89579380   0.03281935
5464.00   0.89080429   0.03118376
5466.00   0.94024360   0.03002697
5468.00   0.86143941   0.02863576
5470.00   0.91773039   0.02804129
5472.00   0.90319908   0.02718154
5474.00   0.86551088   0.02643933
5476.00   0.90174305   0.02650351
5478.00   0.90055364   0.02666793
5480.00   0.87896848   0.02695937
5482.00   0.83877569   0.02711906
5484.00   0.95548582   0.02779359
5486.00   0.92081922   0.02740642
5488.00   0.91775137   0.02733133
5490.00   0.88477641   0.02695463
5492.00   0.85117865   0.02668303
5494.00   0.86953211   0.02675107
5496.00   0.92103767   0.02693846
5498.00   0.89056367   0.02688774
5500.00   0.83928138   0.02652788
5502.00   0.86287147   0.02652235
5504.00   0.83396357   0.02663416
5506.00   0.80902308   0.02641822
5508.00   0.85322839   0.02660533
5510.00   0.85132813   0.02678782
5512.00   0.85052675   0.02717454
5514.00   0.85104156   0.02728095
5516.00   0.81644315   0.02717436
5518.00   0.89744091   0.02782835
5520.00   0.83683240   0.02751139
5522.00   0.86435890   0.02761203
5524.00   0.83797330   0.02727487
5526.00   0.85979062   0.02733695
5528.00   0.89949191   0.02739199
5530.00   0.91283560   0.02744914
5532.00   0.89684981   0.02746298
5534.00   0.85948163   0.02719952
5536.00   0.93362391   0.02764416
5538.00   0.89418089   0.02751093
5540.00   0.87125462   0.02749714
5542.00   0.94091654   0.02792199
5544.00   0.93610638   0.02787413
5546.00   0.88227540   0.02766328
5548.00   0.82170540   0.02737903
5550.00   0.90135610   0.02773744
5552.00   0.87112695   0.02753823
5554.00   0.88500774   0.02770593
5556.00   0.86080837   0.02761435
5558.00   0.93592352   0.02811070
5560.00   0.88902092   0.02789210
5562.00   0.89573699   0.02803584
5564.00   0.83745557   0.02744176
5566.00   0.88816792   0.02791619
5568.00   0.85588610   0.02780714
5570.00   0.87857229   0.02811384
5572.00   0.82624871   0.02998657
5574.00   0.87596381   0.03857613
5576.00   0.83308148   0.03949022
5578.00   0.85824835   0.03896217
5580.00   0.86742359   0.03744154
5582.00   0.84345996   0.03480999
5584.00   0.81669146   0.03129841
5586.00   0.81116247   0.02773605
5588.00   0.82154679   0.02598268
5590.00   0.83411026   0.02553980
5592.00   0.82894737   0.02535417
5594.00   0.82307696   0.02513405
5596.00   0.82955098   0.02491568
5598.00   0.80105567   0.02448052
5600.00   0.83421975   0.02451041
5602.00   0.82578373   0.02434902
5604.00   0.78761959   0.02398101
5606.00   0.77898085   0.02369883
5608.00   0.80599535   0.02367615
5610.00   0.78792512   0.02334199
5612.00   0.79412520   0.02320972
5614.00   0.82022774   0.02322294
5616.00   0.81216550   0.02295022
5618.00   0.80559003   0.02275342
5620.00   0.83017594   0.02280819
5622.00   0.84529734   0.02282523
5624.00   0.82918739   0.02263469
5626.00   0.79701924   0.02231294
5628.00   0.78766155   0.02202958
5630.00   0.80277485   0.02198581
5632.00   0.80473340   0.02191362
5634.00   0.78319657   0.02167384
5636.00   0.78686154   0.02152088
5638.00   0.77001500   0.02135290
5640.00   0.76828384   0.02132753
5642.00   0.78470618   0.02156616
5644.00   0.80278039   0.02189475
5646.00   0.78091323   0.02138883
5648.00   0.77059048   0.02118815
5650.00   0.75280130   0.02100440
5652.00   0.74101311   0.02089575
5654.00   0.75466263   0.02100145
5656.00   0.76400375   0.02097717
5658.00   0.76171851   0.02109646
5660.00   0.76546407   0.02135831
5662.00   0.77338308   0.02159366
5664.00   0.76957399   0.02162486
5666.00   0.74489683   0.02175342
5668.00   0.75287688   0.02198422
5670.00   0.78131390   0.02236401
5672.00   0.80120456   0.02272083
5674.00   0.78111541   0.02271106
5676.00   0.76739568   0.02282443
5678.00   0.77907366   0.02302787
5680.00   0.78127551   0.02329242
5682.00   0.76304734   0.02358466
5684.00   0.77462149   0.02390558
5686.00   0.79599732   0.02434095
5688.00   0.78526735   0.02414383
5690.00   0.76707470   0.02353396
5692.00   0.77340925   0.02294394
5694.00   0.78631127   0.02239932
5696.00   0.78024429   0.02181108
5698.00   0.76542270   0.02125747
5700.00   0.76155078   0.02083497
5702.00   0.77890170   0.02059311
5704.00   0.77364457   0.02036301
5706.00   0.77422285   0.02019467
5708.00   0.76708245   0.01998049
5710.00   0.75542152   0.01975160
5712.00   0.75643110   0.01964867
5714.00   0.77467328   0.01965751
5716.00   0.77381265   0.01956589
5718.00   0.76850981   0.01940890
5720.00   0.76600540   0.01922578
5722.00   0.75802290   0.01903684
5724.00   0.77358854   0.01901753
5726.00   0.78787470   0.01896067
5728.00   0.78768903   0.01882686
5730.00   0.77656245   0.01866285
5732.00   0.77780819   0.01856487
5734.00   0.77448422   0.01848196
5736.00   0.78006721   0.01844717
5738.00   0.78312337   0.01840176
5740.00   0.77298212   0.01830089
5742.00   0.76558119   0.01823461
5744.00   0.76216328   0.01817575
5746.00   0.75461185   0.01811222
5748.00   0.75078273   0.01807977
5750.00   0.76098907   0.01812710
5752.00   0.76282501   0.01817498
5754.00   0.75307751   0.01820438
5756.00   0.74507868   0.01825557
5758.00   0.74208283   0.01832624
5760.00   0.73974717   0.01840768
5762.00   0.74858713   0.01869099
5764.00   0.75519514   0.01903173
5766.00   0.74236637   0.01924856
5768.00   0.71854722   0.01927498
5770.00   0.72019225   0.01919841
5772.00   0.73686826   0.01909373
5774.00   0.72980815   0.01874711
5776.00   0.71900856   0.01838342
5778.00   0.72227937   0.01820202
5780.00   0.72514296   0.01810192
5782.00   0.72169650   0.01817956
5784.00   0.71766388   0.01838898
5786.00   0.72092992   0.01869848
5788.00   0.73484647   0.01902345
5790.00   0.75305128   0.01916496
5792.00   0.74452198   0.01903231
5794.00   0.73980486   0.01881442
5796.00   0.74284911   0.01856336
5798.00   0.74297005   0.01825821
5800.00   0.73687148   0.01795271
5802.00   0.72716928   0.01776187
5804.00   0.70950478   0.01764511
5806.00   0.70096302   0.01762531
5808.00   0.72290850   0.01773313
5810.00   0.72794455   0.01770834
5812.00   0.73639214   0.01774252
5814.00   0.73646480   0.01775095
5816.00   0.72993326   0.01772029
5818.00   0.74036783   0.01777001
5820.00   0.73871052   0.01776096
5822.00   0.73206800   0.01776655
5824.00   0.72017276   0.01774037
5826.00   0.71079022   0.01769159
5828.00   0.72552645   0.01777074
5830.00   0.72231162   0.01776757
5832.00   0.72498930   0.01780467
5834.00   0.72487676   0.01784987
5836.00   0.71025640   0.01783790
5838.00   0.69556189   0.01777773
5840.00   0.69286084   0.01779021
5842.00   0.70007670   0.01785398
5844.00   0.70301533   0.01788864
5846.00   0.68928421   0.01783200
5848.00   0.68078613   0.01780008
5850.00   0.68261671   0.01786941
5852.00   0.68858373   0.01794150
5854.00   0.69425988   0.01798674
5856.00   0.69897676   0.01804554
5858.00   0.70473278   0.01812437
5860.00   0.70667088   0.01822483
5862.00   0.70956743   0.01833175
5864.00   0.71645349   0.01843152
5866.00   0.72502458   0.01851269
5868.00   0.72233129   0.01853790
5870.00   0.72199726   0.01853478
5872.00   0.71633238   0.01854410
5874.00   0.70234418   0.01863192
5876.00   0.69904083   0.01890217
5878.00   0.69234878   0.01933656
5880.00   0.70174730   0.02023351
5882.00   0.71241868   0.02158802
5884.00   0.70610756   0.02332604
5886.00   0.69503546   0.02561195
5888.00   0.69246876   0.02742556
5890.00   0.68952692   0.02860386
5892.00   0.69373375   0.02919214
5894.00   0.70753300   0.02915805
5896.00   0.66190588   0.02737254
5898.00   0.65940672   0.02521478
5900.00   0.67561746   0.02316033
5902.00   0.68314856   0.02127648
5904.00   0.67225349   0.01930026
5906.00   0.70934200   0.01848168
5908.00   0.73246944   0.01832602
5910.00   0.72558856   0.01832995
5912.00   0.70855701   0.01828713
5914.00   0.72909176   0.01839935
5916.00   0.72675395   0.01833055
5918.00   0.71190113   0.01824583
5920.00   0.70651525   0.01821503
5922.00   0.71881068   0.01824287
5924.00   0.72556376   0.01826516
5926.00   0.72650397   0.01829692
5928.00   0.71898270   0.01832432
5930.00   0.71156859   0.01834169
5932.00   0.71224385   0.01833645
5934.00   0.71499205   0.01827784
5936.00   0.72673047   0.01818991
5938.00   0.72059500   0.01799963
5940.00   0.70673645   0.01778965
5942.00   0.70988309   0.01769833
5944.00   0.70149100   0.01760213
5946.00   0.72940934   0.01769201
5948.00   0.73170304   0.01770880
5950.00   0.71001506   0.01765778
5952.00   0.71851325   0.01774810
5954.00   0.70861757   0.01759680
5956.00   0.70994222   0.01754176
5958.00   0.71804392   0.01751841
5960.00   0.72665560   0.01747056
5962.00   0.73937941   0.01746716
5964.00   0.72663242   0.01737497
5966.00   0.70712334   0.01726433
5968.00   0.69524568   0.01716172
5970.00   0.69525111   0.01707852
5972.00   0.69544315   0.01703280
5974.00   0.70856464   0.01703722
5976.00   0.70137143   0.01694947
5978.00   0.68972069   0.01688277
5980.00   0.69912660   0.01695535
5982.00   0.72015715   0.01696041
5984.00   0.73409408   0.01696597
5986.00   0.73065639   0.01694477
5988.00   0.72774482   0.01695272
5990.00   0.74765080   0.01704066
5992.00   0.75134933   0.01699601
5994.00   0.73220992   0.01686072
5996.00   0.72608888   0.01679339
5998.00   0.73464739   0.01681147
6000.00   0.73144293   0.01680771
6002.00   0.75263679   0.01686738
6004.00   0.75613499   0.01682340
6006.00   0.75280631   0.01677046
6008.00   0.75304019   0.01674879
6010.00   0.75466174   0.01666874
6012.00   0.75058758   0.01657613
6014.00   0.75375247   0.01656281
6016.00   0.75884837   0.01657152
6018.00   0.76215702   0.01655322
6020.00   0.77024996   0.01655360
6022.00   0.76414239   0.01651828
6024.00   0.76379985   0.01654465
6026.00   0.77207935   0.01658333
6028.00   0.78304172   0.01657357
6030.00   0.79155207   0.01663815
6032.00   0.78155780   0.01660058
6034.00   0.77397013   0.01654652
6036.00   0.77488154   0.01652079
6038.00   0.77834904   0.01651667
6040.00   0.77729559   0.01645845
6042.00   0.75803077   0.01630275
6044.00   0.74551952   0.01621060
6046.00   0.74845076   0.01622106
6048.00   0.75381577   0.01622396
6050.00   0.73818648   0.01612502
6052.00   0.74726802   0.01614586
6054.00   0.75643253   0.01616695
6056.00   0.75236785   0.01613035
6058.00   0.75506288   0.01615156
6060.00   0.77467406   0.01623690
6062.00   0.77892613   0.01625675
6064.00   0.77067828   0.01620862
6066.00   0.76307440   0.01614667
6068.00   0.77014208   0.01616169
6070.00   0.76096308   0.01615185
6072.00   0.75291562   0.01612448
6074.00   0.75190485   0.01609423
6076.00   0.75479448   0.01606466
6078.00   0.74681753   0.01599538
6080.00   0.72966278   0.01586717
6082.00   0.70105374   0.01571164
6084.00   0.67494345   0.01557029
6086.00   0.66527063   0.01546611
6088.00   0.63428831   0.01529919
6090.00   0.62971961   0.01530036
6092.00   0.64547133   0.01542774
6094.00   0.67229342   0.01563154
6096.00   0.70353460   0.01588150
6098.00   0.71663737   0.01600893
6100.00   0.73908997   0.01623814
6102.00   0.75369132   0.01644458
6104.00   0.75028253   0.01657366
6106.00   0.74349248   0.01675627
6108.00   0.75383413   0.01705336
6110.00   0.75761855   0.01726728
6112.00   0.75489235   0.01736969
6114.00   0.75384963   0.01737985
6116.00   0.76031494   0.01728566
6118.00   0.76615727   0.01707415
6120.00   0.76083076   0.01682514
6122.00   0.75190026   0.01658431
6124.00   0.74966109   0.01638304
6126.00   0.74782276   0.01628790
6128.00   0.75776762   0.01629051
6130.00   0.75990593   0.01625266
6132.00   0.75362200   0.01617589
6134.00   0.75149179   0.01615461
6136.00   0.75786185   0.01619272
6138.00   0.75347710   0.01617908
6140.00   0.74532902   0.01617030
6142.00   0.73700249   0.01616883
6144.00   0.72879940   0.01613444
6146.00   0.73511571   0.01615084
6148.00   0.73709071   0.01617905
6150.00   0.73535365   0.01622618
6152.00   0.73275661   0.01629567
6154.00   0.72858214   0.01636089
6156.00   0.74220943   0.01661466
6158.00   0.74514264   0.01666333
6160.00   0.74543232   0.01654044
6162.00   0.75323325   0.01639018
6164.00   0.76397079   0.01634517
6166.00   0.74919403   0.01611687
6168.00   0.73569328   0.01590817
6170.00   0.72954619   0.01577386
6172.00   0.72950220   0.01571087
6174.00   0.74215513   0.01575375
6176.00   0.74112809   0.01571417
6178.00   0.73725533   0.01565923
6180.00   0.73154253   0.01560869
6182.00   0.72071046   0.01554472
6184.00   0.73145276   0.01555883
6186.00   0.72547346   0.01552976
6188.00   0.71772695   0.01550342
6190.00   0.71826601   0.01550389
6192.00   0.72333813   0.01551085
6194.00   0.72274888   0.01556203
6196.00   0.71881098   0.01554408
6198.00   0.71907365   0.01554658
6200.00   0.72581214   0.01560906
6202.00   0.73057860   0.01563757
6204.00   0.71895671   0.01557941
6206.00   0.69609082   0.01549472
6208.00   0.68743598   0.01546548
6210.00   0.70147729   0.01550431
6212.00   0.70013797   0.01547725
6214.00   0.69281787   0.01541151
6216.00   0.68993032   0.01532341
6218.00   0.69843519   0.01530381
6220.00   0.71460664   0.01546846
6222.00   0.71315265   0.01597175
6224.00   0.70468259   0.01609655
6226.00   0.70636868   0.01592621
6228.00   0.71807408   0.01575683
6230.00   0.72734058   0.01593761
6232.00   0.73876184   0.01619830
6234.00   0.73674250   0.01619139
6236.00   0.73047847   0.01610310
6238.00   0.72684515   0.01607800
6240.00   0.72709984   0.01610780
6242.00   0.72380495   0.01577550
6244.00   0.73582125   0.01573058
6246.00   0.73651659   0.01585808
6248.00   0.71977663   0.01593257
6250.00   0.71958977   0.01581948
6252.00   0.72311693   0.01612123
6254.00   0.72045392   0.01654513
6256.00   0.71686858   0.01672174
6258.00   0.71383041   0.01643930
6260.00   0.69393814   0.01582640
6262.00   0.67469132   0.01529653
6264.00   0.66616571   0.01548881
6266.00   0.67478335   0.01579418
6268.00   0.69610798   0.01547504
6270.00   0.70043135   0.01503265
6272.00   0.69627440   0.01496557
6274.00   0.70186573   0.01505717
6276.00   0.71188402   0.01514409
6278.00   0.70858359   0.01515018
6280.00   0.69257683   0.01504122
6282.00   0.67602152   0.01497179
6284.00   0.67535007   0.01499768
6286.00   0.68674481   0.01512514
6288.00   0.68787754   0.01533032
6290.00   0.68584669   0.01566235
6292.00   0.67174470   0.01647483
6294.00   0.65702111   0.01810641
6296.00   0.65443236   0.02018874
6298.00   0.66673404   0.02176560
6300.00   0.67863667   0.02216266
6302.00   0.66404098   0.02179618
6304.00   0.64937913   0.02063471
6306.00   0.65518105   0.01868826
6308.00   0.65195072   0.01634265
6310.00   0.65471935   0.01526366
6312.00   0.65290284   0.01482074
6314.00   0.65055829   0.01462357
6316.00   0.65404058   0.01450990
6318.00   0.64624363   0.01445735
6320.00   0.64079756   0.01444878
6322.00   0.64357603   0.01449915
6324.00   0.64594138   0.01457753
6326.00   0.63673627   0.01463529
6328.00   0.63577640   0.01461998
6330.00   0.65912890   0.01474950
6332.00   0.66487670   0.01472566
6334.00   0.64817584   0.01452230
6336.00   0.64476967   0.01442766
6338.00   0.64234805   0.01431045
6340.00   0.63572729   0.01424744
6342.00   0.62843210   0.01424761
6344.00   0.62525088   0.01428599
6346.00   0.62559819   0.01429675
6348.00   0.63756412   0.01439341
6350.00   0.64761722   0.01447442
6352.00   0.64625525   0.01452912
6354.00   0.63384157   0.01462826
6356.00   0.62787652   0.01492616
6358.00   0.62921858   0.01566110
6360.00   0.62846708   0.01641930
6362.00   0.61973667   0.01684058
6364.00   0.60397947   0.01674886
6366.00   0.60136920   0.01647244
6368.00   0.60313535   0.01586144
6370.00   0.59991086   0.01503601
6372.00   0.59740394   0.01433317
6374.00   0.60786945   0.01414989
6376.00   0.60966790   0.01418523
6378.00   0.62148273   0.01431941
6380.00   0.62744629   0.01441274
6382.00   0.62520617   0.01442148
6384.00   0.63088512   0.01441210
6386.00   0.62584949   0.01438696
6388.00   0.62856960   0.01437310
6390.00   0.63513923   0.01434325
6392.00   0.63445544   0.01426730
6394.00   0.61353713   0.01413187
6396.00   0.61235547   0.01414769
6398.00   0.61090881   0.01419425
6400.00   0.61167943   0.01424033
6402.00   0.61760539   0.01426967
6404.00   0.61273342   0.01422358
6406.00   0.64183295   0.01435463
6408.00   0.65857977   0.01444379
6410.00   0.65582788   0.01444044
6412.00   0.64880526   0.01439994
6414.00   0.65738773   0.01445274
6416.00   0.64669740   0.01441085
6418.00   0.63872457   0.01434162
6420.00   0.63955915   0.01429538
6422.00   0.64036959   0.01428318
6424.00   0.62901449   0.01420632
6426.00   0.62939966   0.01422427
6428.00   0.62995780   0.01421801
6430.00   0.62901443   0.01417544
6432.00   0.63812220   0.01422066
6434.00   0.62926185   0.01418023
6436.00   0.63041699   0.01415364
6438.00   0.63288426   0.01416635
6440.00   0.63159865   0.01421099
6442.00   0.63740063   0.01423657
6444.00   0.64344513   0.01424096
6446.00   0.65238833   0.01428293
6448.00   0.65290928   0.01429763
6450.00   0.64133584   0.01425218
6452.00   0.64608765   0.01430755
6454.00   0.65771866   0.01432918
6456.00   0.64616996   0.01427540
6458.00   0.62788773   0.01424337
6460.00   0.63317156   0.01434345
6462.00   0.65333986   0.01446273
6464.00   0.65001130   0.01444654
6466.00   0.64986533   0.01447767
6468.00   0.65486515   0.01454223
6470.00   0.64942229   0.01449180
6472.00   0.65272617   0.01441043
6474.00   0.65838253   0.01434313
6476.00   0.66377854   0.01428673
6478.00   0.66711938   0.01423339
6480.00   0.66713846   0.01417904
6482.00   0.66156340   0.01415646
6484.00   0.66610700   0.01416844
6486.00   0.67748088   0.01420639
6488.00   0.68217754   0.01422434
6490.00   0.66069800   0.01413317
6492.00   0.66549909   0.01426399
6494.00   0.67126310   0.01444521
6496.00   0.67361009   0.01461435
6498.00   0.67918366   0.01476981
6500.00   0.70311010   0.01496645
6502.00   0.71206027   0.01504599
6504.00   0.69428420   0.01490006
6506.00   0.67485785   0.01467719
6508.00   0.68380260   0.01459609
6510.00   0.69129658   0.01453005
6512.00   0.68914580   0.01438530
6514.00   0.68830961   0.01429916
6516.00   0.69318151   0.01431838
6518.00   0.69887757   0.01438500
6520.00   0.69442880   0.01439921
6522.00   0.68799603   0.01440592
6524.00   0.68724257   0.01445197
6526.00   0.68958902   0.01453967
6528.00   0.68084306   0.01461335
6530.00   0.69602215   0.01474867
6532.00   0.69590580   0.01479265
6534.00   0.69748306   0.01480928
6536.00   0.71008849   0.01482914
6538.00   0.71126759   0.01475405
6540.00   0.70920587   0.01464675
6542.00   0.70813644   0.01458380
6544.00   0.70414364   0.01455152
6546.00   0.69519770   0.01452802
6548.00   0.69100195   0.01456245
6550.00   0.69846970   0.01465688
6552.00   0.70364833   0.01470516
6554.00   0.70131266   0.01467797
6556.00   0.69546258   0.01461013
6558.00   0.70401812   0.01459347
6560.00   0.71625054   0.01453899
6562.00   0.70325315   0.01441238
6564.00   0.67917955   0.01430460
6566.00   0.68316293   0.01435022
6568.00   0.69585860   0.01439297
6570.00   0.68713593   0.01434636
6572.00   0.67804688   0.01436423
6574.00   0.68071425   0.01448364
6576.00   0.68827367   0.01457162
6578.00   0.70651650   0.01467766
6580.00   0.70467567   0.01465684
6582.00   0.70580423   0.01459572
6584.00   0.71904999   0.01456004
6586.00   0.70573515   0.01446711
6588.00   0.71702158   0.01452835
6590.00   0.71526766   0.01453030
6592.00   0.70240164   0.01449095
6594.00   0.69314516   0.01448201
6596.00   0.69455516   0.01446625
6598.00   0.70870841   0.01454306
6600.00   0.70245397   0.01455692
6602.00   0.69000828   0.01453628
6604.00   0.69838709   0.01456623
6606.00   0.69311142   0.01451618
6608.00   0.68683910   0.01444641
6610.00   0.69315112   0.01442129
6612.00   0.70189685   0.01441908
6614.00   0.69069898   0.01436586
6616.00   0.68820846   0.01434439
6618.00   0.68723285   0.01431750
6620.00   0.69268012   0.01434878
6622.00   0.70351744   0.01443598
6624.00   0.71021509   0.01449127
6626.00   0.70359337   0.01444182
6628.00   0.69448197   0.01439439
6630.00   0.69567889   0.01441509
6632.00   0.70713639   0.01448599
6634.00   0.70642292   0.01446872
6636.00   0.70806426   0.01445245
6638.00   0.70740312   0.01443002
6640.00   0.70751917   0.01441100
6642.00   0.71063697   0.01440514
6644.00   0.70459366   0.01438449
6646.00   0.69337094   0.01435186
6648.00   0.69104469   0.01434293
6650.00   0.69736981   0.01437998
6652.00   0.70501232   0.01445027
6654.00   0.72118151   0.01441312
6656.00   0.71966541   0.01483173
6658.00   0.71051443   0.01523541
6660.00   0.70613253   0.01568981
6662.00   0.71406472   0.01646046
6664.00   0.70519859   0.01637077
6666.00   0.70039749   0.01602931
6668.00   0.70503628   0.01573182
6670.00   0.71957314   0.01550648
6672.00   0.74040055   0.01508597
6674.00   0.74018431   0.01497502
6676.00   0.72394812   0.01472569
6678.00   0.70855212   0.01449380
6680.00   0.70300651   0.01443825
6682.00   0.69304502   0.01442633
6684.00   0.70781708   0.01448318
6686.00   0.71607172   0.01452052
6688.00   0.71011877   0.01450333
6690.00   0.69893515   0.01445351
6692.00   0.71019149   0.01448481
6694.00   0.71334577   0.01450813
6696.00   0.70256746   0.01446830
6698.00   0.68697190   0.01441189
6700.00   0.68386185   0.01443370
6702.00   0.71138424   0.01458533
6704.00   0.70854151   0.01464288
6706.00   0.68605542   0.01459770
6708.00   0.66676724   0.01451744
6710.00   0.67276162   0.01449973
6712.00   0.67238033   0.01441111
6714.00   0.67488158   0.01437225
6716.00   0.67428279   0.01434900
6718.00   0.67417896   0.01434558
6720.00   0.69072533   0.01443442
6722.00   0.69703561   0.01445915
6724.00   0.69341207   0.01444901
6726.00   0.68873155   0.01442241
6728.00   0.68858457   0.01439724
6730.00   0.69008857   0.01439570
6732.00   0.69402492   0.01442095
6734.00   0.69761539   0.01445809
6736.00   0.69891059   0.01448312
6738.00   0.69718373   0.01448483
6740.00   0.69830513   0.01451549
6742.00   0.69741166   0.01449000
6744.00   0.70001113   0.01446000
6746.00   0.69998157   0.01443231
6748.00   0.68925571   0.01439100
6750.00   0.67766392   0.01434867
6752.00   0.69380760   0.01440854
6754.00   0.70735109   0.01447161
6756.00   0.70699430   0.01449557
6758.00   0.70385206   0.01450822
6760.00   0.69975114   0.01449098
6762.00   0.69815546   0.01445210
6764.00   0.69946492   0.01443732
6766.00   0.69448203   0.01441369
6768.00   0.66679144   0.01426596
6770.00   0.66691923   0.01423531
6772.00   0.67148787   0.01426608
6774.00   0.66513216   0.01425449
6776.00   0.64469683   0.01415812
6778.00   0.62694013   0.01407776
6780.00   0.61897302   0.01401794
6782.00   0.62525249   0.01403861
6784.00   0.63609695   0.01410722
6786.00   0.64072061   0.01415819
6788.00   0.64512253   0.01415699
6790.00   0.66058582   0.01421991
6792.00   0.66537607   0.01425852
6794.00   0.66355598   0.01426223
6796.00   0.66868770   0.01426406
6798.00   0.66043687   0.01425389
6800.00   0.66455519   0.01428141
6802.00   0.67665339   0.01433813
6804.00   0.68600023   0.01437919
6806.00   0.68263936   0.01435384
6808.00   0.67628384   0.01429457
6810.00   0.66706866   0.01424420
6812.00   0.65918720   0.01421154
6814.00   0.65416521   0.01419349
6816.00   0.64939147   0.01418346
6818.00   0.64374912   0.01413663
6820.00   0.64965296   0.01419755
6822.00   0.65716255   0.01434150
6824.00   0.65759289   0.01452409
6826.00   0.66091943   0.01477508
6828.00   0.64971715   0.01495412
6830.00   0.64649761   0.01514404
6832.00   0.65697479   0.01526295
6834.00   0.67346060   0.01520469
6836.00   0.67764473   0.01499033
6838.00   0.67756706   0.01479194
6840.00   0.67678958   0.01459283
6842.00   0.67444003   0.01442647
6844.00   0.66728377   0.01433554
6846.00   0.65252960   0.01424817
6848.00   0.65276718   0.01417561
6850.00   0.64966691   0.01409572
6852.00   0.64011014   0.01402367
6854.00   0.63779354   0.01401812
6856.00   0.64939213   0.01417524
6858.00   0.65162539   0.01442308
6860.00   0.64955759   0.01470338
6862.00   0.65165097   0.01506403
6864.00   0.66410053   0.01566839
6866.00   0.66206753   0.01655862
6868.00   0.66934544   0.01666852
6870.00   0.67137676   0.01587282
6872.00   0.65810943   0.01456515
6874.00   0.64699590   0.01383501
6876.00   0.63072288   0.01353399
6878.00   0.61218584   0.01332517
6880.00   0.60553193   0.01322393
6882.00   0.61930025   0.01337260
6884.00   0.63529605   0.01377242
6886.00   0.63479233   0.01393402
6888.00   0.62755263   0.01382434
6890.00   0.62317771   0.01362056
6892.00   0.62673229   0.01357381
6894.00   0.62766713   0.01359087
6896.00   0.62676930   0.01358322
6898.00   0.62088674   0.01356715
6900.00   0.61330819   0.01357692
6902.00   0.61138964   0.01363543
6904.00   0.62197793   0.01368913
6906.00   0.62967980   0.01372510
6908.00   0.63381803   0.01380077
6910.00   0.63534111   0.01390226
6912.00   0.63462043   0.01391336
6914.00   0.63085359   0.01390571
6916.00   0.62645888   0.01390862
6918.00   0.62309062   0.01395032
6920.00   0.62187356   0.01403934
6922.00   0.62269747   0.01416015
6924.00   0.61685443   0.01413103
6926.00   0.61774290   0.01404520
6928.00   0.62232518   0.01390680
6930.00   0.62297726   0.01372107
6932.00   0.62145424   0.01360668
6934.00   0.63209057   0.01372888
6936.00   0.63160551   0.01383404
6938.00   0.61360681   0.01382538
6940.00   0.59002286   0.01376472
6942.00   0.59076834   0.01383133
6944.00   0.60486412   0.01400271
6946.00   0.61616445   0.01418174
6948.00   0.61503327   0.01426588
6950.00   0.60256469   0.01418667
6952.00   0.60639489   0.01410369
6954.00   0.61597204   0.01395812
6956.00   0.61519849   0.01376028
6958.00   0.60494417   0.01357968
6960.00   0.60938722   0.01353800
6962.00   0.60221195   0.01359708
6964.00   0.58986175   0.01366119
6966.00   0.58515823   0.01373888
6968.00   0.59374601   0.01384257
6970.00   0.60324866   0.01392273
6972.00   0.59855330   0.01397730
6974.00   0.60393584   0.01405990
6976.00   0.61230361   0.01409937
6978.00   0.60827124   0.01402647
6980.00   0.59609950   0.01395754
6982.00   0.60232824   0.01391934
6984.00   0.61311662   0.01386082
6986.00   0.61744589   0.01375747
6988.00   0.61052954   0.01361982
6990.00   0.60944426   0.01355022
6992.00   0.59710920   0.01350601
6994.00   0.58877605   0.01351316
6996.00   0.59266114   0.01355966
6998.00   0.60632169   0.01359908
7000.00   0.61272049   0.01360310
7002.00   0.61255151   0.01362166
7004.00   0.60828006   0.01365627
7006.00   0.60396004   0.01368383
7008.00   0.60538816   0.01366790
7010.00   0.60751498   0.01361667
7012.00   0.59720546   0.01357697
7014.00   0.58999598   0.01357366
7016.00   0.59699297   0.01358370
7018.00   0.60232747   0.01350678
7020.00   0.59678853   0.01338478
7022.00   0.58733511   0.01332527
7024.00   0.58655155   0.01339233
7026.00   0.60053319   0.01356260
7028.00   0.60978132   0.01365941
7030.00   0.60386026   0.01364295
7032.00   0.59250057   0.01359956
7034.00   0.58614051   0.01360339
7036.00   0.59207743   0.01368703
7038.00   0.60001135   0.01371719
7040.00   0.60746789   0.01372369
7042.00   0.60903907   0.01374084
7044.00   0.60413337   0.01376970
7046.00   0.59496260   0.01376750
7048.00   0.57807028   0.01371517
7050.00   0.58588052   0.01371760
7052.00   0.59913552   0.01372473
7054.00   0.60232866   0.01369607
7056.00   0.60268962   0.01365915
7058.00   0.60292649   0.01368820
7060.00   0.59428626   0.01363893
7062.00   0.58990967   0.01358389
7064.00   0.59620672   0.01360005
7066.00   0.58613086   0.01359367
7068.00   0.59593070   0.01367547
7070.00   0.59851050   0.01368880
7072.00   0.59230602   0.01364283
7074.00   0.58649600   0.01361145
7076.00   0.58749312   0.01360962
7078.00   0.58660233   0.01361850
7080.00   0.58829564   0.01362235
7082.00   0.59375036   0.01363872
7084.00   0.60019362   0.01369483
7086.00   0.59510654   0.01371519
7088.00   0.58597881   0.01367639
7090.00   0.59049326   0.01366220
7092.00   0.60229266   0.01366400
7094.00   0.59401041   0.01357890
7096.00   0.59423757   0.01356888
7098.00   0.60039163   0.01358565
7100.00   0.60873616   0.01362787
7102.00   0.61250997   0.01366859
7104.00   0.60410011   0.01364359
7106.00   0.59425908   0.01356548
7108.00   0.59711182   0.01357077
7110.00   0.60653931   0.01363618
7112.00   0.61129141   0.01369178
7114.00   0.60894001   0.01372320
7116.00   0.61359417   0.01374691
7118.00   0.60936451   0.01370618
7120.00   0.61110598   0.01370157
7122.00   0.63077474   0.01380859
7124.00   0.61844397   0.01374928
7126.00   0.61421585   0.01371852
7128.00   0.61469984   0.01368707
7130.00   0.61667746   0.01366937
7132.00   0.61677110   0.01369469
7134.00   0.61457372   0.01370999
7136.00   0.61676270   0.01374539
7138.00   0.61748505   0.01376772
7140.00   0.61143142   0.01374043
7142.00   0.59492421   0.01363256
7144.00   0.59865296   0.01361142
7146.00   0.60845733   0.01362359
7148.00   0.60935056   0.01357728
7150.00   0.60151494   0.01347231
7152.00   0.60894758   0.01346100
7154.00   0.61485422   0.01350138
7156.00   0.60456377   0.01345478
7158.00   0.59124571   0.01336783
7160.00   0.59118593   0.01332643
7162.00   0.61003709   0.01336895
7164.00   0.61327249   0.01334115
7166.00   0.61882508   0.01335148
7168.00   0.62816012   0.01343464
7170.00   0.63321781   0.01354219
7172.00   0.61437833   0.01346285
7174.00   0.60620928   0.01341570
7176.00   0.59289920   0.01330534
7178.00   0.58135724   0.01320443
7180.00   0.58944553   0.01326988
7182.00   0.60300565   0.01345077
7184.00   0.61879611   0.01367760
7186.00   0.62298632   0.01366849
7188.00   0.61292791   0.01342540
7190.00   0.60052145   0.01327187
7192.00   0.60814989   0.01335862
7194.00   0.61603999   0.01333543
7196.00   0.61980450   0.01327953
7198.00   0.62067378   0.01329891
7200.00   0.62355161   0.01340165
7202.00   0.61953557   0.01336528
7204.00   0.61184597   0.01325183
7206.00   0.60295224   0.01314939
7208.00   0.59741956   0.01311404
7210.00   0.60418820   0.01307049
7212.00   0.59923345   0.01307196
7214.00   0.60617691   0.01316904
7216.00   0.61872363   0.01327227
7218.00   0.62068689   0.01327945
7220.00   0.61410385   0.01328931
7222.00   0.61356640   0.01333761
7224.00   0.61723286   0.01338763
7226.00   0.62027764   0.01340390
7228.00   0.61867523   0.01338765
7230.00   0.60911405   0.01341956
7232.00   0.59910548   0.01366162
7234.00   0.59998262   0.01410508
7236.00   0.60755301   0.01463361
7238.00   0.60353076   0.01509629
7240.00   0.61115539   0.01587209
7242.00   0.62196231   0.01627776
7244.00   0.61492920   0.01602877
7246.00   0.59239566   0.01528779
7248.00   0.59715724   0.01485544
7250.00   0.60470009   0.01457208
7252.00   0.60139477   0.01415260
7254.00   0.59698272   0.01373042
7256.00   0.60053158   0.01349953
7258.00   0.59719586   0.01335235
7260.00   0.59944212   0.01327326
7262.00   0.60809243   0.01334989
7264.00   0.61656857   0.01345056
7266.00   0.61687446   0.01342643
7268.00   0.61536884   0.01343152
7270.00   0.61588597   0.01413510
7272.00   0.62007469   0.01508053
7274.00   0.62628758   0.01578706
7276.00   0.63185525   0.01594475
7278.00   0.61828780   0.01574484
7280.00   0.61353755   0.01534915
7282.00   0.61497068   0.01477541
7284.00   0.61815119   0.01424816
7286.00   0.62097585   0.01420566
7288.00   0.60750544   0.01414584
7290.00   0.60035253   0.01387783
7292.00   0.59033561   0.01348039
7294.00   0.57473534   0.01314867
7296.00   0.57176834   0.01309860
7298.00   0.56698334   0.01331543
7300.00   0.56992513   0.01361015
7302.00   0.57295614   0.01372619
7304.00   0.57272410   0.01358363
7306.00   0.59643066   0.01355996
7308.00   0.59849012   0.01354786
7310.00   0.58655739   0.01380746
7312.00   0.58245069   0.01430234
7314.00   0.60215223   0.01480550
7316.00   0.61437351   0.01506909
7318.00   0.58920872   0.01492919
7320.00   0.56212389   0.01442376
7322.00   0.54894459   0.01381095
7324.00   0.54485464   0.01349648
7326.00   0.54739964   0.01360799
7328.00   0.55747455   0.01370671
7330.00   0.57255030   0.01379678
7332.00   0.58398211   0.01390651
7334.00   0.57845163   0.01402807
7336.00   0.57646561   0.01446943
7338.00   0.57180649   0.01481537
7340.00   0.57616919   0.01503677
7342.00   0.58500135   0.01509309
7344.00   0.56529838   0.01481427
7346.00   0.56187540   0.01415530
7348.00   0.56854224   0.01352735
7350.00   0.56960905   0.01316828
7352.00   0.55846089   0.01315336
7354.00   0.56567645   0.01343240
7356.00   0.56347191   0.01359398
7358.00   0.56591272   0.01366730
7360.00   0.57222795   0.01371272
7362.00   0.57296467   0.01380659
7364.00   0.56147456   0.01401520
7366.00   0.54730260   0.01420577
7368.00   0.54164982   0.01433944
7370.00   0.54421961   0.01436650
7372.00   0.54426867   0.01422236
7374.00   0.53806233   0.01380522
7376.00   0.55844188   0.01344121
7378.00   0.56736368   0.01317281
7380.00   0.55070066   0.01300595
7382.00   0.53519732   0.01294599
7384.00   0.54297352   0.01298670
7386.00   0.55054259   0.01308147
7388.00   0.55367076   0.01322834
7390.00   0.55075395   0.01337436
7392.00   0.53757858   0.01336882
7394.00   0.54819250   0.01350747
7396.00   0.56085825   0.01375260
7398.00   0.56485069   0.01396295
7400.00   0.55976748   0.01402710
7402.00   0.56234455   0.01400961
7404.00   0.55476987   0.01391523
7406.00   0.56077904   0.01370323
7408.00   0.57199150   0.01340143
7410.00   0.56795084   0.01310585
7412.00   0.55411333   0.01301722
7414.00   0.55748153   0.01308700
7416.00   0.56438673   0.01312526
7418.00   0.56973529   0.01310662
7420.00   0.57688844   0.01314030
7422.00   0.55980682   0.01309379
7424.00   0.54770690   0.01312918
7426.00   0.54280245   0.01319536
7428.00   0.54274100   0.01325319
7430.00   0.54423416   0.01331552
7432.00   0.55732179   0.01350498
7434.00   0.56022781   0.01361923
7436.00   0.55402660   0.01362134
7438.00   0.54792863   0.01356037
7440.00   0.55336410   0.01356061
7442.00   0.56292129   0.01350431
7444.00   0.56245255   0.01333531
7446.00   0.55717713   0.01316070
7448.00   0.55464780   0.01309262
7450.00   0.54352987   0.01304324
7452.00   0.55497491   0.01310961
7454.00   0.56757599   0.01317389
7456.00   0.57293642   0.01320457
7458.00   0.57242697   0.01322958
7460.00   0.57601768   0.01330016
7462.00   0.56298435   0.01332285
7464.00   0.55748492   0.01338203
7466.00   0.56245387   0.01349368
7468.00   0.56307733   0.01361215
7470.00   0.57251132   0.01374233
7472.00   0.58413923   0.01382362
7474.00   0.58128554   0.01385137
7476.00   0.56907177   0.01386929
7478.00   0.57674086   0.01395420
7480.00   0.58697557   0.01402173
7482.00   0.57994801   0.01394932
7484.00   0.56849223   0.01378471
7486.00   0.56748682   0.01362130
7488.00   0.57545716   0.01350875
7490.00   0.58097923   0.01341220
7492.00   0.57285726   0.01330548
7494.00   0.56768298   0.01325221
7496.00   0.57741582   0.01327662
7498.00   0.57448471   0.01321628
7500.00   0.55862743   0.01310279
7502.00   0.56109262   0.01309252
7504.00   0.58104098   0.01318190
7506.00   0.59707695   0.01325708
7508.00   0.59061825   0.01321504
7510.00   0.59417617   0.01323456
7512.00   0.59473938   0.01326759
7514.00   0.58622575   0.01328846
7516.00   0.57497823   0.01334434
7518.00   0.57990241   0.01373416
7520.00   0.58111513   0.01414275
7522.00   0.57808161   0.01436138
7524.00   0.57680941   0.01439886
7526.00   0.58554447   0.01448207
7528.00   0.58612370   0.01425845
7530.00   0.58084631   0.01383833
7532.00   0.57467777   0.01349730
7534.00   0.57243145   0.01339639
7536.00   0.57643765   0.01334689
7538.00   0.58976358   0.01332299
7540.00   0.59672928   0.01332081
7542.00   0.59789681   0.01332022
7544.00   0.59828120   0.01330338
7546.00   0.59200609   0.01324799
7548.00   0.59212196   0.01320265
7550.00   0.59190142   0.01319472
7552.00   0.58913994   0.01323109
7554.00   0.58601481   0.01329663
7556.00   0.59548140   0.01338274
7558.00   0.58958006   0.01338054
7560.00   0.58028841   0.01330440
7562.00   0.57591468   0.01322390
7564.00   0.57809699   0.01324634
7566.00   0.57520974   0.01344992
7568.00   0.57710040   0.01373796
7570.00   0.58028632   0.01393800
7572.00   0.58303171   0.01398701
7574.00   0.58729398   0.01396821
7576.00   0.58491051   0.01373443
7578.00   0.58697903   0.01341320
7580.00   0.59614837   0.01322700
7582.00   0.60507613   0.01324419
7584.00   0.59362882   0.01318279
7586.00   0.58389980   0.01303261
7588.00   0.56960297   0.01285009
7590.00   0.55317986   0.01281436
7592.00   0.54332507   0.01330447
7594.00   0.55750567   0.01494168
7596.00   0.59307873   0.01759407
7598.00   0.62388897   0.02045647
7600.00   0.64601457   0.02312619
7602.00   0.66584361   0.02513355
7604.00   0.65845549   0.02474730
7606.00   0.62144959   0.02266639
7608.00   0.59996557   0.02022750
7610.00   0.61206436   0.01835357
7612.00   0.64101994   0.01703870
7614.00   0.62370527   0.01519692
7616.00   0.58567476   0.01345232
7618.00   0.57038903   0.01273931
7620.00   0.58969069   0.01340667
7622.00   0.60716045   0.01464868
7624.00   0.61934829   0.01572730
7626.00   0.61620164   0.01619228
7628.00   0.60773057   0.01619793
7630.00   0.60416675   0.01598338
7632.00   0.60966134   0.01567177
7634.00   0.59560180   0.01496371
7636.00   0.59230626   0.01439937
7638.00   0.59911329   0.01408862
7640.00   0.60468280   0.01389060
7642.00   0.60417408   0.01360703
7644.00   0.60917306   0.01349640
7646.00   0.60772216   0.01338831
7648.00   0.60380489   0.01325364
7650.00   0.60653609   0.01314627
7652.00   0.60539627   0.01308104
7654.00   0.59918296   0.01298087
7656.00   0.58853984   0.01292418
7658.00   0.58134210   0.01293568
7660.00   0.58714151   0.01296125
7662.00   0.58634412   0.01291086
7664.00   0.58223891   0.01290571
7666.00   0.58230942   0.01284808
7668.00   0.58926165   0.01274409
7670.00   0.59948838   0.01278038
7672.00   0.59479606   0.01271943
7674.00   0.59074360   0.01269618
7676.00   0.59236902   0.01275272
7678.00   0.59812438   0.01286216
7680.00   0.59580582   0.01289622
7682.00   0.59947383   0.01301021
7684.00   0.60635114   0.01313231
7686.00   0.60717773   0.01322119
7688.00   0.59702468   0.01324970
7690.00   0.59053868   0.01318514
7692.00   0.59411407   0.01317492
7694.00   0.60057688   0.01324941
7696.00   0.60703218   0.01335988
7698.00   0.61334604   0.01342485
7700.00   0.60374582   0.01337818
7702.00   0.59951150   0.01330795
7704.00   0.60375923   0.01334258
7706.00   0.60771161   0.01363515
7708.00   0.59558845   0.01427277
7710.00   0.58492923   0.01499413
7712.00   0.58365750   0.01580343
7714.00   0.58858359   0.01631011
7716.00   0.59420466   0.01629625
7718.00   0.59866989   0.01582822
7720.00   0.60625815   0.01528766
7722.00   0.59205300   0.01459052
7724.00   0.58102375   0.01399173
7726.00   0.59026200   0.01371306
7728.00   0.59318221   0.01367499
7730.00   0.60037768   0.01359534
7732.00   0.59847683   0.01345242
7734.00   0.59339964   0.01332407
7736.00   0.59471142   0.01329833
7738.00   0.59599632   0.01329268
7740.00   0.59284103   0.01323543
7742.00   0.58123922   0.01331088
7744.00   0.57490134   0.01384432
7746.00   0.58776283   0.01492652
7748.00   0.59103841   0.01558526
7750.00   0.58367604   0.01576770
7752.00   0.58410907   0.01578763
7754.00   0.58807474   0.01562439
7756.00   0.57539308   0.01497216
7758.00   0.59760845   0.01442527
7760.00   0.61062944   0.01425072
7762.00   0.61494541   0.01423193
7764.00   0.61471081   0.01408368
7766.00   0.60758287   0.01362558
7768.00   0.59941739   0.01349335
7770.00   0.59425426   0.01349062
7772.00   0.59379470   0.01356330
7774.00   0.59885061   0.01371307
7776.00   0.60758764   0.01400600
7778.00   0.61217284   0.01399994
7780.00   0.62111163   0.01391120
7782.00   0.62056237   0.01379878
7784.00   0.60260212   0.01368980
7786.00   0.60761046   0.01364278
7788.00   0.60822177   0.01418009
7790.00   0.61419928   0.01482446
7792.00   0.61851138   0.01519851
7794.00   0.60747063   0.01513506
7796.00   0.59060836   0.01498773
7798.00   0.59567696   0.01451976
7800.00   0.60673714   0.01392062
7802.00   0.61065865   0.01355330
7804.00   0.60480368   0.01378504
7806.00   0.59361923   0.01389708
7808.00   0.59245533   0.01393903
7810.00   0.59259397   0.01393344
7812.00   0.59031260   0.01390256
7814.00   0.59461749   0.01383902
7816.00   0.61045909   0.01455056
7818.00   0.61396331   0.01524200
7820.00   0.60138226   0.01556265
7822.00   0.58583480   0.01548714
7824.00   0.59809166   0.01542937
7826.00   0.60438097   0.01467741
7828.00   0.60621905   0.01379086
7830.00   0.60365438   0.01319203
7832.00   0.59984434   0.01308999
7834.00   0.60511255   0.01322434
7836.00   0.61320221   0.01355653
7838.00   0.60105860   0.01375819
7840.00   0.58119369   0.01378016
7842.00   0.58144212   0.01376049
7844.00   0.57774794   0.01371471
7846.00   0.57849443   0.01396948
7848.00   0.58321440   0.01456432
7850.00   0.58630407   0.01523917
7852.00   0.57998526   0.01560146
7854.00   0.57427323   0.01585518
7856.00   0.57047153   0.01582786
7858.00   0.57134008   0.01534098
7860.00   0.57683277   0.01455723
7862.00   0.58183765   0.01417661
7864.00   0.58887488   0.01430348
7866.00   0.58193541   0.01434603
7868.00   0.57216239   0.01427396
7870.00   0.57149839   0.01422300
7872.00   0.57796121   0.01429554
7874.00   0.56742007   0.01416998
7876.00   0.56547391   0.01398072
7878.00   0.57245421   0.01384307
7880.00   0.57777178   0.01383563
7882.00   0.57711154   0.01392564
7884.00   0.57789016   0.01411585
7886.00   0.58353686   0.01432387
7888.00   0.58603317   0.01441200
7890.00   0.57454157   0.01427015
7892.00   0.56344259   0.01410337
7894.00   0.57714111   0.01379098
7896.00   0.58252919   0.01330549
7898.00   0.57712620   0.01287789
7900.00   0.58917820   0.01290360
7902.00   0.57961774   0.01284450
7904.00   0.56197393   0.01277038
7906.00   0.55656338   0.01324259
7908.00   0.56526178   0.01436006
7910.00   0.56044298   0.01554082
7912.00   0.54723340   0.01573678
7914.00   0.54164785   0.01596152
7916.00   0.53924853   0.01612650
7918.00   0.53547275   0.01585964
7920.00   0.54867232   0.01478964
7922.00   0.53569520   0.01417272
7924.00   0.53752267   0.01396983
7926.00   0.55322218   0.01393458
7928.00   0.56469530   0.01380471
7930.00   0.56107235   0.01372071
7932.00   0.55948937   0.01366045
7934.00   0.56146491   0.01358694
7936.00   0.56465626   0.01337800
7938.00   0.56535751   0.01295910
7940.00   0.56763637   0.01282413
7942.00   0.56134307   0.01288604
7944.00   0.55355376   0.01310872
7946.00   0.55329239   0.01336577
7948.00   0.56387508   0.01346430
7950.00   0.56467938   0.01342928
7952.00   0.55628037   0.01324202
7954.00   0.55159116   0.01293270
7956.00   0.55620337   0.01274078
7958.00   0.55946136   0.01316146
7960.00   0.55491006   0.01419446
7962.00   0.55868393   0.01478785
7964.00   0.55771840   0.01491018
7966.00   0.54424894   0.01477859
7968.00   0.54839683   0.01454068
7970.00   0.55672222   0.01374499
7972.00   0.55162263   0.01322749
7974.00   0.54315937   0.01326304
7976.00   0.54631138   0.01360188
7978.00   0.52995408   0.01361145
7980.00   0.54626238   0.01366382
7982.00   0.56006914   0.01357731
7984.00   0.56482911   0.01360812
7986.00   0.57555091   0.01440478
7988.00   0.58917910   0.01713832
7990.00   0.59644884   0.01935114
7992.00   0.59207958   0.01959689
7994.00   0.58009613   0.01787049
7996.00   0.57355446   0.01578110
7998.00   0.56509668   0.01428142
8000.00   0.56594896   0.01318748
8002.00   0.56424165   0.01258993
8004.00   0.55393243   0.01246324
8006.00   0.54519463   0.01253544
8008.00   0.55206406   0.01279350
8010.00   0.55843300   0.01309036
8012.00   0.56661344   0.01332570
8014.00   0.57805628   0.01344346
8016.00   0.58009386   0.01342602
8018.00   0.57277131   0.01338928
8020.00   0.55760205   0.01365449
8022.00   0.55024731   0.01409641
8024.00   0.56294143   0.01441223
8026.00   0.56348902   0.01446331
8028.00   0.57294548   0.01443323
8030.00   0.57211328   0.01396588
8032.00   0.56163394   0.01318826
8034.00   0.55562353   0.01262578
8036.00   0.55999219   0.01253298
8038.00   0.56057942   0.01249162
8040.00   0.56162548   0.01247940
8042.00   0.56267232   0.01248462
8044.00   0.55703664   0.01247318
8046.00   0.56513602   0.01265528
8048.00   0.56507921   0.01280329
8050.00   0.56052703   0.01288946
8052.00   0.56033695   0.01295655
8054.00   0.57086730   0.01307795
8056.00   0.56486094   0.01321620
8058.00   0.56273293   0.01338421
8060.00   0.56514525   0.01350325
8062.00   0.56781220   0.01351614
8064.00   0.57187855   0.01349997
8066.00   0.57302898   0.01326958
8068.00   0.57120907   0.01292996
8070.00   0.56976748   0.01264145
8072.00   0.57252055   0.01254369
8074.00   0.57749414   0.01256740
8076.00   0.57552308   0.01260188
8078.00   0.57631218   0.01264257
8080.00   0.57881045   0.01265785
8082.00   0.57522559   0.01261098
8084.00   0.57599688   0.01258903
8086.00   0.58615100   0.01262723
8088.00   0.58172852   0.01263079
8090.00   0.56161129   0.01257033
8092.00   0.55274683   0.01251305
8094.00   0.55165744   0.01247288
8096.00   0.55270672   0.01254561
8098.00   0.55868387   0.01267443
8100.00   0.56879365   0.01278217
8102.00   0.57295799   0.01282282
8104.00   0.57944876   0.01290457
8106.00   0.57498658   0.01279375
8108.00   0.56599259   0.01255269
8110.00   0.56504118   0.01237143
8112.00   0.58519882   0.01249381
8114.00   0.57904744   0.01243114
8116.00   0.57003248   0.01233465
8118.00   0.56483293   0.01227346
8120.00   0.56263214   0.01226133
8122.00   0.56831080   0.01226211
8124.00   0.57305539   0.01227671
8126.00   0.57221872   0.01228135
8128.00   0.56610036   0.01229051
8130.00   0.56140459   0.01235326
8132.00   0.58109021   0.01256839
8134.00   0.57956576   0.01253249
8136.00   0.56913066   0.01240975
8138.00   0.56457967   0.01239603
8140.00   0.57069725   0.01257882
8142.00   0.57111120   0.01257457
8144.00   0.55835021   0.01245918
8146.00   0.55402577   0.01242944
8148.00   0.56664300   0.01253621
8150.00   0.57236403   0.01253964
8152.00   0.56459713   0.01237804
8154.00   0.55764019   0.01221616
8156.00   0.55459952   0.01212977
8158.00   0.55737430   0.01219512
8160.00   0.57999980   0.01262933
8162.00   0.57452893   0.01267786
8164.00   0.56234437   0.01249918
8166.00   0.55458206   0.01233477
8168.00   0.55445433   0.01237451
8170.00   0.55701888   0.01233979
8172.00   0.54628962   0.01223039
8174.00   0.54736584   0.01250569
8176.00   0.55937803   0.01309244
8178.00   0.56278712   0.01354390
8180.00   0.56909901   0.01372855
8182.00   0.56720483   0.01375973
8184.00   0.56663215   0.01386972
8186.00   0.56734502   0.01406704
8188.00   0.55862510   0.01411374
8190.00   0.57003057   0.01427048
8192.00   0.56088459   0.01425266
8194.00   0.55264539   0.01426603
8196.00   0.56165361   0.01440092
8198.00   0.56638002   0.01437201
8200.00   0.55349851   0.01365260
8202.00   0.53072166   0.01295739
8204.00   0.52248102   0.01261624
8206.00   0.54038066   0.01263645
8208.00   0.54845667   0.01266926
8210.00   0.53890800   0.01260228
8212.00   0.53257895   0.01245527
8214.00   0.53399605   0.01230027
8216.00   0.53841007   0.01221795
8218.00   0.54819834   0.01221332
8220.00   0.54800791   0.01216153
8222.00   0.55534273   0.01229654
8224.00   0.56976390   0.01268127
8226.00   0.57704592   0.01315604
8228.00   0.58598781   0.01324372
8230.00   0.57319409   0.01282312
8232.00   0.55520499   0.01228620
8234.00   0.55013824   0.01200403
8236.00   0.56596208   0.01209912
8238.00   0.57463396   0.01222319
8240.00   0.57345283   0.01231832
8242.00   0.56644166   0.01235105
8244.00   0.55780816   0.01229693
8246.00   0.54557037   0.01210417
8248.00   0.55085886   0.01212532
8250.00   0.55876935   0.01221133
8252.00   0.56103790   0.01228986
8254.00   0.55758178   0.01233599
8256.00   0.56563032   0.01240629
8258.00   0.56176722   0.01226149
8260.00   0.55662882   0.01211606
8262.00   0.55700743   0.01206802
8264.00   0.56247771   0.01209426
8266.00   0.55093336   0.01198304
8268.00   0.55144703   0.01204824
8270.00   0.56701511   0.01236002
8272.00   0.58534241   0.01283835
8274.00   0.58647490   0.01332819
8276.00   0.57100934   0.01384967
8278.00   0.56050622   0.01429206
8280.00   0.56501836   0.01470600
8282.00   0.57972044   0.01516980
8284.00   0.58569121   0.01573094
8286.00   0.59084421   0.01582741
8288.00   0.57966077   0.01542090
8290.00   0.56108099   0.01508009
8292.00   0.55135500   0.01520316
8294.00   0.56867695   0.01548986
8296.00   0.56696630   0.01541018
8298.00   0.56454813   0.01532383
8300.00   0.57448167   0.01525124
8302.00   0.59646881   0.01500195
8304.00   0.60098433   0.01411128
8306.00   0.57759351   0.01331102
8308.00   0.56362730   0.01295732
8310.00   0.56459880   0.01298525
8312.00   0.56521147   0.01304350
8314.00   0.55699265   0.01298973
8316.00   0.55820942   0.01278269
8318.00   0.57089281   0.01265173
8320.00   0.58287829   0.01259239
8322.00   0.57753372   0.01241359
8324.00   0.57993424   0.01229032
8326.00   0.57947969   0.01220833
8328.00   0.57361078   0.01214786
8330.00   0.56972241   0.01213219
8332.00   0.58291245   0.01223532
8334.00   0.58314651   0.01228141
8336.00   0.57216787   0.01277806
8338.00   0.56361383   0.01438408
8340.00   0.56279612   0.01654536
8342.00   0.55436659   0.01750004
8344.00   0.56296003   0.01785708
8346.00   0.57171947   0.01813943
8348.00   0.57262164   0.01779511
8350.00   0.56405824   0.01633361
8352.00   0.55010945   0.01477775
8354.00   0.56073999   0.01434406
8356.00   0.56985795   0.01407201
8358.00   0.56936502   0.01360418
8360.00   0.56404877   0.01312856
8362.00   0.55939066   0.01307285
8364.00   0.54772139   0.01302976
8366.00   0.53744674   0.01294526
8368.00   0.53721893   0.01277926
8370.00   0.55078852   0.01250938
8372.00   0.55426550   0.01224170
8374.00   0.55811000   0.01234821
8376.00   0.56441879   0.01285452
8378.00   0.56669158   0.01345303
8380.00   0.55144417   0.01364301
8382.00   0.56271148   0.01374378
8384.00   0.56430119   0.01364872
8386.00   0.55620229   0.01324561
8388.00   0.55125582   0.01265175
8390.00   0.56707489   0.01239335
8392.00   0.57463640   0.01333578
8394.00   0.57727921   0.01489924
8396.00   0.57478362   0.01611174
8398.00   0.56836879   0.01643047
8400.00   0.55947268   0.01635271
8402.00   0.55060881   0.01575668
8404.00   0.54522502   0.01436716
8406.00   0.54893434   0.01281931
8408.00   0.56199700   0.01239479
8410.00   0.55982101   0.01307736
8412.00   0.55440181   0.01357530
8414.00   0.55624896   0.01380103
8416.00   0.56555605   0.01382420
8418.00   0.57312381   0.01374443
8420.00   0.57042146   0.01314519
8422.00   0.55963898   0.01306786
8424.00   0.55163568   0.01412633
8426.00   0.55110395   0.01576057
8428.00   0.55230832   0.01665717
8430.00   0.55489278   0.01671999
8432.00   0.56407499   0.01648892
8434.00   0.56874424   0.01557946
8436.00   0.56513470   0.01385562
8438.00   0.57104826   0.01241067
8440.00   0.57711673   0.01214477
8442.00   0.57082742   0.01215262
8444.00   0.56452119   0.01231292
8446.00   0.56982124   0.01276454
8448.00   0.56478012   0.01333592
8450.00   0.56928074   0.01364793
8452.00   0.56906819   0.01370737
8454.00   0.56030375   0.01353380
8456.00   0.54858732   0.01323406
8458.00   0.54523075   0.01321630
8460.00   0.55221188   0.01415575
8462.00   0.55654144   0.01507536
8464.00   0.55337828   0.01548275
8466.00   0.54753870   0.01539937
8468.00   0.54496145   0.01506745
8470.00   0.53486586   0.01398755
8472.00   0.53077638   0.01273890
8474.00   0.53832710   0.01200761
8476.00   0.54620522   0.01205227
8478.00   0.54992068   0.01204041
8480.00   0.54421711   0.01194883
8482.00   0.53683698   0.01184602
8484.00   0.53469682   0.01184521
8486.00   0.53439593   0.01200781
8488.00   0.53989869   0.01246258
8490.00   0.54592180   0.01277996
8492.00   0.54569757   0.01285940
8494.00   0.53807199   0.01278893
8496.00   0.53806651   0.01277266
8498.00   0.55514401   0.01299984
8500.00   0.56618100   0.01344151
8502.00   0.56212938   0.01381467
8504.00   0.54931712   0.01383571
8506.00   0.55565095   0.01384267
8508.00   0.54764926   0.01344122
8510.00   0.54519570   0.01272626
8512.00   0.55413926   0.01203807
8514.00   0.56206411   0.01185682
8516.00   0.56072927   0.01186135
8518.00   0.56047142   0.01189657
8520.00   0.55623937   0.01189807
8522.00   0.54847372   0.01186445
8524.00   0.54717380   0.01183571
8526.00   0.54620218   0.01177759
8528.00   0.54883099   0.01177118
8530.00   0.55335093   0.01181452
8532.00   0.55560553   0.01188414
8534.00   0.55091792   0.01198020
8536.00   0.56178963   0.01207189
8538.00   0.56275547   0.01202051
8540.00   0.55534792   0.01195595
8542.00   0.55142051   0.01206642
8544.00   0.55160099   0.01231312
8546.00   0.56334364   0.01253621
8548.00   0.56418860   0.01264342
8550.00   0.55512422   0.01262132
8552.00   0.54968405   0.01248642
8554.00   0.54501569   0.01212030
8556.00   0.55423462   0.01189486
8558.00   0.55629635   0.01177596
8560.00   0.54329830   0.01169807
8562.00   0.52509475   0.01162278
8564.00   0.52968740   0.01165674
8566.00   0.53544152   0.01168735
8568.00   0.53743899   0.01170054
8570.00   0.53550673   0.01170271
8572.00   0.53244019   0.01170111
8574.00   0.53255951   0.01171860
8576.00   0.53838170   0.01174681
8578.00   0.54315263   0.01175614
8580.00   0.54224682   0.01174582
8582.00   0.54166639   0.01179111
8584.00   0.53416872   0.01182252
8586.00   0.52524066   0.01182114
8588.00   0.52720726   0.01186768
8590.00   0.54395032   0.01201618
8592.00   0.54474413   0.01210476
8594.00   0.54401350   0.01211661
8596.00   0.54761863   0.01210973
8598.00   0.54858005   0.01207409
8600.00   0.53671366   0.01196622
8602.00   0.53292859   0.01183552
8604.00   0.52746528   0.01172496
8606.00   0.52394402   0.01168333
8608.00   0.52401495   0.01173306
8610.00   0.52653337   0.01186864
8612.00   0.53223431   0.01212789
8614.00   0.53360444   0.01242138
8616.00   0.52619517   0.01272252
8618.00   0.51632833   0.01306037
8620.00   0.52275527   0.01351313
8622.00   0.52776909   0.01385959
8624.00   0.52294528   0.01414268
8626.00   0.51969182   0.01435378
8628.00   0.52694964   0.01448733
8630.00   0.53050506   0.01456141
8632.00   0.54133487   0.01448621
8634.00   0.53746140   0.01421440
8636.00   0.53085583   0.01383982
8638.00   0.53646070   0.01347552
8640.00   0.52921653   0.01302936
8642.00   0.52420771   0.01276189
8644.00   0.51877367   0.01275578
8646.00   0.51683569   0.01296912
8648.00   0.52333045   0.01328811
8650.00   0.53591824   0.01380943
8652.00   0.53704882   0.01417127
8654.00   0.53358334   0.01437029
8656.00   0.53495568   0.01441733
8658.00   0.54659629   0.01431225
8660.00   0.52149069   0.01409104
8662.00   0.50470835   0.01391982
8664.00   0.50538862   0.01380318
8666.00   0.51793534   0.01370513
8668.00   0.52777922   0.01359580
8670.00   0.53058398   0.01346842
8672.00   0.53405654   0.01331587
8674.00   0.54064322   0.01312868
8676.00   0.54592884   0.01291238
8678.00   0.53100193   0.01268383
8680.00   0.54729623   0.01257475
8682.00   0.54769784   0.01241152
8684.00   0.53656942   0.01221062
8686.00   0.53523743   0.01205865
8688.00   0.53918493   0.01195553
8690.00   0.54292083   0.01187771
8692.00   0.54198790   0.01180611
8694.00   0.54015738   0.01177849
8696.00   0.54520166   0.01184412
8698.00   0.54735947   0.01182525
8700.00   0.54832447   0.01183227
8702.00   0.53787196   0.01180399
8704.00   0.52304918   0.01172588
8706.00   0.52600753   0.01164985
8708.00   0.54683590   0.01169078
8710.00   0.54788792   0.01164094
8712.00   0.53754056   0.01152098
8714.00   0.52903652   0.01140145
8716.00   0.52720082   0.01135040
8718.00   0.51627970   0.01131282
8720.00   0.51055694   0.01132082
8722.00   0.51423752   0.01135834
8724.00   0.52381629   0.01139791
8726.00   0.52882898   0.01143225
8728.00   0.52702862   0.01142415
8730.00   0.52439165   0.01137240
8732.00   0.52542806   0.01133565
8734.00   0.53198671   0.01137361
8736.00   0.53685713   0.01143433
8738.00   0.54046941   0.01146439
8740.00   0.53814805   0.01145797
8742.00   0.53013611   0.01142252
8744.00   0.52149141   0.01137850
8746.00   0.52044642   0.01133636
8748.00   0.51927072   0.01130915
8750.00   0.51803643   0.01134378
8752.00   0.52310544   0.01165974
8754.00   0.54237157   0.01253257
8756.00   0.54477596   0.01369051
8758.00   0.54130048   0.01454699
8760.00   0.54373091   0.01537088
8762.00   0.55174971   0.01626783
8764.00   0.54630363   0.01697367
8766.00   0.54432189   0.01647920
8768.00   0.54338288   0.01584188
8770.00   0.54396200   0.01560401
8772.00   0.54369497   0.01581732
8774.00   0.53467691   0.01586485
8776.00   0.51010424   0.01574155
8778.00   0.49709135   0.01558368
8780.00   0.49286985   0.01513307
8782.00   0.48544791   0.01407118
8784.00   0.48483306   0.01254202
8786.00   0.50347251   0.01225982
8788.00   0.51391900   0.01247304
8790.00   0.51895404   0.01266207
8792.00   0.53711760   0.01272176
8794.00   0.53789449   0.01263560
8796.00   0.53189641   0.01215265
8798.00   0.52982771   0.01160371
8800.00   0.53028834   0.01124607
8802.00   0.52218151   0.01110605
8804.00   0.52815378   0.01118272
8806.00   0.53046274   0.01124437
8808.00   0.53365624   0.01129928
8810.00   0.54206860   0.01138650
8812.00   0.55401349   0.01151598
8814.00   0.53977579   0.01138680
8816.00   0.51728225   0.01114488
8818.00   0.49687755   0.01149139
8820.00   0.48196650   0.01310847
8822.00   0.46491191   0.01625387
8824.00   0.43599176   0.01788302
8826.00   0.42204630   0.01847499
8828.00   0.43035668   0.01857949
8830.00   0.45397085   0.01851603
8832.00   0.47658110   0.01698780
8834.00   0.50275809   0.01550156
8836.00   0.51711833   0.01467790
8838.00   0.52533352   0.01439338
8840.00   0.54447079   0.01388997
8842.00   0.55448353   0.01279359
8844.00   0.55225337   0.01226993
8846.00   0.55453348   0.01238143
8848.00   0.56514919   0.01275205
8850.00   0.57198501   0.01287722
8852.00   0.58409631   0.01290850
8854.00   0.59224886   0.01257783
8856.00   0.58520132   0.01203251
8858.00   0.56651354   0.01163803
8860.00   0.56011188   0.01187262
8862.00   0.56167567   0.01266063
8864.00   0.55560452   0.01333147
8866.00   0.54779458   0.01359225
8868.00   0.54701102   0.01342661
8870.00   0.55250156   0.01318761
8872.00   0.55473149   0.01252998
8874.00   0.55792201   0.01171588
8876.00   0.56204367   0.01135307
8878.00   0.56518084   0.01211267
8880.00   0.56889760   0.01415975
8882.00   0.55546939   0.01601520
8884.00   0.53854525   0.01684369
8886.00   0.53639203   0.01683101
8888.00   0.55931687   0.01660268
8890.00   0.56925803   0.01522310
8892.00   0.54823178   0.01299402
8894.00   0.53770816   0.01150265
8896.00   0.55295360   0.01181398
8898.00   0.56880057   0.01298139
8900.00   0.56134987   0.01369390
8902.00   0.56704187   0.01396047
8904.00   0.57076931   0.01390775
8906.00   0.56157923   0.01356200
8908.00   0.55396616   0.01266120
8910.00   0.55811453   0.01181650
8912.00   0.56651568   0.01249396
8914.00   0.57710481   0.01464112
8916.00   0.58644450   0.01696307
8918.00   0.58298957   0.01753717
8920.00   0.57248712   0.01751800
8922.00   0.56321079   0.01690725
8924.00   0.56054795   0.01539868
8926.00   0.56512773   0.01285035
8928.00   0.57476181   0.01168304
8930.00   0.56825852   0.01128625
8932.00   0.56493890   0.01122312
8934.00   0.56582463   0.01126484
8936.00   0.55904222   0.01150577
8938.00   0.55967706   0.01246482
8940.00   0.55132210   0.01312264
8942.00   0.52856517   0.01325856
8944.00   0.50256979   0.01300859
8946.00   0.49845743   0.01278043
8948.00   0.47974712   0.01183786
8950.00   0.46423155   0.01163919
8952.00   0.46145135   0.01296892
8954.00   0.47422051   0.01499167
8956.00   0.49550462   0.01580024
8958.00   0.52285981   0.01615182
8960.00   0.53872347   0.01672066
8962.00   0.59811199   0.01706899
#8964.00   0.69581985   0.01615507
8966.00   0.62936938   0.01278195
8968.00   0.55952084   0.01156813
8970.00   0.54776037   0.01214522
8972.00   0.56319070   0.01289442
8974.00   0.54790545   0.01268952
8976.00   0.54558289   0.01233792
8978.00   0.55338836   0.01302096
8980.00   0.55489379   0.01313014
8982.00   0.55248362   0.01266407
8984.00   0.56291628   0.01282391
8986.00   0.59100574   0.01439200
8988.00   0.60507178   0.01496782
8990.00   0.59387517   0.01431670
8992.00   0.56602097   0.01293504
8994.00   0.54668355   0.01219028
8996.00   0.56010652   0.01316819
8998.00   0.59141397   0.01478646
9000.00   0.60671878   0.01586891
9002.00   0.59238195   0.01594206
9004.00   0.57640904   0.01535666
9006.00   0.58838165   0.01388019
9008.00   0.59241486   0.01224102
9010.00   0.58302057   0.01118710
9012.00   0.57154024   0.01110559
9014.00   0.58759105   0.01134474
9016.00   0.58096296   0.01126960
9018.00   0.56842268   0.01107744
9020.00   0.56675935   0.01102827
9022.00   0.58324093   0.01126439
9024.00   0.57981837   0.01129613
9026.00   0.56847358   0.01110625
9028.00   0.56341112   0.01095756
9030.00   0.56389153   0.01098313
9032.00   0.56004739   0.01116229
9034.00   0.56140691   0.01144848
9036.00   0.56701326   0.01161996
9038.00   0.57409072   0.01178606
9040.00   0.57551062   0.01192983
9042.00   0.56315035   0.01187845
9044.00   0.56334871   0.01200171
9046.00   0.57801205   0.01234509
9048.00   0.58992231   0.01267362
9050.00   0.58579063   0.01274450
9052.00   0.56675959   0.01241673
9054.00   0.56309581   0.01177458
9056.00   0.56986833   0.01122907
9058.00   0.57969701   0.01105380
9060.00   0.58299446   0.01119803
9062.00   0.57294542   0.01106831
9064.00   0.56716692   0.01099086
9066.00   0.56482375   0.01113992
9068.00   0.57415450   0.01145388
9070.00   0.59633207   0.01167992
9072.00   0.58387160   0.01131482
9074.00   0.56981826   0.01099920
9076.00   0.57453418   0.01107054
9078.00   0.58952093   0.01135836
9080.00   0.58758551   0.01137900
9082.00   0.56976986   0.01112012
9084.00   0.57490861   0.01121534
9086.00   0.57983094   0.01139305
9088.00   0.57327378   0.01144079
9090.00   0.57177949   0.01140863
9092.00   0.57406569   0.01140625
9094.00   0.56802523   0.01145037
9096.00   0.56283557   0.01166179
9098.00   0.56074512   0.01193486
9100.00   0.53878605   0.01175188
9102.00   0.54070246   0.01178264
9104.00   0.56723166   0.01204201
9106.00   0.58815455   0.01201286
9108.00   0.57876003   0.01133759
9110.00   0.56175268   0.01063001
9112.00   0.55847573   0.01050148
9114.00   0.56318057   0.01078121
9116.00   0.57302260   0.01110633
9118.00   0.58306593   0.01113652
9120.00   0.57232487   0.01078670
9122.00   0.55786204   0.01055095
9124.00   0.56345886   0.01066782
9126.00   0.58396870   0.01104780
9128.00   0.59162718   0.01135992
9130.00   0.57440591   0.01127665
9132.00   0.57642096   0.01138186
9134.00   0.58284128   0.01148613
9136.00   0.57751298   0.01133926
9138.00   0.55660951   0.01079737
9140.00   0.55621231   0.01061532
9142.00   0.56222159   0.01059429
9144.00   0.56535959   0.01065923
9146.00   0.56514370   0.01084632
9148.00   0.57472950   0.01133110
9150.00   0.59209800   0.01193977
9152.00   0.58884823   0.01226689
9154.00   0.56963289   0.01216614
9156.00   0.55015874   0.01170461
9158.00   0.53726351   0.01128501
9160.00   0.53088391   0.01100862
9162.00   0.52755368   0.01085523
9164.00   0.52770513   0.01075705
9166.00   0.53241032   0.01065339
9168.00   0.53325975   0.01059983
9170.00   0.54058003   0.01082858
9172.00   0.55757958   0.01118012
9174.00   0.56619382   0.01129849
9176.00   0.54020786   0.01083243
9178.00   0.52800369   0.01046372
9180.00   0.53897870   0.01049662
9182.00   0.55312723   0.01067958
9184.00   0.55515826   0.01072682
9186.00   0.54438436   0.01049170
9188.00   0.53605342   0.01036181
9190.00   0.53951257   0.01049848
9192.00   0.54472393   0.01072956
9194.00   0.54482865   0.01084031
9196.00   0.55119836   0.01073509
9198.00   0.54964209   0.01058240
9200.00   0.54948103   0.01055218
9202.00   0.55386597   0.01065454
9204.00   0.56140083   0.01079922
9206.00   0.57363790   0.01090092
9208.00   0.56756210   0.01085687
9210.00   0.55923629   0.01093772
9212.00   0.56071508   0.01126000
9214.00   0.57529062   0.01173913
9216.00   0.58570224   0.01199701
9218.00   0.58967799   0.01206817
9220.00   0.58296698   0.01196286
9222.00   0.57132363   0.01173001
9224.00   0.56537849   0.01145484
9226.00   0.54201710   0.01114362
9228.00   0.53690314   0.01093245
9230.00   0.54582423   0.01079173
9232.00   0.55629331   0.01070056
9234.00   0.55608463   0.01068646
9236.00   0.55452633   0.01066577
9238.00   0.54847682   0.01058009
9240.00   0.53862262   0.01051215
9242.00   0.53058994   0.01055170
9244.00   0.53765059   0.01072531
9246.00   0.52976525   0.01068186
9248.00   0.52559823   0.01063705
9250.00   0.53127021   0.01064114
9252.00   0.54230249   0.01064986
9254.00   0.53790885   0.01052555
9256.00   0.53967726   0.01052284
9258.00   0.54584002   0.01061240
9260.00   0.54960495   0.01067608
9262.00   0.54476929   0.01059700
9264.00   0.53907013   0.01046431
9266.00   0.54099923   0.01043842
9268.00   0.54440778   0.01045408
9270.00   0.54201818   0.01044418
9272.00   0.53014314   0.01038982
9274.00   0.53049552   0.01051843
9276.00   0.54144943   0.01078318
9278.00   0.54648721   0.01092510
9280.00   0.54026425   0.01090132
9282.00   0.53562385   0.01097196
9284.00   0.53172433   0.01110807
9286.00   0.52724832   0.01113941
9288.00   0.52454364   0.01113718
9290.00   0.52525651   0.01121258
9292.00   0.52761525   0.01141003
9294.00   0.53087854   0.01159874
9296.00   0.53068089   0.01178231
9298.00   0.53444493   0.01232187
9300.00   0.54374444   0.01354143
9302.00   0.52232337   0.01531526
9304.00   0.52810669   0.01753422
9306.00   0.54479313   0.02027204
9308.00   0.54119217   0.02251147
9310.00   0.49665850   0.02342066
9312.00   0.48823893   0.02429260
9314.00   0.51555002   0.02559501
9316.00   0.52209926   0.02531619
9318.00   0.50843811   0.02365916
9320.00   0.52365339   0.02302311
9322.00   0.54926908   0.02399697
9324.00   0.54069602   0.02307085
9326.00   0.50358343   0.02053369
9328.00   0.47606027   0.01747476
9330.00   0.52056807   0.01555220
9332.00   0.53409755   0.01620259
9334.00   0.53022069   0.01712372
9336.00   0.51651371   0.01745474
9338.00   0.51511192   0.01768990
9340.00   0.57643127   0.02000563
9342.00   0.63778073   0.02102786
9344.00   0.59761500   0.01807632
9346.00   0.50727761   0.01314175
9348.00   0.46622506   0.01172967
9350.00   0.50258422   0.01278370
9352.00   0.57380676   0.01500112
9354.00   0.61199307   0.01623489
9356.00   0.59403014   0.01571778
9358.00   0.53845465   0.01348946
9360.00   0.48995268   0.01203310
9362.00   0.48604149   0.01201920
9364.00   0.51681995   0.01319577
9366.00   0.56330270   0.01619145
9368.00   0.60086668   0.02145199
9370.00   0.55046207   0.02743773
9372.00   0.51020718   0.02996745
9374.00   0.52546436   0.03189911
9376.00   0.58390546   0.03454143
9378.00   0.60918593   0.03673562
9380.00   0.56256437   0.02973548
9382.00   0.53677809   0.02115981
9384.00   0.53916442   0.01483447
9386.00   0.54439795   0.01309807
9388.00   0.51627398   0.01201147
9390.00   0.50452274   0.01119228
9392.00   0.50485712   0.01099442
9394.00   0.51266903   0.01152532
9396.00   0.52448654   0.01266395
9398.00   0.54754752   0.01422410
9400.00   0.54957300   0.01473444
9402.00   0.53645670   0.01447633
9404.00   0.52448833   0.01392833
9406.00   0.53076148   0.01360417
9408.00   0.55234706   0.01314870
9410.00   0.54838753   0.01251876
9412.00   0.52977908   0.01257257
9414.00   0.51475751   0.01365647
9416.00   0.51761985   0.01525194
9418.00   0.51306224   0.01558318
9420.00   0.50270474   0.01564164
9422.00   0.51552260   0.01643985
9424.00   0.56269002   0.01778712
9426.00   0.62508327   0.01819373
9428.00   0.57152474   0.01539860
9430.00   0.51187062   0.01275434
9432.00   0.48147559   0.01288650
9434.00   0.49367839   0.01693981
9436.00   0.56229287   0.02406847
9438.00   0.61332154   0.03071716
9440.00   0.63570619   0.03194512
9442.00   0.59945643   0.02804047
9444.00   0.51184213   0.02073174
9446.00   0.48335934   0.01488810
9448.00   0.49362862   0.01241614
9450.00   0.50085378   0.01286532
9452.00   0.50637174   0.01534255
9454.00   0.53306508   0.01902761
9456.00   0.56225765   0.02167148
9458.00   0.57258046   0.02223354
9460.00   0.55380404   0.02076906
9462.00   0.52019441   0.01782761
9464.00   0.50912273   0.01483858
9466.00   0.51795697   0.01333714
9468.00   0.52412534   0.01338361
9470.00   0.51902246   0.01554978
9472.00   0.50729614   0.01874904
9474.00   0.50705057   0.02113020
9476.00   0.50443518   0.02323822
9478.00   0.53753042   0.02549686
9480.00   0.57061720   0.02472292
9482.00   0.56353122   0.01910222
9484.00   0.50853139   0.01357555
9486.00   0.48893589   0.01128881
9488.00   0.49178195   0.01115327
9490.00   0.51386058   0.01208974
9492.00   0.54327965   0.01351893
9494.00   0.53381890   0.01469812
9496.00   0.53427553   0.01768816
9498.00   0.54524958   0.02019851
9500.00   0.54274225   0.02057085
9502.00   0.50499451   0.01783834
9504.00   0.50821161   0.01593556
9506.00   0.50792909   0.01428971
9508.00   0.49889836   0.01271040
9510.00   0.48783019   0.01163316
9512.00   0.48752120   0.01222130
9514.00   0.50179058   0.01486410
9516.00   0.51489645   0.01747547
9518.00   0.52238727   0.01887411
9520.00   0.52357578   0.01877304
9522.00   0.51925957   0.01765910
9524.00   0.51648444   0.01582696
9526.00   0.52207708   0.01410672
9528.00   0.52452141   0.01302852
9530.00   0.51689327   0.01274986
9532.00   0.51588356   0.01296336
9534.00   0.52673113   0.01323690
9536.00   0.52128249   0.01312377
9538.00   0.50732851   0.01286502
9540.00   0.50751400   0.01293132
9542.00   0.54023749   0.01334607
9544.00   0.52753204   0.01327400
9546.00   0.49284658   0.01333612
9548.00   0.47644505   0.01409716
9550.00   0.50896263   0.01568259
9552.00   0.53399897   0.01739832
9554.00   0.52321333   0.01751374
9556.00   0.49935180   0.01608789
9558.00   0.48578233   0.01424064
9560.00   0.49588323   0.01450084
9562.00   0.52152789   0.01796027
9564.00   0.52399653   0.02049328
9566.00   0.51131105   0.02094972
9568.00   0.49831331   0.01937939
9570.00   0.49352753   0.01716309
9572.00   0.49523902   0.01467422
9574.00   0.49352241   0.01262408
9576.00   0.50459051   0.01194097
9578.00   0.53226888   0.01256518
9580.00   0.53057325   0.01253508
9582.00   0.49686405   0.01174860
9584.00   0.47942597   0.01151443
9586.00   0.49523219   0.01227363
9588.00   0.53027344   0.01343710
9590.00   0.52928793   0.01349278
9592.00   0.51356888   0.01280462
9594.00   0.50706816   0.01217928
9596.00   0.50689733   0.01184718
9598.00   0.49521643   0.01156966
9600.00   0.49590439   0.01186679
9602.00   0.50492686   0.01295300
9604.00   0.51565742   0.01384096
9606.00   0.51406848   0.01395969
9608.00   0.48591501   0.01324227
9610.00   0.48667699   0.01289189
9612.00   0.49415663   0.01270179
9614.00   0.50047839   0.01297569
9616.00   0.50678194   0.01378291
9618.00   0.52533287   0.01479292
9620.00   0.51442826   0.01508873
9622.00   0.51210970   0.01500673
9624.00   0.51068163   0.01436603
9626.00   0.49716896   0.01309010
9628.00   0.48237103   0.01176569
9630.00   0.47928429   0.01135234
9632.00   0.49205065   0.01172489
9634.00   0.51060081   0.01229955
9636.00   0.51767302   0.01251635
9638.00   0.49711663   0.01235966
9640.00   0.48745090   0.01190658
9642.00   0.49447432   0.01214802
9644.00   0.50782192   0.01270233
9646.00   0.50825328   0.01241700
9648.00   0.49495336   0.01169688
9650.00   0.49875087   0.01161776
9652.00   0.50434053   0.01177043
9654.00   0.50148690   0.01184425
9656.00   0.49361664   0.01194931
9658.00   0.49782771   0.01233250
9660.00   0.49650857   0.01282239
9662.00   0.49147579   0.01330098
9664.00   0.48900110   0.01368720
9666.00   0.49644950   0.01395309
9668.00   0.49294513   0.01388373
9670.00   0.47942322   0.01349071
9672.00   0.46735853   0.01303062
9674.00   0.46895361   0.01293865
9676.00   0.49055338   0.01376281
9678.00   0.50761008   0.01485794
9680.00   0.50602722   0.01520281
9682.00   0.49471122   0.01486015
9684.00   0.49036598   0.01432553
9686.00   0.48552281   0.01365057
9688.00   0.48745883   0.01296843
9690.00   0.48316795   0.01273223
9692.00   0.47682917   0.01320574
9694.00   0.48232830   0.01425593
9696.00   0.49281719   0.01525611
9698.00   0.49289608   0.01560395
9700.00   0.49798155   0.01549851
9702.00   0.50403124   0.01499031
9704.00   0.48722553   0.01391669
9706.00   0.48784918   0.01316760
9708.00   0.48755807   0.01306278
9710.00   0.49170905   0.01347315
9712.00   0.49967986   0.01426171
9714.00   0.48986503   0.01551531
9716.00   0.47690496   0.01623770
9718.00   0.45726007   0.01637048
9720.00   0.45674345   0.01639892
9722.00   0.48192161   0.01645928
9724.00   0.46995836   0.01526934
9726.00   0.46238720   0.01347144
9728.00   0.46140403   0.01245279
9730.00   0.46903473   0.01271267
9732.00   0.48474813   0.01369098
9734.00   0.49784091   0.01474777
9736.00   0.49167526   0.01482158
9738.00   0.48826212   0.01457166
9740.00   0.48993355   0.01433613
9742.00   0.48270369   0.01407767
9744.00   0.47574967   0.01348442
9746.00   0.47418624   0.01312527
9748.00   0.47378117   0.01283906
9750.00   0.47359413   0.01249606
9752.00   0.47714311   0.01214899
9754.00   0.49112350   0.01218644
9756.00   0.47757035   0.01202260
9758.00   0.46309221   0.01187202
9760.00   0.47011948   0.01194008
9762.00   0.48797649   0.01208608
9764.00   0.47778434   0.01186521
9766.00   0.47213715   0.01163590
9768.00   0.47204250   0.01152827
9770.00   0.47180930   0.01156881
9772.00   0.47615525   0.01173857
9774.00   0.48854843   0.01193409
9776.00   0.49530950   0.01207069
9778.00   0.49839285   0.01222829
9780.00   0.50327653   0.01258866
9782.00   0.49139595   0.01323840
9784.00   0.48572969   0.01519243
9786.00   0.48498654   0.01775908
9788.00   0.48935789   0.01998401
9790.00   0.49826616   0.02111596
9792.00   0.49607444   0.02116977
9794.00   0.48511827   0.02023328
9796.00   0.47401166   0.01862563
9798.00   0.47127539   0.01698277
9800.00   0.48214865   0.01624451
9802.00   0.49865571   0.01582121
9804.00   0.50005102   0.01504821
9806.00   0.49210536   0.01431483
9808.00   0.48563117   0.01410072
9810.00   0.48836875   0.01438368
9812.00   0.49380666   0.01446376
9814.00   0.49834764   0.01433903
9816.00   0.49727869   0.01401755
9818.00   0.49070239   0.01359423
9820.00   0.48923469   0.01328442
9822.00   0.50226134   0.01332861
9824.00   0.50159144   0.01329320
9826.00   0.48481697   0.01309019
9828.00   0.46947587   0.01288170
9830.00   0.48590547   0.01293858
9832.00   0.49230045   0.01286449
9834.00   0.49001217   0.01272143
9836.00   0.48576900   0.01261283
9838.00   0.48793209   0.01267319
9840.00   0.49882764   0.01316210
9842.00   0.50058311   0.01415258
9844.00   0.50213939   0.01523498
9846.00   0.50385249   0.01598364
9848.00   0.49373317   0.01607830
9850.00   0.49549314   0.01581932
9852.00   0.50696737   0.01519372
9854.00   0.51724470   0.01431160
9856.00   0.51631790   0.01343063
9858.00   0.50050223   0.01300820
9860.00   0.48179877   0.01291107
9862.00   0.48068604   0.01338668
9864.00   0.48682433   0.01489008
9866.00   0.48324394   0.01739306
9868.00   0.46599805   0.02028469
9870.00   0.48309803   0.02192685
9872.00   0.49769086   0.02240354
9874.00   0.49697948   0.02173473
9876.00   0.48979563   0.01996699
9878.00   0.49251550   0.01694116
9880.00   0.49321553   0.01491362
9882.00   0.48693535   0.01402934
9884.00   0.47861189   0.01397357
9886.00   0.48191243   0.01436593
9888.00   0.49890292   0.01554606
9890.00   0.50204313   0.01683244
9892.00   0.49440110   0.01759299
9894.00   0.48017475   0.01766064
9896.00   0.45972401   0.01731827
9898.00   0.47108418   0.01675715
9900.00   0.47662258   0.01558472
9902.00   0.47529960   0.01446654
9904.00   0.47568232   0.01428090
9906.00   0.48581168   0.01524024
9908.00   0.48761919   0.01786228
9910.00   0.49391949   0.02072902
9912.00   0.49227560   0.02264750
9914.00   0.47791165   0.02312550
9916.00   0.49861738   0.02290791
9918.00   0.48767281   0.02137242
9920.00   0.47308743   0.01867288
9922.00   0.47480720   0.01586792
9924.00   0.49664611   0.01467047
9926.00   0.49642974   0.01443184
9928.00   0.49122697   0.01435293
9930.00   0.49676555   0.01447995
9932.00   0.50799870   0.01499536
9934.00   0.50588679   0.01613469
9936.00   0.49924535   0.01837980
9938.00   0.48722857   0.02120781
9940.00   0.49086395   0.02434380
9942.00   0.50155210   0.02711920
9944.00   0.47836828   0.02864545
9946.00   0.46751308   0.02838438
9948.00   0.48797777   0.02750684
9950.00   0.50580442   0.02659518
9952.00   0.49853772   0.02602557
9954.00   0.48866397   0.02592079
9956.00   0.48633611   0.02673325
9958.00   0.47416228   0.02742936
9960.00   0.46515256   0.02705699
9962.00   0.47201759   0.02522920
9964.00   0.48252976   0.02312221
9966.00   0.47202092   0.02132883
9968.00   0.46884000   0.01991749
9970.00   0.47751701   0.01912058
9972.00   0.48740602   0.01904832
9974.00   0.48596808   0.01897147
9976.00   0.48997968   0.01849355
9978.00   0.48934802   0.01762870
9980.00   0.48028278   0.01667549
9982.00   0.46860969   0.01612124
9984.00   0.47516254   0.01585695
9986.00   0.46731174   0.01554423
9988.00   0.46589017   0.01542966
9990.00   0.47870535   0.01563324
9992.00   0.48630077   0.01595888
9994.00   0.49135149   0.01664928
9996.00   0.49615431   0.01738244
9998.00   0.49265379   0.01786608
10000.00   0.47965413   0.01810868
10002.00   0.47109160   0.01849770
10004.00   0.46681845   0.02006002
10006.00   0.46683714   0.02369983
10008.00   0.46938646   0.02811972
10010.00   0.47196844   0.03169838
10012.00   0.47547185   0.03281696
10014.00   0.44396448   0.03244212
10016.00   0.42729649   0.03049660
10018.00   0.43174312   0.02736861
10020.00   0.44239825   0.02417107
10022.00   0.46034563   0.02385665
10024.00   0.46949276   0.02382498
10026.00   0.47078335   0.02348260
10028.00   0.46501106   0.02252522
10030.00   0.45683771   0.02089794
10032.00   0.48273760   0.01903364
10034.00   0.49262816   0.01811080
10036.00   0.48910141   0.01819510
10038.00   0.48340338   0.01885816
10040.00   0.48532918   0.01957047
10042.00   0.47539020   0.01970455
10044.00   0.48027241   0.01967888
10046.00   0.49189699   0.01942342
10048.00   0.49241424   0.01880774
10050.00   0.46641177   0.01775238
10052.00   0.46701634   0.01798424
10054.00   0.48794168   0.01944267
10056.00   0.49461898   0.02113347
10058.00   0.47246504   0.02225827
10060.00   0.50835228   0.02307990
10062.00   0.50417042   0.02339930
10064.00   0.48045236   0.02300635
10066.00   0.46642864   0.02217889
10068.00   0.48051578   0.02147376
10070.00   0.47765589   0.02111621
10072.00   0.48003909   0.02106602
10074.00   0.45777667   0.02198183
10076.00   0.44216985   0.02438835
10078.00   0.49846333   0.02805538
10080.00   0.52419269   0.03020626
10082.00   0.49439043   0.03076437
10084.00   0.47438732   0.03014697
10086.00   0.48105216   0.02829426
10088.00   0.45427102   0.02431955
10090.00   0.45722142   0.02133628
10092.00   0.46919149   0.01997609
10094.00   0.47347659   0.02002186
10096.00   0.46966505   0.02098700
10098.00   0.49359125   0.02315225
10100.00   0.47624725   0.02466266
10102.00   0.46297491   0.02535955
10104.00   0.45342073   0.02533725
10106.00   0.44095904   0.02474710
10108.00   0.45248002   0.02333177
10110.00   0.47011715   0.02153634
10112.00   0.51002228   0.02159159
10114.00   0.51892114   0.02304167
10116.00   0.43705440   0.02450045
10118.00   0.41091365   0.02821189
10120.00   0.49467850   0.03491676
10122.00   0.53625655   0.03844197
10124.00   0.49589667   0.03800023
10126.00   0.46623403   0.03573410
10128.00   0.50420600   0.03288041
10130.00   0.51394409   0.02846204
10132.00   0.48861584   0.02449584
10134.00   0.46036652   0.02296340
10136.00   0.48438510   0.02307689
10138.00   0.48959011   0.02311829
10140.00   0.48155844   0.02334691
10142.00   0.47084075   0.02389591
10144.00   0.46366140   0.02485070
10146.00   0.45116550   0.02618724
10148.00   0.47830400   0.02827387
10150.00   0.49658960   0.02990859
10152.00   0.49510390   0.03072632
10154.00   0.48388162   0.03079879
10156.00   0.48092121   0.03055265
10158.00   0.47291440   0.02935711
10160.00   0.47461101   0.02836231
10162.00   0.48029652   0.02863493
10164.00   0.47458825   0.03081202
10166.00   0.44915497   0.03513703
10168.00   0.43305707   0.03924657
10170.00   0.43834019   0.04160912
10172.00   0.45645386   0.04203470
10174.00   0.46806890   0.04121001
10176.00   0.50270617   0.03840390
10178.00   0.48617905   0.03411753
10180.00   0.45327279   0.03110735
10182.00   0.43550417   0.03147166
10184.00   0.43414101   0.03410629
10186.00   0.48146456   0.03666767
10188.00   0.51023567   0.03796202
10190.00   0.51028240   0.03801791
10192.00   0.49451566   0.03705192
10194.00   0.48187655   0.03480213
10196.00   0.48088801   0.03259341
10198.00   0.47290182   0.03200744
10200.00   0.47155881   0.03322970
10202.00   0.48912030   0.03567891
10204.00   0.48478967   0.03950459
10206.00   0.50450391   0.04379898
10208.00   0.50778896   0.04607884
10210.00   0.48510027   0.04613051
10212.00   0.46273601   0.04487883
10214.00   0.51059127   0.04260864
10216.00   0.52647173   0.03842103
10218.00   0.52583498   0.03548754
10220.00   0.51713371   0.03581002
10222.00   0.49162954   0.03823329
10224.00   0.49455681   0.04051246
10226.00   0.48166478   0.04215702
10228.00   0.46388540   0.04231519
10230.00   0.45774269   0.04074278
10232.00   0.46797156   0.03803872
10234.00   0.49289805   0.03570744
10236.00   0.50925112   0.03318379
10238.00   0.50287306   0.03094079
10240.00   0.47973758   0.02964782
10242.00   0.48217016   0.02956779
10244.00   0.47308260   0.02942829
10246.00   0.46899033   0.02939803
10248.00   0.46604186   0.02937162
10250.00   0.45451850   0.02927306
10252.00   0.44700664   0.02952034
10254.00   0.43322760   0.02972283
10256.00   0.44060069   0.03030631
10258.00   0.45648757   0.03100506
10260.00   0.44960725   0.03133367
10262.00   0.45404977   0.03206703
10264.00   0.47757816   0.03355930
10266.00   0.50119925   0.03521343
10268.00   0.51046920   0.03657737
10270.00   0.49619579   0.03744603
10272.00   0.47837561   0.03787719
10274.00   0.48458523   0.03824037
10276.00   0.48304623   0.03990705
10278.00   0.46125615   0.04548948
10280.00   0.44755408   0.05706187
10282.00   0.43355945   0.06953774
10284.00   0.41478652   0.07723957
10286.00   0.38512892   0.08073604
10288.00   0.34573168   0.08097662
10290.00   0.32759234   0.07761955
10292.00   0.38238651   0.07017367
10294.00   0.43220031   0.06318234
10296.00   0.45561403   0.05891150
10298.00   0.46896893   0.05683083
10300.00   0.51030666   0.05321414
10302.00   0.48934150   0.04888270
10304.00   0.47221661   0.04629371
10306.00   0.46632141   0.04576304
10308.00   0.44921565   0.04567360
10310.00   0.49716640   0.04617883
10312.00   0.50971872   0.04583088
10314.00   0.46220991   0.04385606
10316.00   0.40906122   0.04127454
10318.00   0.45101172   0.04076857
10320.00   0.43352500   0.04063977
10322.00   0.44953865   0.04112889
10324.00   0.47703189   0.04184546
10326.00   0.48887688   0.04249161
10328.00   0.47786915   0.04299682
10330.00   0.51019359   0.04410318
10332.00   0.50197542   0.04440526
10334.00   0.47767985   0.04457785
10336.00   0.47928578   0.04564309
10338.00   0.51872629   0.04788216
10340.00   0.48743433   0.05079407
10342.00   0.47192872   0.05510721
10344.00   0.47653443   0.05908258
10346.00   0.46889716   0.06099484
10348.00   0.44360685   0.06142168
10350.00   0.44569099   0.06098105
10352.00   0.47733188   0.05903064
10354.00   0.50523645   0.05608454
10356.00   0.48691881   0.05356316
10358.00   0.47679031   0.05285064
10360.00   0.46585226   0.05204156
10362.00   0.48432690   0.05301259
10364.00   0.51184970   0.05800967
10366.00   0.49173194   0.06799438
10368.00   0.46152818   0.08135728
10370.00   0.47660723   0.08987957
10372.00   0.50081766   0.09395209
10374.00   0.51268470   0.09416239
10376.00   0.53544867   0.08989525
10378.00   0.51647389   0.07831496
10380.00   0.46895227   0.06692102
10382.00   0.45696825   0.06055006
10384.00   0.50322080   0.05998470
10386.00   0.51535237   0.05928602
10388.00   0.55336720   0.06213245
10390.00   0.53755099   0.06736155
10392.00   0.48841053   0.07297896
10394.00   0.45967704   0.07712311
10396.00   0.43937415   0.07846872
10398.00   0.47887027   0.07879740
10400.00   0.46444523   0.07605286
10402.00   0.45555085   0.07144351
10404.00   0.57780188   0.06861174
10406.00   0.51609802   0.06687203
10408.00   0.53102547   0.06921650
10410.00   0.54042447   0.07704030
10412.00   0.51428902   0.08980587
10414.00   0.52075487   0.10541447
#10416.00   0.73895246   0.11668764
#10418.00   0.72301745   0.12022415
10420.00   0.62090302   0.11753009
10422.00   0.55040121   0.10916755
10424.00   0.39044017   0.09217850
10426.00   0.48363474   0.08149260
10428.00   0.57338500   0.07646555
10430.00   0.60429406   0.07476549
10432.00   0.58045423   0.07320368
10434.00   0.49022180   0.06987462
10436.00   0.40356219   0.06773416
10438.00   0.45113960   0.06861766
10440.00   0.52136105   0.07064241
10442.00   0.47072646   0.07204504
10444.00   0.48183462   0.07739130
10446.00   0.48426819   0.08359311
10448.00   0.47718799   0.08730899
10450.00   0.46299440   0.08824985
10452.00   0.45729458   0.08793987
10454.00   0.57190198   0.08717772
10456.00   0.57724327   0.08228913
10458.00   0.52370065   0.07803695
10460.00   0.50324547   0.07987238
10462.00   0.58331859   0.08975963
10464.00   0.44515696   0.10068212
10466.00   0.41307852   0.10961266
10468.00   0.44407278   0.11381553
10470.00   0.46043444   0.11275488
10472.00   0.45560664   0.10870422
10474.00   0.44073915   0.09677559
10476.00   0.45134243   0.08581874
10478.00   0.49748975   0.08010589
10480.00   0.54845762   0.07920103
10482.00   0.51749218   0.07780330
10484.00   0.42173213   0.07596387
10486.00   0.38226861   0.07534736
10488.00   0.40495491   0.07574327
10490.00   0.43449920   0.07606418
10492.00   0.45683253   0.07625901
10494.00   0.48516804   0.07756887
10496.00   0.53247541   0.07878801
10498.00   0.54287910   0.07890981
10500.00   0.45212299   0.07794377
10502.00   0.40248922   0.08028206
10504.00   0.41951990   0.08468245
10506.00   0.51893765   0.08985908
10508.00   0.59834409   0.09321128
10510.00   0.47772861   0.09173052
10512.00   0.45350730   0.09072036
10514.00   0.49761385   0.08905357
10516.00   0.53589267   0.08881333
10518.00   0.51607859   0.09176269
10520.00   0.43827015   0.09750116
10522.00   0.43124494   0.10114130
10524.00   0.45302832   0.10314108
10526.00   0.46605933   0.10252964
10528.00   0.47022051   0.09884197
10530.00   0.57357955   0.09387691
10532.00   0.56402469   0.08856615
10534.00   0.49720347   0.08419805
10536.00   0.45146513   0.08197838
10538.00   0.46782494   0.08190967
10540.00   0.40701705   0.08096406
10542.00   0.43915647   0.08248959
10544.00   0.47729570   0.08349263
10546.00   0.45608109   0.08288130
10548.00   0.37942097   0.08179743
10550.00   0.46025091   0.08427223
10552.00   0.52400494   0.08554918
10554.00   0.51216233   0.08547423
10556.00   0.46236008   0.08518291
10558.00   0.48651814   0.08603779
10560.00   0.50135982   0.08644149
10562.00   0.50310123   0.08655743
10564.00   0.49405584   0.08688156
10566.00   0.47230780   0.08796953
10568.00   0.43082377   0.09041952
10570.00   0.48045531   0.09360133
10572.00   0.50904793   0.09521852
10574.00   0.47107071   0.09490947
10576.00   0.39311188   0.09343189
10578.00   0.38836175   0.09163579
10580.00   0.47582817   0.09545384
10582.00   0.52124059   0.10019907
10584.00   0.51676363   0.10287252
10586.00   0.51096690   0.10248444
10588.00   0.49884990   0.10220319
10590.00   0.51382411   0.10048071
10592.00   0.45957160   0.09624710
10594.00   0.40819246   0.09289885
10596.00   0.50727141   0.09570136
10598.00   0.48263156   0.09589406
10600.00   0.53966457   0.09700969
10602.00   0.55666041   0.09768046
10604.00   0.51521957   0.09787248
10606.00   0.54071718   0.09973278
10608.00   0.57631534   0.10029827
10610.00   0.50628674   0.09815077
10612.00   0.47859326   0.10078745
10614.00   0.41136789   0.09833893
10616.00   0.43992734   0.09882875
10618.00   0.46145710   0.10046121
10620.00   0.42354420   0.10024187
10622.00   0.44548339   0.10075811
10624.00   0.57040954   0.10381456
10626.00   0.50303221   0.10492306
10628.00   0.56633049   0.10496670
10630.00   0.52837396   0.10490979
10632.00   0.38932848   0.10353602
10634.00   0.30084291   0.10130034
10636.00   0.53995842   0.10992199
10638.00   0.63115913   0.11676402
10640.00   0.54409188   0.11542571
10642.00   0.40536040   0.10882639
10644.00   0.40797397   0.10673790
10646.00   0.52601391   0.11221739
10648.00   0.63272983   0.11763772
10650.00   0.58280915   0.11794825
