# File created by shivutils (I.Shivvers)
# wl(A)   flm    er(optional)
3630.00   0.81780767   0.12004273
3632.00   0.94933045   0.12126025
3634.00   0.83975381   0.11719672
3636.00   0.75404060   0.11772775
3638.00   0.67896575   0.11582328
3640.00   0.89460623   0.12115821
3642.00   0.88269693   0.12418377
3644.00   0.98157960   0.12597562
3646.00   1.11372221   0.13452198
3648.00   0.71178281   0.16241106
3650.00   0.93415552   0.17834099
3652.00   0.44268194   0.16020766
3654.00   1.02261937   0.14895110
3656.00   0.90597415   0.13696407
3658.00   0.99203748   0.12283637
3660.00   0.96396405   0.12889932
3662.00   0.75097281   0.13713472
3664.00   0.79613978   0.12998269
3666.00   0.96722186   0.11665060
3668.00   0.82027197   0.10805980
3670.00   0.84469271   0.10713973
3672.00   0.94597673   0.10643724
3674.00   0.91533148   0.10565399
3676.00   0.71606338   0.10108789
3678.00   0.85191959   0.09992391
3680.00   1.02760053   0.10378443
3682.00   0.98577523   0.10128796
3684.00   0.83627093   0.09881546
3686.00   0.91040307   0.09781972
3688.00   0.83555657   0.09818657
3690.00   0.77741307   0.09889957
3692.00   0.82177716   0.10040225
3694.00   0.90516204   0.10042235
3696.00   0.94196928   0.09995382
3698.00   1.03767681   0.10371200
3700.00   0.88243407   0.10123777
3702.00   1.00489175   0.10143020
3704.00   0.78591508   0.09857092
3706.00   0.80450135   0.09809944
3708.00   0.80621684   0.09753372
3710.00   0.92136431   0.09794804
3712.00   0.86453402   0.09766179
3714.00   0.86819446   0.09511511
3716.00   0.98956519   0.09712835
3718.00   0.77544767   0.09303324
3720.00   0.91184270   0.09353455
3722.00   0.92602235   0.09227386
3724.00   0.95886856   0.09600192
3726.00   1.09843969   0.10062436
3728.00   1.03951776   0.09992564
3730.00   0.97931457   0.09899556
3732.00   1.03043723   0.09637756
3734.00   1.05300200   0.09662881
3736.00   0.84773487   0.09450451
3738.00   1.10996222   0.09893127
3740.00   0.97071612   0.09821095
3742.00   1.23026764   0.10171325
3744.00   0.93358630   0.09470537
3746.00   0.91138917   0.09130365
3748.00   0.97017562   0.09117796
3750.00   1.20447910   0.10102414
3752.00   1.14736545   0.09967241
3754.00   0.91144383   0.09174549
3756.00   0.81363040   0.08828432
3758.00   1.03496993   0.09101070
3760.00   1.00505424   0.08952549
3762.00   0.95442331   0.08771469
3764.00   1.01535606   0.08803088
3766.00   1.11837292   0.08809069
3768.00   0.97180998   0.08439130
3770.00   0.85022807   0.08396339
3772.00   0.88522530   0.08616430
3774.00   1.07753527   0.08768808
3776.00   0.89464420   0.08435121
3778.00   0.65550983   0.08234254
3780.00   0.74595064   0.08230952
3782.00   0.81709522   0.08248322
3784.00   0.89667726   0.08367269
3786.00   0.62656444   0.07965152
3788.00   0.69922978   0.08082313
3790.00   0.53194255   0.07872390
3792.00   0.69428170   0.08013679
3794.00   0.70183933   0.07881652
3796.00   0.73861212   0.07685118
3798.00   0.57916033   0.07402009
3800.00   0.44944412   0.07511377
3802.00   0.67924893   0.07809932
3804.00   0.68184614   0.07675005
3806.00   0.51172513   0.07385876
3808.00   0.50827128   0.07312059
3810.00   0.42183888   0.07097882
3812.00   0.50506353   0.07476692
3814.00   0.47311354   0.07345378
3816.00   0.65076649   0.07446542
3818.00   0.53439981   0.07180542
3820.00   0.56115597   0.07316875
3822.00   0.58184355   0.07272331
3824.00   0.39769757   0.06888587
3826.00   0.33734629   0.07040402
3828.00   0.63654906   0.07637319
3830.00   0.50978214   0.07647181
3832.00   0.41935766   0.07146820
3834.00   0.37445298   0.07185909
3836.00   0.40184775   0.07159626
3838.00   0.37693670   0.07109655
3840.00   0.41552362   0.07106581
3842.00   0.25201640   0.06895294
3844.00   0.40166980   0.06933195
3846.00   0.47670648   0.06929103
3848.00   0.30039147   0.06656588
3850.00   0.47120312   0.06900943
3852.00   0.42448255   0.06781885
3854.00   0.47687823   0.06819279
3856.00   0.54244101   0.06719953
3858.00   0.38278180   0.06323198
3860.00   0.62899685   0.06710723
3862.00   0.42582557   0.06748948
3864.00   0.56630772   0.06723962
3866.00   0.75374025   0.06856604
3868.00   0.56768042   0.06542843
3870.00   0.50157297   0.06466909
3872.00   0.68625915   0.06921014
3874.00   0.59584141   0.06856901
3876.00   0.47804421   0.06610578
3878.00   0.59455574   0.06602654
3880.00   0.54442424   0.06456341
3882.00   0.67431581   0.06444460
3884.00   0.71548873   0.06489859
3886.00   0.66595930   0.06436934
3888.00   0.77149224   0.06559731
3890.00   0.77957898   0.06689496
3892.00   0.72403806   0.06587767
3894.00   0.79431087   0.06720120
3896.00   0.85402781   0.06873114
3898.00   0.90480047   0.06889699
3900.00   0.85180277   0.06928524
3902.00   0.97730303   0.07202050
3904.00   0.84106535   0.07522485
3906.00   1.08509791   0.08272780
3908.00   1.11196983   0.08650795
3910.00   1.10187960   0.08638211
3912.00   1.22034740   0.08610353
3914.00   1.19080234   0.08223931
3916.00   1.15902650   0.07793596
3918.00   1.18976438   0.07517628
3920.00   1.28078437   0.07475796
3922.00   1.32314277   0.07334879
3924.00   1.39987123   0.07327934
3926.00   1.32290721   0.07191002
3928.00   1.37100232   0.07188769
3930.00   1.40691030   0.07192137
3932.00   1.35128665   0.07293165
3934.00   1.34719324   0.07263714
3936.00   1.41588759   0.07191103
3938.00   1.29857457   0.07126973
3940.00   1.48328865   0.07493602
3942.00   1.59710491   0.07836442
3944.00   1.52575791   0.07822932
3946.00   1.68186045   0.07731982
3948.00   1.52767861   0.07460625
3950.00   1.77258551   0.07514097
3952.00   1.63348711   0.07436032
3954.00   1.67669916   0.07334215
3956.00   1.74723637   0.07415053
3958.00   1.71934044   0.07527966
3960.00   1.80383599   0.07759371
3962.00   1.66779017   0.07564765
3964.00   1.72088182   0.07222185
3966.00   1.59192967   0.06966058
3968.00   1.75057781   0.07118782
3970.00   1.82047880   0.07240640
3972.00   1.65880799   0.07120631
3974.00   1.77415180   0.07265409
3976.00   1.82644570   0.07292179
3978.00   1.76390505   0.07256658
3980.00   1.89502466   0.07383164
3982.00   1.87894297   0.07346950
3984.00   1.94605088   0.07384893
3986.00   1.98212349   0.07463146
3988.00   2.06697083   0.07525983
3990.00   2.03132033   0.07427071
3992.00   2.04322934   0.07439989
3994.00   1.89345992   0.07612761
3996.00   2.00404859   0.07813566
3998.00   1.99283075   0.07694926
4000.00   2.00589824   0.07489455
4002.00   1.93777537   0.07336167
4004.00   1.79567444   0.07280327
4006.00   1.98750079   0.07452664
4008.00   1.97273636   0.07570293
4010.00   2.01302457   0.07696649
4012.00   2.09296727   0.07704200
4014.00   2.20394635   0.07710986
4016.00   2.10021949   0.07724361
4018.00   2.09601855   0.08200122
4020.00   2.27537394   0.08841155
4022.00   2.28809381   0.08947557
4024.00   2.21916032   0.08629361
4026.00   2.10650778   0.08063965
4028.00   2.30435872   0.08001426
4030.00   2.33252382   0.07978411
4032.00   2.21913338   0.07794172
4034.00   2.14257598   0.07651553
4036.00   2.28964233   0.07722452
4038.00   2.26762581   0.07696795
4040.00   2.25879312   0.07769988
4042.00   2.01997972   0.08286358
4044.00   2.31691146   0.11742874
4046.00   2.20682931   0.13089110
4048.00   2.05765676   0.10991509
4050.00   2.22193241   0.08500136
4052.00   2.17061329   0.08023255
4054.00   2.14773059   0.08018745
4056.00   2.15853810   0.07742424
4058.00   2.23659253   0.07561591
4060.00   2.19668937   0.07456773
4062.00   2.13892245   0.07345203
4064.00   2.06681871   0.07343192
4066.00   2.06192303   0.07262722
4068.00   1.95901096   0.07169404
4070.00   2.13291597   0.07280207
4072.00   1.90798426   0.06994974
4074.00   2.01969409   0.07355823
4076.00   2.08851576   0.08035572
4078.00   1.90528214   0.08010727
4080.00   1.89318132   0.07557761
4082.00   1.86190832   0.07457810
4084.00   1.71942604   0.07238250
4086.00   1.66266131   0.07104522
4088.00   1.74379945   0.06879845
4090.00   1.82250881   0.06729435
4092.00   1.84116530   0.06709739
4094.00   1.71197963   0.06568751
4096.00   1.66903651   0.06496637
4098.00   1.57315695   0.06462117
4100.00   1.62657785   0.06451865
4102.00   1.58005476   0.06314544
4104.00   1.67722511   0.06333497
4106.00   1.68780172   0.06414261
4108.00   1.59371126   0.06350781
4110.00   1.77789617   0.06474423
4112.00   1.58708251   0.06312397
4114.00   1.52588582   0.06302121
4116.00   1.61076748   0.06373571
4118.00   1.57976174   0.06204952
4120.00   1.54154050   0.06140140
4122.00   1.66960144   0.06292210
4124.00   1.64240956   0.06320207
4126.00   1.55263245   0.06267888
4128.00   1.58026850   0.06281153
4130.00   1.66054451   0.06457640
4132.00   1.70654750   0.06667575
4134.00   1.54663825   0.06476592
4136.00   1.68798971   0.06405543
4138.00   1.51167953   0.06431983
4140.00   1.61651504   0.06585023
4142.00   1.67815590   0.06384797
4144.00   1.67074680   0.06204181
4146.00   1.63501179   0.06210569
4148.00   1.54745185   0.06209550
4150.00   1.55431581   0.06389233
4152.00   1.54395890   0.06496908
4154.00   1.59280062   0.06401978
4156.00   1.60612679   0.06299659
4158.00   1.54035735   0.06247932
4160.00   1.59928119   0.06291135
4162.00   1.54496109   0.06563909
4164.00   1.61629415   0.06822257
4166.00   1.52418685   0.06576111
4168.00   1.55127203   0.06337193
4170.00   1.46535230   0.06153900
4172.00   1.50418615   0.06101864
4174.00   1.55278766   0.06030649
4176.00   1.59086621   0.06108407
4178.00   1.48236477   0.06083746
4180.00   1.51230252   0.06043889
4182.00   1.44242144   0.05872167
4184.00   1.31875360   0.05802896
4186.00   1.43376124   0.05914304
4188.00   1.35781670   0.05810349
4190.00   1.45690691   0.05916003
4192.00   1.39059508   0.05853907
4194.00   1.37365973   0.05802106
4196.00   1.40294778   0.05690823
4198.00   1.28671062   0.05614305
4200.00   1.32991433   0.05630803
4202.00   1.30845082   0.05665694
4204.00   1.19611847   0.05619498
4206.00   1.33102655   0.05792501
4208.00   1.35480917   0.05880706
4210.00   1.24047136   0.05851291
4212.00   1.27154267   0.05833133
4214.00   1.20929420   0.05682151
4216.00   1.17058241   0.05632881
4218.00   1.28091753   0.05677075
4220.00   1.23516035   0.05653176
4222.00   1.26052368   0.05676131
4224.00   1.25532544   0.05578335
4226.00   1.24183428   0.05610387
4228.00   1.23932636   0.05669707
4230.00   1.31943607   0.05808984
4232.00   1.30064797   0.05837987
4234.00   1.26857519   0.05838254
4236.00   1.32967091   0.05943669
4238.00   1.35527706   0.05889605
4240.00   1.34743083   0.05746322
4242.00   1.25337601   0.05742415
4244.00   1.28919256   0.06295469
4246.00   1.39709532   0.06670984
4248.00   1.47755432   0.06404356
4250.00   1.44896936   0.06015876
4252.00   1.31727862   0.05851940
4254.00   1.31728542   0.05835790
4256.00   1.45509863   0.06003067
4258.00   1.37433374   0.05865417
4260.00   1.43242240   0.05817263
4262.00   1.43473589   0.05833916
4264.00   1.36810267   0.05750826
4266.00   1.37922812   0.05735229
4268.00   1.38877571   0.05788619
4270.00   1.34854841   0.05778339
4272.00   1.50070155   0.05845768
4274.00   1.47966790   0.05909413
4276.00   1.41523242   0.05862829
4278.00   1.46155107   0.05937514
4280.00   1.46158218   0.05953242
4282.00   1.54003346   0.06022490
4284.00   1.54240155   0.05963539
4286.00   1.46482110   0.05905259
4288.00   1.51366448   0.05911168
4290.00   1.49887919   0.05918646
4292.00   1.54299569   0.05960815
4294.00   1.40098310   0.05936136
4296.00   1.56588674   0.05994506
4298.00   1.49171579   0.05893630
4300.00   1.44479144   0.05840013
4302.00   1.44718993   0.05863028
4304.00   1.57729006   0.06016233
4306.00   1.47821307   0.05973212
4308.00   1.27560711   0.05831075
4310.00   1.39804876   0.06051770
4312.00   1.49553263   0.06462795
4314.00   1.47598100   0.06521492
4316.00   1.45270312   0.06336661
4318.00   1.62185645   0.06492504
4320.00   1.50869358   0.06418384
4322.00   1.47225904   0.06385360
4324.00   1.58578241   0.06363560
4326.00   1.49434757   0.06214884
4328.00   1.41938472   0.06075560
4330.00   1.44931614   0.06046838
4332.00   1.46892273   0.06011200
4334.00   1.52687705   0.06081345
4336.00   1.53902137   0.06195145
4338.00   1.42054367   0.06165767
4340.00   1.55247843   0.06318453
4342.00   1.43323100   0.06281826
4344.00   1.43989289   0.06414252
4346.00   1.58579361   0.06628282
4348.00   1.56165063   0.06634317
4350.00   1.52694857   0.06499089
4352.00   1.56413794   0.06457569
4354.00   1.64723051   0.08246300
4356.00   1.72101343   0.12071396
4358.00   1.64323270   0.13135129
4360.00   1.51525521   0.10562245
4362.00   1.59526837   0.08054680
4364.00   1.49909520   0.06819231
4366.00   1.63657427   0.06664261
4368.00   1.65437400   0.06647144
4370.00   1.69589698   0.06684412
4372.00   1.61057854   0.06755527
4374.00   1.74543166   0.06824049
4376.00   1.63171518   0.06588585
4378.00   1.83727551   0.06617728
4380.00   1.56732047   0.06392388
4382.00   1.65843356   0.06345882
4384.00   1.54370046   0.06270032
4386.00   1.75611281   0.06388029
4388.00   1.71798527   0.06380383
4390.00   1.67198968   0.06391391
4392.00   1.58398569   0.06326382
4394.00   1.70766962   0.06356429
4396.00   1.63147187   0.06331130
4398.00   1.67139113   0.06531424
4400.00   1.71513712   0.06586803
4402.00   1.66677046   0.06469953
4404.00   1.59879923   0.06366545
4406.00   1.66047442   0.06445352
4408.00   1.71014774   0.06440837
4410.00   1.64430082   0.06440881
4412.00   1.64589274   0.06505790
4414.00   1.49478424   0.06483016
4416.00   1.37538183   0.06400880
4418.00   1.53473270   0.06401074
4420.00   1.48765600   0.06357414
4422.00   1.44486988   0.06290036
4424.00   1.47545874   0.06283973
4426.00   1.39468408   0.06270291
4428.00   1.36212599   0.06244636
4430.00   1.37496483   0.06195096
4432.00   1.44258082   0.06293944
4434.00   1.45403540   0.06251197
4436.00   1.46504569   0.06253995
4438.00   1.38623631   0.06192503
4440.00   1.22298217   0.06114914
4442.00   1.16860998   0.06118854
4444.00   1.31364107   0.06169842
4446.00   1.32871354   0.06138384
4448.00   1.48711717   0.06191775
4450.00   1.31744277   0.06110533
4452.00   1.37216461   0.06102770
4454.00   1.19292641   0.06043231
4456.00   1.29869914   0.06058717
4458.00   1.26196158   0.06030915
4460.00   1.22141767   0.05980251
4462.00   1.22201741   0.06024183
4464.00   1.23337638   0.06001092
4466.00   1.05056846   0.05909738
4468.00   1.11555088   0.05923903
4470.00   1.10145783   0.05887671
4472.00   1.05104530   0.05872323
4474.00   1.08956695   0.05879825
4476.00   1.11420715   0.05928513
4478.00   1.17512488   0.05881961
4480.00   1.06444049   0.05853876
4482.00   1.11080980   0.05866996
4484.00   1.11831343   0.05877476
4486.00   1.12940240   0.05870748
4488.00   0.98328620   0.05773556
4490.00   0.98742270   0.05825976
4492.00   0.96172607   0.05819793
4494.00   0.96594161   0.05831785
4496.00   1.01594090   0.05868778
4498.00   0.97095817   0.05812870
4500.00   1.16863227   0.05874263
4502.00   1.08373964   0.05823205
4504.00   1.00341880   0.05747867
4506.00   1.09702551   0.05762113
4508.00   1.09902787   0.05751002
4510.00   1.14534962   0.05776998
4512.00   1.07777858   0.05735544
4514.00   1.10950243   0.05750998
4516.00   1.04658127   0.05638984
4518.00   1.11561513   0.05660903
4520.00   1.11508369   0.05679283
4522.00   1.10749578   0.05644134
4524.00   1.09586048   0.05604861
4526.00   1.17817235   0.05587958
4528.00   1.12170434   0.05569186
4530.00   1.00641680   0.05529730
4532.00   1.04173219   0.05514804
4534.00   0.99022168   0.05499023
4536.00   1.04020345   0.05443537
4538.00   1.12480021   0.05488623
4540.00   1.08593297   0.05498612
4542.00   1.26788235   0.05600703
4544.00   1.17366254   0.05573657
4546.00   1.07158756   0.05451195
4548.00   1.16942501   0.05419572
4550.00   1.25624025   0.05468739
4552.00   1.21142399   0.05407279
4554.00   1.18121135   0.05383570
4556.00   1.22298670   0.05474277
4558.00   1.16499150   0.05425062
4560.00   1.18669653   0.05380828
4562.00   1.27951574   0.05388181
4564.00   1.31703246   0.05353369
4566.00   1.34263313   0.05369255
4568.00   1.43967462   0.05408414
4570.00   1.39706278   0.05403969
4572.00   1.33831024   0.05376455
4574.00   1.36354220   0.05378867
4576.00   1.36911106   0.05325427
4578.00   1.35674024   0.05281473
4580.00   1.40237761   0.05279478
4582.00   1.47274005   0.05235038
4584.00   1.41414571   0.05246286
4586.00   1.51058888   0.05300320
4588.00   1.54628122   0.05295936
4590.00   1.59586287   0.05313675
4592.00   1.50788319   0.05315815
4594.00   1.52303767   0.05304392
4596.00   1.56755805   0.05297980
4598.00   1.68871593   0.05318213
4600.00   1.63995051   0.05267648
4602.00   1.71592283   0.05313948
4604.00   1.82255149   0.05395965
4606.00   1.83216465   0.05373770
4608.00   1.87590456   0.05432282
4610.00   1.92112970   0.05461440
4612.00   1.90599060   0.05408690
4614.00   2.11971998   0.05512449
4616.00   2.06342149   0.05420569
4618.00   2.06421375   0.05462269
4620.00   2.12264252   0.05487575
4622.00   2.14601636   0.05501020
4624.00   2.28860140   0.05574256
4626.00   2.26994801   0.05548741
4628.00   2.32426620   0.05557817
4630.00   2.42219567   0.05629228
4632.00   2.45073843   0.05638184
4634.00   2.57929206   0.05719894
4636.00   2.66108537   0.05719146
4638.00   2.66036725   0.05732441
4640.00   2.59339905   0.05698745
4642.00   2.76016545   0.05801779
4644.00   2.71242213   0.05756256
4646.00   2.74056506   0.05768720
4648.00   2.76493979   0.05771507
4650.00   2.76065898   0.05816398
4652.00   2.85980129   0.05884684
4654.00   2.97834015   0.05913210
4656.00   2.92660809   0.05915121
4658.00   2.90606523   0.05970055
4660.00   2.95848203   0.06258692
4662.00   3.13205981   0.06336499
4664.00   2.94836783   0.06070368
4666.00   3.07488179   0.06196722
4668.00   2.97662640   0.06172640
4670.00   2.95322943   0.06153917
4672.00   3.04823685   0.06148741
4674.00   3.08242917   0.06126844
4676.00   3.18406796   0.06117817
4678.00   3.07814908   0.06025578
4680.00   3.07402658   0.06012548
4682.00   3.16111851   0.06058811
4684.00   3.26371813   0.06047278
4686.00   3.16332746   0.05985569
4688.00   3.19138265   0.05970043
4690.00   3.14227271   0.05955913
4692.00   3.35342264   0.06039496
4694.00   3.24412847   0.05976589
4696.00   3.20717740   0.05956417
4698.00   3.19913864   0.05884990
4700.00   3.23266006   0.05923320
4702.00   3.20918489   0.05927739
4704.00   3.20886779   0.05961278
4706.00   3.36982298   0.06041078
4708.00   3.29734755   0.06035066
4710.00   3.18932056   0.05996678
4712.00   3.21788788   0.05966834
4714.00   3.21040964   0.05929806
4716.00   3.21691108   0.05940368
4718.00   3.24874043   0.05933790
4720.00   3.21310115   0.05912014
4722.00   3.26997137   0.05949305
4724.00   3.06464076   0.06210456
4726.00   3.02740359   0.06494849
4728.00   3.16932273   0.06078030
4730.00   2.98385954   0.06019531
4732.00   2.99690413   0.06045495
4734.00   2.94064736   0.06062641
4736.00   3.00056529   0.06104324
4738.00   2.71921873   0.06071727
4740.00   2.74525404   0.06182719
4742.00   2.74673176   0.06183768
4744.00   2.81737304   0.06049965
4746.00   2.86176229   0.05852163
4748.00   2.74662352   0.05686476
4750.00   2.56230378   0.05598062
4752.00   2.56931829   0.05564832
4754.00   2.56413913   0.05502788
4756.00   2.46578431   0.05396829
4758.00   2.48707104   0.05332495
4760.00   2.38794374   0.05250371
4762.00   2.31560802   0.05174239
4764.00   2.35262966   0.05154341
4766.00   2.26028943   0.05087134
4768.00   2.25344634   0.05087351
4770.00   2.12055087   0.04995100
4772.00   2.11780739   0.04970436
4774.00   2.01758003   0.04914191
4776.00   1.99140346   0.04973510
4778.00   2.00629640   0.05022882
4780.00   1.88621712   0.04932267
4782.00   1.87778616   0.04849662
4784.00   1.76131129   0.04711745
4786.00   1.75326979   0.04685170
4788.00   1.59866774   0.04624394
4790.00   1.66334248   0.04710003
4792.00   1.62936068   0.04633903
4794.00   1.61164808   0.04605895
4796.00   1.55911148   0.04556388
4798.00   1.63975811   0.04578413
4800.00   1.60119736   0.04529412
4802.00   1.60037684   0.04553036
4804.00   1.60541272   0.04577057
4806.00   1.62614083   0.04564597
4808.00   1.52398360   0.04528897
4810.00   1.43750370   0.04457141
4812.00   1.50670826   0.04512436
4814.00   1.57887089   0.04578025
4816.00   1.52844775   0.04535886
4818.00   1.42878020   0.04472090
4820.00   1.43630755   0.04547054
4822.00   1.43094563   0.04545367
4824.00   1.48485076   0.04599385
4826.00   1.42108083   0.04556977
4828.00   1.52043021   0.04614770
4830.00   1.44048047   0.04583037
4832.00   1.42345417   0.04590689
4834.00   1.49144721   0.04599705
4836.00   1.42627442   0.04626387
4838.00   1.47265112   0.04727054
4840.00   1.54993308   0.04712684
4842.00   1.46089280   0.04638446
4844.00   1.61519861   0.04711078
4846.00   1.57096362   0.04700410
4848.00   1.56250966   0.04727083
4850.00   1.55945766   0.04677255
4852.00   1.56746411   0.04659052
4854.00   1.66045785   0.04688615
4856.00   1.62718248   0.04656746
4858.00   1.68476796   0.04725760
4860.00   1.66903710   0.04759012
4862.00   1.79815352   0.04827545
4864.00   1.76915348   0.04836101
4866.00   1.64513636   0.04711022
4868.00   1.72752786   0.04742818
4870.00   1.74605823   0.04760778
4872.00   1.78439939   0.04761899
4874.00   1.78656662   0.04752290
4876.00   1.82503653   0.04831681
4878.00   1.85766470   0.04897840
4880.00   1.93505931   0.04898909
4882.00   1.92874289   0.04893344
4884.00   2.00342464   0.04873561
4886.00   1.97868145   0.04856192
4888.00   2.05805421   0.04900341
4890.00   1.99504781   0.04873946
4892.00   2.06093788   0.04945360
4894.00   2.06937003   0.04941415
4896.00   2.13739967   0.04972185
4898.00   2.19382167   0.05006203
4900.00   2.21953034   0.05001027
4902.00   2.30639267   0.05032048
4904.00   2.18186021   0.04992533
4906.00   2.13366580   0.04965992
4908.00   2.23887849   0.05060290
4910.00   2.12144399   0.04969810
4912.00   2.21826911   0.05024144
4914.00   2.19435906   0.05018994
4916.00   2.17372966   0.05018640
4918.00   2.18199515   0.05015133
4920.00   2.19865108   0.05004038
4922.00   2.22473550   0.05005674
4924.00   2.17987370   0.04964929
4926.00   2.18237257   0.04947582
4928.00   2.19646525   0.04920353
4930.00   2.19722009   0.04926658
4932.00   2.23588800   0.04969109
4934.00   2.26071930   0.04991145
4936.00   2.20592928   0.04977809
4938.00   2.26024437   0.05015755
4940.00   2.17944765   0.04959691
4942.00   2.14300132   0.04943661
4944.00   2.19142747   0.04972618
4946.00   2.20902634   0.04929638
4948.00   2.21948075   0.04969231
4950.00   2.15800023   0.04977503
4952.00   2.25136495   0.05045242
4954.00   2.33473992   0.05068951
4956.00   2.33676648   0.05041519
4958.00   2.32480383   0.05034943
4960.00   2.40119338   0.05075927
4962.00   2.38218832   0.05096509
4964.00   2.23370123   0.04999601
4966.00   2.28875899   0.05089493
4968.00   2.39971137   0.05169735
4970.00   2.33026099   0.05218846
4972.00   2.42824268   0.05354221
4974.00   2.50488424   0.05506824
4976.00   2.51035190   0.05613295
4978.00   2.55054951   0.05763758
4980.00   2.51088166   0.05897848
4982.00   2.57598257   0.05968318
4984.00   2.40430236   0.05869320
4986.00   2.55516696   0.05848122
4988.00   2.65920854   0.05762735
4990.00   2.74166560   0.05709404
4992.00   2.87220287   0.05710560
4994.00   2.98387814   0.05661641
4996.00   2.83817649   0.05518545
4998.00   2.95803642   0.05529733
5000.00   3.09227824   0.05573490
5002.00   3.01339269   0.05507889
5004.00   3.11676311   0.05538366
5006.00   3.12002683   0.05533013
5008.00   3.12166214   0.05549397
5010.00   3.31227922   0.05581958
5012.00   3.15507245   0.05517576
5014.00   3.38627911   0.05620063
5016.00   3.29257941   0.05609166
5018.00   3.26480937   0.05635073
5020.00   3.40099525   0.05690967
5022.00   3.33378839   0.05614955
5024.00   3.28881025   0.05595727
5026.00   3.29215288   0.05623671
5028.00   3.32332492   0.05639264
5030.00   3.40954232   0.05735090
5032.00   3.32895160   0.05644531
5034.00   3.34385943   0.05635359
5036.00   3.34751797   0.05618382
5038.00   3.32992649   0.05569424
5040.00   3.17078400   0.05492079
5042.00   3.28852534   0.05552628
5044.00   3.29386330   0.05573797
5046.00   3.24448752   0.05517012
5048.00   3.16184831   0.05510324
5050.00   3.14488339   0.05450981
5052.00   3.06693792   0.05421590
5054.00   3.01515532   0.05407427
5056.00   2.89703655   0.05365611
5058.00   2.92124748   0.05340038
5060.00   2.87662172   0.05365695
5062.00   2.67011786   0.05297465
5064.00   2.65300512   0.05352803
5066.00   2.63212085   0.05390330
5068.00   2.68531036   0.05486931
5070.00   2.63383508   0.05410307
5072.00   2.48920965   0.05290043
5074.00   2.57902026   0.05300289
5076.00   2.55181742   0.05274188
5078.00   2.50641274   0.05400850
5080.00   2.44004726   0.05637587
5082.00   2.31332135   0.05804330
5084.00   2.30904508   0.05908131
5086.00   2.36533499   0.05856484
5088.00   2.31109142   0.05623391
5090.00   2.25448966   0.05363076
5092.00   2.17165089   0.05147298
5094.00   2.12717724   0.05090660
5096.00   2.15939975   0.05194703
5098.00   2.10593057   0.05187753
5100.00   1.98511600   0.05072749
5102.00   2.08850551   0.05018223
5104.00   1.98118424   0.04834441
5106.00   2.00644803   0.04819716
5108.00   1.94757342   0.04786117
5110.00   1.92375743   0.04812072
5112.00   1.92039752   0.04804049
5114.00   1.85002172   0.04790640
5116.00   1.73440480   0.04709528
5118.00   1.78630972   0.04710535
5120.00   1.79067016   0.04662589
5122.00   1.68588126   0.04592798
5124.00   1.71657288   0.04566991
5126.00   1.66386294   0.04516566
5128.00   1.62236023   0.04506999
5130.00   1.73371434   0.04557361
5132.00   1.56658828   0.04534178
5134.00   1.65624845   0.04561644
5136.00   1.63088989   0.04513944
5138.00   1.60243416   0.04496907
5140.00   1.52097845   0.04451698
5142.00   1.57015800   0.04487364
5144.00   1.55806983   0.04515506
5146.00   1.52123439   0.04561188
5148.00   1.51995623   0.04614564
5150.00   1.62047350   0.04753261
5152.00   1.56893599   0.04773656
5154.00   1.59098721   0.04770258
5156.00   1.49737680   0.04673226
5158.00   1.59033310   0.04649726
5160.00   1.56868923   0.04562963
5162.00   1.49301016   0.04492909
5164.00   1.57768726   0.04466766
5166.00   1.57482791   0.04448806
5168.00   1.51901019   0.04412767
5170.00   1.49104178   0.04387848
5172.00   1.55185974   0.04421338
5174.00   1.56342375   0.04418429
5176.00   1.40423274   0.04406416
5178.00   1.51532471   0.04427391
5180.00   1.56158423   0.04434242
5182.00   1.47446048   0.04387841
5184.00   1.44812071   0.04398568
5186.00   1.52913725   0.04452492
5188.00   1.57229948   0.04480768
5190.00   1.53631759   0.04420451
5192.00   1.61368716   0.04502541
5194.00   1.52251709   0.04468736
5196.00   1.53511918   0.04531075
5198.00   1.59037626   0.04591759
5200.00   1.50673819   0.04505205
5202.00   1.58576941   0.04523467
5204.00   1.49374473   0.04461196
5206.00   1.50146735   0.04480163
5208.00   1.48457277   0.04527247
5210.00   1.57654703   0.04567474
5212.00   1.44387126   0.04470100
5214.00   1.56455028   0.04520767
5216.00   1.46279550   0.04498420
5218.00   1.58290112   0.04567463
5220.00   1.57874072   0.04549764
5222.00   1.54330933   0.04520329
5224.00   1.51514995   0.04467307
5226.00   1.48824894   0.04444604
5228.00   1.48709846   0.04455575
5230.00   1.47558427   0.04437194
5232.00   1.56277645   0.04482045
5234.00   1.57859480   0.04496475
5236.00   1.60464132   0.04551966
5238.00   1.51498318   0.04504094
5240.00   1.58807385   0.04499254
5242.00   1.66365337   0.04542244
5244.00   1.61373901   0.04503715
5246.00   1.58220899   0.04484878
5248.00   1.60045230   0.04476035
5250.00   1.58528411   0.04483245
5252.00   1.63416171   0.04505166
5254.00   1.55910492   0.04513795
5256.00   1.57477331   0.04556978
5258.00   1.63741279   0.04582568
5260.00   1.67570114   0.04594275
5262.00   1.74197495   0.04569537
5264.00   1.66932380   0.04525011
5266.00   1.65479267   0.04460701
5268.00   1.68869936   0.04481629
5270.00   1.70236385   0.04523860
5272.00   1.70436287   0.04533786
5274.00   1.64528060   0.04530817
5276.00   1.73004901   0.04582761
5278.00   1.76548100   0.04581621
5280.00   1.76219296   0.04581296
5282.00   1.74638748   0.04606739
5284.00   1.87683725   0.04688249
5286.00   1.83392286   0.04677278
5288.00   1.82940269   0.04640396
5290.00   1.96193147   0.04698237
5292.00   1.82335794   0.04633511
5294.00   1.90785599   0.04709508
5296.00   1.98235250   0.04724134
5298.00   2.00864911   0.04767456
5300.00   1.98176491   0.04719141
5302.00   2.01805663   0.04777233
5304.00   1.98984265   0.04771901
5306.00   2.12707615   0.04830138
5308.00   2.02271128   0.04794498
5310.00   2.16554451   0.04851690
5312.00   2.15872979   0.04859599
5314.00   2.17858529   0.04871288
5316.00   2.26940513   0.04897445
5318.00   2.27792478   0.04924229
5320.00   2.30944610   0.04933210
5322.00   2.20546389   0.04896285
5324.00   2.21780300   0.04885767
5326.00   2.32531857   0.04962402
5328.00   2.35098648   0.04978473
5330.00   2.25468874   0.04925330
5332.00   2.21019435   0.04920218
5334.00   2.32455540   0.04965422
5336.00   2.37927604   0.05020162
5338.00   2.33911586   0.05026633
5340.00   2.42578387   0.05122165
5342.00   2.49162793   0.05124143
5344.00   2.51866865   0.05152700
5346.00   2.47298574   0.05211101
5348.00   2.58799076   0.05294902
5350.00   2.60354447   0.05279414
5352.00   2.62330556   0.05339254
5354.00   2.66829252   0.05392828
5356.00   2.64327264   0.05355960
5358.00   2.66037154   0.05301543
5360.00   2.63611889   0.05269386
5362.00   2.64002061   0.05227845
5364.00   2.70446301   0.05245573
5366.00   2.66709709   0.05208800
5368.00   2.78377771   0.05270691
5370.00   2.76865172   0.05282161
5372.00   2.77836370   0.05326064
5374.00   2.79717469   0.05412139
5376.00   2.92897654   0.05475998
5378.00   2.93835473   0.05471199
5380.00   2.94754028   0.05459181
5382.00   2.92010140   0.05455385
5384.00   2.93534946   0.05480245
5386.00   2.91196370   0.05477194
5388.00   3.01086903   0.05592582
5390.00   2.99872112   0.05656824
5392.00   2.96833038   0.05634006
5394.00   3.03872275   0.05662492
5396.00   2.97411108   0.05651435
5398.00   2.86306667   0.05628193
5400.00   2.93890214   0.05669419
5402.00   2.98401713   0.05708079
5404.00   2.92753577   0.05716515
5406.00   2.95582032   0.05740551
5408.00   2.89678717   0.05785647
5410.00   2.90790081   0.05882410
5412.00   2.87604976   0.05960082
5414.00   2.88981557   0.06028934
5416.00   2.92329860   0.06119547
5418.00   2.85552716   0.06121903
5420.00   2.87417245   0.06142467
5422.00   2.77114272   0.06153432
5424.00   2.77021956   0.06139980
5426.00   2.84080911   0.06159961
5428.00   2.74337435   0.06124642
5430.00   2.74534011   0.06166022
5432.00   2.77453613   0.06183366
5434.00   2.81218123   0.06240141
5436.00   2.77605629   0.06264833
5438.00   2.63811350   0.06257319
5440.00   2.73597670   0.06321956
5442.00   2.71777344   0.06372385
5444.00   2.72254968   0.06447523
5446.00   2.70957661   0.06484383
5448.00   2.62046766   0.06457462
5450.00   2.60179377   0.06504592
5452.00   2.73761582   0.06554421
5454.00   2.56299829   0.06604879
5456.00   2.71673632   0.07738869
5458.00   2.79527640   0.09056348
5460.00   2.68036532   0.09392975
5462.00   2.61977363   0.08849910
5464.00   2.78528047   0.08336754
5466.00   2.71562648   0.07815856
5468.00   2.74780011   0.07444264
5470.00   2.71410966   0.07109913
5472.00   2.78139973   0.06918081
5474.00   2.84999800   0.06852552
5476.00   2.82688022   0.06831189
5478.00   2.88294268   0.06898005
5480.00   2.84404469   0.06998651
5482.00   3.10559773   0.07185437
5484.00   3.09031987   0.07119263
5486.00   2.95196342   0.07016487
5488.00   3.20900154   0.07063058
5490.00   3.02553177   0.06941841
5492.00   3.24601054   0.07025266
5494.00   3.28531837   0.07002388
5496.00   3.37023687   0.07061405
5498.00   3.43694735   0.07088945
5500.00   3.28411031   0.06984245
5502.00   3.36064816   0.07020347
5504.00   3.53198147   0.07111712
5506.00   3.59233165   0.07154792
5508.00   3.62706065   0.07149744
5510.00   3.73016715   0.07266586
5512.00   3.75989866   0.07369475
5514.00   3.74634647   0.07366697
5516.00   3.90163875   0.07508678
5518.00   3.92932940   0.07551318
5520.00   4.00374556   0.07575522
5522.00   4.10359335   0.07623973
5524.00   4.13521433   0.07599916
5526.00   4.28779316   0.07649069
5528.00   4.31133175   0.07620133
5530.00   4.44202757   0.07681617
5532.00   4.53931761   0.07734170
5534.00   4.56685638   0.07739149
5536.00   4.58595991   0.07768469
5538.00   4.63702059   0.07803382
5540.00   4.65262270   0.07843106
5542.00   4.66118431   0.07880827
5544.00   4.76948404   0.07922878
5546.00   4.90449953   0.08029211
5548.00   5.04820013   0.08087630
5550.00   4.90396929   0.08078389
5552.00   4.88029861   0.08090743
5554.00   5.07994509   0.08156949
5556.00   5.25561571   0.08285200
5558.00   5.28688145   0.08371361
5560.00   5.27964306   0.08399903
5562.00   5.29837608   0.08424920
5564.00   5.29027891   0.08463719
5566.00   5.43197250   0.08570994
5568.00   5.51474142   0.15178591
5570.00   5.61558485   0.15426484
5572.00   5.80680609   0.15812655
5574.00   5.74581528   0.16350585
5576.00   5.69748116   0.16807109
5578.00   5.74533701   0.16757613
5580.00   5.82233620   0.16329278
5582.00   5.81709719   0.15508468
5584.00   5.88455915   0.14501564
5586.00   5.93710184   0.13413768
5588.00   5.85350657   0.12704313
5590.00   5.85574579   0.12639476
5592.00   5.90176249   0.12772577
5594.00   5.78685904   0.12276214
5596.00   5.88586283   0.12262753
5598.00   5.81102133   0.12301656
5600.00   5.73436975   0.12212687
5602.00   5.78970718   0.11974744
5604.00   5.90413237   0.11945131
5606.00   5.91893387   0.11898631
5608.00   5.87728548   0.11795811
5610.00   5.89573240   0.11731621
5612.00   5.85171652   0.11659963
5614.00   5.85368204   0.11596595
5616.00   5.88268995   0.11552582
5618.00   5.89698839   0.11483750
5620.00   5.85883188   0.11427440
5622.00   5.89867353   0.11388850
5624.00   5.91576242   0.11314627
5626.00   5.91901541   0.11264858
5628.00   5.90673447   0.11216239
5630.00   5.87284994   0.11139744
5632.00   5.91139555   0.11105327
5634.00   5.83078909   0.10998481
5636.00   5.79866791   0.10921057
5638.00   5.74282455   0.10840985
5640.00   5.78352356   0.10846362
5642.00   5.78754234   0.10820943
5644.00   5.65720892   0.10691923
5646.00   5.64314270   0.10608640
5648.00   5.58592606   0.10537655
5650.00   5.46177292   0.10446867
5652.00   5.49087524   0.10434175
5654.00   5.49781656   0.10404069
5656.00   5.48209572   0.10375252
5658.00   5.38533640   0.10304614
5660.00   5.32865810   0.10245084
5662.00   5.22721243   0.10196686
5664.00   5.19719553   0.10197606
5666.00   5.19109869   0.10224134
5668.00   5.18370056   0.10269143
5670.00   5.16263533   0.10295346
5672.00   5.20132685   0.10356332
5674.00   5.21926928   0.10485459
5676.00   5.20562458   0.10681602
5678.00   5.19182205   0.10703156
5680.00   5.15858126   0.10740054
5682.00   5.15898323   0.10858816
5684.00   5.12391710   0.10985669
5686.00   5.10696363   0.11199427
5688.00   5.11961365   0.11399367
5690.00   5.21533442   0.11111490
5692.00   5.18244028   0.10821646
5694.00   5.26368904   0.10574862
5696.00   5.24512768   0.10302911
5698.00   5.20559502   0.10038226
5700.00   5.18660545   0.09838533
5702.00   5.15763283   0.09694841
5704.00   5.12378883   0.09570515
5706.00   5.10473919   0.09474427
5708.00   5.06303787   0.09384048
5710.00   5.03063917   0.09324360
5712.00   4.98191833   0.09283540
5714.00   4.94580126   0.09226344
5716.00   4.95169640   0.09179121
5718.00   4.92540026   0.09092131
5720.00   4.83324814   0.08961766
5722.00   4.75546980   0.08848968
5724.00   4.76313591   0.08812654
5726.00   4.73673773   0.08751646
5728.00   4.64208603   0.08641967
5730.00   4.59242010   0.08550129
5732.00   4.53266001   0.08461880
5734.00   4.42035198   0.08372390
5736.00   4.36636162   0.08334699
5738.00   4.36007547   0.08302402
5740.00   4.31029701   0.08249732
5742.00   4.27904463   0.08211014
5744.00   4.23781157   0.08168265
5746.00   4.16043949   0.08124989
5748.00   4.08779573   0.08047488
5750.00   4.04914904   0.08025966
5752.00   4.00184727   0.07995275
5754.00   3.90468621   0.07926812
5756.00   3.84603143   0.07915554
5758.00   3.80749393   0.07947638
5760.00   3.85691094   0.08022168
5762.00   3.84054637   0.08092074
5764.00   3.77335072   0.08179963
5766.00   3.65214825   0.08251087
5768.00   3.63606381   0.08333451
5770.00   3.57417583   0.08282027
5772.00   3.49433637   0.08151301
5774.00   3.46623826   0.07996461
5776.00   3.47694278   0.07852483
5778.00   3.37092876   0.07667623
5780.00   3.29659963   0.07566544
5782.00   3.29793429   0.07587043
5784.00   3.27928162   0.07655423
5786.00   3.25828552   0.07796279
5788.00   3.29163647   0.07942256
5790.00   3.32895684   0.08021999
5792.00   3.27701283   0.07996190
5794.00   3.19813037   0.07854348
5796.00   3.21300006   0.07713246
5798.00   3.22119021   0.07555179
5800.00   3.18596244   0.07407144
5802.00   3.15315509   0.07313695
5804.00   3.14511800   0.07284767
5806.00   3.17896199   0.07302037
5808.00   3.23855042   0.07328513
5810.00   3.29303074   0.07341997
5812.00   3.30699158   0.07339504
5814.00   3.26008153   0.07311460
5816.00   3.23512101   0.07308749
5818.00   3.25283933   0.07330913
5820.00   3.33386493   0.07377705
5822.00   3.32467175   0.07386411
5824.00   3.35147214   0.07410502
5826.00   3.34766388   0.07421177
5828.00   3.33069682   0.07437720
5830.00   3.36440110   0.07480910
5832.00   3.43328595   0.07518225
5834.00   3.50384068   0.07561053
5836.00   3.48821092   0.07576650
5838.00   3.47178078   0.07574125
5840.00   3.52979755   0.07617114
5842.00   3.57025838   0.07660937
5844.00   3.59838796   0.07692249
5846.00   3.63742828   0.07730239
5848.00   3.65447736   0.07755823
5850.00   3.63108659   0.07768308
5852.00   3.64054418   0.07803018
5854.00   3.67033505   0.07830334
5856.00   3.74243808   0.07885011
5858.00   3.80392528   0.07948995
5860.00   3.83724499   0.07993948
5862.00   3.83692336   0.08033675
5864.00   3.83216119   0.08079795
5866.00   3.83164406   0.08122727
5868.00   3.89788318   0.08186194
5870.00   3.92947316   0.08200654
5872.00   3.91496921   0.08204494
5874.00   3.92985177   0.08208044
5876.00   4.01056337   0.08285508
5878.00   4.04840708   0.08445928
5880.00   4.03240967   0.08750882
5882.00   3.97605133   0.09326976
5884.00   3.91500497   0.10314522
5886.00   3.90456891   0.11552706
5888.00   3.92082143   0.12699531
5890.00   3.89463162   0.13467850
5892.00   3.87267137   0.13949418
5894.00   3.86204720   0.13945286
5896.00   3.89293885   0.13319413
5898.00   3.89467883   0.12202934
5900.00   3.90572739   0.11062926
5902.00   3.95639014   0.10006809
5904.00   3.99007440   0.09007284
5906.00   4.00513792   0.08346432
5908.00   4.05298662   0.08187819
5910.00   4.10022736   0.08243605
5912.00   4.08046103   0.08277658
5914.00   4.08982468   0.08308246
5916.00   4.11361313   0.08308441
5918.00   4.11439753   0.08303268
5920.00   4.14339876   0.08321535
5922.00   4.06370068   0.08273606
5924.00   4.05657291   0.08264409
5926.00   4.14118433   0.08310694
5928.00   4.14808989   0.08307911
5930.00   4.09451056   0.08295774
5932.00   4.13167953   0.08325962
5934.00   4.11542702   0.08310547
5936.00   4.07400370   0.08245683
5938.00   4.09532118   0.08202899
5940.00   4.09186649   0.08153322
5942.00   4.10934687   0.08133467
5944.00   4.07121134   0.08096323
5946.00   4.06630325   0.08082398
5948.00   4.07355165   0.08073810
5950.00   4.06286049   0.08060491
5952.00   4.03884172   0.08033041
5954.00   4.05718517   0.08030788
5956.00   4.08893633   0.08010546
5958.00   4.07015371   0.07960653
5960.00   4.01676226   0.07912473
5962.00   3.96318889   0.07854503
5964.00   3.93191552   0.07813440
5966.00   3.96317935   0.07820649
5968.00   3.99890113   0.07832876
5970.00   3.96349907   0.07806853
5972.00   3.91488242   0.07771784
5974.00   3.92226434   0.07765312
5976.00   3.88506889   0.07729951
5978.00   3.83863139   0.07680127
5980.00   3.83542156   0.07652929
5982.00   3.87378526   0.07651603
5984.00   3.87325072   0.07635836
5986.00   3.85979962   0.07612441
5988.00   3.86581731   0.07605809
5990.00   3.83790088   0.07590637
5992.00   3.81909084   0.07583684
5994.00   3.80795550   0.07564885
5996.00   3.80103111   0.07542042
5998.00   3.76425052   0.07512191
6000.00   3.74255872   0.07482660
6002.00   3.75239491   0.07462467
6004.00   3.72034335   0.07429143
6006.00   3.66624904   0.07381030
6008.00   3.71159959   0.07374173
6010.00   3.70774174   0.07346071
6012.00   3.69934750   0.07328268
6014.00   3.69804978   0.07307384
6016.00   3.71348953   0.07291445
6018.00   3.71384215   0.07287209
6020.00   3.70796609   0.07284867
6022.00   3.61741161   0.07232372
6024.00   3.54901886   0.07173236
6026.00   3.53435731   0.07149596
6028.00   3.54820323   0.07149153
6030.00   3.48268819   0.07107408
6032.00   3.46515751   0.07082356
6034.00   3.38663602   0.07021233
6036.00   3.36519217   0.06980217
6038.00   3.33991838   0.06954740
6040.00   3.31588554   0.06934304
6042.00   3.27688694   0.06894209
6044.00   3.21664453   0.06834301
6046.00   3.18439674   0.06804948
6048.00   3.19100547   0.06803080
6050.00   3.15515494   0.06773115
6052.00   3.08114505   0.06714314
6054.00   3.01584315   0.06663128
6056.00   3.00229859   0.06645688
6058.00   2.97425818   0.06612461
6060.00   2.89207840   0.06548211
6062.00   2.89158249   0.06547728
6064.00   2.91750407   0.06574288
6066.00   2.86998081   0.06523431
6068.00   2.81547928   0.06476127
6070.00   2.77072072   0.06440437
6072.00   2.76596737   0.06432889
6074.00   2.71952629   0.06393331
6076.00   2.69588065   0.06373412
6078.00   2.71136069   0.06380850
6080.00   2.75564957   0.06404325
6082.00   2.74445510   0.06381655
6084.00   2.72845340   0.06373101
6086.00   2.68330503   0.06351296
6088.00   2.65889263   0.06329235
6090.00   2.65836072   0.06347155
6092.00   2.64079618   0.06350594
6094.00   2.65122533   0.06372508
6096.00   2.66861701   0.06390559
6098.00   2.71977997   0.06462015
6100.00   2.76264453   0.06538051
6102.00   2.69688892   0.06560683
6104.00   2.60727048   0.06581584
6106.00   2.61813021   0.06674042
6108.00   2.67279077   0.06826893
6110.00   2.63642216   0.06929824
6112.00   2.63135242   0.07006609
6114.00   2.65856075   0.07046124
6116.00   2.70011234   0.07018873
6118.00   2.71198726   0.06940397
6120.00   2.74556041   0.06825318
6122.00   2.72275543   0.06663467
6124.00   2.69456220   0.06537238
6126.00   2.69994855   0.06487805
6128.00   2.70551014   0.06456204
6130.00   2.70874405   0.06437981
6132.00   2.67988276   0.06392647
6134.00   2.63972354   0.06362230
6136.00   2.64318275   0.06371021
6138.00   2.64708304   0.06366799
6140.00   2.65403366   0.06373169
6142.00   2.64714885   0.06382581
6144.00   2.62879944   0.06362324
6146.00   2.61587787   0.06342809
6148.00   2.60890532   0.06348205
6150.00   2.63047600   0.06375909
6152.00   2.65247774   0.06406943
6154.00   2.63105297   0.06446724
6156.00   2.61745381   0.06501592
6158.00   2.61257625   0.06536797
6160.00   2.60553741   0.06532285
6162.00   2.59595299   0.06488822
6164.00   2.57938552   0.06403742
6166.00   2.57773018   0.06304898
6168.00   2.60694957   0.06231144
6170.00   2.65733457   0.06177131
6172.00   2.69302535   0.06151221
6174.00   2.68908048   0.06125179
6176.00   2.67100453   0.06089966
6178.00   2.66597438   0.06078449
6180.00   2.64378095   0.06065362
6182.00   2.66603875   0.06061194
6184.00   2.70676732   0.06065668
6186.00   2.69906902   0.06070657
6188.00   2.70142341   0.06075387
6190.00   2.71083283   0.06076371
6192.00   2.71732426   0.06090936
6194.00   2.69239235   0.06067340
6196.00   2.73927879   0.06086788
6198.00   2.79512239   0.06130381
6200.00   2.77894855   0.06163727
6202.00   2.79437256   0.06189533
6204.00   2.78115726   0.06201530
6206.00   2.80359006   0.06234483
6208.00   2.88507009   0.06293862
6210.00   2.87959218   0.06277061
6212.00   2.83851075   0.06244547
6214.00   2.82012200   0.06221936
6216.00   2.85159421   0.06234986
6218.00   2.83794141   0.06313255
6220.00   2.79607797   0.06347442
6222.00   2.79547000   0.06433564
6224.00   2.78428078   0.06511866
6226.00   2.73828292   0.06533781
6228.00   2.76293969   0.06614990
6230.00   2.72152472   0.06030972
6232.00   2.65828609   0.06042195
6234.00   2.58697248   0.06538934
6236.00   2.62555051   0.06441361
6238.00   2.66797900   0.06291214
6240.00   2.68040586   0.06222853
6242.00   2.68104100   0.06158708
6244.00   2.64452529   0.06028262
6246.00   2.62177920   0.05963113
6248.00   2.62254453   0.05900460
6250.00   2.60931420   0.05892303
6252.00   2.59107018   0.05950776
6254.00   2.57355428   0.06009642
6256.00   2.54881620   0.06015951
6258.00   2.50409293   0.06004579
6260.00   2.47673535   0.05990334
6262.00   2.49440002   0.05989174
6264.00   2.50731826   0.05955503
6266.00   2.51846075   0.05873245
6268.00   2.51974702   0.05817563
6270.00   2.50899816   0.05810620
6272.00   2.46377063   0.05797894
6274.00   2.45467114   0.05792784
6276.00   2.45841432   0.05806869
6278.00   2.45952225   0.05819405
6280.00   2.43819499   0.05800686
6282.00   2.39203191   0.05768921
6284.00   2.35943508   0.05755075
6286.00   2.39648557   0.05794701
6288.00   2.43579173   0.05820886
6290.00   2.49311376   0.05887224
6292.00   2.52166677   0.05962854
6294.00   2.45990753   0.06086650
6296.00   2.48762989   0.06409306
6298.00   2.53581285   0.06721830
6300.00   2.55460811   0.06923487
6302.00   2.56873775   0.06975480
6304.00   2.55384421   0.06924147
6306.00   2.51033902   0.06866339
6308.00   2.56971860   0.06304598
6310.00   2.48867607   0.06227761
6312.00   2.45570683   0.05906988
6314.00   2.54486012   0.05825296
6316.00   2.63912559   0.05809155
6318.00   2.65229654   0.05821039
6320.00   2.63052559   0.05797211
6322.00   2.56988263   0.05740428
6324.00   2.55640197   0.05740930
6326.00   2.58270288   0.05790469
6328.00   2.57799292   0.05803539
6330.00   2.54382062   0.05761895
6332.00   2.54993033   0.05739036
6334.00   2.57809520   0.05731324
6336.00   2.55966711   0.05690170
6338.00   2.52486539   0.05622562
6340.00   2.50826383   0.05566035
6342.00   2.48507118   0.05542438
6344.00   2.49468803   0.05553190
6346.00   2.51004624   0.05573389
6348.00   2.51339865   0.05588071
6350.00   2.48998165   0.05591062
6352.00   2.48768544   0.05596657
6354.00   2.48202777   0.05600514
6356.00   2.45950532   0.05601550
6358.00   2.46479416   0.05667925
6360.00   2.50167799   0.05799257
6362.00   2.47973657   0.05839026
6364.00   2.43760705   0.05802209
6366.00   2.42230320   0.05742949
6368.00   2.41637516   0.05665830
6370.00   2.46317840   0.05570288
6372.00   2.44634628   0.05451633
6374.00   2.43096137   0.05407662
6376.00   2.40634274   0.05394926
6378.00   2.42771649   0.05419801
6380.00   2.48190761   0.05475457
6382.00   2.47030163   0.05489163
6384.00   2.48051620   0.05484468
6386.00   2.50428152   0.05476607
6388.00   2.49486899   0.05444930
6390.00   2.46812677   0.05410691
6392.00   2.49070835   0.05394028
6394.00   2.48419309   0.05370643
6396.00   2.46492982   0.05362317
6398.00   2.50556278   0.05403976
6400.00   2.52129984   0.05434434
6402.00   2.54065681   0.05455815
6404.00   2.57806110   0.05477509
6406.00   2.57165074   0.05458908
6408.00   2.55791330   0.05432495
6410.00   2.57174897   0.05443132
6412.00   2.57044578   0.05437571
6414.00   2.60868669   0.05455052
6416.00   2.59016037   0.05433589
6418.00   2.55880761   0.05407876
6420.00   2.57495475   0.05408997
6422.00   2.60299492   0.05412042
6424.00   2.64730287   0.05425493
6426.00   2.65536571   0.05409620
6428.00   2.70359159   0.05430264
6430.00   2.74410605   0.05455001
6432.00   2.75634384   0.05467267
6434.00   2.76323724   0.05473965
6436.00   2.77854252   0.05483103
6438.00   2.79547238   0.05498685
6440.00   2.78790736   0.05489012
6442.00   2.83051777   0.05515698
6444.00   2.86116624   0.05529819
6446.00   2.92184258   0.05554726
6448.00   2.93919563   0.05568482
6450.00   2.97048450   0.05597302
6452.00   3.02714920   0.05654676
6454.00   3.04850769   0.05677386
6456.00   3.05045962   0.05687577
6458.00   3.05680394   0.05702934
6460.00   3.05677509   0.05724431
6462.00   3.09516740   0.05768971
6464.00   3.15821004   0.05826583
6466.00   3.28543591   0.05923553
6468.00   3.33913398   0.05959338
6470.00   3.32712817   0.05945539
6472.00   3.31117940   0.05916172
6474.00   3.32606006   0.05894644
6476.00   3.36278081   0.05878483
6478.00   3.42753673   0.05884853
6480.00   3.49764252   0.05904542
6482.00   3.56110644   0.05929584
6484.00   3.62920070   0.05964850
6486.00   3.69865012   0.06003483
6488.00   3.71035028   0.06009455
6490.00   3.71243191   0.06013872
6492.00   3.76480293   0.06079173
6494.00   3.82208848   0.06158489
6496.00   3.84972954   0.06217980
6498.00   3.89081120   0.06280264
6500.00   3.98254895   0.06353017
6502.00   4.03436422   0.06394293
6504.00   4.04205894   0.06382718
6506.00   4.05332422   0.06338209
6508.00   4.15714264   0.06355119
6510.00   4.23308754   0.06381450
6512.00   4.25441504   0.06366453
6514.00   4.28951406   0.06353086
6516.00   4.31296158   0.06359930
6518.00   4.32584953   0.06381219
6520.00   4.34950495   0.06413762
6522.00   4.42365932   0.06451806
6524.00   4.41187239   0.06454014
6526.00   4.43699121   0.06481531
6528.00   4.55617905   0.06566475
6530.00   4.62264919   0.06627139
6532.00   4.67359400   0.06667335
6534.00   4.76947641   0.06712082
6536.00   4.78155947   0.06718364
6538.00   4.76369715   0.06685474
6540.00   4.78815508   0.06673690
6542.00   4.85753775   0.06695189
6544.00   4.91978741   0.06730849
6546.00   4.95266199   0.06753951
6548.00   4.92448568   0.06760623
6550.00   4.98687363   0.06821675
6552.00   5.06091309   0.06871163
6554.00   5.06131363   0.06873286
6556.00   5.12153625   0.06903320
6558.00   5.16570950   0.06934249
6560.00   5.18791294   0.06966075
6562.00   5.15656662   0.06951448
6564.00   5.15766191   0.06954956
6566.00   5.23558378   0.06986663
6568.00   5.26188612   0.06970342
6570.00   5.27834034   0.06929315
6572.00   5.29542875   0.06913508
6574.00   5.29710054   0.06925856
6576.00   5.31443548   0.06941632
6578.00   5.34846878   0.06965997
6580.00   5.33609533   0.06970665
6582.00   5.33964396   0.06964397
6584.00   5.36723852   0.06946397
6586.00   5.34394073   0.06903168
6588.00   5.33573914   0.06881431
6590.00   5.37534475   0.06887385
6592.00   5.36477137   0.06884867
6594.00   5.39140558   0.06900489
6596.00   5.44784117   0.06923290
6598.00   5.47071648   0.06935830
6600.00   5.47670746   0.06946187
6602.00   5.47175455   0.06944695
6604.00   5.48392105   0.06951120
6606.00   5.48411608   0.06943646
6608.00   5.43218231   0.06900391
6610.00   5.43668938   0.06887878
6612.00   5.50469446   0.06901885
6614.00   5.49334955   0.06878096
6616.00   5.43627024   0.06844497
6618.00   5.45211029   0.06858522
6620.00   5.50803232   0.06881034
6622.00   5.52345276   0.06883633
6624.00   5.48947906   0.06880689
6626.00   5.46916437   0.06885103
6628.00   5.47189856   0.06883362
6630.00   5.51119614   0.06898429
6632.00   5.53985786   0.06910754
6634.00   5.56985044   0.06922104
6636.00   5.54047537   0.06892998
6638.00   5.50627851   0.06866527
6640.00   5.49662781   0.06858476
6642.00   5.51629639   0.06865441
6644.00   5.51743889   0.06858499
6646.00   5.49168015   0.06842647
6648.00   5.47495461   0.06826995
6650.00   5.48414230   0.06825466
6652.00   5.47170973   0.06822631
6654.00   5.44776917   0.06818139
6656.00   5.41462708   0.06799503
6658.00   5.39188147   0.06783930
6660.00   5.36193228   0.06777976
6662.00   5.34671831   0.06785368
6664.00   5.36921072   0.06794262
6666.00   5.40646696   0.06804653
6668.00   5.37138128   0.06784308
6670.00   5.32784271   0.06758228
6672.00   5.36629105   0.06766800
6674.00   5.37366295   0.06758639
6676.00   5.33360863   0.06738307
6678.00   5.33076286   0.06734947
6680.00   5.30620050   0.06720632
6682.00   5.28324652   0.06705920
6684.00   5.25742435   0.06687077
6686.00   5.22731733   0.06668124
6688.00   5.18707085   0.06644010
6690.00   5.14385271   0.06618139
6692.00   5.11704206   0.06601461
6694.00   5.08075666   0.06581750
6696.00   5.02570486   0.06555062
6698.00   5.01623106   0.06545178
6700.00   4.98800135   0.06532030
6702.00   4.98316288   0.06549573
6704.00   4.94789267   0.06562149
6706.00   4.94777393   0.06572468
6708.00   4.90768480   0.06554329
6710.00   4.89161539   0.06542244
6712.00   4.79461670   0.06486167
6714.00   4.75935555   0.06468906
6716.00   4.73376894   0.06449334
6718.00   4.68978310   0.06417533
6720.00   4.61192465   0.06360489
6722.00   4.58382273   0.06316366
6724.00   4.54867315   0.06273582
6726.00   4.50193453   0.06244785
6728.00   4.41558504   0.06201185
6730.00   4.40302038   0.06197850
6732.00   4.35119915   0.06168121
6734.00   4.31144381   0.06141863
6736.00   4.26510525   0.06104283
6738.00   4.21538925   0.06063553
6740.00   4.15397882   0.06015426
6742.00   4.10056353   0.05979529
6744.00   4.08629751   0.05965640
6746.00   4.05984545   0.05937510
6748.00   3.98949122   0.05889374
6750.00   3.93370938   0.05853010
6752.00   3.85953212   0.05802685
6754.00   3.78101373   0.05753028
6756.00   3.74813867   0.05725828
6758.00   3.75218773   0.05732222
6760.00   3.69992352   0.05699865
6762.00   3.59564114   0.05629088
6764.00   3.55441308   0.05589754
6766.00   3.53517461   0.05568417
6768.00   3.51423740   0.05547612
6770.00   3.46937752   0.05513823
6772.00   3.41615033   0.05487664
6774.00   3.43342566   0.05501801
6776.00   3.36721230   0.05449340
6778.00   3.32702851   0.05418751
6780.00   3.31914520   0.05418282
6782.00   3.25673890   0.05377336
6784.00   3.22086310   0.05345421
6786.00   3.17743373   0.05316026
6788.00   3.13828778   0.05292723
6790.00   3.12846088   0.05277058
6792.00   3.09768677   0.05252611
6794.00   3.07826710   0.05240453
6796.00   3.06522346   0.05238263
6798.00   3.05012870   0.05225710
6800.00   3.04580331   0.05208176
6802.00   2.97154355   0.05152546
6804.00   2.94131732   0.05138600
6806.00   2.98627400   0.05165170
6808.00   2.97685361   0.05155877
6810.00   2.91939902   0.05116767
6812.00   2.87371564   0.05079873
6814.00   2.83219600   0.05053449
6816.00   2.83587146   0.05062452
6818.00   2.85831523   0.05081812
6820.00   2.86188984   0.05095400
6822.00   2.86522579   0.05131009
6824.00   2.83686328   0.05198775
6826.00   2.80871868   0.05288201
6828.00   2.80848694   0.05370910
6830.00   2.83169055   0.05459738
6832.00   2.87816334   0.05536179
6834.00   2.86582780   0.05491778
6836.00   2.85301208   0.05387888
6838.00   2.79561496   0.05267153
6840.00   2.77574563   0.05179464
6842.00   2.80162430   0.05121688
6844.00   2.83871460   0.05113392
6846.00   2.86613441   0.05128342
6848.00   2.85969281   0.05109435
6850.00   2.83084559   0.05053495
6852.00   2.84818530   0.05049960
6854.00   2.84609962   0.05069258
6856.00   2.83278346   0.05098997
6858.00   2.80308151   0.05147682
6860.00   2.83816600   0.05312027
6862.00   2.86563683   0.05490248
6864.00   2.87218475   0.05701954
6866.00   2.83969903   0.05976893
6868.00   2.85502982   0.06324521
6870.00   2.86314392   0.06420332
6872.00   2.82161999   0.06171972
6874.00   2.78531575   0.05861329
6876.00   2.77187943   0.05657434
6878.00   2.75369167   0.05458774
6880.00   2.74743462   0.05293038
6882.00   2.74104524   0.05231152
6884.00   2.71307492   0.05257802
6886.00   2.69360280   0.05347423
6888.00   2.70701051   0.05443045
6890.00   2.73131943   0.05472934
6892.00   2.72779107   0.05444995
6894.00   2.76798129   0.05448256
6896.00   2.77752852   0.05436398
6898.00   2.75658345   0.05385998
6900.00   2.68098831   0.05269128
6902.00   2.63881850   0.05197878
6904.00   2.61712623   0.05167015
6906.00   2.64096832   0.05173802
6908.00   2.62528396   0.05144293
6910.00   2.60925174   0.05125157
6912.00   2.62850356   0.05139239
6914.00   2.63589478   0.05143853
6916.00   2.59898615   0.05118617
6918.00   2.57974124   0.05121730
6920.00   2.62233233   0.05168184
6922.00   2.63776040   0.05172314
6924.00   2.62771893   0.05142500
6926.00   2.60909009   0.05112210
6928.00   2.56880212   0.05015991
6930.00   2.54897165   0.04907808
6932.00   2.56002522   0.04863912
6934.00   2.56520915   0.04877441
6936.00   2.52786851   0.04886528
6938.00   2.52727437   0.04920949
6940.00   2.54348898   0.04965820
6942.00   2.54437804   0.04998270
6944.00   2.53553128   0.05031316
6946.00   2.54002190   0.05076763
6948.00   2.52838063   0.05066620
6950.00   2.52454638   0.05046551
6952.00   2.54128408   0.05043831
6954.00   2.57287383   0.05024123
6956.00   2.55324817   0.04912114
6958.00   2.49213290   0.04788060
6960.00   2.47596335   0.04748459
6962.00   2.47263432   0.04747166
6964.00   2.46929002   0.04750120
6966.00   2.43114424   0.04743958
6968.00   2.43450761   0.04771977
6970.00   2.44731307   0.04793758
6972.00   2.44849849   0.04812036
6974.00   2.46482968   0.04864668
6976.00   2.46263504   0.04886653
6978.00   2.44196606   0.04865070
6980.00   2.42474723   0.04841881
6982.00   2.43238354   0.04835213
6984.00   2.40908265   0.04766313
6986.00   2.38425922   0.04686601
6988.00   2.38973427   0.04655284
6990.00   2.40853739   0.04664140
6992.00   2.40731311   0.04667807
6994.00   2.38923383   0.04656218
6996.00   2.37755203   0.04645963
6998.00   2.36704803   0.04647192
7000.00   2.36091447   0.04649628
7002.00   2.36236668   0.04655189
7004.00   2.38296413   0.04683340
7006.00   2.40448356   0.04727384
7008.00   2.42709708   0.04765903
7010.00   2.43132997   0.04780520
7012.00   2.43942237   0.04796802
7014.00   2.47251248   0.04826370
7016.00   2.46992183   0.04786040
7018.00   2.41820598   0.04683689
7020.00   2.39022279   0.04605742
7022.00   2.39466047   0.04614984
7024.00   2.39691997   0.04628457
7026.00   2.40676951   0.04639168
7028.00   2.41586804   0.04666586
7030.00   2.41922688   0.04718212
7032.00   2.44733262   0.04758049
7034.00   2.45431972   0.04746178
7036.00   2.43778300   0.04709737
7038.00   2.44822955   0.04717862
7040.00   2.46350956   0.04757706
7042.00   2.49381423   0.04814625
7044.00   2.50711799   0.04828368
7046.00   2.48360229   0.04808097
7048.00   2.45591712   0.04790692
7050.00   2.48848653   0.04808636
7052.00   2.51831126   0.04836205
7054.00   2.52543831   0.04841722
7056.00   2.49733424   0.04810761
7058.00   2.44919896   0.04747205
7060.00   2.46026969   0.04731283
7062.00   2.47286105   0.04748343
7064.00   2.48601413   0.04779083
7066.00   2.50107479   0.04787940
7068.00   2.47932005   0.04766275
7070.00   2.46166253   0.04751806
7072.00   2.46619630   0.04748629
7074.00   2.45610929   0.04736985
7076.00   2.47032571   0.04747763
7078.00   2.46662545   0.04752061
7080.00   2.46302867   0.04745300
7082.00   2.45311832   0.04738854
7084.00   2.42356992   0.04731494
7086.00   2.40463519   0.04719301
7088.00   2.42189431   0.04737808
7090.00   2.43643975   0.04749566
7092.00   2.44443631   0.04755254
7094.00   2.44132185   0.04741061
7096.00   2.43838525   0.04715021
7098.00   2.40488315   0.04688241
7100.00   2.39846587   0.04690390
7102.00   2.37312198   0.04647062
7104.00   2.36348438   0.04613174
7106.00   2.36580491   0.04623681
7108.00   2.35372305   0.04634921
7110.00   2.31160069   0.04591964
7112.00   2.27990890   0.04552841
7114.00   2.23921347   0.04516276
7116.00   2.25368428   0.04527296
7118.00   2.27390218   0.04536526
7120.00   2.24190402   0.04525978
7122.00   2.21670318   0.04537296
7124.00   2.22121739   0.04553704
7126.00   2.22898984   0.04556936
7128.00   2.21999454   0.04547337
7130.00   2.16614437   0.04490906
7132.00   2.12693954   0.04447158
7134.00   2.13428116   0.04442865
7136.00   2.12566614   0.04446733
7138.00   2.12299037   0.04474961
7140.00   2.15426302   0.04522282
7142.00   2.18558335   0.04554950
7144.00   2.16597843   0.04539025
7146.00   2.12819839   0.04487343
7148.00   2.14796376   0.04480684
7150.00   2.14454269   0.04477825
7152.00   2.12037492   0.04463943
7154.00   2.12138963   0.04449624
7156.00   2.11892581   0.04422811
7158.00   2.12608480   0.04429464
7160.00   2.10997057   0.04432322
7162.00   2.08907914   0.04410942
7164.00   2.08263946   0.04399220
7166.00   2.10422635   0.04434040
7168.00   2.09022999   0.04444284
7170.00   2.07231450   0.04442434
7172.00   2.07960629   0.04471000
7174.00   2.09359837   0.04491709
7176.00   2.11364722   0.04506853
7178.00   2.11942697   0.04514424
7180.00   2.08219719   0.04509960
7182.00   2.08374429   0.04501934
7184.00   2.08222890   0.04501900
7186.00   2.07896686   0.04519491
7188.00   2.07943940   0.04477226
7190.00   2.04857564   0.04406903
7192.00   2.03846860   0.04388262
7194.00   2.04935145   0.04420177
7196.00   2.05206943   0.04427735
7198.00   2.03744364   0.04413847
7200.00   2.03661823   0.04407358
7202.00   2.05038357   0.04421613
7204.00   2.04128623   0.04411681
7206.00   2.02295375   0.04364558
7208.00   1.98887432   0.04306708
7210.00   2.01252604   0.04310499
7212.00   2.03850746   0.04327264
7214.00   2.07108760   0.04343879
7216.00   2.09052038   0.04380019
7218.00   2.06588054   0.04381103
7220.00   2.07530689   0.04389363
7222.00   2.08123851   0.04385838
7224.00   2.04979634   0.04355517
7226.00   2.04903865   0.04367981
7228.00   2.05060744   0.04380369
7230.00   2.05891275   0.04407902
7232.00   2.10152507   0.04511037
7234.00   2.13352776   0.04727828
7236.00   2.11771679   0.04997478
7238.00   2.09750390   0.05225785
7240.00   2.09911537   0.05416222
7242.00   2.09999490   0.05559993
7244.00   2.12835026   0.05531504
7246.00   2.11662745   0.05351477
7248.00   2.12878108   0.05181952
7250.00   2.16345882   0.05044055
7252.00   2.18659377   0.04864793
7254.00   2.19992185   0.04758706
7256.00   2.21852207   0.04710208
7258.00   2.21149087   0.04626656
7260.00   2.20379162   0.04547404
7262.00   2.22576594   0.04570909
7264.00   2.26936531   0.04626909
7266.00   2.29871011   0.04668811
7268.00   2.33747005   0.04732263
7270.00   2.34316611   0.04896838
7272.00   2.33815980   0.05234592
7274.00   2.36595035   0.05487863
7276.00   2.38056684   0.05577666
7278.00   2.39487171   0.05623640
7280.00   2.40174079   0.05635446
7282.00   2.35696006   0.05370659
7284.00   2.42240548   0.05125335
7286.00   2.46564770   0.05031000
7288.00   2.48585391   0.05041591
7290.00   2.49031830   0.05000953
7292.00   2.50024486   0.04904117
7294.00   2.53109074   0.04857107
7296.00   2.52591157   0.04852302
7298.00   2.50724149   0.04895088
7300.00   2.52793527   0.04977505
7302.00   2.55666900   0.05016736
7304.00   2.55670762   0.05007469
7306.00   2.60720706   0.05019468
7308.00   2.60924125   0.04997465
7310.00   2.58965993   0.05008584
7312.00   2.59541416   0.05202990
7314.00   2.60298777   0.05408640
7316.00   2.66206360   0.05534799
7318.00   2.70324516   0.05518148
7320.00   2.61500430   0.05345340
7322.00   2.63194180   0.05151261
7324.00   2.66064715   0.05063231
7326.00   2.68596768   0.05090301
7328.00   2.65663648   0.05097124
7330.00   2.63200283   0.05077145
7332.00   2.63689876   0.05076927
7334.00   2.65359664   0.05130846
7336.00   2.67378902   0.05268444
7338.00   2.62907195   0.05434453
7340.00   2.63219547   0.05543116
7342.00   2.66156220   0.05581323
7344.00   2.66342545   0.05512912
7346.00   2.63476729   0.05304911
7348.00   2.58515048   0.04980439
7350.00   2.60960460   0.04825245
7352.00   2.60457134   0.04840463
7354.00   2.60343051   0.04948508
7356.00   2.59522009   0.05025985
7358.00   2.58356404   0.05022031
7360.00   2.60290766   0.05028768
7362.00   2.62912822   0.05080562
7364.00   2.60482240   0.05178441
7366.00   2.62258530   0.05348490
7368.00   2.67761874   0.05463158
7370.00   2.65253735   0.05409466
7372.00   2.58166957   0.05308561
7374.00   2.53443456   0.05164809
7376.00   2.56125093   0.04966595
7378.00   2.58714366   0.04816057
7380.00   2.61248231   0.04769263
7382.00   2.57765174   0.04735787
7384.00   2.55870771   0.04745835
7386.00   2.54038358   0.04768484
7388.00   2.54934883   0.04839017
7390.00   2.56253624   0.04905565
7392.00   2.58317733   0.04967596
7394.00   2.58868694   0.04998251
7396.00   2.56374454   0.05021074
7398.00   2.52334642   0.05064210
7400.00   2.53258252   0.05109426
7402.00   2.53111243   0.05114403
7404.00   2.52543235   0.05101855
7406.00   2.51974869   0.05036584
7408.00   2.52355552   0.04872982
7410.00   2.52909207   0.04745762
7412.00   2.55369782   0.04717372
7414.00   2.55553913   0.04719771
7416.00   2.52822971   0.04709131
7418.00   2.51022029   0.04693449
7420.00   2.51135564   0.04678830
7422.00   2.53273845   0.04688508
7424.00   2.53239751   0.04719038
7426.00   2.55202961   0.04787442
7428.00   2.56606555   0.04827970
7430.00   2.58532715   0.04850398
7432.00   2.56647325   0.04864318
7434.00   2.54179645   0.04910057
7436.00   2.55288911   0.04940766
7438.00   2.56315351   0.04935974
7440.00   2.60261607   0.04942418
7442.00   2.65536427   0.04954689
7444.00   2.68204784   0.04900287
7446.00   2.66200185   0.04815765
7448.00   2.69717717   0.04804517
7450.00   2.71698856   0.04815135
7452.00   2.72891426   0.04829623
7454.00   2.71844220   0.04828088
7456.00   2.75491834   0.04859800
7458.00   2.77616572   0.04886306
7460.00   2.78887630   0.04923240
7462.00   2.76996541   0.04945711
7464.00   2.76729012   0.04981584
7466.00   2.80883288   0.05039365
7468.00   2.84581780   0.05101057
7470.00   2.82966399   0.05132885
7472.00   2.81385231   0.05146800
7474.00   2.85342097   0.05190304
7476.00   2.91918254   0.05257754
7478.00   2.95038629   0.05293442
7480.00   2.95847297   0.05297309
7482.00   2.97592854   0.05300016
7484.00   2.99906230   0.05290107
7486.00   3.03726673   0.05260586
7488.00   3.06043553   0.05212044
7490.00   3.08041215   0.05172507
7492.00   3.10405660   0.05158964
7494.00   3.12518501   0.05163172
7496.00   3.16434479   0.05185835
7498.00   3.19331264   0.05234623
7500.00   3.20197415   0.05300273
7502.00   3.25236535   0.05363591
7504.00   3.29398346   0.05411335
7506.00   3.29845119   0.05361896
7508.00   3.28858399   0.05269723
7510.00   3.30582142   0.05225777
7512.00   3.34587884   0.05275259
7514.00   3.35900187   0.05297781
7516.00   3.36662412   0.05350518
7518.00   3.36269379   0.05469172
7520.00   3.39903092   0.05653587
7522.00   3.46611047   0.05796088
7524.00   3.49363613   0.05851062
7526.00   3.48313880   0.05847211
7528.00   3.49121118   0.05801648
7530.00   3.52495074   0.05695456
7532.00   3.52708244   0.05583135
7534.00   3.57099247   0.05559046
7536.00   3.57919574   0.05538803
7538.00   3.57118678   0.05482901
7540.00   3.55596852   0.05425579
7542.00   3.57520509   0.05428658
7544.00   3.60006404   0.05438435
7546.00   3.63493443   0.05450714
7548.00   3.63457656   0.05446801
7550.00   3.62090278   0.05448721
7552.00   3.60472512   0.05463561
7554.00   3.58584714   0.05484946
7556.00   3.58984661   0.05503944
7558.00   3.60814738   0.05507598
7560.00   3.58495879   0.05483493
7562.00   3.56782913   0.05471030
7564.00   3.58519864   0.05513111
7566.00   3.59753227   0.05596608
7568.00   3.57574773   0.05683629
7570.00   3.56756711   0.05755300
7572.00   3.60225224   0.05813192
7574.00   3.60505080   0.05802137
7576.00   3.56241632   0.05691944
7578.00   3.47837520   0.05499453
7580.00   3.43847251   0.05387555
7582.00   3.36512947   0.05350123
7584.00   3.31837440   0.05357566
7586.00   3.31098175   0.05364533
7588.00   3.30669093   0.05386264
7590.00   3.22071099   0.05455841
7592.00   3.13485503   0.05768208
7594.00   3.14247632   0.06546395
7596.00   3.20267510   0.07770279
7598.00   3.20552468   0.09125777
7600.00   3.16250348   0.10483307
7602.00   3.17959690   0.11531752
7604.00   3.06677699   0.11671860
7606.00   2.85135865   0.10791027
7608.00   2.81975579   0.09807868
7610.00   2.78542805   0.08827337
7612.00   2.77235889   0.07835443
7614.00   2.75842690   0.06877337
7616.00   2.73272443   0.06134543
7618.00   2.66672802   0.05748881
7620.00   2.57660389   0.05793401
7622.00   2.60012412   0.06279362
7624.00   2.71877456   0.06965154
7626.00   2.74081635   0.07408918
7628.00   2.70881462   0.07503677
7630.00   2.66363859   0.07371791
7632.00   2.63960433   0.07127742
7634.00   2.56622791   0.06781720
7636.00   2.57523942   0.06553687
7638.00   2.59069705   0.06399142
7640.00   2.59345889   0.06241238
7642.00   2.54886723   0.06044188
7644.00   2.51552463   0.05881601
7646.00   2.50032997   0.05753895
7648.00   2.51170230   0.05668594
7650.00   2.50279808   0.05610559
7652.00   2.51959372   0.05567443
7654.00   2.52687359   0.05494085
7656.00   2.48759270   0.05380952
7658.00   2.52051377   0.05361919
7660.00   2.55323982   0.05387168
7662.00   2.54569554   0.05343564
7664.00   2.47323489   0.05197422
7666.00   2.48883915   0.05108416
7668.00   2.52474666   0.05046484
7670.00   2.53238249   0.04976948
7672.00   2.52820134   0.04895376
7674.00   2.54975343   0.04828744
7676.00   2.55087662   0.04818308
7678.00   2.57289243   0.04863787
7680.00   2.60254788   0.04888797
7682.00   2.60949397   0.04875455
7684.00   2.60485983   0.04880770
7686.00   2.60204124   0.04899263
7688.00   2.63034749   0.04947336
7690.00   2.65298200   0.04984243
7692.00   2.67040253   0.04999647
7694.00   2.69342113   0.05028502
7696.00   2.69684219   0.05053153
7698.00   2.70531392   0.05058897
7700.00   2.71150851   0.05062478
7702.00   2.77508426   0.05100873
7704.00   2.78792691   0.05077260
7706.00   2.79268909   0.05145145
7708.00   2.81425190   0.05422774
7710.00   2.86423755   0.05818716
7712.00   2.91785264   0.06156016
7714.00   2.91813779   0.06350816
7716.00   2.93759847   0.06360365
7718.00   2.96730995   0.06225398
7720.00   2.99017024   0.06012281
7722.00   3.01312184   0.05780513
7724.00   3.01766968   0.05518599
7726.00   3.03815961   0.05369264
7728.00   3.07343268   0.05337930
7730.00   3.13033009   0.05347791
7732.00   3.18696022   0.05341017
7734.00   3.18460464   0.05305758
7736.00   3.17322230   0.05294709
7738.00   3.21353316   0.05336052
7740.00   3.27788281   0.05376026
7742.00   3.30750585   0.05393625
7744.00   3.35374546   0.05611074
7746.00   3.44243503   0.06017935
7748.00   3.47773361   0.06336439
7750.00   3.45304847   0.06421316
7752.00   3.47725201   0.06455463
7754.00   3.51237106   0.06424604
7756.00   3.54818153   0.06250238
7758.00   3.53986621   0.05989730
7760.00   3.49792480   0.05845365
7762.00   3.53682446   0.05836703
7764.00   3.58586431   0.05806118
7766.00   3.62489891   0.05734239
7768.00   3.66311431   0.05690239
7770.00   3.69668674   0.05714379
7772.00   3.71172261   0.05724235
7774.00   3.68800354   0.05744306
7776.00   3.70015454   0.05819288
7778.00   3.75712657   0.05906544
7780.00   3.78928852   0.05920169
7782.00   3.80490494   0.05912941
7784.00   3.77424932   0.05855297
7786.00   3.73060226   0.05805384
7788.00   3.77161217   0.05946541
7790.00   3.79822469   0.06215320
7792.00   3.79882646   0.06340686
7794.00   3.80394840   0.06348241
7796.00   3.82755971   0.06308038
7798.00   3.82289791   0.06190998
7800.00   3.83824658   0.05944890
7802.00   3.82744193   0.05810115
7804.00   3.85542083   0.05901828
7806.00   3.90972829   0.06067547
7808.00   3.94309425   0.06112405
7810.00   3.96730804   0.06109876
7812.00   3.97280955   0.06055130
7814.00   3.92820549   0.06009631
7816.00   3.86700821   0.06106276
7818.00   3.84478450   0.06326114
7820.00   3.82911372   0.06438243
7822.00   3.86895442   0.06493006
7824.00   3.93436360   0.06516158
7826.00   3.99282098   0.06423632
7828.00   3.98788834   0.06089657
7830.00   3.91285348   0.05776642
7832.00   3.87729168   0.05679974
7834.00   3.92060399   0.05780055
7836.00   3.98566890   0.05932314
7838.00   3.97103596   0.06013463
7840.00   3.89848638   0.06048286
7842.00   3.83979893   0.06058600
7844.00   3.84498882   0.06088206
7846.00   3.89259267   0.06170693
7848.00   3.87429643   0.06363732
7850.00   3.89577889   0.06580877
7852.00   3.90209222   0.06759685
7854.00   3.86615920   0.06896988
7856.00   3.86336327   0.07012709
7858.00   3.90417171   0.06899767
7860.00   3.92842364   0.06576071
7862.00   3.92361760   0.06258937
7864.00   3.91526675   0.06154669
7866.00   3.85237622   0.06210177
7868.00   3.84562707   0.06251972
7870.00   3.86558533   0.06266785
7872.00   3.92144465   0.06302807
7874.00   3.91090512   0.06303868
7876.00   3.87670016   0.06239860
7878.00   3.84870028   0.06150916
7880.00   3.80603051   0.06069859
7882.00   3.76278687   0.06021165
7884.00   3.76048350   0.06046678
7886.00   3.76747513   0.06138888
7888.00   3.74797177   0.06168684
7890.00   3.73576450   0.06170557
7892.00   3.71691871   0.06139485
7894.00   3.71608448   0.06036341
7896.00   3.71957111   0.05846537
7898.00   3.72781396   0.05704987
7900.00   3.71719551   0.05645709
7902.00   3.66287613   0.05611635
7904.00   3.61476326   0.05589304
7906.00   3.61205196   0.05697194
7908.00   3.58235097   0.06027369
7910.00   3.53842807   0.06412417
7912.00   3.51437402   0.06624072
7914.00   3.52185631   0.06672522
7916.00   3.49975371   0.06738778
7918.00   3.42883873   0.06611118
7920.00   3.43338108   0.06317846
7922.00   3.49430180   0.06075244
7924.00   3.45638204   0.06009487
7926.00   3.39870000   0.05950511
7928.00   3.35816669   0.05852697
7930.00   3.35510278   0.05788482
7932.00   3.33838344   0.05759962
7934.00   3.37763190   0.05758496
7936.00   3.37001872   0.05669547
7938.00   3.36463833   0.05539963
7940.00   3.32913613   0.05423394
7942.00   3.30857277   0.05428591
7944.00   3.31290436   0.05545416
7946.00   3.28730583   0.05611589
7948.00   3.21714473   0.05587600
7950.00   3.20093608   0.05561266
7952.00   3.23780704   0.05554181
7954.00   3.18574905   0.05430434
7956.00   3.14425206   0.05325005
7958.00   3.15697646   0.05437581
7960.00   3.16073227   0.05763837
7962.00   3.10439777   0.06037282
7964.00   3.05287337   0.06115242
7966.00   3.06716371   0.06102730
7968.00   3.05324340   0.05971612
7970.00   3.03617859   0.05703405
7972.00   3.01920152   0.05432564
7974.00   3.01075363   0.05415471
7976.00   2.98744392   0.05498949
7978.00   2.95153809   0.05547101
7980.00   2.95278931   0.05566217
7982.00   2.93640637   0.05532649
7984.00   2.89770794   0.05397981
7986.00   2.84630895   0.05318833
7988.00   2.83627343   0.05502922
7990.00   2.79086852   0.05810500
7992.00   2.80738997   0.06005701
7994.00   2.80628324   0.06065524
7996.00   2.78689957   0.05958365
7998.00   2.70307136   0.05610814
8000.00   2.68629456   0.05205570
8002.00   2.72134399   0.05027483
8004.00   2.74910665   0.04996416
8006.00   2.69492435   0.04967310
8008.00   2.65036845   0.04974317
8010.00   2.64842963   0.05071820
8012.00   2.63620853   0.05141854
8014.00   2.60592771   0.05169589
8016.00   2.58930087   0.05186897
8018.00   2.56340384   0.05198697
8020.00   2.59725785   0.05314965
8022.00   2.58853316   0.05503004
8024.00   2.52017617   0.05599944
8026.00   2.51553035   0.05619017
8028.00   2.48698997   0.05536491
8030.00   2.44546723   0.05316716
8032.00   2.43827367   0.05043415
8034.00   2.47482228   0.04869457
8036.00   2.48949027   0.04800402
8038.00   2.47730064   0.04756160
8040.00   2.43785405   0.04710054
8042.00   2.38760853   0.04669108
8044.00   2.35038567   0.04649625
8046.00   2.36144996   0.04691591
8048.00   2.36919093   0.04778954
8050.00   2.37028241   0.04848750
8052.00   2.36872077   0.04886689
8054.00   2.39098859   0.04917772
8056.00   2.36741638   0.04934859
8058.00   2.32631612   0.04975173
8060.00   2.30551791   0.05029100
8062.00   2.31520772   0.05057779
8064.00   2.31212592   0.05036205
8066.00   2.30649757   0.04959732
8068.00   2.26458287   0.04772482
8070.00   2.22133994   0.04597010
8072.00   2.22741222   0.04553675
8074.00   2.24539280   0.04578754
8076.00   2.21068978   0.04545582
8078.00   2.18623900   0.04504620
8080.00   2.18679881   0.04509492
8082.00   2.20245194   0.04549584
8084.00   2.19570160   0.04576544
8086.00   2.17332268   0.04566546
8088.00   2.15335584   0.04550417
8090.00   2.16649747   0.04578134
8092.00   2.15975261   0.04595275
8094.00   2.15106416   0.04605769
8096.00   2.14083076   0.04633966
8098.00   2.15329742   0.04705967
8100.00   2.16271138   0.04727314
8102.00   2.11757112   0.04682905
8104.00   2.09645534   0.04669523
8106.00   2.10179305   0.04686931
8108.00   2.12110853   0.04635647
8110.00   2.14150238   0.04565322
8112.00   2.13918328   0.04532159
8114.00   2.13439012   0.04536490
8116.00   2.11550879   0.04523173
8118.00   2.13147044   0.04511530
8120.00   2.11336231   0.04466780
8122.00   2.11362338   0.04441847
8124.00   2.11612010   0.04448697
8126.00   2.09531808   0.04457961
8128.00   2.07757711   0.04453722
8130.00   2.07764745   0.04472695
8132.00   2.11301088   0.04538707
8134.00   2.12173581   0.04557842
8136.00   2.09978890   0.04539793
8138.00   2.09380221   0.04533454
8140.00   2.08490467   0.04536431
8142.00   2.08358741   0.04563214
8144.00   2.10701466   0.04633163
8146.00   2.11203694   0.04650457
8148.00   2.06850886   0.04601339
8150.00   2.05897069   0.04562748
8152.00   2.04877973   0.04515684
8154.00   2.05613256   0.04499282
8156.00   2.03380322   0.04471211
8158.00   2.00110340   0.04428883
8160.00   1.97100961   0.04412540
8162.00   1.98798907   0.04471803
8164.00   1.99492598   0.04517570
8166.00   2.01061940   0.04535897
8168.00   1.97433376   0.04487683
8170.00   1.95793641   0.04470785
8172.00   2.00904870   0.04544938
8174.00   1.97685564   0.04622393
8176.00   1.97119033   0.04785116
8178.00   2.00709987   0.05018919
8180.00   2.01681685   0.05222538
8182.00   2.03824973   0.05345413
8184.00   1.99010086   0.05396031
8186.00   1.93589222   0.05418375
8188.00   1.94937503   0.05475008
8190.00   1.98213863   0.05523692
8192.00   1.97472382   0.05527405
8194.00   1.94295156   0.05545929
8196.00   1.92191970   0.05564422
8198.00   1.93487203   0.05499040
8200.00   1.90974903   0.05247872
8202.00   1.90510929   0.04960500
8204.00   1.91622925   0.04791725
8206.00   1.92520475   0.04705791
8208.00   1.92124331   0.04641851
8210.00   1.90334463   0.04576218
8212.00   1.90366304   0.04527750
8214.00   1.88737261   0.04464062
8216.00   1.89226186   0.04427141
8218.00   1.88575745   0.04403409
8220.00   1.87645614   0.04392900
8222.00   1.88035905   0.04388492
8224.00   1.88287079   0.04400918
8226.00   1.87563455   0.04431598
8228.00   1.86819327   0.04453338
8230.00   1.84839427   0.04406826
8232.00   1.83672106   0.04337056
8234.00   1.83399260   0.04282178
8236.00   1.83673370   0.04255245
8238.00   1.81536162   0.04234870
8240.00   1.82012236   0.04271552
8242.00   1.82243121   0.04300805
8244.00   1.83842278   0.04312674
8246.00   1.85464203   0.04304565
8248.00   1.83975697   0.04272883
8250.00   1.77082300   0.04194949
8252.00   1.74401093   0.04151698
8254.00   1.74986064   0.04152110
8256.00   1.71884263   0.04130312
8258.00   1.71775997   0.04134756
8260.00   1.74891770   0.04148475
8262.00   1.73424339   0.04122101
8264.00   1.67345703   0.04068431
8266.00   1.64550269   0.04060856
8268.00   1.66771066   0.04093870
8270.00   1.66829729   0.04119625
8272.00   1.65404081   0.04198325
8274.00   1.64014816   0.04388272
8276.00   1.62948072   0.04660683
8278.00   1.58876669   0.04893915
8280.00   1.57682407   0.05065111
8282.00   1.57584000   0.05268044
8284.00   1.57122052   0.05467474
8286.00   1.55521917   0.05517315
8288.00   1.57360470   0.05387085
8290.00   1.57179844   0.05290665
8292.00   1.54282773   0.05272054
8294.00   1.49670506   0.05275572
8296.00   1.51161671   0.05278488
8298.00   1.51897717   0.05267665
8300.00   1.49457705   0.05245974
8302.00   1.46179807   0.05028974
8304.00   1.45131540   0.04645500
8306.00   1.41397417   0.04299336
8308.00   1.35923994   0.04212622
8310.00   1.34505498   0.04223262
8312.00   1.32817185   0.04202954
8314.00   1.26376748   0.04099013
8316.00   1.24580145   0.03990875
8318.00   1.24441874   0.03840671
8320.00   1.20367622   0.03709780
8322.00   1.18447304   0.03644197
8324.00   1.15061045   0.03593200
8326.00   1.10903203   0.03551245
8328.00   1.07394314   0.03498211
8330.00   1.04665744   0.03448365
8332.00   1.02194488   0.03409893
8334.00   1.01326227   0.03440218
8336.00   0.99586076   0.03600367
8338.00   0.99740475   0.04263462
8340.00   0.96098429   0.05148476
8342.00   0.97886497   0.05800592
8344.00   0.95742077   0.05978705
8346.00   0.88790196   0.05967316
8348.00   0.89088440   0.05871800
8350.00   0.89720434   0.05377300
8352.00   0.86599475   0.04658179
8354.00   0.85842204   0.04305474
8356.00   0.85892105   0.04202424
8358.00   0.85281044   0.03974845
8360.00   0.82889986   0.03730819
8362.00   0.81873655   0.03644814
8364.00   0.80306536   0.03630900
8366.00   0.79420406   0.03604777
8368.00   0.77796054   0.03512389
8370.00   0.77934265   0.03362866
8372.00   0.76845020   0.03208147
8374.00   0.74917078   0.03185989
8376.00   0.74260569   0.03403897
8378.00   0.72262996   0.03664887
8380.00   0.73221654   0.03847945
8382.00   0.74549395   0.03924139
8384.00   0.74579287   0.03951133
8386.00   0.73718852   0.03799235
8388.00   0.73560381   0.03478277
8390.00   0.71135163   0.03206506
8392.00   0.67982149   0.03430232
8394.00   0.67887253   0.04234825
8396.00   0.70022422   0.04893215
8398.00   0.70476484   0.05097735
8400.00   0.69331318   0.05013155
8402.00   0.71980524   0.04885481
8404.00   0.73538858   0.04344685
8406.00   0.71559697   0.03596252
8408.00   0.69049621   0.03236441
8410.00   0.71385145   0.03519501
8412.00   0.75717974   0.03897920
8414.00   0.76529747   0.03981869
8416.00   0.73874623   0.03966943
8418.00   0.73119926   0.03893535
8420.00   0.74931049   0.03708263
8422.00   0.75625592   0.03549079
8424.00   0.75345063   0.03973142
8426.00   0.75651604   0.04742197
8428.00   0.78309298   0.05282606
8430.00   0.82500505   0.05375150
8432.00   0.84053737   0.05312357
8434.00   0.84070730   0.04925776
8436.00   0.82457525   0.04186282
8438.00   0.81822461   0.03420952
8440.00   0.83935910   0.03162939
8442.00   0.86180657   0.03152615
8444.00   0.85665029   0.03209858
8446.00   0.85062623   0.03432730
8448.00   0.86906940   0.03747175
8450.00   0.89208561   0.03978170
8452.00   0.89296055   0.04010995
8454.00   0.91388315   0.03985604
8456.00   0.91273528   0.03884286
8458.00   0.92798692   0.03867329
8460.00   0.96942645   0.04179828
8462.00   1.02652204   0.04729527
8464.00   1.01477492   0.04967454
8466.00   1.01334512   0.04977044
8468.00   0.99938220   0.04839203
8470.00   1.00543416   0.04470582
8472.00   1.06553113   0.03895851
8474.00   1.08159792   0.03524003
8476.00   1.08909845   0.03463878
8478.00   1.07289493   0.03447030
8480.00   1.09826410   0.03449957
8482.00   1.09927762   0.03433366
8484.00   1.08585215   0.03414539
8486.00   1.10900795   0.03501006
8488.00   1.15390408   0.03714121
8490.00   1.16539955   0.03909263
8492.00   1.16595078   0.03993181
8494.00   1.17011654   0.04020149
8496.00   1.15765655   0.04016276
8498.00   1.17419696   0.04075260
8500.00   1.21555924   0.04283174
8502.00   1.21474683   0.04440966
8504.00   1.22339547   0.04508669
8506.00   1.22836781   0.04498230
8508.00   1.20516646   0.04372266
8510.00   1.21727884   0.04042988
8512.00   1.24826276   0.03780921
8514.00   1.25773776   0.03680561
8516.00   1.29269612   0.03708425
8518.00   1.31145906   0.03736129
8520.00   1.33273995   0.03710834
8522.00   1.32707191   0.03667741
8524.00   1.35179532   0.03676116
8526.00   1.34121263   0.03669237
8528.00   1.32935607   0.03649144
8530.00   1.32626188   0.03646807
8532.00   1.37013447   0.03722567
8534.00   1.39776003   0.03819844
8536.00   1.38532293   0.03880856
8538.00   1.36573410   0.03896986
8540.00   1.38038671   0.03923110
8542.00   1.38416910   0.03981261
8544.00   1.38823700   0.04073912
8546.00   1.38488042   0.04132586
8548.00   1.40405977   0.04158027
8550.00   1.38845110   0.04141567
8552.00   1.38814068   0.04083161
8554.00   1.39294565   0.03943070
8556.00   1.41564310   0.03805938
8558.00   1.41218555   0.03732604
8560.00   1.43935311   0.03736830
8562.00   1.46419716   0.03749551
8564.00   1.48142099   0.03764662
8566.00   1.48201132   0.03770560
8568.00   1.47519672   0.03776189
8570.00   1.47499466   0.03783828
8572.00   1.49307215   0.03810691
8574.00   1.52940619   0.03849364
8576.00   1.55210161   0.03874128
8578.00   1.56795180   0.03880285
8580.00   1.59296167   0.03900975
8582.00   1.62256587   0.03941692
8584.00   1.65319884   0.04003006
8586.00   1.67323720   0.04051239
8588.00   1.70206058   0.04102557
8590.00   1.73061407   0.04155062
8592.00   1.77808845   0.04224478
8594.00   1.84086370   0.04294499
8596.00   1.89618301   0.04328100
8598.00   1.96849406   0.04374677
8600.00   2.00329590   0.04385113
8602.00   2.04379845   0.04377493
8604.00   2.08095384   0.04360820
8606.00   2.11084151   0.04377102
8608.00   2.19828773   0.04481119
8610.00   2.24004269   0.04586371
8612.00   2.22657204   0.04674345
8614.00   2.24034190   0.04794341
8616.00   2.30932164   0.04960154
8618.00   2.35199332   0.05125962
8620.00   2.38988185   0.05290315
8622.00   2.41486955   0.05427420
8624.00   2.41139150   0.05531186
8626.00   2.42315030   0.05621044
8628.00   2.48420620   0.05703105
8630.00   2.56774449   0.05751801
8632.00   2.62037373   0.05732694
8634.00   2.65560198   0.05658102
8636.00   2.64345193   0.05532786
8638.00   2.66636491   0.05403452
8640.00   2.71089363   0.05283963
8642.00   2.70620990   0.05188298
8644.00   2.74475169   0.05214687
8646.00   2.79726410   0.05313612
8648.00   2.79631710   0.05429247
8650.00   2.82844067   0.05578780
8652.00   2.85718727   0.05724964
8654.00   2.90298200   0.05839357
8656.00   2.92239594   0.05890259
8658.00   2.92651629   0.05899363
8660.00   2.92685723   0.05888051
8662.00   2.96380830   0.05875470
8664.00   2.99125552   0.05855444
8666.00   2.98148799   0.05801636
8668.00   3.02930737   0.05760053
8670.00   3.06770396   0.05717573
8672.00   3.03605652   0.05638412
8674.00   3.03537655   0.05568485
8676.00   3.08977818   0.05524436
8678.00   3.09907699   0.05458929
8680.00   3.09577465   0.05387008
8682.00   3.09450245   0.05329243
8684.00   3.08944607   0.05276138
8686.00   3.09686017   0.05234395
8688.00   3.09841895   0.05186609
8690.00   3.11524796   0.05159372
8692.00   3.12747765   0.05144030
8694.00   3.14075589   0.05138823
8696.00   3.15251708   0.05132161
8698.00   3.15143132   0.05125986
8700.00   3.15717435   0.05132566
8702.00   3.17652726   0.05143442
8704.00   3.19555092   0.05147773
8706.00   3.17562270   0.05123154
8708.00   3.16408420   0.05095150
8710.00   3.16913986   0.05077188
8712.00   3.19425893   0.05075926
8714.00   3.21005440   0.05067949
8716.00   3.19992709   0.05041813
8718.00   3.20745397   0.05037387
8720.00   3.20664525   0.05035666
8722.00   3.19403458   0.05033227
8724.00   3.19619727   0.05039624
8726.00   3.18972993   0.05041950
8728.00   3.21267724   0.05050732
8730.00   3.23201108   0.05050057
8732.00   3.21433759   0.05032952
8734.00   3.19419789   0.05027024
8736.00   3.19369125   0.05042722
8738.00   3.19585514   0.05048755
8740.00   3.21858215   0.05054324
8742.00   3.23306847   0.05062846
8744.00   3.23516679   0.05066786
8746.00   3.27710223   0.05093338
8748.00   3.23402095   0.05060157
8750.00   3.17618465   0.05036503
8752.00   3.19671893   0.05144523
8754.00   3.23348403   0.05408096
8756.00   3.24726009   0.05794844
8758.00   3.23846459   0.06168656
8760.00   3.24402928   0.06431938
8762.00   3.24195480   0.06749195
8764.00   3.23440051   0.06992731
8766.00   3.25489616   0.06944763
8768.00   3.27413821   0.06685619
8770.00   3.31527138   0.06587196
8772.00   3.31003833   0.06612407
8774.00   3.25971103   0.06660483
8776.00   3.28599882   0.06655764
8778.00   3.28870034   0.06644425
#8780.00   3.17427611   0.06526083
8782.00   3.29802227   0.06197158
8784.00   3.32429051   0.05745168
8786.00   3.30970573   0.05510544
8788.00   3.34937549   0.05558525
8790.00   3.40006638   0.05643698
8792.00   3.41163921   0.05655238
8794.00   3.40992093   0.05604314
8796.00   3.34782958   0.05418706
8798.00   3.37521577   0.05236311
8800.00   3.43047071   0.05176547
8802.00   3.49006367   0.05229856
8804.00   3.49822307   0.05268323
8806.00   3.48712826   0.05269447
8808.00   3.51070118   0.05289174
8810.00   3.53987575   0.05310566
8812.00   3.51382542   0.05310452
8814.00   3.52926326   0.05339196
8816.00   3.60359192   0.05372067
8818.00   3.64328933   0.05480206
8820.00   3.62911582   0.05989102
8822.00   3.57748604   0.06828379
8824.00   3.54543185   0.07552575
8826.00   3.57638144   0.07870129
8828.00   3.63984203   0.07982194
8830.00   3.60886288   0.07872041
8832.00   3.58307934   0.07505133
8834.00   3.63037038   0.06978480
8836.00   3.65433311   0.06620869
8838.00   3.58695602   0.06453358
8840.00   3.53684020   0.06265116
8842.00   3.54476142   0.05938016
8844.00   3.61097360   0.05716297
8846.00   3.73836899   0.05791792
8848.00   3.79597855   0.05902963
8850.00   3.78703880   0.05941800
8852.00   3.84439945   0.05973558
8854.00   3.89936829   0.05927312
8856.00   3.86560941   0.05738481
8858.00   3.81803918   0.05610431
8860.00   3.79501605   0.05669681
8862.00   3.76602840   0.05870305
8864.00   3.75704217   0.06117256
8866.00   3.75317264   0.06236990
8868.00   3.73424029   0.06240802
8870.00   3.72622991   0.06155885
8872.00   3.73454666   0.05960509
8874.00   3.73713374   0.05654036
8876.00   3.72960305   0.05481592
8878.00   3.77583194   0.05703599
8880.00   3.82694912   0.06287294
8882.00   3.79730296   0.06945118
8884.00   3.73701215   0.07187003
8886.00   3.63686490   0.07207821
8888.00   3.68059421   0.07183373
8890.00   3.74968791   0.06889353
8892.00   3.71776772   0.06130114
8894.00   3.71464992   0.05608299
8896.00   3.69012547   0.05558135
8898.00   3.68268085   0.05829610
8900.00   3.69122434   0.06140820
8902.00   3.75948811   0.06313153
8904.00   3.75347900   0.06340362
8906.00   3.67425537   0.06204742
8908.00   3.59436107   0.05890582
8910.00   3.61399150   0.05573736
8912.00   3.66012573   0.05666605
8914.00   3.66794896   0.06331108
8916.00   3.62669015   0.07053112
8918.00   3.63285470   0.07488591
8920.00   3.75507045   0.07612720
8922.00   3.74229884   0.07429460
8924.00   3.69453549   0.06899441
8926.00   3.67699313   0.06161964
8928.00   3.61835861   0.05548245
8930.00   3.56731224   0.05326029
8932.00   3.56289935   0.05322947
8934.00   3.59033990   0.05367090
8936.00   3.59389496   0.05476962
8938.00   3.58311963   0.05705126
8940.00   3.56019235   0.05924050
8942.00   3.53320575   0.06011005
8944.00   3.50300407   0.06042345
8946.00   3.51028252   0.06015218
8948.00   3.52425313   0.05853600
8950.00   3.46346545   0.05663240
8952.00   3.43372464   0.05972731
8954.00   3.48995304   0.06612109
8956.00   3.54472804   0.07083759
8958.00   3.50121784   0.07119909
8960.00   3.47695279   0.06986085
8962.00   3.45849991   0.06625187
8964.00   3.43702507   0.06093910
8966.00   3.41501546   0.05698674
8968.00   3.38533974   0.05699735
8970.00   3.38862634   0.05720360
8972.00   3.40152717   0.05561708
8974.00   3.38919711   0.05365894
8976.00   3.35342908   0.05279300
8978.00   3.35882497   0.05242170
8980.00   3.34076858   0.05251483
8982.00   3.36515260   0.05415882
8984.00   3.38401985   0.05682245
8986.00   3.33394694   0.05880923
8988.00   3.27426410   0.05964504
8990.00   3.35918641   0.06038341
8992.00   3.39023280   0.05926498
8994.00   3.36272168   0.05765261
8996.00   3.31600690   0.05870058
8998.00   3.32190585   0.06265468
9000.00   3.35168004   0.06475331
9002.00   3.43845773   0.06613054
9004.00   3.51605129   0.06645022
9006.00   3.52315331   0.06384850
9008.00   3.48157501   0.05809564
9010.00   3.40336156   0.05401178
9012.00   3.30106354   0.05224393
9014.00   3.24615598   0.05184156
9016.00   3.26252937   0.05203109
9018.00   3.26070857   0.05196456
9020.00   3.24458671   0.05169382
9022.00   3.17226338   0.05122402
9024.00   3.13944554   0.05111079
9026.00   3.14810157   0.05097724
9028.00   3.18778896   0.05087438
9030.00   3.15441346   0.05054084
9032.00   3.14211082   0.05101477
9034.00   3.12469363   0.05190943
9036.00   3.11748195   0.05245403
9038.00   3.12266707   0.05260459
9040.00   3.12659144   0.05281033
9042.00   3.13774467   0.05327085
9044.00   3.10327721   0.05374072
9046.00   3.01781368   0.05393845
9048.00   2.98800349   0.05441036
9050.00   3.03555179   0.05534305
9052.00   3.03358650   0.05531504
9054.00   2.98118591   0.05340409
9056.00   2.97523332   0.05083398
9058.00   2.92665863   0.04888314
9060.00   2.88453579   0.04820967
9062.00   2.85954785   0.04825538
9064.00   2.82775688   0.04820010
9066.00   2.82625318   0.04877460
9068.00   2.85746360   0.04938249
9070.00   2.82527280   0.04911882
9072.00   2.78492379   0.04848278
9074.00   2.79796767   0.04832532
9076.00   2.78849101   0.04798792
9078.00   2.76465678   0.04795511
9080.00   2.79092789   0.04851526
9082.00   2.81496239   0.04882013
9084.00   2.76195216   0.04830983
9086.00   2.71499228   0.04844406
9088.00   2.70252895   0.04900884
9090.00   2.68168521   0.04899818
9092.00   2.65384674   0.04842180
9094.00   2.67672849   0.04873040
9096.00   2.72668338   0.04974354
9098.00   2.71237588   0.05030425
9100.00   2.66731811   0.05034073
9102.00   2.65646601   0.05043379
9104.00   2.65204573   0.05027723
9106.00   2.62068582   0.04934216
9108.00   2.61369920   0.04795974
9110.00   2.63124108   0.04675004
9112.00   2.60933518   0.04590696
9114.00   2.57450294   0.04577058
9116.00   2.54851699   0.04581146
9118.00   2.53368378   0.04582189
9120.00   2.54063821   0.04585889
9122.00   2.53381228   0.04585283
9124.00   2.51350689   0.04560649
9126.00   2.50715661   0.04548317
9128.00   2.54866028   0.04602024
9130.00   2.56453156   0.04654777
9132.00   2.55274796   0.04674865
9134.00   2.49892902   0.04641923
9136.00   2.49414539   0.04621734
9138.00   2.53154635   0.04589294
9140.00   2.52428317   0.04543223
9142.00   2.48558307   0.04593673
9144.00   2.48518062   0.04982388
9146.00   2.51114368   0.05071576
9148.00   2.46319199   0.04965223
9150.00   2.35469604   0.04877799
9152.00   2.40003705   0.05184910
9154.00   2.46229148   0.05386805
9156.00   2.47321963   0.05341684
9158.00   2.48361325   0.05186016
9160.00   2.45486450   0.05019952
9162.00   2.33218741   0.04770986
9164.00   2.46639872   0.04672240
9166.00   2.40697980   0.04698082
9168.00   2.50174499   0.04762562
9170.00   2.49137783   0.04807584
9172.00   2.45379162   0.04728308
9174.00   2.44812894   0.04696386
9176.00   2.43617105   0.04662673
9178.00   2.42378545   0.04603629
9180.00   2.38598013   0.04497560
9182.00   2.40606046   0.04517739
9184.00   2.44069767   0.04547781
9186.00   2.45349979   0.04552888
9188.00   2.44939351   0.04532207
9190.00   2.43864036   0.04519000
9192.00   2.40653658   0.04507087
9194.00   2.39811826   0.04503116
9196.00   2.41319442   0.04504504
9198.00   2.40237021   0.04470496
9200.00   2.44133997   0.04472937
9202.00   2.47093129   0.04492417
9204.00   2.46550083   0.04521549
9206.00   2.47784019   0.04577265
9208.00   2.52263427   0.04637679
9210.00   2.50300336   0.04646683
9212.00   2.47701955   0.04679031
9214.00   2.49529839   0.04747341
9216.00   2.55528855   0.04855866
9218.00   2.63145041   0.05020045
9220.00   2.66335988   0.05120569
9222.00   2.62461424   0.05063143
9224.00   2.55776238   0.04928029
9226.00   2.53175807   0.04827134
9228.00   2.52954698   0.04755193
9230.00   2.49199462   0.04650895
9232.00   2.45078588   0.04560949
9234.00   2.45801902   0.04541275
9236.00   2.48579383   0.04562664
9238.00   2.45345807   0.04507140
9240.00   2.41993546   0.04450920
9242.00   2.42415237   0.04471880
9244.00   2.45418739   0.04552446
9246.00   2.46184516   0.04612802
9248.00   2.46374774   0.04618746
9250.00   2.42062449   0.04552861
9252.00   2.38879967   0.04488503
9254.00   2.39073777   0.04482007
9256.00   2.41347480   0.04500255
9258.00   2.42016196   0.04520885
9260.00   2.42090821   0.04534822
9262.00   2.43325973   0.04546113
9264.00   2.43522716   0.04522421
9266.00   2.42607307   0.04491988
9268.00   2.37585163   0.04407867
9270.00   2.34710717   0.04371707
9272.00   2.35311294   0.04387862
9274.00   2.35863900   0.04420900
9276.00   2.35056949   0.04471183
9278.00   2.35792089   0.04514872
9280.00   2.34130859   0.04507330
9282.00   2.32065892   0.04510929
9284.00   2.33011603   0.04576928
9286.00   2.37966657   0.04638820
9288.00   2.34315610   0.04640916
9290.00   2.31502032   0.04638268
9292.00   2.29140592   0.04620183
9294.00   2.30077720   0.04638734
9296.00   2.33758616   0.04744757
9298.00   2.36665654   0.04905787
9300.00   2.33060169   0.05217102
9302.00   2.25209880   0.05763218
9304.00   2.20877910   0.06440509
9306.00   2.18581176   0.07216659
9308.00   2.21727967   0.08054608
9310.00   2.20553613   0.08576068
9312.00   2.13846040   0.08633620
9314.00   2.20190883   0.08564981
9316.00   2.27752209   0.08468783
9318.00   2.27866650   0.08261562
9320.00   2.25370812   0.08070704
9322.00   2.22767258   0.08035845
9324.00   2.20328522   0.07958283
9326.00   2.18823886   0.07622772
9328.00   2.18019342   0.06933614
9330.00   2.15591717   0.06086451
9332.00   2.17921925   0.05750740
9334.00   2.22498536   0.06017819
9336.00   2.22487879   0.06194991
9338.00   2.19389915   0.06234498
9340.00   2.17759013   0.06414390
9342.00   2.22898936   0.06531685
9344.00   2.34235382   0.06154376
9346.00   2.30378985   0.05486807
9348.00   2.18665504   0.05013812
9350.00   2.11098075   0.04908477
9352.00   2.12066889   0.05090060
9354.00   2.16765833   0.05366831
9356.00   2.22969007   0.05464097
9358.00   2.25706363   0.05314885
9360.00   2.24567056   0.05094564
9362.00   2.20624352   0.04970729
9364.00   2.17148519   0.04993360
9366.00   2.17406869   0.05334901
9368.00   2.19433045   0.06306858
9370.00   2.18391299   0.07834172
9372.00   2.18165088   0.09283572
9374.00   2.20465755   0.10014822
9376.00   2.22474122   0.10352053
9378.00   2.21969581   0.10354096
9380.00   2.15986156   0.09534770
9382.00   2.16087604   0.07769359
9384.00   2.17224097   0.06225702
9386.00   2.16333151   0.05473688
9388.00   2.13028145   0.05246556
9390.00   2.19363904   0.05091091
9392.00   2.21093369   0.04901755
9394.00   2.17895389   0.04807126
9396.00   2.11352944   0.04926882
9398.00   2.08622932   0.05244074
9400.00   2.12403297   0.05519607
9402.00   2.17860413   0.05587184
9404.00   2.16437674   0.05519328
9406.00   2.13619661   0.05411687
9408.00   2.11348557   0.05264294
9410.00   2.12260246   0.05092810
9412.00   2.10676289   0.05254045
9414.00   2.10120082   0.05446090
9416.00   2.09658313   0.05655031
9418.00   2.03363132   0.05918518
9420.00   2.10117316   0.06124820
9422.00   2.06112814   0.06185450
9424.00   2.04305673   0.06106410
9426.00   2.06099486   0.05817370
9428.00   2.07423377   0.05330978
9430.00   2.07829881   0.05039070
9432.00   2.06259632   0.05272341
9434.00   1.96923399   0.06261636
9436.00   1.94413471   0.07733005
9438.00   1.99402249   0.08977231
9440.00   2.03069019   0.09527192
9442.00   2.05906463   0.09188637
9444.00   2.01871085   0.07902990
9446.00   1.97462118   0.06138143
9448.00   1.96088123   0.05076170
9450.00   1.97987461   0.04908782
9452.00   1.97638452   0.05415266
9454.00   1.94596255   0.06205403
9456.00   1.95615137   0.06876299
9458.00   2.01225686   0.07144523
9460.00   2.03164148   0.06975823
9462.00   1.94248736   0.06413629
9464.00   1.90819120   0.05633859
9466.00   1.89966667   0.04941103
9468.00   1.92478561   0.04864389
9470.00   1.96353829   0.05708688
9472.00   2.01545358   0.06963661
9474.00   2.00064945   0.07979860
9476.00   1.95846272   0.08501211
9478.00   1.93196309   0.08812958
9480.00   1.94333684   0.08532550
9482.00   1.93807983   0.07389841
9484.00   1.94601536   0.05780415
9486.00   1.93082476   0.04784984
9488.00   1.91662753   0.04545059
9490.00   1.92342222   0.04603269
9492.00   1.94785273   0.04782352
9494.00   1.96261942   0.05111365
9496.00   1.97211134   0.05642888
9498.00   1.96547890   0.06327415
9500.00   1.98629379   0.06709000
9502.00   2.01192927   0.06609710
9504.00   1.99421751   0.06200622
9506.00   1.95158732   0.05762186
9508.00   1.92184722   0.05241400
9510.00   1.94562626   0.04879584
9512.00   1.94416535   0.05085609
9514.00   1.96739233   0.06003790
9516.00   1.97034681   0.07095757
9518.00   1.96694314   0.07739057
9520.00   1.96919405   0.07960799
9522.00   2.05007958   0.07790156
9524.00   2.09179211   0.07044387
9526.00   2.09149289   0.05911586
9528.00   2.07587552   0.05179454
9530.00   2.12737346   0.05067291
9532.00   2.18337131   0.05214634
9534.00   2.27274966   0.05420895
9536.00   2.34159255   0.05562576
9538.00   2.33785224   0.05550745
9540.00   2.30742359   0.05446817
9542.00   2.22130466   0.05302393
9544.00   2.23278141   0.05290829
9546.00   2.24850583   0.05437011
9548.00   2.17294431   0.05628143
9550.00   2.08755612   0.05827563
9552.00   2.09981060   0.06042833
9554.00   2.17953491   0.06231359
9556.00   2.22463250   0.06184306
9558.00   2.21826911   0.05866026
9560.00   2.12958503   0.05667479
9562.00   2.12085080   0.06194061
9564.00   2.19922996   0.07137267
9566.00   2.22827244   0.07521384
9568.00   2.23689580   0.07369183
9570.00   2.22891164   0.06907098
9572.00   2.23712063   0.06280221
9574.00   2.23314404   0.05523811
9576.00   2.24706244   0.05086975
9578.00   2.25875854   0.04972141
9580.00   2.28488684   0.04973541
9582.00   2.26619887   0.04902384
9584.00   2.25350595   0.04880093
9586.00   2.25678587   0.04942090
9588.00   2.26570797   0.05061992
9590.00   2.30111790   0.05174112
9592.00   2.34859395   0.05185075
9594.00   2.37780213   0.05114585
9596.00   2.35841846   0.05025381
9598.00   2.33797932   0.04969565
9600.00   2.31045222   0.04988888
9602.00   2.31277490   0.05199778
9604.00   2.37818670   0.05546330
9606.00   2.39788699   0.05716240
9608.00   2.38380075   0.05683460
9610.00   2.38232398   0.05635137
9612.00   2.41712761   0.05608726
9614.00   2.43614030   0.05628089
9616.00   2.47851920   0.05814451
9618.00   2.48096681   0.06064965
9620.00   2.41870236   0.06167935
9622.00   2.41050410   0.06217004
9624.00   2.45403600   0.06141914
9626.00   2.47375488   0.05851526
9628.00   2.47449803   0.05450850
9630.00   2.47715139   0.05212391
9632.00   2.42317319   0.05106169
9634.00   2.38590717   0.05091840
9636.00   2.40444446   0.05124180
9638.00   2.42218089   0.05143173
9640.00   2.46010327   0.05155470
9642.00   2.49296498   0.05189373
9644.00   2.46336818   0.05174510
9646.00   2.42571759   0.05155899
9648.00   2.44070888   0.05187164
9650.00   2.45922923   0.05236745
9652.00   2.47886300   0.05251330
9654.00   2.46711802   0.05251161
9656.00   2.42242312   0.05267191
9658.00   2.41970444   0.05324607
9660.00   2.39845467   0.05377759
9662.00   2.44931960   0.05575221
9664.00   2.42428994   0.05751861
9666.00   2.37073779   0.05849210
9668.00   2.37806630   0.05890202
9670.00   2.38628268   0.05852813
9672.00   2.39258814   0.05770583
9674.00   2.42885375   0.05788912
9676.00   2.46180797   0.05995331
9678.00   2.41849637   0.06273105
9680.00   2.36155963   0.06332330
9682.00   2.29009438   0.06240342
9684.00   2.28690696   0.06140453
9686.00   2.33052778   0.06025414
9688.00   2.29323554   0.05735383
9690.00   2.30191159   0.05575885
9692.00   2.31264615   0.05670743
9694.00   2.32187462   0.05974356
9696.00   2.29606152   0.06254289
9698.00   2.26863861   0.06378365
9700.00   2.28594613   0.06404559
9702.00   2.26456380   0.06243031
9704.00   2.22627139   0.05913926
9706.00   2.21674776   0.05591687
9708.00   2.19718671   0.05504304
9710.00   2.17523074   0.05587481
9712.00   2.20808244   0.05857821
9714.00   2.21723199   0.06225328
9716.00   2.18895817   0.06573302
9718.00   2.16518664   0.06692454
9720.00   2.14435983   0.06688958
9722.00   2.10602188   0.06589528
9724.00   2.08950353   0.06335675
9726.00   2.08248925   0.05772927
9728.00   2.09973979   0.05381292
9730.00   2.13160038   0.05364798
9732.00   2.11716843   0.05581016
9734.00   2.07783294   0.05803609
9736.00   2.07174325   0.05951514
9738.00   2.06539559   0.05955669
9740.00   2.04608727   0.05918770
9742.00   2.00909495   0.05827848
9744.00   2.03761220   0.05690433
9746.00   2.04685593   0.05515122
9748.00   1.95560586   0.05312116
9750.00   1.87889016   0.05166169
9752.00   1.89580405   0.05078819
9754.00   1.98390293   0.05140415
9756.00   2.14042020   0.05399933
9758.00   2.13864756   0.05389830
9760.00   2.00568700   0.05084027
9762.00   1.89847910   0.04825008
9764.00   1.90119684   0.04815204
9766.00   1.86367261   0.04783897
9768.00   1.84525502   0.04751541
9770.00   1.85902536   0.04745528
9772.00   1.85943949   0.04761324
9774.00   1.84152794   0.04784478
9776.00   1.84540498   0.04859343
9778.00   1.83877242   0.04931433
9780.00   1.87015903   0.05062959
9782.00   1.88160217   0.05354519
9784.00   1.79703963   0.05990697
9786.00   1.72542274   0.07068723
9788.00   1.73131144   0.08081194
9790.00   1.78473663   0.08685837
9792.00   1.83281672   0.08891711
9794.00   1.88638246   0.08884907
9796.00   1.89189470   0.08376766
9798.00   1.79154384   0.07496820
9800.00   1.73155749   0.06795771
9802.00   1.79527235   0.06589017
9804.00   1.79287469   0.06323867
9806.00   1.75270164   0.05936982
9808.00   1.74865019   0.05695338
9810.00   1.74105024   0.05703747
9812.00   1.76923501   0.05843103
9814.00   1.75537920   0.05849872
9816.00   1.78080368   0.05729300
9818.00   1.79372597   0.05558987
9820.00   1.78227746   0.05410462
9822.00   1.77995098   0.05315532
9824.00   1.75547075   0.05247289
9826.00   1.71898901   0.05182992
9828.00   1.73615468   0.05209209
9830.00   1.76938355   0.05226527
9832.00   1.72772694   0.05159318
9834.00   1.72440302   0.05107613
9836.00   1.77792943   0.05116886
9838.00   1.76128209   0.05105244
9840.00   1.73657882   0.05165672
9842.00   1.70747888   0.05376686
9844.00   1.76270199   0.05813384
9846.00   1.79602849   0.06188462
9848.00   1.72794473   0.06271873
9850.00   1.72246552   0.06195226
9852.00   1.75354707   0.06010082
9854.00   1.77338278   0.05709205
9856.00   1.80117953   0.05430399
9858.00   1.85241461   0.05339194
9860.00   1.89268506   0.05366450
9862.00   1.86282718   0.05387767
9864.00   1.78745759   0.05694226
9866.00   1.80992663   0.06591416
9868.00   1.83053935   0.07680816
9870.00   1.82106364   0.08366650
9872.00   1.87419856   0.08693135
9874.00   1.92914045   0.08614988
9876.00   1.92537630   0.08000342
9878.00   1.87000525   0.06963577
9880.00   1.85035741   0.06129165
9882.00   1.90871179   0.05819435
9884.00   1.91229880   0.05744304
9886.00   1.89278316   0.05800679
9888.00   1.93581235   0.06126156
9890.00   1.95050538   0.06661481
9892.00   1.96418333   0.07108271
9894.00   1.98583651   0.07318611
9896.00   2.00009632   0.07298481
9898.00   2.01362920   0.07118743
9900.00   2.02104616   0.06707948
9902.00   1.98139095   0.06215091
9904.00   1.97843587   0.05945444
9906.00   1.96957839   0.06133145
9908.00   1.96544540   0.06877830
9910.00   1.97501409   0.07949393
9912.00   2.00451541   0.08807568
9914.00   1.99842894   0.09184996
9916.00   2.01624131   0.09151151
9918.00   2.03889465   0.08746713
9920.00   2.05684352   0.07860537
9922.00   2.05991745   0.06884486
9924.00   2.08579040   0.06275057
9926.00   2.08962369   0.06134747
9928.00   2.09846616   0.06180431
9930.00   2.16195703   0.06357517
9932.00   2.19546914   0.06512360
9934.00   2.19545031   0.06773813
9936.00   2.18443513   0.07382822
9938.00   2.23575306   0.08485522
9940.00   2.24089336   0.09673929
9942.00   2.24590921   0.10765031
9944.00   2.21799493   0.11473402
9946.00   2.18192697   0.11605034
9948.00   2.10524774   0.11271355
9950.00   2.10793686   0.10872019
9952.00   2.16809916   0.10599476
9954.00   2.17608190   0.10501695
9956.00   2.15493774   0.10688405
9958.00   2.27383423   0.11109075
9960.00   2.34747124   0.11126135
9962.00   2.38508153   0.10595775
9964.00   2.39214444   0.09830352
9966.00   2.34643149   0.09157892
9968.00   2.37128043   0.08642285
9970.00   2.44929075   0.08344815
9972.00   2.45514464   0.08234569
9974.00   2.50555873   0.08239304
9976.00   2.48715377   0.08102342
9978.00   2.46210074   0.07818610
9980.00   2.47073913   0.07540599
9982.00   2.49698925   0.07357847
9984.00   2.53540516   0.07221508
9986.00   2.54519153   0.07128331
9988.00   2.50794816   0.07082750
9990.00   2.55434418   0.07170353
9992.00   2.64966035   0.07335938
9994.00   2.66141701   0.07550702
9996.00   2.64114547   0.07827587
9998.00   2.63685393   0.08038669
10000.00   2.65185142   0.08187471
10002.00   2.67353439   0.08350337
10004.00   2.65478516   0.08754704
10006.00   2.64293933   0.09807190
10008.00   2.64395595   0.11295690
10010.00   2.66071606   0.12654385
10012.00   2.61596847   0.13353150
10014.00   2.67932487   0.13466358
10016.00   2.62563777   0.12935358
10018.00   2.63671422   0.11864754
10020.00   2.66935992   0.10751292
10022.00   2.73794150   0.10338971
10024.00   2.80395961   0.10367932
10026.00   2.85001111   0.10349073
10028.00   2.92401528   0.10172579
10030.00   2.89104819   0.09668846
10032.00   2.87782359   0.09004573
10034.00   2.87161422   0.08581132
10036.00   2.97543144   0.08599383
10038.00   2.99746132   0.08834889
10040.00   2.94914937   0.09040379
10042.00   2.92811608   0.09163246
10044.00   2.93281269   0.09199125
10046.00   2.92099738   0.09118428
10048.00   2.91063309   0.08922565
10050.00   2.89426160   0.08707058
10052.00   2.90416503   0.08692759
10054.00   2.95071101   0.09086933
10056.00   3.01016927   0.09707590
10058.00   3.03057456   0.10219529
10060.00   3.01322627   0.10505736
10062.00   2.95871568   0.10611168
10064.00   2.91646409   0.10570281
10066.00   2.91673446   0.10401554
10068.00   2.94521260   0.10187495
10070.00   2.97345996   0.10030847
10072.00   2.99240112   0.09981631
10074.00   2.98597050   0.10223070
10076.00   2.97842336   0.10925484
10078.00   2.99390411   0.11971892
10080.00   2.95793724   0.12834491
10082.00   2.93756866   0.13213213
10084.00   3.04758906   0.13202125
10086.00   3.12293720   0.12688017
10088.00   3.08456802   0.11615203
10090.00   3.00764585   0.10401446
10092.00   3.01217008   0.09800768
10094.00   3.03244328   0.09757202
10096.00   3.04763103   0.10081985
10098.00   3.02212715   0.10637367
10100.00   2.96648526   0.11266366
10102.00   2.99342370   0.11643837
10104.00   3.01826644   0.11737915
10106.00   2.98293877   0.11580794
10108.00   2.93678355   0.11160535
10110.00   2.95861173   0.10557023
10112.00   2.94794726   0.10104556
10114.00   2.89151168   0.10099462
10116.00   2.90838742   0.10880103
10118.00   2.89408660   0.12324643
10120.00   2.83043456   0.13974832
10122.00   2.87291527   0.15142548
10124.00   2.94842792   0.15582444
10126.00   3.09670925   0.15467344
10128.00   3.22048736   0.14740948
10130.00   3.07154918   0.13158536
10132.00   2.96141124   0.11726294
10134.00   3.02194023   0.11124139
10136.00   3.04635310   0.11095574
10138.00   3.00771737   0.11128796
10140.00   2.97884178   0.11237323
10142.00   2.96034551   0.11447856
10144.00   2.94035697   0.11769482
10146.00   2.98086619   0.12328905
10148.00   3.10497451   0.13097812
10150.00   2.96399570   0.13579665
10152.00   2.93398094   0.13937284
10154.00   2.93925261   0.14144166
10156.00   3.06888223   0.14238900
10158.00   3.07454777   0.13908310
10160.00   3.00906110   0.13431838
10162.00   2.98022962   0.13272341
10164.00   2.98750687   0.13926142
10166.00   2.86162877   0.15340352
10168.00   2.91319561   0.17187910
10170.00   2.84155464   0.18138230
10172.00   2.85211873   0.18411088
10174.00   2.82480407   0.18168207
10176.00   2.77228379   0.17259943
10178.00   2.78933072   0.15668534
10180.00   2.91769791   0.14681338
10182.00   2.96470070   0.14652286
10184.00   2.95753980   0.15361910
10186.00   2.91080260   0.16237240
10188.00   2.98438168   0.16833727
10190.00   3.14450336   0.17026074
10192.00   3.09243703   0.16740854
10194.00   2.87866020   0.15907545
10196.00   2.90020370   0.15042387
10198.00   2.85834622   0.14775120
10200.00   2.83418465   0.15089716
10202.00   2.86966825   0.15888794
10204.00   2.86917615   0.17196196
10206.00   2.77013302   0.18689424
10208.00   2.72374415   0.19630261
10210.00   2.73647881   0.19933467
10212.00   2.85322094   0.19718330
10214.00   2.85603452   0.18833143
10216.00   2.84955287   0.17267470
10218.00   2.81453395   0.15979184
10220.00   2.86164212   0.15890115
10222.00   2.90236545   0.16811867
10224.00   2.83461833   0.17731959
10226.00   2.65696168   0.18241799
10228.00   2.53812027   0.18560290
10230.00   2.70577884   0.18167472
10232.00   2.75064659   0.17249887
10234.00   2.74323678   0.16228884
10236.00   2.79163933   0.15312345
10238.00   2.83409786   0.14571945
10240.00   2.83906293   0.14108567
10242.00   2.72676206   0.13831507
10244.00   2.64894223   0.13744357
10246.00   2.71632099   0.13776128
10248.00   2.82243919   0.13966067
10250.00   2.81237531   0.14097625
10252.00   2.65182137   0.13999489
10254.00   2.61167884   0.14076531
10256.00   2.70704389   0.14485532
10258.00   2.82070255   0.14869456
10260.00   2.65493155   0.15149474
10262.00   2.61521673   0.14817062
10264.00   2.70414352   0.15368739
10266.00   2.92955112   0.16624737
10268.00   2.68598342   0.16472812
10270.00   2.62349677   0.16688192
10272.00   2.61378837   0.16940093
10274.00   2.52392006   0.16969870
10276.00   2.42168880   0.17214282
10278.00   2.49285245   0.19137673
10280.00   2.53205109   0.22111559
10282.00   2.54081655   0.26810718
10284.00   2.50015926   0.30458963
10286.00   2.44631362   0.32882121
10288.00   2.67338991   0.33148876
10290.00   2.34759164   0.32216999
10292.00   2.05323672   0.29587159
10294.00   2.18915033   0.26749483
10296.00   2.39701533   0.25013617
10298.00   2.56900477   0.24040525
10300.00   2.60756373   0.22675836
10302.00   2.55474401   0.21352035
10304.00   2.49119020   0.20308776
10306.00   2.64531136   0.19979912
10308.00   2.58291006   0.20042996
10310.00   2.39218521   0.20014746
10312.00   2.49750018   0.20007898
10314.00   2.47479701   0.19713654
10316.00   2.53607106   0.19237052
10318.00   2.56038785   0.18813317
10320.00   2.41672730   0.18705052
10322.00   2.52518177   0.18840982
10324.00   2.40978742   0.18984886
10326.00   2.16943526   0.19157399
10328.00   2.27555394   0.19521666
10330.00   2.26930785   0.19950503
10332.00   2.49853158   0.20136845
10334.00   2.38839507   0.20322873
10336.00   2.38180089   0.20841931
10338.00   2.44001389   0.21743657
10340.00   2.57211614   0.23130067
10342.00   2.10648227   0.24383672
10344.00   2.57928371   0.26390776
10346.00   2.41546082   0.27459374
10348.00   2.68002653   0.27977338
10350.00   2.36013198   0.27961895
10352.00   2.39218998   0.27130008
10354.00   2.41818881   0.26036865
10356.00   2.31795430   0.25119376
10358.00   2.28238630   0.24287248
10360.00   2.32983327   0.23990040
10362.00   2.61707926   0.24416260
10364.00   2.50406718   0.26278383
10366.00   2.24911404   0.28553644
10368.00   2.10050249   0.33376557
10370.00   2.53236365   0.38021994
10372.00   2.34362555   0.40806961
10374.00   2.25951815   0.41142133
10376.00   2.29219890   0.39140591
10378.00   2.08948612   0.34784433
10380.00   2.42626762   0.31049913
10382.00   2.37640882   0.27360904
10384.00   2.08749819   0.25806513
10386.00   2.04709768   0.25886914
10388.00   2.44257021   0.27383840
10390.00   2.45224786   0.28829914
10392.00   2.57962370   0.29735297
10394.00   1.71128798   0.31020403
10396.00   1.60057211   0.33125520
10398.00   2.47700596   0.33590701
10400.00   2.18760800   0.32206526
10402.00   2.15716052   0.29626048
10404.00   2.29022145   0.28378108
10406.00   2.05767751   0.27388474
10408.00   2.22386384   0.27863094
10410.00   2.38629746   0.29849568
10412.00   1.99878180   0.34041005
10414.00   1.95409179   0.39424229
10416.00   2.47876048   0.44722939
10418.00   2.15022922   0.45630908
10420.00   2.35511494   0.45004854
10422.00   2.14884543   0.43204635
10424.00   1.92759550   0.37871093
10426.00   1.79433191   0.32043752
10428.00   1.90401375   0.29727623
10430.00   1.86601543   0.28588560
10432.00   1.88425076   0.28138575
10434.00   1.81058538   0.27579957
10436.00   1.80463457   0.27667689
10438.00   2.14205909   0.28028658
10440.00   2.12495303   0.28090450
10442.00   2.00732136   0.28475645
10444.00   2.05092025   0.30227351
10446.00   2.11614871   0.32831073
10448.00   2.10194707   0.34802273
10450.00   1.93869257   0.35274306
10452.00   1.78194678   0.35023722
10454.00   1.76081407   0.34200826
10456.00   1.90742350   0.32684490
10458.00   2.00564122   0.31793118
10460.00   2.01914096   0.32823750
10462.00   1.81561530   0.34840828
10464.00   2.26050067   0.40373874
10466.00   2.47412133   0.44340780
10468.00   2.28855491   0.46571290
10470.00   1.86904347   0.46854392
10472.00   2.07871842   0.45476866
10474.00   1.93853605   0.42046851
10476.00   2.03176761   0.37166896
10478.00   1.90745461   0.34606645
10480.00   2.11191726   0.34500957
10482.00   2.01494217   0.34496626
10484.00   2.47500396   0.35165712
10486.00   2.04220843   0.34261945
10488.00   2.05931878   0.34713233
10490.00   2.04176259   0.34763885
10492.00   2.38082361   0.35395363
10494.00   2.08963752   0.35283837
10496.00   2.07208753   0.35665789
10498.00   2.15315056   0.36264291
10500.00   2.38055110   0.37481442
10502.00   2.13789725   0.38372889
10504.00   2.37123132   0.40207085
10506.00   2.57846189   0.41669750
10508.00   2.76440334   0.43883535
10510.00   2.51397777   0.44268838
10512.00   2.26438332   0.43325481
10514.00   2.37205601   0.42515159
10516.00   2.14631224   0.42700773
10518.00   2.46586823   0.42531738
10520.00   2.35529780   0.43631449
10522.00   2.64952517   0.46612000
10524.00   2.11400509   0.46759331
10526.00   2.42147136   0.47749367
10528.00   2.26990294   0.45521912
10530.00   2.23411775   0.42329565
10532.00   2.48201942   0.40402421
10534.00   2.37622857   0.38723111
10536.00   2.46531367   0.38626063
10538.00   2.20174909   0.38174078
10540.00   2.10769677   0.37291145
10542.00   2.09773731   0.36599255
10544.00   1.92563689   0.35917830
10546.00   2.29762316   0.36449552
10548.00   2.41460228   0.37374365
10550.00   2.24197602   0.36979309
10552.00   2.26915383   0.36954775
10554.00   2.27478218   0.37295020
10556.00   2.16505361   0.37037992
10558.00   2.03056741   0.36181211
10560.00   1.90012360   0.35181877
10562.00   1.88758767   0.34998262
10564.00   2.23154473   0.36406922
10566.00   2.48689866   0.37996182
10568.00   2.22297478   0.38074207
10570.00   2.35810423   0.38080454
10572.00   1.85505366   0.38095403
10574.00   1.81262326   0.37333328
10576.00   2.09724069   0.38056374
10578.00   2.16276550   0.38217786
10580.00   1.89482558   0.37730715
10582.00   1.84926116   0.38709623
10584.00   1.94341362   0.40493315
10586.00   2.09432530   0.39916003
10588.00   1.87851214   0.39774171
10590.00   1.80814028   0.39320675
10592.00   2.05509686   0.37919706
10594.00   2.08722997   0.38022482
10596.00   1.95920312   0.37593231
10598.00   1.87357044   0.38013247
10600.00   1.71648026   0.38436189
10602.00   1.95468545   0.39506522
10604.00   2.18547940   0.39641878
10606.00   1.82680881   0.39368355
10608.00   1.59001017   0.38630256
10610.00   2.26082706   0.41137195
10612.00   2.07165623   0.40398067
10614.00   2.32303596   0.41657814
10616.00   2.10320067   0.41195539
10618.00   1.89741039   0.41201285
10620.00   2.21847963   0.43217108
10622.00   2.23574853   0.44224110
10624.00   2.22136068   0.44845113
10626.00   1.96364880   0.43650815
10628.00   2.40636492   0.45812652
10630.00   2.03399944   0.47496691
10632.00   1.94851863   0.48229945
10634.00   2.20760083   0.49332637
10636.00   2.29292583   0.50784689
10638.00   2.07185721   0.51751935
10640.00   2.16928506   0.51129943
10642.00   2.46378064   0.51718831
10644.00   2.88076854   0.55204159
10646.00   2.69950914   0.57997012
10648.00   2.50029635   0.56717694
10650.00   2.90983200   0.57815510
10652.00   2.78158092   0.58722603
10654.00   2.57736874   0.57362247
10656.00   2.47862267   0.56752104
10658.00   2.76858115   0.57846040
10660.00   2.75820231   0.59218472
10662.00   2.88634396   0.58813822
10664.00   3.14982605   0.59463012
10666.00   2.96374965   0.62291658
10668.00   3.28202295   0.65280515
10670.00   3.24905396   0.65106046
10672.00   2.94495368   0.62623817
10674.00   2.30818844   0.60855961
10676.00   2.54827213   0.62835175
10678.00   2.06284380   0.61889285
10680.00   2.15125656   0.61102897
