# File created by shivutils (I.Shivvers)
# 
# wl(A)   flm    er(optional)
3440.00   0.46542233   0.03139506
3442.00   0.40288410   0.03031431
3444.00   0.41181126   0.03024772
3446.00   0.43665719   0.03100218
3448.00   0.41338274   0.03145639
3450.00   0.41178602   0.03229893
3452.00   0.43370184   0.03341567
3454.00   0.42570245   0.03283593
3456.00   0.34998426   0.03179154
3458.00   0.39701727   0.03179752
3460.00   0.37164330   0.03145951
3462.00   0.42264926   0.03186323
3464.00   0.36511695   0.03051234
3466.00   0.41818866   0.03156807
3468.00   0.44207546   0.03166663
3470.00   0.47848672   0.03247178
3472.00   0.42755854   0.03105047
3474.00   0.48538378   0.03186667
3476.00   0.48158020   0.03184805
3478.00   0.39357126   0.03278243
3480.00   0.48688033   0.03526114
3482.00   0.40938029   0.03418730
3484.00   0.53445983   0.03511431
3486.00   0.36573806   0.03231888
3488.00   0.45554534   0.03325248
3490.00   0.40537879   0.03204290
3492.00   0.48774114   0.03271925
3494.00   0.41189367   0.03125246
3496.00   0.49085397   0.03177974
3498.00   0.46094590   0.03113620
3500.00   0.47317058   0.03148520
3502.00   0.43197215   0.03044960
3504.00   0.45560664   0.03062523
3506.00   0.46374863   0.03016719
3508.00   0.41631940   0.03000847
3510.00   0.42061189   0.03034740
3512.00   0.41769320   0.02988030
3514.00   0.38928902   0.02901833
3516.00   0.41077694   0.02983371
3518.00   0.44692236   0.03000303
3520.00   0.45799559   0.03100808
3522.00   0.46441337   0.03004530
3524.00   0.43039355   0.02936078
3526.00   0.49580437   0.02961510
3528.00   0.41824746   0.02843342
3530.00   0.42195106   0.02892051
3532.00   0.44824135   0.02870716
3534.00   0.38098174   0.02794776
3536.00   0.42802969   0.02838315
3538.00   0.41878080   0.02866968
3540.00   0.37957028   0.02928105
3542.00   0.46557724   0.03175745
3544.00   0.42940807   0.03182653
3546.00   0.40142873   0.03100945
3548.00   0.36490852   0.03015123
3550.00   0.46953583   0.03050031
3552.00   0.43372816   0.03056570
3554.00   0.42569333   0.03066232
3556.00   0.38135007   0.03009726
3558.00   0.45029169   0.03049199
3560.00   0.40396971   0.02916104
3562.00   0.45449671   0.02902123
3564.00   0.40823460   0.02779758
3566.00   0.44397011   0.02799420
3568.00   0.41738570   0.02756050
3570.00   0.41109964   0.02731455
3572.00   0.43890822   0.02769401
3574.00   0.46047503   0.02825380
3576.00   0.40589672   0.02731748
3578.00   0.49057868   0.02739822
3580.00   0.42956579   0.02663876
3582.00   0.42896897   0.02588441
3584.00   0.40822181   0.02455261
3586.00   0.37361225   0.02403788
3588.00   0.40338144   0.02506576
3590.00   0.47709873   0.02649737
3592.00   0.40555468   0.02543258
3594.00   0.42809901   0.02483883
3596.00   0.40845302   0.02430927
3598.00   0.35424942   0.02345384
3600.00   0.45607463   0.02442903
3602.00   0.44066724   0.02411650
3604.00   0.46685907   0.02420800
3606.00   0.46650058   0.02384956
3608.00   0.41954020   0.02335294
3610.00   0.41557294   0.02334341
3612.00   0.43531975   0.02477334
3614.00   0.43237302   0.02567610
3616.00   0.45069644   0.02530207
3618.00   0.40467742   0.02417999
3620.00   0.48088646   0.02453682
3622.00   0.43207440   0.02426133
3624.00   0.40387988   0.02348558
3626.00   0.44982064   0.02409741
3628.00   0.43838090   0.02414247
3630.00   0.40945473   0.02491202
3632.00   0.49246076   0.02581071
3634.00   0.42142835   0.02478648
3636.00   0.37581122   0.02398271
3638.00   0.45126113   0.02451497
3640.00   0.43171391   0.02509570
3642.00   0.40164685   0.02549412
3644.00   0.40047985   0.02603807
3646.00   0.39109793   0.02701513
3648.00   0.34498873   0.03425173
3650.00   0.45824912   0.03980389
3652.00   0.46646202   0.03782991
3654.00   0.39420828   0.03377721
3656.00   0.45762354   0.03099031
3658.00   0.42281237   0.02688701
3660.00   0.41148758   0.02752885
3662.00   0.39245409   0.02907786
3664.00   0.42847568   0.02913387
3666.00   0.42500386   0.02469052
3668.00   0.42334333   0.02241454
3670.00   0.40953836   0.02166003
3672.00   0.45691752   0.02185666
3674.00   0.49653655   0.02193744
3676.00   0.41589049   0.02092282
3678.00   0.41341716   0.02042346
3680.00   0.36151403   0.01986478
3682.00   0.42549384   0.02021155
3684.00   0.40947321   0.01978290
3686.00   0.41712946   0.01974294
3688.00   0.43841726   0.01997261
3690.00   0.39602420   0.01981224
3692.00   0.38293356   0.01967987
3694.00   0.35958159   0.01953662
3696.00   0.48805299   0.02071231
3698.00   0.44782642   0.02085022
3700.00   0.43976274   0.02102781
3702.00   0.45704487   0.02110746
3704.00   0.39909416   0.02021588
3706.00   0.41041362   0.01995691
3708.00   0.40680367   0.01969077
3710.00   0.40582082   0.01987820
3712.00   0.40140486   0.01939156
3714.00   0.43298084   0.02009876
3716.00   0.43139666   0.01944708
3718.00   0.42451164   0.01945524
3720.00   0.43962038   0.01946653
3722.00   0.41298568   0.01901508
3724.00   0.39282680   0.01871293
3726.00   0.43210170   0.01916766
3728.00   0.41670051   0.01904857
3730.00   0.44596577   0.01938724
3732.00   0.46699667   0.01977349
3734.00   0.43270415   0.01946552
3736.00   0.44759515   0.01968167
3738.00   0.42243624   0.01980053
3740.00   0.38479543   0.01972602
3742.00   0.46586633   0.02017536
3744.00   0.41829941   0.01928205
3746.00   0.48540169   0.01936154
3748.00   0.44259012   0.01881872
3750.00   0.45621315   0.01912108
3752.00   0.42954618   0.01865770
3754.00   0.39076394   0.01841339
3756.00   0.45920661   0.01892325
3758.00   0.43409041   0.01836699
3760.00   0.43280578   0.01817218
3762.00   0.39134496   0.01765570
3764.00   0.40993297   0.01776549
3766.00   0.42268252   0.01772143
3768.00   0.46816018   0.01803452
3770.00   0.43615168   0.01788173
3772.00   0.44706988   0.01823724
3774.00   0.43495300   0.01803377
3776.00   0.44127467   0.01784132
3778.00   0.41702947   0.01769173
3780.00   0.42066416   0.01765773
3782.00   0.38448867   0.01711949
3784.00   0.42530522   0.01755369
3786.00   0.41496339   0.01728293
3788.00   0.43108469   0.01750076
3790.00   0.45884353   0.01818677
3792.00   0.50514191   0.01869205
3794.00   0.45846397   0.01779852
3796.00   0.43605626   0.01720737
3798.00   0.47749263   0.01749729
3800.00   0.96577942   0.02192455
3802.00   1.60752690   0.02697502
3804.00   2.04336524   0.02907129
3806.00   1.50339794   0.02556993
3808.00   0.71288347   0.01958269
3810.00   0.39423761   0.01654066
3812.00   0.41270739   0.01694080
3814.00   0.42827430   0.01721754
3816.00   0.48322567   0.01780999
3818.00   0.56055450   0.01830059
3820.00   0.49546018   0.01767810
3822.00   0.50364155   0.01758389
3824.00   0.40714255   0.01662443
3826.00   0.40269652   0.01675354
3828.00   0.42345417   0.01750121
3830.00   0.48083109   0.01852243
3832.00   0.49496493   0.01852192
3834.00   0.52047515   0.01827673
3836.00   0.52807647   0.01825755
3838.00   0.52576959   0.01807934
3840.00   0.52298665   0.01801835
3842.00   0.50086600   0.01755769
3844.00   0.48896721   0.01731672
3846.00   0.44256061   0.01672731
3848.00   0.42275831   0.01633908
3850.00   0.42270076   0.01631307
3852.00   0.47164240   0.01670346
3854.00   0.57115287   0.01736906
3856.00   0.57522249   0.01735143
3858.00   0.62453890   0.01754447
3860.00   0.65918636   0.01797562
3862.00   0.61691147   0.01782348
3864.00   0.56717771   0.01731550
3866.00   0.58438444   0.01731206
3868.00   0.56052917   0.01681193
3870.00   0.49564803   0.01628303
3872.00   0.45882097   0.01614680
3874.00   0.41203028   0.01623105
3876.00   0.38427654   0.01568570
3878.00   0.45154223   0.01579128
3880.00   0.50927293   0.01620845
3882.00   0.55733711   0.01646899
3884.00   0.55838227   0.01648651
3886.00   0.62163806   0.01709714
3888.00   0.63787329   0.01713167
3890.00   0.63884133   0.01709690
3892.00   0.62304640   0.01701658
3894.00   0.60612613   0.01708343
3896.00   0.58989275   0.01705588
3898.00   0.59772694   0.01707842
3900.00   0.60437799   0.01707971
3902.00   0.58291507   0.01722535
3904.00   0.54899681   0.01759053
3906.00   0.51494598   0.01888315
3908.00   0.52850538   0.02001351
3910.00   0.42460287   0.01946618
3912.00   0.43048543   0.01948598
3914.00   0.45740131   0.01853515
3916.00   0.41588530   0.01711834
3918.00   0.42618480   0.01659832
3920.00   0.47078887   0.01645477
3922.00   0.56787264   0.01683749
3924.00   0.59877473   0.01705187
3926.00   0.62646627   0.01713671
3928.00   0.61656427   0.01678188
3930.00   0.62513179   0.01720407
3932.00   0.60239953   0.01746185
3934.00   0.62578857   0.01772711
3936.00   0.65157443   0.01716945
3938.00   0.65786779   0.01687846
3940.00   0.64376426   0.01706408
3942.00   0.66212648   0.01793488
3944.00   0.69100952   0.01856900
3946.00   0.69178408   0.01823225
3948.00   0.69548768   0.01776034
3950.00   0.65366989   0.01719549
3952.00   0.60937095   0.01671687
3954.00   0.62065119   0.01665425
3956.00   0.62900966   0.01658037
3958.00   0.60039526   0.01652322
3960.00   0.56926078   0.01692948
3962.00   0.56251073   0.01692766
3964.00   0.49026427   0.01609564
3966.00   0.47763830   0.01497472
3968.00   0.49269360   0.01489001
3970.00   0.48845515   0.01467654
3972.00   0.47796756   0.01489223
3974.00   0.53617603   0.01554308
3976.00   0.56002396   0.01564763
3978.00   0.59097725   0.01591952
3980.00   0.59020400   0.01602991
3982.00   0.61124688   0.01609953
3984.00   0.61796951   0.01602687
3986.00   0.61241275   0.01594953
3988.00   0.67594481   0.01659982
3990.00   0.67406374   0.01662588
3992.00   0.71129918   0.01676583
3994.00   0.67780203   0.01700978
3996.00   0.68021095   0.01753476
3998.00   0.65403420   0.01741209
4000.00   0.66475654   0.01680961
4002.00   0.65111059   0.01642195
4004.00   0.67591161   0.01635963
4006.00   0.65965199   0.01648267
4008.00   0.62056196   0.01645873
4010.00   0.53396332   0.01594549
4012.00   0.44798303   0.01533090
4014.00   0.41834867   0.01490165
4016.00   0.48061052   0.01536882
4018.00   0.56073070   0.01734962
4020.00   0.62197739   0.01932756
4022.00   0.62849581   0.02002766
4024.00   0.61110508   0.01971798
4026.00   0.61890590   0.01845257
4028.00   0.64993703   0.01780201
4030.00   0.63376886   0.01743247
4032.00   0.65676910   0.01742152
4034.00   0.66549140   0.01717361
4036.00   0.65152919   0.01699114
4038.00   0.59555721   0.01652580
4040.00   0.59265077   0.01654982
4042.00   0.56278247   0.01703397
4044.00   0.47640830   0.02481020
4046.00   0.48299176   0.03246247
4048.00   0.46991262   0.03004907
4050.00   0.41766655   0.01973626
4052.00   0.47025606   0.01685062
4054.00   0.45171160   0.01685226
4056.00   0.47251579   0.01663046
4058.00   0.55366254   0.01625516
4060.00   0.59982902   0.01616215
4062.00   0.60614717   0.01625218
4064.00   0.66146863   0.01647680
4066.00   0.65748131   0.01645541
4068.00   0.65136927   0.01640875
4070.00   0.68458951   0.01641953
4072.00   0.68231267   0.01609073
4074.00   0.70297492   0.01667395
4076.00   0.67602295   0.01863609
4078.00   0.71327496   0.01959290
4080.00   0.69414836   0.01861564
4082.00   0.71371472   0.01790713
4084.00   0.69395930   0.01762821
4086.00   0.71253365   0.01734602
4088.00   0.68862832   0.01679479
4090.00   0.69853193   0.01606913
4092.00   0.70498210   0.01577836
4094.00   0.73611534   0.01601093
4096.00   0.69059396   0.01569540
4098.00   0.72501045   0.01592373
4100.00   0.75528455   0.01590679
4102.00   0.75228399   0.01559356
4104.00   0.74296665   0.01544875
4106.00   0.72650874   0.01549685
4108.00   0.69969952   0.01545675
4110.00   0.69844699   0.01537941
4112.00   0.69426668   0.01530092
4114.00   0.67650735   0.01519858
4116.00   0.72196060   0.01540159
4118.00   0.71908897   0.01530247
4120.00   0.74340433   0.01519632
4122.00   0.73859066   0.01527058
4124.00   0.73845416   0.01530623
4126.00   0.71781057   0.01526042
4128.00   0.70873499   0.01523415
4130.00   0.71724337   0.01550571
4132.00   0.71918613   0.01605595
4134.00   0.74814230   0.01615295
4136.00   0.72168005   0.01564815
4138.00   0.75312567   0.01586983
4140.00   0.68528229   0.01585686
4142.00   0.70460320   0.01563269
4144.00   0.71593750   0.01501284
4146.00   0.68473279   0.01480443
4148.00   0.72070104   0.01507504
4150.00   0.71619719   0.01557195
4152.00   0.71769762   0.01610077
4154.00   0.67147404   0.01567061
4156.00   0.68019032   0.01507574
4158.00   0.63981920   0.01501659
4160.00   0.63429457   0.01470395
4162.00   0.68118495   0.01549193
4164.00   0.72136813   0.01654183
4166.00   0.69674325   0.01639613
4168.00   0.68338788   0.01541457
4170.00   0.67029297   0.01490522
4172.00   0.67302120   0.01468125
4174.00   0.66325998   0.01443027
4176.00   0.64542979   0.01438654
4178.00   0.58123028   0.01414631
4180.00   0.54690951   0.01379710
4182.00   0.53043675   0.01333240
4184.00   0.61707747   0.01387428
4186.00   0.57644320   0.01361035
4188.00   0.52935410   0.01334652
4190.00   0.54362816   0.01341505
4192.00   0.56596220   0.01362530
4194.00   0.59804302   0.01374375
4196.00   0.63339901   0.01379743
4198.00   0.65880084   0.01384746
4200.00   0.69304782   0.01405959
4202.00   0.66436142   0.01400595
4204.00   0.65950710   0.01401734
4206.00   0.68600303   0.01427993
4208.00   0.69272804   0.01449678
4210.00   0.70051146   0.01464674
4212.00   0.66628307   0.01447319
4214.00   0.66849571   0.01427151
4216.00   0.66257900   0.01417690
4218.00   0.67914003   0.01423750
4220.00   0.71159351   0.01436880
4222.00   0.72613442   0.01436484
4224.00   0.72146976   0.01436410
4226.00   0.70297706   0.01420484
4228.00   0.67432839   0.01395924
4230.00   0.71254504   0.01437396
4232.00   0.70550412   0.01461151
4234.00   0.71295249   0.01470062
4236.00   0.69567502   0.01477384
4238.00   0.68661177   0.01480144
4240.00   0.71330339   0.01464692
4242.00   0.72523183   0.01419658
4244.00   0.72048467   0.01515036
4246.00   0.74307185   0.01673847
4248.00   0.72128516   0.01643833
4250.00   0.70918405   0.01480337
4252.00   0.70812374   0.01426006
4254.00   0.72330385   0.01435051
4256.00   0.69315797   0.01418098
4258.00   0.65919429   0.01402112
4260.00   0.66175556   0.01382638
4262.00   0.68681973   0.01380073
4264.00   0.69853359   0.01388078
4266.00   0.67937946   0.01373465
4268.00   0.71983618   0.01394513
4270.00   0.69480485   0.01386019
4272.00   0.71283710   0.01394269
4274.00   0.70614207   0.01395432
4276.00   0.70420504   0.01399714
4278.00   0.71843982   0.01413781
4280.00   0.68779963   0.01397950
4282.00   0.68017191   0.01397903
4284.00   0.65526098   0.01382641
4286.00   0.69788998   0.01383855
4288.00   0.70909762   0.01378464
4290.00   0.69457066   0.01374131
4292.00   0.69609767   0.01381041
4294.00   0.70590246   0.01397332
4296.00   0.69029444   0.01383088
4298.00   0.72069734   0.01384411
4300.00   0.70805734   0.01370598
4302.00   0.70917028   0.01366167
4304.00   0.69928765   0.01375221
4306.00   0.72563660   0.01402797
4308.00   0.71424824   0.01398105
4310.00   0.69106835   0.01384659
4312.00   0.63245887   0.01451729
4314.00   0.67803150   0.01527685
4316.00   0.68562591   0.01484306
4318.00   0.70069051   0.01453967
4320.00   0.68655252   0.01492851
4322.00   0.68742245   0.01492115
4324.00   0.69970721   0.01466961
4326.00   0.68861496   0.01448838
4328.00   0.70155978   0.01403780
4330.00   0.72526360   0.01397289
4332.00   0.70143735   0.01383189
4334.00   0.67763519   0.01377930
4336.00   0.68190527   0.01394101
4338.00   0.66678250   0.01415678
4340.00   0.68316621   0.01429582
4342.00   0.70715380   0.01436557
4344.00   0.71406919   0.01471834
4346.00   0.68500286   0.01524697
4348.00   0.64259332   0.01539461
4350.00   0.72904897   0.01526532
4352.00   0.69866180   0.01479650
4354.00   0.70570678   0.01613159
4356.00   0.69701028   0.02764233
4358.00   0.69897264   0.03500722
4360.00   0.62883222   0.03095389
4362.00   0.61129707   0.01926866
4364.00   0.66858393   0.01584516
4366.00   0.68108118   0.01533276
4368.00   0.70221776   0.01511358
4370.00   0.66162550   0.01479534
4372.00   0.71601409   0.01532498
4374.00   0.69118762   0.01555625
4376.00   0.66109115   0.01514123
4378.00   0.63487750   0.01424931
4380.00   0.68880564   0.01431472
4382.00   0.67214286   0.01418161
4384.00   0.63977891   0.01380810
4386.00   0.61711800   0.01360650
4388.00   0.60700184   0.01354233
4390.00   0.60457599   0.01358891
4392.00   0.60154986   0.01355408
4394.00   0.59655631   0.01343971
4396.00   0.59960312   0.01340324
4398.00   0.59344965   0.01375007
4400.00   0.61547542   0.01419923
4402.00   0.65182513   0.01422973
4404.00   0.66983265   0.01391897
4406.00   0.69144666   0.01394345
4408.00   0.65977442   0.01392087
4410.00   0.63658625   0.01384103
4412.00   0.61927998   0.01376673
4414.00   0.61417180   0.01410313
4416.00   0.60857964   0.01404184
4418.00   0.64904755   0.01397352
4420.00   0.63541108   0.01365709
4422.00   0.63059300   0.01362326
4424.00   0.56734908   0.01324349
4426.00   0.61960077   0.01352608
4428.00   0.78170037   0.01430264
4430.00   0.74256516   0.01411946
4432.00   0.58978939   0.01326932
4434.00   0.53033036   0.01288394
4436.00   0.58896232   0.01319866
4438.00   0.60302001   0.01331455
4440.00   0.59199172   0.01326009
4442.00   0.62539363   0.01331903
4444.00   0.62973797   0.01334736
4446.00   0.65952939   0.01355663
4448.00   0.68123418   0.01356834
4450.00   0.70939249   0.01360909
4452.00   0.68689620   0.01360838
4454.00   0.68479663   0.01354569
4456.00   0.70162934   0.01352846
4458.00   0.66438615   0.01344566
4460.00   0.69229275   0.01354301
4462.00   0.67224491   0.01341617
4464.00   0.66831732   0.01338206
4466.00   0.66005069   0.01327723
4468.00   0.67643023   0.01337977
4470.00   0.67351514   0.01332012
4472.00   0.64373803   0.01308892
4474.00   0.60696942   0.01299473
4476.00   0.63098830   0.01317985
4478.00   0.66472203   0.01326127
4480.00   0.64363819   0.01318086
4482.00   0.63985556   0.01323020
4484.00   0.64705408   0.01326669
4486.00   0.68031889   0.01340729
4488.00   0.69445586   0.01348651
4490.00   0.70314264   0.01353623
4492.00   0.68056899   0.01351346
4494.00   0.67967874   0.01359808
4496.00   0.67749166   0.01359298
4498.00   0.66092366   0.01351157
4500.00   0.67730600   0.01355348
4502.00   0.69597828   0.01353518
4504.00   0.71525234   0.01353787
4506.00   0.65736842   0.01323818
4508.00   0.66507030   0.01321763
4510.00   0.67880577   0.01319472
4512.00   0.68028319   0.01321618
4514.00   0.71191901   0.01333758
4516.00   0.66617417   0.01304271
4518.00   0.69475353   0.01310459
4520.00   0.68889159   0.01312229
4522.00   0.69218069   0.01312913
4524.00   0.67900389   0.01300360
4526.00   0.69309253   0.01299430
4528.00   0.68225330   0.01293992
4530.00   0.71113634   0.01314744
4532.00   0.70201474   0.01302483
4534.00   0.67011482   0.01297255
4536.00   0.70504314   0.01306285
4538.00   0.70253181   0.01296327
4540.00   0.70724201   0.01300830
4542.00   0.68343037   0.01303922
4544.00   0.69986075   0.01327618
4546.00   0.65347475   0.01299018
4548.00   0.65543079   0.01281289
4550.00   0.67151952   0.01269356
4552.00   0.64027601   0.01254121
4554.00   0.69357008   0.01279662
4556.00   0.66164470   0.01271827
4558.00   0.68677455   0.01283456
4560.00   0.68866545   0.01273099
4562.00   0.68410981   0.01260237
4564.00   0.71222192   0.01269444
4566.00   0.71491939   0.01267559
4568.00   0.72938657   0.01273919
4570.00   0.69540203   0.01256745
4572.00   0.70938027   0.01268069
4574.00   0.69219398   0.01263605
4576.00   0.70717871   0.01267231
4578.00   0.69702131   0.01243148
4580.00   0.69554675   0.01241524
4582.00   0.68240356   0.01226505
4584.00   0.69108862   0.01224806
4586.00   0.70664728   0.01228595
4588.00   0.71500522   0.01235865
4590.00   0.72802091   0.01243612
4592.00   0.71749586   0.01241350
4594.00   0.72722346   0.01250062
4596.00   0.74203330   0.01258032
4598.00   0.72887379   0.01241317
4600.00   0.72461826   0.01227075
4602.00   0.71810251   0.01224123
4604.00   0.72445130   0.01229854
4606.00   0.68039399   0.01209092
4608.00   0.71622753   0.01233192
4610.00   0.71603519   0.01236114
4612.00   0.71769953   0.01226628
4614.00   0.68347865   0.01200506
4616.00   0.69041049   0.01194931
4618.00   0.67595679   0.01189536
4620.00   0.66283280   0.01178857
4622.00   0.67847896   0.01189595
4624.00   0.66940761   0.01180974
4626.00   0.65635401   0.01178689
4628.00   0.66462499   0.01184827
4630.00   0.70009458   0.01195250
4632.00   0.69490665   0.01195022
4634.00   0.70327383   0.01194311
4636.00   0.71213019   0.01195475
4638.00   0.70339024   0.01190967
4640.00   0.66788077   0.01171768
4642.00   0.67043954   0.01175729
4644.00   0.66513830   0.01171608
4646.00   0.65907049   0.01162764
4648.00   0.67783529   0.01172848
4650.00   0.67782593   0.01184892
4652.00   0.68504941   0.01191385
4654.00   0.72513264   0.01214953
4656.00   0.71465623   0.01213250
4658.00   0.70469618   0.01224483
4660.00   0.71229380   0.01241745
4662.00   0.69331872   0.01250294
4664.00   0.69123411   0.01260886
4666.00   0.72701323   0.01298232
4668.00   0.71145976   0.01315315
4670.00   0.69778192   0.01317249
4672.00   0.68704993   0.01303048
4674.00   0.67751056   0.01270158
4676.00   0.66252625   0.01243685
4678.00   0.66084445   0.01221114
4680.00   0.68799239   0.01216348
4682.00   0.69632715   0.01217584
4684.00   0.68536669   0.01195741
4686.00   0.68389440   0.01188450
4688.00   0.68121141   0.01186276
4690.00   0.68751931   0.01181303
4692.00   0.68350393   0.01176306
4694.00   0.68976557   0.01177184
4696.00   0.70865506   0.01183161
4698.00   0.69999748   0.01164122
4700.00   0.68707913   0.01154693
4702.00   0.70396328   0.01164123
4704.00   0.67568392   0.01159735
4706.00   0.70553440   0.01185216
4708.00   0.69553047   0.01192199
4710.00   0.68728709   0.01190077
4712.00   0.68953943   0.01184669
4714.00   0.70261812   0.01180906
4716.00   0.70442486   0.01171248
4718.00   0.73191488   0.01180236
4720.00   0.73662817   0.01177814
4722.00   0.70917124   0.01170047
4724.00   0.71527040   0.01166493
4726.00   0.71304435   0.01188435
4728.00   0.72271484   0.01255449
4730.00   0.68197536   0.01257837
4732.00   0.67052716   0.01238248
4734.00   0.66777194   0.01293819
4736.00   0.69363075   0.01289744
4738.00   0.68289167   0.01292050
4740.00   0.68780541   0.01326496
4742.00   0.66808689   0.01368959
4744.00   0.68411714   0.01341081
4746.00   0.68694937   0.01254449
4748.00   0.70319241   0.01183414
4750.00   0.69015807   0.01179928
4752.00   0.70289785   0.01214773
4754.00   0.71119165   0.01217442
4756.00   0.70206404   0.01164106
4758.00   0.70421427   0.01131683
4760.00   0.67174721   0.01104391
4762.00   0.66075075   0.01094172
4764.00   0.67361861   0.01093038
4766.00   0.67658168   0.01090294
4768.00   0.71414942   0.01100753
4770.00   0.69646460   0.01093441
4772.00   0.69447064   0.01090781
4774.00   0.68534857   0.01087179
4776.00   0.68373060   0.01107301
4778.00   0.68255597   0.01140246
4780.00   0.68519938   0.01150495
4782.00   0.69621682   0.01121102
4784.00   0.68323630   0.01088942
4786.00   0.69159591   0.01089159
4788.00   0.69338423   0.01092427
4790.00   0.70284730   0.01104722
4792.00   0.70339358   0.01112011
4794.00   0.71679223   0.01106480
4796.00   0.67491722   0.01071600
4798.00   0.66967666   0.01071332
4800.00   0.69263655   0.01080081
4802.00   0.68494809   0.01073817
4804.00   0.67209023   0.01068229
4806.00   0.67826617   0.01072781
4808.00   0.67561918   0.01075737
4810.00   0.67265868   0.01074611
4812.00   0.67644024   0.01078661
4814.00   0.69911420   0.01091027
4816.00   0.69890004   0.01095296
4818.00   0.74000138   0.01118794
4820.00   0.69073552   0.01098383
4822.00   0.68501014   0.01103649
4824.00   0.67495924   0.01105515
4826.00   0.67116404   0.01111951
4828.00   0.66855413   0.01106142
4830.00   0.67921460   0.01110136
4832.00   0.67155105   0.01117264
4834.00   0.66937494   0.01111469
4836.00   0.67777264   0.01102652
4838.00   0.67343438   0.01123910
4840.00   0.68432301   0.01146719
4842.00   0.69659203   0.01133561
4844.00   0.68955189   0.01108173
4846.00   0.70218265   0.01121794
4848.00   0.68123996   0.01120413
4850.00   0.68346101   0.01117700
4852.00   0.67440933   0.01111693
4854.00   0.66454083   0.01096584
4856.00   0.68914157   0.01093284
4858.00   0.68112075   0.01086228
4860.00   0.65501064   0.01078932
4862.00   0.65068656   0.01085309
4864.00   0.66931629   0.01098615
4866.00   0.68640751   0.01103758
4868.00   0.67054081   0.01092591
4870.00   0.69632602   0.01101720
4872.00   0.67339349   0.01089597
4874.00   0.68234807   0.01097556
4876.00   0.67572612   0.01097345
4878.00   0.69563353   0.01114218
4880.00   0.67801762   0.01108082
4882.00   0.68099767   0.01098291
4884.00   0.64573777   0.01078796
4886.00   0.66617030   0.01074384
4888.00   0.66827208   0.01074172
4890.00   0.69855601   0.01089200
4892.00   0.68955570   0.01090943
4894.00   0.67990524   0.01089496
4896.00   0.67474782   0.01085861
4898.00   0.68902332   0.01080099
4900.00   0.68380547   0.01068336
4902.00   0.67612553   0.01066785
4904.00   0.65434390   0.01055226
4906.00   0.67383623   0.01072758
4908.00   0.65997750   0.01074898
4910.00   0.65315545   0.01073240
4912.00   0.65028834   0.01069774
4914.00   0.66749483   0.01076716
4916.00   0.67695618   0.01085206
4918.00   0.70028567   0.01087522
4920.00   0.67881870   0.01072218
4922.00   0.64341831   0.01056618
4924.00   0.66203225   0.01061060
4926.00   0.68007773   0.01061392
4928.00   0.66837734   0.01047443
4930.00   0.66454989   0.01043185
4932.00   0.65314507   0.01038585
4934.00   0.64883792   0.01045557
4936.00   0.62755710   0.01038536
4938.00   0.62718427   0.01035105
4940.00   0.63950413   0.01043760
4942.00   0.62841928   0.01038113
4944.00   0.62633473   0.01027270
4946.00   0.62250602   0.01018834
4948.00   0.61415768   0.01011646
4950.00   0.59810752   0.01010669
4952.00   0.58607286   0.01023423
4954.00   0.57229048   0.01027861
4956.00   0.57954848   0.01024567
4958.00   0.83627123   0.01172535
4960.00   0.93612140   0.01886375
4962.00   0.98879659   0.01601243
4964.00   0.77047253   0.01101221
4966.00   0.57068086   0.01031073
4968.00   0.55587435   0.01036563
4970.00   0.53717124   0.01051593
4972.00   0.56162363   0.01080866
4974.00   0.55928272   0.01123522
4976.00   0.59946454   0.01175301
4978.00   0.59499818   0.01235022
4980.00   0.63072872   0.01307756
4982.00   0.60432762   0.01339182
4984.00   0.60019714   0.01332791
4986.00   0.57297975   0.01284526
4988.00   0.62709564   0.01249495
4990.00   0.58892709   0.01190893
4992.00   0.63703066   0.01180536
4994.00   0.67380363   0.01157925
4996.00   0.65411705   0.01112091
4998.00   0.65998805   0.01089907
5000.00   0.65149242   0.01069542
5002.00   0.63946962   0.01055283
5004.00   0.66181701   0.01053409
5006.00   0.65351784   0.01037865
5008.00   0.64417088   0.01028603
5010.00   0.62296474   0.01017730
5012.00   0.63108468   0.01010398
5014.00   0.63438720   0.01016705
5016.00   0.65889513   0.01030172
5018.00   0.64200747   0.01033939
5020.00   0.59807760   0.01025834
5022.00   0.60463917   0.01017201
5024.00   0.60577458   0.00999221
5026.00   0.63990748   0.01006728
5028.00   0.63942879   0.01018223
5030.00   0.65569943   0.01045329
5032.00   0.67823565   0.01055305
5034.00   0.65957004   0.01032081
5036.00   0.64603233   0.01007390
5038.00   0.65524745   0.01007793
5040.00   0.65633184   0.01003313
5042.00   0.64316887   0.01001590
5044.00   0.66233057   0.01016087
5046.00   0.67016745   0.01025064
5048.00   0.65353239   0.01016137
5050.00   0.66904277   0.01022382
5052.00   0.66679150   0.01020006
5054.00   0.68270653   0.01029813
5056.00   0.67399955   0.01026074
5058.00   0.72386253   0.01049637
5060.00   0.76901662   0.01070018
5062.00   0.74741113   0.01080369
5064.00   0.68683124   0.01079274
5066.00   0.69468695   0.01096145
5068.00   0.65331763   0.01097557
5070.00   0.65785623   0.01122138
5072.00   0.65735936   0.01097495
5074.00   0.65544528   0.01070518
5076.00   0.66174936   0.01068213
5078.00   0.64011204   0.01063622
5080.00   0.64181751   0.01141841
5082.00   0.65256631   0.01258138
5084.00   0.62454915   0.01319102
5086.00   0.62295681   0.01324829
5088.00   0.64238471   0.01264956
5090.00   0.62340170   0.01155613
5092.00   0.62010247   0.01079372
5094.00   0.63215452   0.01056943
5096.00   0.64113420   0.01082029
5098.00   0.64132375   0.01128051
5100.00   0.63074446   0.01145382
5102.00   0.63163990   0.01105447
5104.00   0.64851260   0.01061557
5106.00   0.76738995   0.01098136
5108.00   0.95944327   0.01186974
5110.00   1.01972163   0.01213904
5112.00   0.85024369   0.01140560
5114.00   0.70075613   0.01085003
5116.00   0.63094413   0.01061277
5118.00   0.61163139   0.01046494
5120.00   0.63017076   0.01033146
5122.00   0.60328913   0.01007374
5124.00   0.64032900   0.01021976
5126.00   0.61244857   0.01007685
5128.00   0.64844096   0.01024314
5130.00   0.61800426   0.01017532
5132.00   0.65073818   0.01035033
5134.00   0.64769232   0.01038243
5136.00   0.63605881   0.01037339
5138.00   0.63770586   0.01033622
5140.00   0.64305723   0.01038798
5142.00   0.60612845   0.01026824
5144.00   0.61305422   0.01027801
5146.00   0.62853533   0.01051170
5148.00   0.64255708   0.01092229
5150.00   0.62460947   0.01117584
5152.00   0.63111889   0.01152479
5154.00   0.60270387   0.01157854
5156.00   0.61759967   0.01145835
5158.00   0.63357037   0.01114509
5160.00   0.65782732   0.01098596
5162.00   0.65695655   0.01079354
5164.00   0.66003293   0.01070152
5166.00   0.65023434   0.01052792
5168.00   0.65136325   0.01048239
5170.00   0.64448738   0.01044270
5172.00   0.63260722   0.01038683
5174.00   0.63677210   0.01044191
5176.00   0.64036912   0.01056303
5178.00   0.64040321   0.01061015
5180.00   0.64636528   0.01058763
5182.00   0.62277478   0.01042338
5184.00   0.60000354   0.01030243
5186.00   0.61689293   0.01046731
5188.00   0.62547177   0.01062260
5190.00   0.64174861   0.01072324
5192.00   0.64088953   0.01073109
5194.00   0.63583773   0.01069301
5196.00   0.62948471   0.01075014
5198.00   0.63943613   0.01085539
5200.00   0.62674767   0.01086075
5202.00   0.64031464   0.01090270
5204.00   0.60726714   0.01071963
5206.00   0.59378231   0.01060946
5208.00   0.63567084   0.01092621
5210.00   0.63011217   0.01114659
5212.00   0.62087864   0.01116896
5214.00   0.64871091   0.01109108
5216.00   0.59798723   0.01082046
5218.00   0.62133509   0.01114642
5220.00   0.60496348   0.01117095
5222.00   0.64623576   0.01132716
5224.00   0.63890970   0.01112707
5226.00   0.62991321   0.01093498
5228.00   0.60553813   0.01083826
5230.00   0.59935099   0.01085742
5232.00   0.60654283   0.01097022
5234.00   0.60662216   0.01092242
5236.00   0.60583711   0.01097673
5238.00   0.61205149   0.01121080
5240.00   0.60721970   0.01119291
5242.00   0.59983534   0.01106272
5244.00   0.60300082   0.01110174
5246.00   0.63342786   0.01130028
5248.00   0.62107402   0.01113441
5250.00   0.60205996   0.01106309
5252.00   0.59155476   0.01100689
5254.00   0.62398952   0.01129195
5256.00   0.63317889   0.01159135
5258.00   0.61891109   0.01172817
5260.00   0.63319147   0.01171983
5262.00   0.62322968   0.01144897
5264.00   0.62744945   0.01134759
5266.00   0.63183773   0.01130070
5268.00   0.60943782   0.01126795
5270.00   0.60373753   0.01122643
5272.00   0.58237028   0.01117728
5274.00   0.54322028   0.01106602
5276.00   0.56805861   0.01123990
5278.00   0.53904265   0.01113178
5280.00   0.57107890   0.01134764
5282.00   0.57517678   0.01131694
5284.00   0.60384202   0.01163689
5286.00   0.59741968   0.01178051
5288.00   0.58715791   0.01164044
5290.00   0.59324080   0.01156424
5292.00   0.55460727   0.01137593
5294.00   0.59780610   0.01166462
5296.00   0.61775810   0.01178101
5298.00   0.58241391   0.01173273
5300.00   0.61645520   0.01196022
5302.00   0.60965699   0.01195682
5304.00   0.62989706   0.01206346
5306.00   0.66739190   0.01228123
5308.00   0.64472228   0.01216643
5310.00   0.59374195   0.01201135
5312.00   0.60371095   0.01206533
5314.00   0.58852780   0.01207163
5316.00   0.59290600   0.01199923
5318.00   0.59503722   0.01206176
5320.00   0.60076225   0.01207231
5322.00   0.63341832   0.01224134
5324.00   0.64102608   0.01241732
5326.00   0.61431509   0.01233540
5328.00   0.61310589   0.01237468
5330.00   0.61607766   0.01246884
5332.00   0.58827341   0.01239287
5334.00   0.55739760   0.01225094
5336.00   0.59416878   0.01246144
5338.00   0.60951269   0.01264168
5340.00   0.56851888   0.01272997
5342.00   0.58590257   0.01297416
5344.00   0.59763235   0.01298678
5346.00   0.62495041   0.01316709
5348.00   0.62512660   0.01352393
5350.00   0.62069732   0.01386324
5352.00   0.61997390   0.01366192
5354.00   0.60985392   0.01374749
5356.00   0.62772858   0.01406144
5358.00   0.61653346   0.01382207
5360.00   0.59464312   0.01338636
5362.00   0.58479041   0.01308657
5364.00   0.59942710   0.01298718
5366.00   0.61284083   0.01309097
5368.00   0.62269956   0.01315519
5370.00   0.58587247   0.01298448
5372.00   0.57808638   0.01310410
5374.00   0.55554628   0.01332811
5376.00   0.55401886   0.01363220
5378.00   0.52107739   0.01334741
5380.00   0.56976867   0.01343765
5382.00   0.60356122   0.01367365
5384.00   0.60082757   0.01365620
5386.00   0.56794161   0.01358315
5388.00   0.59597176   0.01387295
5390.00   0.58920407   0.01413898
5392.00   0.60746986   0.01462907
5394.00   0.60141152   0.01460781
5396.00   0.62003112   0.01465926
5398.00   0.62178320   0.01446829
5400.00   0.63240069   0.01464831
5402.00   0.62308335   0.01474266
5404.00   0.57900113   0.01464080
5406.00   0.58588916   0.01478493
5408.00   0.60080034   0.01499723
5410.00   0.61740935   0.01544779
5412.00   0.62316990   0.01582952
5414.00   0.68199307   0.01663843
5416.00   0.62652969   0.01677978
5418.00   0.62072265   0.01696649
5420.00   0.65255344   0.01721992
5422.00   0.61560643   0.01707116
5424.00   0.63120860   0.01704254
5426.00   0.63432121   0.01693320
5428.00   0.58315766   0.01659156
5430.00   0.66472930   0.01706228
5432.00   0.61678469   0.01683428
5434.00   0.59275758   0.01683518
5436.00   0.57116216   0.01681504
5438.00   0.57669830   0.01698024
5440.00   0.60739923   0.01710979
5442.00   0.63115716   0.01733126
5444.00   0.64196247   0.01767872
5446.00   0.64245993   0.01784513
5448.00   0.64114982   0.01781728
5450.00   0.61969882   0.00582523
5452.00   0.61649352   0.00647538
5454.00   0.61645401   0.00735129
5456.00   0.62909430   0.00803585
5458.00   0.65840977   0.00888253
5460.00   0.67347342   0.00916758
5462.00   0.68909466   0.00916865
5464.00   0.68970454   0.00886866
5466.00   0.66761410   0.00798349
5468.00   0.63784736   0.00686773
5470.00   0.61993343   0.00645202
5472.00   0.60401320   0.00660343
5474.00   0.60035682   0.00650677
5476.00   0.61225039   0.00648941
5478.00   0.61967570   0.00634998
5480.00   0.62191117   0.00598349
5482.00   0.62575239   0.00564326
5484.00   0.63772357   0.00560884
5486.00   0.65604448   0.00578019
5488.00   0.66146994   0.00590471
5490.00   0.65802777   0.00622170
5492.00   0.65352708   0.00622481
5494.00   0.64583302   0.00587817
5496.00   0.63629353   0.00551055
5498.00   0.62315935   0.00530546
5500.00   0.60821354   0.00517439
5502.00   0.60773891   0.00512388
5504.00   0.62424076   0.00515269
5506.00   0.62985486   0.00527033
5508.00   0.63198715   0.00555060
5510.00   0.63163984   0.00576051
5512.00   0.62798423   0.00585591
5514.00   0.62240887   0.00588675
5516.00   0.61912793   0.00585802
5518.00   0.61509413   0.00568218
5520.00   0.61622411   0.00570894
5522.00   0.62232918   0.00598363
5524.00   0.62872607   0.00605848
5526.00   0.63766307   0.00577941
5528.00   0.64489055   0.00545241
5530.00   0.64214772   0.00556109
5532.00   0.63008773   0.00601119
5534.00   0.62632155   0.00607923
5536.00   0.62615508   0.00594895
5538.00   0.62671256   0.00579187
5540.00   0.62948531   0.00551322
5542.00   0.63188118   0.00526237
5544.00   0.63061273   0.00523433
5546.00   0.62672049   0.00536395
5548.00   0.62883079   0.00534912
5550.00   0.63759536   0.00526123
5552.00   0.64157635   0.00519638
5554.00   0.64229918   0.00510434
5556.00   0.64195049   0.00506104
5558.00   0.64169282   0.00513586
5560.00   0.64073521   0.00527559
5562.00   0.63702172   0.00529703
5564.00   0.62979299   0.00489562
5566.00   0.62407565   0.00531546
5568.00   0.61424863   0.00634112
5570.00   0.61175233   0.00720908
5572.00   0.62204361   0.00793564
5574.00   0.63845325   0.00853721
5576.00   0.64909542   0.00876789
5578.00   0.66182822   0.00877114
5580.00   0.66284144   0.00851642
5582.00   0.65024871   0.00776465
5584.00   0.64181697   0.00710576
5586.00   0.63997418   0.00663426
5588.00   0.63919288   0.00622048
5590.00   0.63403702   0.00574960
5592.00   0.62526858   0.00522256
5594.00   0.62283516   0.00492748
5596.00   0.62598246   0.00490839
5598.00   0.62722796   0.00487460
5600.00   0.62622857   0.00486795
5602.00   0.62593096   0.00488036
5604.00   0.62891710   0.00488335
5606.00   0.63425654   0.00488892
5608.00   0.63621134   0.00492805
5610.00   0.63669723   0.00503486
5612.00   0.63579422   0.00506294
5614.00   0.63336718   0.00502301
5616.00   0.62971473   0.00496937
5618.00   0.62421143   0.00492354
5620.00   0.61751717   0.00487310
5622.00   0.61424249   0.00482531
5624.00   0.61089891   0.00475329
5626.00   0.61365795   0.00473892
5628.00   0.62603784   0.00478237
5630.00   0.63355768   0.00481984
5632.00   0.63170880   0.00484362
5634.00   0.62549150   0.00485722
5636.00   0.62089527   0.00483789
5638.00   0.61443150   0.00477471
5640.00   0.61112374   0.00475082
5642.00   0.60828704   0.00474253
5644.00   0.60925573   0.00474550
5646.00   0.61719906   0.00476678
5648.00   0.62561858   0.00479238
5650.00   0.62537152   0.00480121
5652.00   0.61883247   0.00479947
5654.00   0.61619681   0.00480645
5656.00   0.61301488   0.00474896
5658.00   0.61288506   0.00483314
5660.00   0.61674523   0.00510616
5662.00   0.62134284   0.00536898
5664.00   0.62474352   0.00549756
5666.00   0.62808663   0.00556191
5668.00   0.62729043   0.00558205
5670.00   0.62018925   0.00543729
5672.00   0.61825830   0.00549886
5674.00   0.62116235   0.00572997
5676.00   0.62336159   0.00599618
5678.00   0.62219858   0.00625676
5680.00   0.61944038   0.00653037
5682.00   0.61748230   0.00677430
5684.00   0.61687762   0.00682114
5686.00   0.61283582   0.00729361
5688.00   0.60420412   0.00833267
5690.00   0.59798598   0.00886581
5692.00   0.59616214   0.00870667
5694.00   0.59650660   0.00816341
5696.00   0.59673423   0.00757026
5698.00   0.59894067   0.00652496
5700.00   0.59783936   0.00589918
5702.00   0.59200644   0.00559508
5704.00   0.59037125   0.00536642
5706.00   0.59497350   0.00522698
5708.00   0.60107863   0.00519854
5710.00   0.60362160   0.00527839
5712.00   0.60457593   0.00551536
5714.00   0.60532856   0.00554482
5716.00   0.60549945   0.00537264
5718.00   0.60487968   0.00535168
5720.00   0.60273278   0.00557936
5722.00   0.60083103   0.00571357
5724.00   0.60043603   0.00546084
5726.00   0.60089421   0.00490329
5728.00   0.60299647   0.00467244
5730.00   0.60984796   0.00466149
5732.00   0.61051297   0.00461180
5734.00   0.60447723   0.00458196
5736.00   0.59931266   0.00457427
5738.00   0.59827822   0.00459330
5740.00   0.59927779   0.00463286
5742.00   0.60100049   0.00465202
5744.00   0.60441697   0.00463295
5746.00   0.60784811   0.00468667
5748.00   0.61324441   0.00484972
5750.00   0.61659080   0.00492423
5752.00   0.61601055   0.00481821
5754.00   0.61406338   0.00465950
5756.00   0.61554098   0.00470265
5758.00   0.62110728   0.00490912
5760.00   0.61940867   0.00499667
5762.00   0.60933846   0.00493825
5764.00   0.60443813   0.00507680
5766.00   0.60730344   0.00552186
5768.00   0.61150515   0.00595639
5770.00   0.61032313   0.00611067
5772.00   0.60595566   0.00613985
5774.00   0.60350990   0.00595227
5776.00   0.59796995   0.00525359
5778.00   0.59975314   0.00494261
5780.00   0.61152208   0.00509201
5782.00   0.62357491   0.00535203
5784.00   0.62954110   0.00555380
5786.00   0.63268387   0.00578704
5788.00   0.63023132   0.00580813
5790.00   0.61801928   0.00556181
5792.00   0.61265832   0.00550840
5794.00   0.61002564   0.00563642
5796.00   0.61096597   0.00571146
5798.00   0.61852419   0.00560876
5800.00   0.62959826   0.00542191
5802.00   0.63004136   0.00538632
5804.00   0.61997330   0.00549254
5806.00   0.61666662   0.00548751
5808.00   0.61416847   0.00544425
5810.00   0.61480826   0.00536729
5812.00   0.62199587   0.00523330
5814.00   0.63033044   0.00507612
5816.00   0.62760985   0.00498512
5818.00   0.61371285   0.00492409
5820.00   0.61112046   0.00491204
5822.00   0.61575288   0.00496912
5824.00   0.61913013   0.00501999
5826.00   0.62072843   0.00502585
5828.00   0.62246865   0.00507450
5830.00   0.62609750   0.00530188
5832.00   0.63178593   0.00570162
5834.00   0.63249338   0.00573829
5836.00   0.62842804   0.00545298
5838.00   0.62604910   0.00527870
5840.00   0.62445128   0.00509509
5842.00   0.62349463   0.00504738
5844.00   0.62333518   0.00534745
5846.00   0.62388551   0.00586810
5848.00   0.62547052   0.00594586
5850.00   0.62895483   0.00564024
5852.00   0.63115793   0.00555408
5854.00   0.63473541   0.00561278
5856.00   0.63474119   0.00565802
5858.00   0.62601823   0.00560312
5860.00   0.61347669   0.00551929
5862.00   0.61483955   0.00559236
5864.00   0.63030946   0.00578020
5866.00   0.63662010   0.00597615
5868.00   0.64245260   0.00630414
5870.00   0.64286298   0.00648982
5872.00   0.63386232   0.00644489
5874.00   0.62167257   0.00631245
5876.00   0.61841255   0.00627628
5878.00   0.62068808   0.00601972
5880.00   0.62197649   0.00666617
5882.00   0.62306720   0.00735444
5884.00   0.62761211   0.00903242
5886.00   0.64601141   0.01177480
5888.00   0.65628070   0.01411017
5890.00   0.62703574   0.01531452
5892.00   0.56318790   0.01611000
5894.00   0.53466237   0.01603917
5896.00   0.52232343   0.01498792
5898.00   0.51480997   0.01372336
5900.00   0.51159441   0.01161377
5902.00   0.51808268   0.00929117
5904.00   0.54170024   0.00779334
5906.00   0.57938796   0.00701568
5908.00   0.59724522   0.00618283
5910.00   0.60094935   0.00586975
5912.00   0.61006922   0.00559095
5914.00   0.62319314   0.00557441
5916.00   0.63191056   0.00562871
5918.00   0.63196474   0.00569274
5920.00   0.62682152   0.00579449
5922.00   0.62350011   0.00583828
5924.00   0.61468941   0.00582925
5926.00   0.61712134   0.00587649
5928.00   0.63271350   0.00596695
5930.00   0.64220077   0.00604375
5932.00   0.64125913   0.00614377
5934.00   0.63549423   0.00619944
5936.00   0.62986410   0.00603090
5938.00   0.62053221   0.00557826
5940.00   0.61642194   0.00538596
5942.00   0.61447853   0.00530342
5944.00   0.61552608   0.00532102
5946.00   0.62204355   0.00550174
5948.00   0.62873495   0.00570525
5950.00   0.62902635   0.00579479
5952.00   0.62509525   0.00585403
5954.00   0.62294841   0.00572972
5956.00   0.61819160   0.00527041
5958.00   0.61842579   0.00505725
5960.00   0.62629879   0.00511898
5962.00   0.63261241   0.00521987
5964.00   0.63083732   0.00523191
5966.00   0.62425190   0.00522195
5968.00   0.61819643   0.00516770
5970.00   0.60794759   0.00498834
5972.00   0.60293901   0.00496788
5974.00   0.60218889   0.00512321
5976.00   0.60229683   0.00523148
5978.00   0.60177475   0.00521042
5980.00   0.60180759   0.00512373
5982.00   0.60423809   0.00503609
5984.00   0.60668796   0.00487202
5986.00   0.61524963   0.00480945
5988.00   0.63361120   0.00483035
5990.00   0.64633107   0.00484447
5992.00   0.65085101   0.00482087
5994.00   0.65035135   0.00480613
5996.00   0.64605808   0.00487896
5998.00   0.63588887   0.00506805
6000.00   0.62764114   0.00506415
6002.00   0.62135559   0.00486205
6004.00   0.60966575   0.00476248
6006.00   0.58930176   0.00482454
6008.00   0.56823432   0.00489098
6010.00   0.55380118   0.00480816
6012.00   0.54149032   0.00461876
6014.00   0.54219145   0.00450688
6016.00   0.55912584   0.00439806
6018.00   0.57099897   0.00434335
6020.00   0.58110571   0.00435922
6022.00   0.59000784   0.00439119
6024.00   0.59760422   0.00440950
6026.00   0.60396409   0.00442979
6028.00   0.60667652   0.00442581
6030.00   0.60355675   0.00439548
6032.00   0.60452843   0.00437534
6034.00   0.60938585   0.00435743
6036.00   0.61224908   0.00433904
6038.00   0.60986102   0.00431495
6040.00   0.60520041   0.00429130
6042.00   0.60512084   0.00429110
6044.00   0.60812551   0.00429330
6046.00   0.61042738   0.00434350
6048.00   0.61441475   0.00449247
6050.00   0.61655223   0.00455319
6052.00   0.61537266   0.00446874
6054.00   0.61322153   0.00432924
6056.00   0.61378539   0.00426115
6058.00   0.61630934   0.00418431
6060.00   0.61714762   0.00425515
6062.00   0.61733019   0.00456643
6064.00   0.61718881   0.00467208
6066.00   0.61736834   0.00451112
6068.00   0.61644113   0.00430119
6070.00   0.61238492   0.00428011
6072.00   0.60545361   0.00437344
6074.00   0.60165101   0.00433219
6076.00   0.59801221   0.00417201
6078.00   0.59765214   0.00409326
6080.00   0.60225344   0.00409068
6082.00   0.60647833   0.00410269
6084.00   0.60579193   0.00409180
6086.00   0.60257983   0.00407768
6088.00   0.60670137   0.00410346
6090.00   0.62104940   0.00416371
6092.00   0.62479359   0.00422454
6094.00   0.62259501   0.00424324
6096.00   0.61595714   0.00435348
6098.00   0.60174584   0.00463515
6100.00   0.58424687   0.00497926
6102.00   0.58099800   0.00517507
6104.00   0.58873206   0.00538767
6106.00   0.59542054   0.00534611
6108.00   0.60929871   0.00495285
6110.00   0.61728519   0.00468569
6112.00   0.61531329   0.00468903
6114.00   0.60991472   0.00478459
6116.00   0.61003917   0.00477275
6118.00   0.61344290   0.00470818
6120.00   0.61305779   0.00472427
6122.00   0.61237466   0.00482391
6124.00   0.60758024   0.00487096
6126.00   0.59531105   0.00488068
6128.00   0.58346522   0.00484688
6130.00   0.58042365   0.00473858
6132.00   0.58287215   0.00455270
6134.00   0.58621329   0.00440129
6136.00   0.59564143   0.00419725
6138.00   0.59955674   0.00409746
6140.00   0.59786731   0.00413034
6142.00   0.59575510   0.00417685
6144.00   0.59568727   0.00415485
6146.00   0.59636629   0.00410877
6148.00   0.59990716   0.00415900
6150.00   0.60806197   0.00425317
6152.00   0.61260349   0.00441562
6154.00   0.61669123   0.00472430
6156.00   0.61752737   0.00492765
6158.00   0.61264426   0.00495530
6160.00   0.60476196   0.00487916
6162.00   0.60149515   0.00475831
6164.00   0.60047764   0.00449872
6166.00   0.59991443   0.00433999
6168.00   0.60134959   0.00417253
6170.00   0.60193366   0.00411749
6172.00   0.60188162   0.00424608
6174.00   0.60067070   0.00443380
6176.00   0.59584177   0.00451254
6178.00   0.58530587   0.00457114
6180.00   0.58538973   0.00452262
6182.00   0.59464383   0.00430920
6184.00   0.60197318   0.00417286
6186.00   0.60927457   0.00413573
6188.00   0.61453557   0.00411982
6190.00   0.61393297   0.00405696
6192.00   0.60841709   0.00396654
6194.00   0.60618162   0.00395798
6196.00   0.60498655   0.00406787
6198.00   0.60333920   0.00406755
6200.00   0.60032070   0.00394561
6202.00   0.59883320   0.00382727
6204.00   0.60159248   0.00378626
6206.00   0.60702312   0.00378604
6208.00   0.60746151   0.00382291
6210.00   0.60490972   0.00395747
6212.00   0.60163265   0.00398799
6214.00   0.59512430   0.00394629
6216.00   0.59048367   0.00389105
6218.00   0.58983010   0.00382861
6220.00   0.59124106   0.00376029
6222.00   0.59186095   0.00373368
6224.00   0.59330535   0.00368586
6226.00   0.59349722   0.00379170
6228.00   0.59072858   0.00410395
6230.00   0.59164804   0.00428494
6232.00   0.59964782   0.00430218
6234.00   0.60869324   0.00424028
6236.00   0.60968554   0.00415152
6238.00   0.60569137   0.00396170
6240.00   0.60026193   0.00393485
6242.00   0.58697218   0.00407740
6244.00   0.58182311   0.00412562
6246.00   0.58745801   0.00407341
6248.00   0.59482038   0.00399244
6250.00   0.59617311   0.00391452
6252.00   0.59489971   0.00380501
6254.00   0.59287393   0.00387561
6256.00   0.58716559   0.00420640
6258.00   0.58509684   0.00429372
6260.00   0.58716279   0.00417391
6262.00   0.58879405   0.00401041
6264.00   0.58718574   0.00387244
6266.00   0.58393645   0.00372336
6268.00   0.58211619   0.00367717
6270.00   0.57913017   0.00372362
6272.00   0.58000940   0.00377725
6274.00   0.58718503   0.00389195
6276.00   0.59061068   0.00397844
6278.00   0.58551842   0.00402054
6280.00   0.57674271   0.00402911
6282.00   0.57355392   0.00397166
6284.00   0.57453179   0.00377034
6286.00   0.57162589   0.00376213
6288.00   0.56365216   0.00391681
6290.00   0.56095403   0.00403009
6292.00   0.56741327   0.00408693
6294.00   0.57598734   0.00412032
6296.00   0.57668328   0.00413501
6298.00   0.57183450   0.00411600
6300.00   0.57137674   0.00413860
6302.00   0.57339573   0.00422294
6304.00   0.57416481   0.00423447
6306.00   0.57457024   0.00414676
6308.00   0.57347703   0.00404621
6310.00   0.56815279   0.00401371
6312.00   0.55865693   0.00401697
6314.00   0.55933529   0.00401546
6316.00   0.56993276   0.00407631
6318.00   0.57605582   0.00402894
6320.00   0.58052421   0.00383308
6322.00   0.58319354   0.00365245
6324.00   0.58283478   0.00360068
6326.00   0.58028680   0.00362077
6328.00   0.58098447   0.00362115
6330.00   0.58541209   0.00363223
6332.00   0.58556569   0.00366034
6334.00   0.58219987   0.00373802
6336.00   0.57905716   0.00377166
6338.00   0.57708436   0.00370017
6340.00   0.57557982   0.00359346
6342.00   0.57475436   0.00363425
6344.00   0.57575899   0.00383817
6346.00   0.57373339   0.00385990
6348.00   0.56768727   0.00373578
6350.00   0.56469041   0.00366676
6352.00   0.56718135   0.00370782
6354.00   0.57059592   0.00376200
6356.00   0.56879508   0.00371128
6358.00   0.56350803   0.00357335
6360.00   0.55940908   0.00351273
6362.00   0.55418050   0.00349018
6364.00   0.55035293   0.00347261
6366.00   0.54700965   0.00347125
6368.00   0.54559332   0.00346941
6370.00   0.54817080   0.00344496
6372.00   0.55420870   0.00340465
6374.00   0.55814785   0.00339016
6376.00   0.56322312   0.00338745
6378.00   0.56504130   0.00339767
6380.00   0.56310236   0.00343094
6382.00   0.56079394   0.00346098
6384.00   0.55978197   0.00347323
6386.00   0.55913067   0.00347644
6388.00   0.55881542   0.00347975
6390.00   0.55870754   0.00343156
6392.00   0.55926567   0.00349327
6394.00   0.55893379   0.00372790
6396.00   0.56156927   0.00383039
6398.00   0.56983387   0.00367041
6400.00   0.58048946   0.00338651
6402.00   0.58648431   0.00330464
6404.00   0.59555411   0.00336311
6406.00   0.58739406   0.00335634
6408.00   0.55221134   0.00330976
6410.00   0.53598636   0.00333024
6412.00   0.55005747   0.00347718
6414.00   0.57240653   0.00362639
6416.00   0.57647479   0.00360932
6418.00   0.56907958   0.00344412
6420.00   0.57542980   0.00344811
6422.00   0.59178668   0.00357380
6424.00   0.60508531   0.00365663
6426.00   0.61890668   0.00372803
6428.00   0.62850106   0.00376354
6430.00   0.62772954   0.00372544
6432.00   0.61880809   0.00362646
6434.00   0.61123061   0.00351694
6436.00   0.59939796   0.00331840
6438.00   0.59103960   0.00321376
6440.00   0.58676761   0.00318681
6442.00   0.58115977   0.00320484
6444.00   0.56945348   0.00326740
6446.00   0.55498594   0.00336813
6448.00   0.55196774   0.00342174
6450.00   0.55865592   0.00348522
6452.00   0.56395483   0.00347389
6454.00   0.57526720   0.00335817
6456.00   0.58086872   0.00327797
6458.00   0.57540548   0.00328341
6460.00   0.56494117   0.00332879
6462.00   0.56037670   0.00336382
6464.00   0.55757201   0.00341918
6466.00   0.55641299   0.00344637
6468.00   0.55702657   0.00346728
6470.00   0.55914629   0.00346283
6472.00   0.56406176   0.00342120
6474.00   0.56928092   0.00336459
6476.00   0.57075053   0.00332301
6478.00   0.56956375   0.00327944
6480.00   0.56943661   0.00326237
6482.00   0.56727374   0.00327322
6484.00   0.56890613   0.00328119
6486.00   0.57593536   0.00328266
6488.00   0.58319592   0.00329400
6490.00   0.58660299   0.00333076
6492.00   0.58809650   0.00338709
6494.00   0.58771813   0.00342742
6496.00   0.58459908   0.00344443
6498.00   0.58148217   0.00350068
6500.00   0.57649016   0.00362233
6502.00   0.57291102   0.00370574
6504.00   0.57226861   0.00370447
6506.00   0.57371789   0.00364844
6508.00   0.57795131   0.00355382
6510.00   0.58953762   0.00331851
6512.00   0.59231031   0.00324597
6514.00   0.58820516   0.00331994
6516.00   0.58431339   0.00337184
6518.00   0.58276188   0.00335413
6520.00   0.58140486   0.00331571
6522.00   0.57780474   0.00330803
6524.00   0.57129955   0.00331224
6526.00   0.56855470   0.00332516
6528.00   0.56741542   0.00330773
6530.00   0.56822312   0.00337560
6532.00   0.57235366   0.00358886
6534.00   0.57710040   0.00380321
6536.00   0.57854772   0.00386153
6538.00   0.57833004   0.00383643
6540.00   0.57655644   0.00374701
6542.00   0.57192355   0.00348259
6544.00   0.56831896   0.00333543
6546.00   0.56387311   0.00329209
6548.00   0.56174475   0.00333190
6550.00   0.56613570   0.00347006
6552.00   0.57575703   0.00369707
6554.00   0.57812381   0.00384201
6556.00   0.57627642   0.00405664
6558.00   0.57399434   0.00405248
6560.00   0.56872368   0.00377901
6562.00   0.56489044   0.00349758
6564.00   0.56487006   0.00336453
6566.00   0.56717372   0.00330290
6568.00   0.57019627   0.00326042
6570.00   0.57784772   0.00324543
6572.00   0.57890624   0.00330118
6574.00   0.57516652   0.00348057
6576.00   0.57046598   0.00359178
6578.00   0.56426293   0.00359961
6580.00   0.55797446   0.00354392
6582.00   0.55746198   0.00342907
6584.00   0.56287420   0.00316899
6586.00   0.56395888   0.00308292
6588.00   0.56303126   0.00312066
6590.00   0.56249833   0.00317151
6592.00   0.56152719   0.00325402
6594.00   0.56164968   0.00333410
6596.00   0.56607473   0.00334372
6598.00   0.57495952   0.00329798
6600.00   0.57830614   0.00329614
6602.00   0.57864392   0.00332837
6604.00   0.57807368   0.00332696
6606.00   0.57526368   0.00325316
6608.00   0.57264197   0.00321475
6610.00   0.57294238   0.00333420
6612.00   0.57514822   0.00355824
6614.00   0.57329571   0.00356736
6616.00   0.56903064   0.00340236
6618.00   0.56356102   0.00328761
6620.00   0.55464268   0.00314302
6622.00   0.54730570   0.00304807
6624.00   0.54411703   0.00307804
6626.00   0.54342306   0.00317827
6628.00   0.54338056   0.00317697
6630.00   0.54494005   0.00308751
6632.00   0.54713428   0.00307414
6634.00   0.55134261   0.00311795
6636.00   0.55454916   0.00314172
6638.00   0.55570817   0.00312592
6640.00   0.55605686   0.00309144
6642.00   0.55737019   0.00305426
6644.00   0.55908525   0.00298231
6646.00   0.56065607   0.00298574
6648.00   0.56209987   0.00305569
6650.00   0.56385648   0.00311813
6652.00   0.56634480   0.00315893
6654.00   0.56869847   0.00321216
6656.00   0.56967622   0.00331527
6658.00   0.56952399   0.00345822
6660.00   0.57018489   0.00357133
6662.00   0.57087535   0.00373401
6664.00   0.57208049   0.00377401
6666.00   0.56985879   0.00364511
6668.00   0.57315367   0.00351053
6670.00   0.59321171   0.00332360
6672.00   0.62623662   0.00301885
6674.00   0.63428414   0.00417612
6676.00   0.60962611   0.00665677
6678.00   0.61901003   0.00713502
6680.00   0.66466296   0.00595543
6682.00   0.70323294   0.00493868
6684.00   0.70699805   0.00528256
6686.00   0.69712526   0.00632789
6688.00   0.73244053   0.00799625
6690.00   0.80191910   0.01059510
6692.00   0.87088853   0.01176123
6694.00   0.98159456   0.01256629
6696.00   1.04569018   0.01285645
6698.00   1.03785408   0.01262776
6700.00   0.98745650   0.01188617
6702.00   0.92518336   0.01040540
6704.00   0.81650537   0.00675651
6706.00   0.76126045   0.00480813
6708.00   0.72580540   0.00509839
6710.00   0.71857530   0.00586054
6712.00   0.75269425   0.00738443
6714.00   0.80096352   0.00867400
6716.00   0.83129871   0.00882460
6718.00   0.86295211   0.00831470
6720.00   0.85727113   0.00763497
6722.00   0.82072818   0.00597858
6724.00   0.77195507   0.00468274
6726.00   0.69326854   0.00400299
6728.00   0.61965829   0.00364023
6730.00   0.57968873   0.00337551
6732.00   0.55962569   0.00341561
6734.00   0.54928619   0.00331340
6736.00   0.56267458   0.00322115
6738.00   0.56561601   0.00314432
6740.00   0.56363535   0.00307705
6742.00   0.56237024   0.00303550
6744.00   0.56410342   0.00303974
6746.00   0.56724644   0.00307230
6748.00   0.56959885   0.00306207
6750.00   0.57368565   0.00301871
6752.00   0.57362008   0.00299653
6754.00   0.57064229   0.00293558
6756.00   0.56613445   0.00295776
6758.00   0.55870986   0.00314481
6760.00   0.55082387   0.00335780
6762.00   0.54888237   0.00336863
6764.00   0.55117583   0.00321876
6766.00   0.55407822   0.00315132
6768.00   0.56151891   0.00308362
6770.00   0.56523395   0.00304004
6772.00   0.56346911   0.00298592
6774.00   0.56057006   0.00299251
6776.00   0.56133729   0.00319145
6778.00   0.56450450   0.00357118
6780.00   0.56404734   0.00359532
6782.00   0.55983460   0.00328981
6784.00   0.55833453   0.00313543
6786.00   0.55974078   0.00311669
6788.00   0.56138307   0.00314068
6790.00   0.56180859   0.00317204
6792.00   0.56179392   0.00323022
6794.00   0.55972511   0.00323127
6796.00   0.55381727   0.00318611
6798.00   0.55167651   0.00315306
6800.00   0.55172747   0.00311010
6802.00   0.55350834   0.00307903
6804.00   0.55775261   0.00308015
6806.00   0.56358814   0.00309591
6808.00   0.56638885   0.00306790
6810.00   0.56696057   0.00297779
6812.00   0.56835020   0.00295942
6814.00   0.56985819   0.00295798
6816.00   0.57091993   0.00301788
6818.00   0.57213676   0.00317401
6820.00   0.57243747   0.00335755
6822.00   0.56907159   0.00345554
6824.00   0.56227607   0.00350252
6826.00   0.55596477   0.00357263
6828.00   0.54526460   0.00364706
6830.00   0.54098111   0.00371358
6832.00   0.54689211   0.00379895
6834.00   0.55404812   0.00385009
6836.00   0.55071318   0.00375391
6838.00   0.53822440   0.00345979
6840.00   0.54583865   0.00367022
6842.00   0.55074251   0.00407631
6844.00   0.59431916   0.00474187
6846.00   0.70008332   0.00559869
6848.00   0.79782724   0.00649458
6850.00   0.83632714   0.00760364
6852.00   0.84073645   0.00880537
6854.00   0.84014201   0.00851166
6856.00   0.81325597   0.00607286
6858.00   0.79694086   0.00466188
6860.00   0.78118742   0.00406814
6862.00   0.76945478   0.00417084
6864.00   0.76700526   0.00515798
6866.00   0.76858938   0.00639881
6868.00   0.75475836   0.00650810
6870.00   0.73483860   0.00582266
6872.00   0.70109779   0.00529423
6874.00   0.64244312   0.00434424
6876.00   0.59620565   0.00353051
6878.00   0.56884181   0.00320137
6880.00   0.55309820   0.00322034
6882.00   0.54734790   0.00332955
6884.00   0.55736458   0.00372423
6886.00   0.55891407   0.00387534
6888.00   0.56102890   0.00397129
6890.00   0.55926073   0.00398307
6892.00   0.55052042   0.00388576
6894.00   0.54178452   0.00373141
6896.00   0.54126042   0.00357200
6898.00   0.54605508   0.00335944
6900.00   0.55037594   0.00325540
6902.00   0.55910587   0.00324304
6904.00   0.56290227   0.00323788
6906.00   0.56159824   0.00326952
6908.00   0.55907923   0.00329975
6910.00   0.55749708   0.00329087
6912.00   0.55573714   0.00326089
6914.00   0.55470520   0.00328228
6916.00   0.55498600   0.00336296
6918.00   0.55364466   0.00339283
6920.00   0.55134308   0.00339404
6922.00   0.54819071   0.00337992
6924.00   0.54262835   0.00333527
6926.00   0.53653955   0.00327951
6928.00   0.53834271   0.00331682
6930.00   0.54904819   0.00349585
6932.00   0.55404317   0.00349896
6934.00   0.55934709   0.00335271
6936.00   0.56029648   0.00324626
6938.00   0.55451703   0.00320659
6940.00   0.54570276   0.00321499
6942.00   0.53968734   0.00330646
6944.00   0.53256297   0.00352226
6946.00   0.53198773   0.00356245
6948.00   0.53891939   0.00348551
6950.00   0.54341805   0.00340841
6952.00   0.54527092   0.00331913
6954.00   0.54628259   0.00322501
6956.00   0.54727149   0.00314348
6958.00   0.54773319   0.00305544
6960.00   0.54887336   0.00306408
6962.00   0.55218887   0.00320165
6964.00   0.55175775   0.00325915
6966.00   0.54693055   0.00321261
6968.00   0.54156023   0.00320741
6970.00   0.53773195   0.00337693
6972.00   0.53435034   0.00363869
6974.00   0.53317285   0.00365418
6976.00   0.53367710   0.00345279
6978.00   0.53558230   0.00333647
6980.00   0.54015309   0.00322506
6982.00   0.54426116   0.00313939
6984.00   0.54712909   0.00310084
6986.00   0.54909742   0.00309298
6988.00   0.54852980   0.00306731
6990.00   0.54463786   0.00303986
6992.00   0.54245239   0.00301739
6994.00   0.54008192   0.00299073
6996.00   0.53861886   0.00298027
6998.00   0.53890741   0.00298216
7000.00   0.53954899   0.00300497
7002.00   0.53765190   0.00307759
7004.00   0.53220439   0.00321601
7006.00   0.53395993   0.00326660
7008.00   0.54253757   0.00327845
7010.00   0.54905134   0.00325710
7012.00   0.55520082   0.00318213
7014.00   0.55872566   0.00309233
7016.00   0.55511731   0.00302362
7018.00   0.54499519   0.00294359
7020.00   0.54082513   0.00300497
7022.00   0.53866172   0.00328783
7024.00   0.53804177   0.00335857
7026.00   0.53988677   0.00319744
7028.00   0.54217118   0.00304346
7030.00   0.54307055   0.00308645
7032.00   0.54352415   0.00322945
7034.00   0.54750836   0.00323860
7036.00   0.55582583   0.00314571
7038.00   0.56129336   0.00311672
7040.00   0.56665093   0.00309177
7042.00   0.56939572   0.00312193
7044.00   0.56818193   0.00327154
7046.00   0.56420612   0.00345683
7048.00   0.55969286   0.00344511
7050.00   0.54989743   0.00320606
7052.00   0.54919314   0.00316960
7054.00   0.55817693   0.00329292
7056.00   0.56302065   0.00334265
7058.00   0.56025046   0.00326178
7060.00   0.55515701   0.00313867
7062.00   0.55393368   0.00308490
7064.00   0.55427474   0.00303457
7066.00   0.55521595   0.00310601
7068.00   0.55912119   0.00337205
7070.00   0.55982178   0.00347761
7072.00   0.55635369   0.00340624
7074.00   0.55180824   0.00327653
7076.00   0.54906148   0.00317992
7078.00   0.54704869   0.00306434
7080.00   0.54360217   0.00302714
7082.00   0.53580701   0.00306848
7084.00   0.53509212   0.00309561
7086.00   0.54338747   0.00313683
7088.00   0.55123335   0.00316245
7090.00   0.55256522   0.00314616
7092.00   0.55060726   0.00310187
7094.00   0.55009824   0.00307326
7096.00   0.54943192   0.00303800
7098.00   0.54845935   0.00301966
7100.00   0.54689455   0.00302231
7102.00   0.54559237   0.00302020
7104.00   0.54493952   0.00298566
7106.00   0.54459435   0.00294962
7108.00   0.54398280   0.00301389
7110.00   0.54336619   0.00322540
7112.00   0.54256827   0.00324924
7114.00   0.54045290   0.00308101
7116.00   0.54038733   0.00302467
7118.00   0.54404324   0.00318343
7120.00   0.54857713   0.00338401
7122.00   0.54960781   0.00343096
7124.00   0.54877782   0.00340456
7126.00   0.54678047   0.00333576
7128.00   0.54064864   0.00314543
7130.00   0.53863519   0.00302425
7132.00   0.54263592   0.00298747
7134.00   0.54705763   0.00298570
7136.00   0.54612291   0.00298430
7138.00   0.54158860   0.00299892
7140.00   0.54211622   0.00303073
7142.00   0.54721820   0.00310923
7144.00   0.54939467   0.00313745
7146.00   0.54916096   0.00309121
7148.00   0.54852611   0.00307376
7150.00   0.54910904   0.00317892
7152.00   0.54999149   0.00334631
7154.00   0.54643315   0.00333523
7156.00   0.53645253   0.00312963
7158.00   0.53208834   0.00305883
7160.00   0.52992195   0.00302257
7162.00   0.53079283   0.00307443
7164.00   0.53666180   0.00329454
7166.00   0.54507941   0.00355922
7168.00   0.54798788   0.00356672
7170.00   0.54591763   0.00330891
7172.00   0.54827774   0.00326748
7174.00   0.55345380   0.00335651
7176.00   0.55798143   0.00341829
7178.00   0.56232321   0.00344969
7180.00   0.56549352   0.00345396
7182.00   0.56440783   0.00338782
7184.00   0.55861193   0.00322914
7186.00   0.55727321   0.00316920
7188.00   0.55819058   0.00316439
7190.00   0.55929005   0.00317487
7192.00   0.56306916   0.00322855
7194.00   0.56449658   0.00327140
7196.00   0.55638397   0.00322686
7198.00   0.53999257   0.00310548
7200.00   0.53698158   0.00314727
7202.00   0.54418766   0.00334418
7204.00   0.54888743   0.00345471
7206.00   0.55591249   0.00356142
7208.00   0.55917370   0.00358373
7210.00   0.55266970   0.00342824
7212.00   0.53993309   0.00313166
7214.00   0.53630888   0.00300030
7216.00   0.53904784   0.00296631
7218.00   0.53939909   0.00294238
7220.00   0.54143792   0.00294242
7222.00   0.54041398   0.00299397
7224.00   0.53191608   0.00312404
7226.00   0.52113736   0.00328932
7228.00   0.52235746   0.00338391
7230.00   0.53259283   0.00335313
7232.00   0.54266143   0.00357456
7234.00   0.56196201   0.00399823
7236.00   0.57158571   0.00434017
7238.00   0.56824410   0.00463774
7240.00   0.55753016   0.00485967
7242.00   0.54358649   0.00489492
7244.00   0.52131498   0.00478089
7246.00   0.50944203   0.00461218
7248.00   0.50319231   0.00421212
7250.00   0.49910712   0.00397083
7252.00   0.49664885   0.00396859
7254.00   0.49773163   0.00400822
7256.00   0.50546342   0.00390504
7258.00   0.51987326   0.00371515
7260.00   0.52421206   0.00370377
7262.00   0.52038556   0.00388971
7264.00   0.52003568   0.00393793
7266.00   0.52058482   0.00380090
7268.00   0.52295488   0.00375759
7270.00   0.52903074   0.00400710
7272.00   0.53758734   0.00439853
7274.00   0.54118872   0.00460728
7276.00   0.54273719   0.00479143
7278.00   0.54129601   0.00485636
7280.00   0.53588694   0.00483240
7282.00   0.52979708   0.00472064
7284.00   0.52344537   0.00448101
7286.00   0.51683754   0.00414337
7288.00   0.51208586   0.00386308
7290.00   0.50717217   0.00352920
7292.00   0.50687164   0.00334973
7294.00   0.50921589   0.00328848
7296.00   0.51570249   0.00333666
7298.00   0.53027594   0.00354211
7300.00   0.54554385   0.00378952
7302.00   0.54885250   0.00392801
7304.00   0.54300749   0.00404062
7306.00   0.54170346   0.00405949
7308.00   0.54064244   0.00392821
7310.00   0.53969115   0.00388803
7312.00   0.54100525   0.00394532
7314.00   0.53984278   0.00403419
7316.00   0.52964449   0.00413479
7318.00   0.51168203   0.00427157
7320.00   0.50791311   0.00423250
7322.00   0.51724660   0.00400238
7324.00   0.51981640   0.00383964
7326.00   0.51867265   0.00367703
7328.00   0.51581907   0.00356388
7330.00   0.50985825   0.00353777
7332.00   0.50200701   0.00358282
7334.00   0.50562710   0.00370062
7336.00   0.52516085   0.00395291
7338.00   0.53003299   0.00409956
7340.00   0.52745986   0.00427325
7342.00   0.52028143   0.00430842
7344.00   0.50505477   0.00408898
7346.00   0.48722619   0.00373053
7348.00   0.48553970   0.00359756
7350.00   0.49773690   0.00361720
7352.00   0.50447845   0.00360050
7354.00   0.51437670   0.00358951
7356.00   0.51954913   0.00363000
7358.00   0.51646429   0.00371578
7360.00   0.51183897   0.00385210
7362.00   0.51573128   0.00407904
7364.00   0.52703238   0.00443487
7366.00   0.52781498   0.00450996
7368.00   0.52259672   0.00440634
7370.00   0.51497501   0.00424821
7372.00   0.50067532   0.00396129
7374.00   0.48836279   0.00364422
7376.00   0.48695973   0.00342714
7378.00   0.49285743   0.00326310
7380.00   0.49832582   0.00316354
7382.00   0.50939065   0.00311786
7384.00   0.51506680   0.00317807
7386.00   0.51518303   0.00340295
7388.00   0.51561439   0.00359487
7390.00   0.52025837   0.00363750
7392.00   0.52661496   0.00361717
7394.00   0.52728492   0.00377623
7396.00   0.52032191   0.00414046
7398.00   0.52101916   0.00428224
7400.00   0.52853459   0.00433396
7402.00   0.53379196   0.00429650
7404.00   0.53407162   0.00412813
7406.00   0.53188515   0.00387346
7408.00   0.52926439   0.00370580
7410.00   0.52293360   0.00358153
7412.00   0.52303112   0.00343107
7414.00   0.53104520   0.00324162
7416.00   0.53377867   0.00310785
7418.00   0.52876747   0.00305022
7420.00   0.52093345   0.00304657
7422.00   0.51445758   0.00307378
7424.00   0.50527573   0.00313211
7426.00   0.50737536   0.00326950
7428.00   0.52266437   0.00355061
7430.00   0.53171480   0.00369619
7432.00   0.53602159   0.00373052
7434.00   0.53723449   0.00370433
7436.00   0.53487813   0.00362230
7438.00   0.52878928   0.00346460
7440.00   0.52466112   0.00341854
7442.00   0.51973796   0.00349506
7444.00   0.51672256   0.00346801
7446.00   0.51561469   0.00331106
7448.00   0.51503319   0.00319669
7450.00   0.51487368   0.00323039
7452.00   0.51503783   0.00334957
7454.00   0.51220739   0.00346901
7456.00   0.50237942   0.00372136
7458.00   0.50293851   0.00374888
7460.00   0.51153213   0.00355606
7462.00   0.52138722   0.00340757
7464.00   0.53214657   0.00338785
7466.00   0.54326642   0.00343053
7468.00   0.54959834   0.00349747
7470.00   0.55287349   0.00363649
7472.00   0.55409104   0.00369816
7474.00   0.55159593   0.00370889
7476.00   0.54929745   0.00373140
7478.00   0.54752266   0.00377381
7480.00   0.54552752   0.00381784
7482.00   0.54291195   0.00385265
7484.00   0.53977585   0.00389408
7486.00   0.53654504   0.00387315
7488.00   0.53293657   0.00380557
7490.00   0.52939928   0.00370728
7492.00   0.52516890   0.00355028
7494.00   0.52185422   0.00338198
7496.00   0.52109152   0.00324583
7498.00   0.52223992   0.00312036
7500.00   0.52301782   0.00306404
7502.00   0.52488083   0.00309824
7504.00   0.52562237   0.00310550
7506.00   0.52461356   0.00308734
7508.00   0.52459866   0.00310199
7510.00   0.52766037   0.00317835
7512.00   0.53230399   0.00329431
7514.00   0.53341228   0.00342042
7516.00   0.53108096   0.00360433
7518.00   0.53114486   0.00371026
7520.00   0.53331381   0.00376642
7522.00   0.53387833   0.00381458
7524.00   0.53212172   0.00387914
7526.00   0.52858192   0.00392853
7528.00   0.52254009   0.00389626
7530.00   0.51125902   0.00378213
7532.00   0.50742328   0.00368760
7534.00   0.50920004   0.00356568
7536.00   0.51063460   0.00345805
7538.00   0.51137495   0.00336754
7540.00   0.51236129   0.00329069
7542.00   0.51357436   0.00322838
7544.00   0.51421094   0.00317807
7546.00   0.51951116   0.00316277
7548.00   0.53206432   0.00319342
7550.00   0.53876185   0.00321573
7552.00   0.53931165   0.00322791
7554.00   0.53816426   0.00324983
7556.00   0.53778732   0.00330110
7558.00   0.53678411   0.00337460
7560.00   0.53890222   0.00340614
7562.00   0.54682308   0.00339858
7564.00   0.54782206   0.00341568
7566.00   0.54301435   0.00342282
7568.00   0.53646910   0.00347251
7570.00   0.52827656   0.00361238
7572.00   0.51897299   0.00379597
7574.00   0.51797253   0.00387670
7576.00   0.52787495   0.00396074
7578.00   0.52851725   0.00388601
7580.00   0.52409947   0.00354129
7582.00   0.51897037   0.00331815
7584.00   0.51340503   0.00337904
7586.00   0.50759590   0.00357357
7588.00   0.50376499   0.00372235
7590.00   0.49848506   0.00383210
7592.00   0.50277334   0.00415030
7594.00   0.51624423   0.00433619
7596.00   0.53016216   0.00504514
7598.00   0.54704648   0.00632506
7600.00   0.56236845   0.00751623
7602.00   0.56837857   0.00826897
7604.00   0.56841201   0.00895805
7606.00   0.56223959   0.00894411
7608.00   0.54602075   0.00821302
7610.00   0.53180802   0.00742619
7612.00   0.51493293   0.00621847
7614.00   0.50246370   0.00493439
7616.00   0.50157094   0.00429605
7618.00   0.50914222   0.00426241
7620.00   0.51734823   0.00433077
7622.00   0.53359038   0.00490987
7624.00   0.54253578   0.00518084
7626.00   0.54656887   0.00532912
7628.00   0.54815924   0.00540599
7630.00   0.54807156   0.00541829
7632.00   0.54588437   0.00536590
7634.00   0.54214299   0.00527213
7636.00   0.53390741   0.00511631
7638.00   0.53044641   0.00492442
7640.00   0.52946085   0.00459061
7642.00   0.52985287   0.00435715
7644.00   0.53200132   0.00434186
7646.00   0.53514951   0.00442720
7648.00   0.53684092   0.00442967
7650.00   0.53725791   0.00444649
7652.00   0.53978658   0.00436442
7654.00   0.54591823   0.00413283
7656.00   0.54823887   0.00398216
7658.00   0.54543930   0.00393858
7660.00   0.54067326   0.00395462
7662.00   0.53720629   0.00402766
7664.00   0.53402728   0.00421246
7666.00   0.52842808   0.00410984
7668.00   0.51690859   0.00364776
7670.00   0.51297867   0.00337484
7672.00   0.51856095   0.00328970
7674.00   0.52488834   0.00330710
7676.00   0.52515179   0.00339981
7678.00   0.52241212   0.00357945
7680.00   0.52357489   0.00371064
7682.00   0.52531630   0.00393431
7684.00   0.53078842   0.00394489
7686.00   0.54126352   0.00369405
7688.00   0.55168629   0.00347051
7690.00   0.56111813   0.00343875
7692.00   0.56962204   0.00350397
7694.00   0.57061994   0.00355917
7696.00   0.56392127   0.00365000
7698.00   0.55824631   0.00374623
7700.00   0.54928803   0.00388191
7702.00   0.54182941   0.00398272
7704.00   0.53697854   0.00392416
7706.00   0.53353256   0.00390708
7708.00   0.53048563   0.00439436
7710.00   0.52738470   0.00531134
7712.00   0.52801341   0.00567567
7714.00   0.53770638   0.00589187
7716.00   0.53736782   0.00588050
7718.00   0.52157426   0.00552664
7720.00   0.50296527   0.00502771
7722.00   0.49562696   0.00470680
7724.00   0.49438131   0.00445384
7726.00   0.49267420   0.00417763
7728.00   0.49469239   0.00387920
7730.00   0.49403909   0.00365450
7732.00   0.48798427   0.00352021
7734.00   0.48503458   0.00344550
7736.00   0.49219677   0.00340099
7738.00   0.50628966   0.00340225
7740.00   0.51871401   0.00351218
7742.00   0.53641605   0.00367446
7744.00   0.54637116   0.00396355
7746.00   0.55212975   0.00439465
7748.00   0.55220819   0.00479899
7750.00   0.54442161   0.00520994
7752.00   0.53081745   0.00557662
7754.00   0.51944631   0.00551696
7756.00   0.50381142   0.00491651
7758.00   0.49616235   0.00461092
7760.00   0.49474311   0.00440559
7762.00   0.49437401   0.00419850
7764.00   0.49480835   0.00393443
7766.00   0.49585080   0.00368436
7768.00   0.49490950   0.00360238
7770.00   0.49211720   0.00369289
7772.00   0.49152133   0.00372448
7774.00   0.49340430   0.00375476
7776.00   0.49324298   0.00382360
7778.00   0.49004081   0.00394511
7780.00   0.48629272   0.00407910
7782.00   0.48405024   0.00418299
7784.00   0.48156625   0.00427157
7786.00   0.48529887   0.00438378
7788.00   0.49679318   0.00452155
7790.00   0.50473094   0.00463558
7792.00   0.51206583   0.00479319
7794.00   0.51582861   0.00485697
7796.00   0.51127881   0.00469087
7798.00   0.50030470   0.00433573
7800.00   0.50041097   0.00413003
7802.00   0.50880760   0.00392377
7804.00   0.51502925   0.00385736
7806.00   0.52378660   0.00391914
7808.00   0.52920783   0.00407152
7810.00   0.52994716   0.00424881
7812.00   0.52633291   0.00450418
7814.00   0.51254034   0.00504793
7816.00   0.47731465   0.00613392
7818.00   0.46725470   0.00632656
7820.00   0.47764710   0.00589819
7822.00   0.48313561   0.00546230
7824.00   0.47716939   0.00515625
7826.00   0.46812925   0.00484608
7828.00   0.46491534   0.00445680
7830.00   0.46202835   0.00390103
7832.00   0.46872449   0.00362436
7834.00   0.48680282   0.00358764
7836.00   0.50244987   0.00365207
7838.00   0.51829791   0.00387981
7840.00   0.53046477   0.00413132
7842.00   0.53146952   0.00422404
7844.00   0.52292091   0.00419891
7846.00   0.51799828   0.00444472
7848.00   0.51282036   0.00492636
7850.00   0.50610322   0.00525682
7852.00   0.49768162   0.00558742
7854.00   0.48841527   0.00575192
7856.00   0.47828433   0.00558197
7858.00   0.46720174   0.00513740
7860.00   0.45974502   0.00484556
7862.00   0.45233935   0.00446948
7864.00   0.45151889   0.00431133
7866.00   0.45696461   0.00437703
7868.00   0.46547541   0.00451927
7870.00   0.47702095   0.00472548
7872.00   0.49103367   0.00497022
7874.00   0.50169891   0.00504436
7876.00   0.51388204   0.00498414
7878.00   0.51793450   0.00496050
7880.00   0.51448476   0.00492701
7882.00   0.50979561   0.00487045
7884.00   0.50513345   0.00475953
7886.00   0.49891841   0.00464311
7888.00   0.48934105   0.00464097
7890.00   0.47374201   0.00477338
7892.00   0.46826386   0.00472134
7894.00   0.47034451   0.00456272
7896.00   0.47268152   0.00434535
7898.00   0.47533178   0.00396546
7900.00   0.47911713   0.00358679
7902.00   0.48479551   0.00348866
7904.00   0.49310729   0.00358509
7906.00   0.49515101   0.00382345
7908.00   0.49341628   0.00427802
7910.00   0.48921323   0.00464710
7912.00   0.48019791   0.00504774
7914.00   0.47144610   0.00533894
7916.00   0.46686921   0.00543675
7918.00   0.46451104   0.00540430
7920.00   0.46072444   0.00527643
7922.00   0.45378664   0.00493063
7924.00   0.45346865   0.00468422
7926.00   0.46065822   0.00445293
7928.00   0.46686810   0.00426981
7930.00   0.46902603   0.00413372
7932.00   0.46923819   0.00406704
7934.00   0.46815485   0.00419244
7936.00   0.46164307   0.00460935
7938.00   0.46365711   0.00474123
7940.00   0.47177568   0.00480561
7942.00   0.48111570   0.00471525
7944.00   0.49309048   0.00431166
7946.00   0.50482911   0.00379120
7948.00   0.50842810   0.00374077
7950.00   0.50451630   0.00407973
7952.00   0.50546682   0.00420108
7954.00   0.50519782   0.00427220
7956.00   0.51032031   0.00436966
7958.00   0.52460623   0.00447857
7960.00   0.53913820   0.00461519
7962.00   0.54488450   0.00484082
7964.00   0.54635084   0.00516805
7966.00   0.53927279   0.00515488
7968.00   0.51442891   0.00478975
7970.00   0.50511456   0.00455608
7972.00   0.51114178   0.00439741
7974.00   0.51976329   0.00428464
7976.00   0.52569181   0.00422787
7978.00   0.53176934   0.00422656
7980.00   0.52456450   0.00420668
7982.00   0.49750638   0.00411014
7984.00   0.48747537   0.00421236
7986.00   0.48962834   0.00447309
7988.00   0.49282169   0.00477872
7990.00   0.49511486   0.00517541
7992.00   0.49689034   0.00556707
7994.00   0.48983717   0.00558444
7996.00   0.46887502   0.00528730
7998.00   0.46368110   0.00499096
8000.00   0.46941805   0.00443315
8002.00   0.47471508   0.00398632
8004.00   0.47705424   0.00376727
8006.00   0.48007819   0.00371697
8008.00   0.48813859   0.00382070
8010.00   0.50248802   0.00417709
8012.00   0.50807774   0.00425823
8014.00   0.50367743   0.00411784
8016.00   0.50702906   0.00411897
8018.00   0.52187920   0.00429029
8020.00   0.53742576   0.00450228
8022.00   0.54456574   0.00468362
8024.00   0.54851192   0.00488811
8026.00   0.53884751   0.00491951
8028.00   0.50850856   0.00483942
8030.00   0.49047974   0.00466853
8032.00   0.48044237   0.00431262
8034.00   0.47521868   0.00393494
8036.00   0.47431439   0.00366148
8038.00   0.47798944   0.00344446
8040.00   0.48342994   0.00338973
8042.00   0.49791306   0.00344236
8044.00   0.50069016   0.00369448
8046.00   0.49205592   0.00429481
8048.00   0.48495436   0.00465507
8050.00   0.48459280   0.00460909
8052.00   0.48669368   0.00435478
8054.00   0.48557663   0.00422091
8056.00   0.48353237   0.00402907
8058.00   0.47990012   0.00398773
8060.00   0.47356910   0.00414296
8062.00   0.46823883   0.00419802
8064.00   0.46368206   0.00409855
8066.00   0.46052530   0.00392569
8068.00   0.46132255   0.00375238
8070.00   0.46648180   0.00349949
8072.00   0.46859586   0.00339166
8074.00   0.46830806   0.00341963
8076.00   0.47065729   0.00343366
8078.00   0.47634426   0.00343375
8080.00   0.48298630   0.00344629
8082.00   0.48881885   0.00348209
8084.00   0.49495208   0.00353336
8086.00   0.49833927   0.00362061
8088.00   0.50080723   0.00379329
8090.00   0.49976429   0.00386411
8092.00   0.49295592   0.00382180
8094.00   0.48695332   0.00378456
8096.00   0.48665798   0.00384131
8098.00   0.48940894   0.00394169
8100.00   0.48769659   0.00392713
8102.00   0.48568347   0.00379146
8104.00   0.47828019   0.00373522
8106.00   0.46024114   0.00375073
8108.00   0.44889036   0.00372756
8110.00   0.45220953   0.00360135
8112.00   0.46291360   0.00342830
8114.00   0.46809492   0.00336131
8116.00   0.47239980   0.00337867
8118.00   0.47648177   0.00336755
8120.00   0.48182216   0.00333591
8122.00   0.48366055   0.00335777
8124.00   0.47832456   0.00347895
8126.00   0.47227314   0.00361217
8128.00   0.47671118   0.00362559
8130.00   0.48999193   0.00353818
8132.00   0.49676135   0.00354710
8134.00   0.50094455   0.00360234
8136.00   0.50527012   0.00366636
8138.00   0.51154363   0.00375396
8140.00   0.51533383   0.00383780
8142.00   0.51115698   0.00388999
8144.00   0.50018990   0.00392569
8146.00   0.49608338   0.00393371
8148.00   0.49750072   0.00387954
8150.00   0.49438062   0.00388487
8152.00   0.48516092   0.00397536
8154.00   0.47810164   0.00403283
8156.00   0.47852346   0.00397786
8158.00   0.48347670   0.00385318
8160.00   0.48716524   0.00378800
8162.00   0.49402800   0.00374970
8164.00   0.49609014   0.00370059
8166.00   0.49330401   0.00362817
8168.00   0.49130505   0.00359156
8170.00   0.49148148   0.00358921
8172.00   0.49298608   0.00363601
8174.00   0.49719051   0.00382072
8176.00   0.50791496   0.00407888
8178.00   0.50862110   0.00444955
8180.00   0.49939576   0.00496184
8182.00   0.49419212   0.00540125
8184.00   0.49759245   0.00585990
8186.00   0.50161952   0.00619914
8188.00   0.49461940   0.00612448
8190.00   0.47704688   0.00559406
8192.00   0.47229758   0.00548326
8194.00   0.47765669   0.00572959
8196.00   0.47903669   0.00572718
8198.00   0.47581995   0.00541331
8200.00   0.47223383   0.00502080
8202.00   0.47147802   0.00477883
8204.00   0.47233275   0.00460405
8206.00   0.47204554   0.00441331
8208.00   0.46958661   0.00421677
8210.00   0.47112170   0.00407844
8212.00   0.47714791   0.00401990
8214.00   0.48362401   0.00397652
8216.00   0.48817679   0.00390824
8218.00   0.49214265   0.00383698
8220.00   0.49741971   0.00378700
8222.00   0.50396776   0.00373747
8224.00   0.50970310   0.00373214
8226.00   0.51799589   0.00380754
8228.00   0.52131379   0.00383531
8230.00   0.51565939   0.00373660
8232.00   0.50523055   0.00359480
8234.00   0.49865040   0.00363163
8236.00   0.49138135   0.00386113
8238.00   0.48841879   0.00389516
8240.00   0.49073657   0.00378763
8242.00   0.49123389   0.00372812
8244.00   0.48948091   0.00375787
8246.00   0.48613438   0.00380800
8248.00   0.48036590   0.00380811
8250.00   0.47153929   0.00378273
8252.00   0.46511194   0.00375750
8254.00   0.45811751   0.00371114
8256.00   0.45430440   0.00368264
8258.00   0.45407671   0.00369429
8260.00   0.45572090   0.00368930
8262.00   0.45764834   0.00359315
8264.00   0.46036428   0.00341331
8266.00   0.46660122   0.00340176
8268.00   0.47842652   0.00335941
8270.00   0.48636732   0.00365589
8272.00   0.49432108   0.00420612
8274.00   0.49715167   0.00483145
8276.00   0.48917368   0.00556101
8278.00   0.47405955   0.00631653
8280.00   0.46999547   0.00657416
8282.00   0.46984050   0.00647968
8284.00   0.47599074   0.00638934
8286.00   0.49181339   0.00607278
8288.00   0.50654781   0.00587169
8290.00   0.51785219   0.00595900
8292.00   0.52715033   0.00616866
8294.00   0.53216618   0.00623639
8296.00   0.53532845   0.00633598
8298.00   0.53045344   0.00618581
8300.00   0.51432788   0.00572360
8302.00   0.50154984   0.00530325
8304.00   0.49306992   0.00495477
8306.00   0.48719561   0.00465905
8308.00   0.48522404   0.00448778
8310.00   0.48939726   0.00446384
8312.00   0.48372337   0.00439661
8314.00   0.46606985   0.00441986
8316.00   0.45832545   0.00431549
8318.00   0.46180990   0.00400202
8320.00   0.46845227   0.00366741
8322.00   0.47329783   0.00354213
8324.00   0.47934145   0.00356069
8326.00   0.47784272   0.00349069
8328.00   0.46494216   0.00332402
8330.00   0.46227303   0.00333097
8332.00   0.46645489   0.00336059
8334.00   0.47531515   0.00364821
8336.00   0.49256870   0.00428011
8338.00   0.51508242   0.00505951
8340.00   0.51401842   0.00577626
8342.00   0.48648700   0.00679028
8344.00   0.47626334   0.00713781
8346.00   0.47227868   0.00708186
8348.00   0.47220349   0.00686108
8350.00   0.47885358   0.00645946
8352.00   0.48776400   0.00588632
8354.00   0.48383346   0.00541956
8356.00   0.46688229   0.00488549
8358.00   0.46070960   0.00457007
8360.00   0.46214697   0.00443804
8362.00   0.45948765   0.00447123
8364.00   0.44978288   0.00477845
8366.00   0.43875036   0.00511794
8368.00   0.43226174   0.00517955
8370.00   0.42568868   0.00511234
8372.00   0.43199408   0.00488148
8374.00   0.45865071   0.00416214
8376.00   0.47032845   0.00384270
8378.00   0.46412596   0.00410363
8380.00   0.45537576   0.00446978
8382.00   0.45555449   0.00465658
8384.00   0.45945799   0.00481770
8386.00   0.46424595   0.00484427
8388.00   0.47324410   0.00454562
8390.00   0.47885835   0.00465827
8392.00   0.48210803   0.00516693
8394.00   0.48427227   0.00564645
8396.00   0.48697233   0.00600483
8398.00   0.48896506   0.00630471
8400.00   0.48293585   0.00627691
8402.00   0.46132314   0.00586878
8404.00   0.45815304   0.00556870
8406.00   0.46921203   0.00513620
8408.00   0.48041126   0.00482995
8410.00   0.49008274   0.00481229
8412.00   0.49841908   0.00493817
8414.00   0.49795291   0.00493072
8416.00   0.48821908   0.00490654
8418.00   0.48279649   0.00482108
8420.00   0.47503400   0.00445163
8422.00   0.47219425   0.00446746
8424.00   0.47901261   0.00503902
8426.00   0.48617467   0.00571425
8428.00   0.48025197   0.00617548
8430.00   0.46497026   0.00668427
8432.00   0.45198420   0.00664470
8434.00   0.43114540   0.00600219
8436.00   0.42208633   0.00546329
8438.00   0.42461243   0.00493705
8440.00   0.43395266   0.00445817
8442.00   0.44892219   0.00413540
8444.00   0.47112095   0.00395166
8446.00   0.48461440   0.00408055
8448.00   0.49620190   0.00471472
8450.00   0.50126737   0.00495293
8452.00   0.49474758   0.00483974
8454.00   0.49174219   0.00482701
8456.00   0.50092125   0.00515937
8458.00   0.51680070   0.00563966
8460.00   0.53009927   0.00598590
8462.00   0.56245905   0.00648585
8464.00   0.55236769   0.00654427
8466.00   0.49610457   0.00624154
8468.00   0.45076928   0.00583385
8470.00   0.43099028   0.00531266
8472.00   0.42341015   0.00467304
8474.00   0.42118570   0.00419003
8476.00   0.43140247   0.00376767
8478.00   0.43548846   0.00352148
8480.00   0.43897724   0.00355918
8482.00   0.44228092   0.00360380
8484.00   0.44608176   0.00362724
8486.00   0.44902965   0.00369353
8488.00   0.44890305   0.00385335
8490.00   0.44581467   0.00410306
8492.00   0.44499186   0.00425906
8494.00   0.44356868   0.00429525
8496.00   0.44519654   0.00448978
8498.00   0.45304811   0.00488648
8500.00   0.45888424   0.00524841
8502.00   0.45537215   0.00541359
8504.00   0.44566467   0.00546778
8506.00   0.43602270   0.00565359
8508.00   0.41756266   0.00613504
8510.00   0.41206938   0.00609800
8512.00   0.41786668   0.00549715
8514.00   0.42755625   0.00478610
8516.00   0.43975458   0.00420568
8518.00   0.45466778   0.00363658
8520.00   0.46199310   0.00333254
8522.00   0.46492741   0.00343306
8524.00   0.46514761   0.00343766
8526.00   0.46037617   0.00350881
8528.00   0.45552707   0.00359411
8530.00   0.45092484   0.00366366
8532.00   0.44680554   0.00375539
8534.00   0.44628766   0.00394837
8536.00   0.44897407   0.00428169
8538.00   0.45143726   0.00440292
8540.00   0.45652440   0.00437551
8542.00   0.45900470   0.00436859
8544.00   0.45816389   0.00439175
8546.00   0.45566905   0.00441790
8548.00   0.45245391   0.00444662
8550.00   0.44682544   0.00449913
8552.00   0.44730479   0.00443639
8554.00   0.45411834   0.00425786
8556.00   0.45815349   0.00408613
8558.00   0.46056020   0.00386697
8560.00   0.46140289   0.00368168
8562.00   0.45963344   0.00363655
8564.00   0.45548904   0.00369777
8566.00   0.45418355   0.00370310
8568.00   0.45476183   0.00373456
8570.00   0.45460740   0.00370482
8572.00   0.45237944   0.00355538
8574.00   0.45291528   0.00347632
8576.00   0.46035948   0.00360210
8578.00   0.47143748   0.00382668
8580.00   0.47402209   0.00390627
8582.00   0.47174209   0.00393029
8584.00   0.46708885   0.00391432
8586.00   0.45620525   0.00375855
8588.00   0.44769332   0.00372097
8590.00   0.44321629   0.00389511
8592.00   0.44134969   0.00415743
8594.00   0.44249371   0.00436796
8596.00   0.44715616   0.00464757
8598.00   0.45246366   0.00470962
8600.00   0.46149036   0.00458403
8602.00   0.46783498   0.00446428
8604.00   0.47033218   0.00432696
8606.00   0.47171506   0.00420618
8608.00   0.47514012   0.00419219
8610.00   0.48026237   0.00425691
8612.00   0.48023418   0.00434535
8614.00   0.47564447   0.00444961
8616.00   0.47148213   0.00463658
8618.00   0.46847078   0.00492922
8620.00   0.46338692   0.00522182
8622.00   0.45269275   0.00545367
8624.00   0.43759584   0.00566215
8626.00   0.42967260   0.00582824
8628.00   0.42626226   0.00605119
8630.00   0.42324319   0.00604681
8632.00   0.42139727   0.00577788
8634.00   0.42105493   0.00548662
8636.00   0.42305285   0.00529150
8638.00   0.42656007   0.00512707
8640.00   0.42718947   0.00497902
8642.00   0.42112505   0.00476169
8644.00   0.42664284   0.00479390
8646.00   0.44322154   0.00499155
8648.00   0.45754626   0.00531194
8650.00   0.46692821   0.00585094
8652.00   0.47396305   0.00638335
8654.00   0.47973755   0.00648613
8656.00   0.48729059   0.00625448
8658.00   0.48130742   0.00613593
8660.00   0.45851794   0.00596166
8662.00   0.44234300   0.00581497
8664.00   0.43657884   0.00572075
8666.00   0.43174329   0.00562817
8668.00   0.41740525   0.00547062
8670.00   0.39506263   0.00525467
8672.00   0.38592482   0.00510336
8674.00   0.38348666   0.00502083
8676.00   0.38666335   0.00488277
8678.00   0.39945018   0.00464022
8680.00   0.41292006   0.00443242
8682.00   0.41963050   0.00437435
8684.00   0.42304778   0.00441828
8686.00   0.42869678   0.00458051
8688.00   0.43599731   0.00511333
8690.00   0.44071773   0.00512665
8692.00   0.44317383   0.00458242
8694.00   0.44500613   0.00404414
8696.00   0.44732201   0.00388388
8698.00   0.44921401   0.00391675
8700.00   0.44792622   0.00389208
8702.00   0.44634360   0.00395889
8704.00   0.43804139   0.00392228
8706.00   0.42328140   0.00381527
8708.00   0.40659016   0.00369903
8710.00   0.38666093   0.00357442
8712.00   0.36620122   0.00344627
8714.00   0.35305026   0.00335582
8716.00   0.34199154   0.00327623
8718.00   0.34270632   0.00326977
8720.00   0.35598242   0.00334243
8722.00   0.37070212   0.00342108
8724.00   0.38964495   0.00349324
8726.00   0.40815309   0.00358950
8728.00   0.41766462   0.00374280
8730.00   0.41992059   0.00394454
8732.00   0.42947158   0.00410128
8734.00   0.44702265   0.00433332
8736.00   0.45574903   0.00436956
8738.00   0.45297205   0.00409062
8740.00   0.45071664   0.00386211
8742.00   0.45908090   0.00406541
8744.00   0.47358838   0.00450557
8746.00   0.47632575   0.00455557
8748.00   0.47194600   0.00413425
8750.00   0.46525750   0.00424330
8752.00   0.45815054   0.00455421
8754.00   0.44289854   0.00521826
8756.00   0.41298509   0.00616850
8758.00   0.37424001   0.00727863
8760.00   0.34611130   0.00858726
8762.00   0.30826539   0.01084543
8764.00   0.30648094   0.01107687
8766.00   0.34503728   0.00960273
8768.00   0.37439045   0.00825197
8770.00   0.38072261   0.00758754
8772.00   0.38165811   0.00729473
8774.00   0.39951524   0.00740974
8776.00   0.43407074   0.00823218
8778.00   0.44574890   0.00826820
8780.00   0.43618459   0.00787926
8782.00   0.43675023   0.00737865
8784.00   0.45104963   0.00658497
8786.00   0.46831125   0.00570545
8788.00   0.48086798   0.00527035
8790.00   0.49465829   0.00522326
8792.00   0.48967603   0.00501911
8794.00   0.45969486   0.00487408
8796.00   0.44433907   0.00468144
8798.00   0.44175541   0.00439530
8800.00   0.44213477   0.00414372
8802.00   0.44071609   0.00403578
8804.00   0.43998775   0.00403242
8806.00   0.43652546   0.00412183
8808.00   0.42875087   0.00446522
8810.00   0.42565128   0.00452140
8812.00   0.42297766   0.00423096
8814.00   0.42626014   0.00408824
8816.00   0.44153926   0.00419010
8818.00   0.46293366   0.00452676
8820.00   0.46954963   0.00554034
8822.00   0.47199076   0.00706281
8824.00   0.45990169   0.00808679
8826.00   0.43012467   0.00930303
8828.00   0.40003854   0.00989241
8830.00   0.36836621   0.00972710
8832.00   0.33903378   0.00912674
8834.00   0.32688564   0.00848402
8836.00   0.32737899   0.00739813
8838.00   0.33419192   0.00666618
8840.00   0.35241568   0.00613422
8842.00   0.37278879   0.00572011
8844.00   0.39936411   0.00552503
8846.00   0.42482316   0.00543530
8848.00   0.43856403   0.00526712
8850.00   0.44410944   0.00509598
8852.00   0.45065498   0.00496091
8854.00   0.45017642   0.00479734
8856.00   0.45835558   0.00477730
8858.00   0.47669131   0.00488401
8860.00   0.49578008   0.00509163
8862.00   0.51196235   0.00542816
8864.00   0.52740866   0.00585876
8866.00   0.52514076   0.00604935
8868.00   0.50348753   0.00622097
8870.00   0.48706320   0.00609199
8872.00   0.46107900   0.00543936
8874.00   0.44866493   0.00491576
8876.00   0.46331322   0.00480100
8878.00   0.49353251   0.00501778
8880.00   0.51375228   0.00585785
8882.00   0.54912418   0.00749539
8884.00   0.54362738   0.00809311
8886.00   0.49982297   0.00843737
8888.00   0.45724881   0.00832818
8890.00   0.41348976   0.00742976
8892.00   0.37625685   0.00605658
8894.00   0.37724799   0.00539702
8896.00   0.41775197   0.00517381
8898.00   0.43050706   0.00528959
8900.00   0.43809301   0.00614887
8902.00   0.43569338   0.00653919
8904.00   0.41615972   0.00641376
8906.00   0.39517516   0.00619242
8908.00   0.39212361   0.00620380
8910.00   0.40119660   0.00623638
8912.00   0.39883828   0.00684057
8914.00   0.38932928   0.00812657
8916.00   0.38340256   0.00878467
8918.00   0.37712288   0.00912697
8920.00   0.37570998   0.00919517
8922.00   0.38513413   0.00891849
8924.00   0.40249306   0.00830169
8926.00   0.41114748   0.00763493
8928.00   0.40934312   0.00648647
8930.00   0.42171884   0.00567754
8932.00   0.44402769   0.00505943
8934.00   0.47163725   0.00477709
8936.00   0.50924653   0.00502064
8938.00   0.55021214   0.00559666
8940.00   0.56280148   0.00601273
8942.00   0.55552667   0.00665414
8944.00   0.53996593   0.00677121
8946.00   0.48931965   0.00628638
8948.00   0.46917152   0.00611077
8950.00   0.50408238   0.00646222
8952.00   0.55601460   0.00703008
8954.00   0.57004851   0.00762266
8956.00   0.57212853   0.00850777
8958.00   0.54272944   0.00860340
8960.00   0.45772347   0.00808849
8962.00   0.40725052   0.00751027
8964.00   0.39497554   0.00668584
8966.00   0.39950803   0.00579870
8968.00   0.40981981   0.00533895
8970.00   0.43484232   0.00526446
8972.00   0.43875787   0.00495264
8974.00   0.42587280   0.00443977
8976.00   0.41958705   0.00421846
8978.00   0.41686919   0.00427357
8980.00   0.41554853   0.00453059
8982.00   0.41481990   0.00497411
8984.00   0.41509676   0.00555322
8986.00   0.41827789   0.00599781
8988.00   0.42219979   0.00643830
8990.00   0.43181118   0.00679929
8992.00   0.45414469   0.00706340
8994.00   0.46748534   0.00736308
8996.00   0.46119067   0.00779046
8998.00   0.44457480   0.00823187
9000.00   0.43507618   0.00842299
9002.00   0.42388627   0.00864278
9004.00   0.41958237   0.00829320
9006.00   0.41609251   0.00704307
9008.00   0.42329845   0.00599409
9010.00   0.45023248   0.00564471
9012.00   0.48145115   0.00559525
9014.00   0.48883808   0.00527622
9016.00   0.47795364   0.00483454
9018.00   0.47807270   0.00461782
9020.00   0.48283166   0.00456761
9022.00   0.48382163   0.00461204
9024.00   0.47945842   0.00483781
9026.00   0.47452945   0.00505466
9028.00   0.47300997   0.00504857
9030.00   0.47270313   0.00488311
9032.00   0.47746807   0.00491325
9034.00   0.49222767   0.00496023
9036.00   0.49747688   0.00521145
9038.00   0.49209929   0.00579793
9040.00   0.48696810   0.00622859
9042.00   0.49027398   0.00623258
9044.00   0.49763244   0.00598501
9046.00   0.49304023   0.00593281
9048.00   0.47964594   0.00595270
9050.00   0.46545807   0.00594368
9052.00   0.44533080   0.00603396
9054.00   0.42749736   0.00595285
9056.00   0.41403824   0.00549140
9058.00   0.40386161   0.00478432
9060.00   0.39984551   0.00443388
9062.00   0.40186456   0.00427702
9064.00   0.40639308   0.00430389
9066.00   0.41899538   0.00469602
9068.00   0.42691329   0.00492844
9070.00   0.42583078   0.00490532
9072.00   0.42286772   0.00482126
9074.00   0.42882028   0.00491829
9076.00   0.44392809   0.00514893
9078.00   0.44415233   0.00522040
9080.00   0.42921272   0.00521226
9082.00   0.42262790   0.00517509
9084.00   0.42662993   0.00508001
9086.00   0.43213797   0.00497685
9088.00   0.43024430   0.00491009
9090.00   0.42299479   0.00484143
9092.00   0.43034855   0.00496355
9094.00   0.45446756   0.00530778
9096.00   0.46769640   0.00553169
9098.00   0.47243392   0.00567670
9100.00   0.47486502   0.00581378
9102.00   0.47811633   0.00602904
9104.00   0.48049164   0.00626673
9106.00   0.47984684   0.00613410
9108.00   0.47744399   0.00551585
9110.00   0.47158924   0.00516293
9112.00   0.45765337   0.00492295
9114.00   0.44907331   0.00474897
9116.00   0.45315251   0.00465734
9118.00   0.46261752   0.00463119
9120.00   0.46173173   0.00455247
9122.00   0.45453429   0.00441519
9124.00   0.44802698   0.00440650
9126.00   0.43719131   0.00449770
9128.00   0.43029991   0.00461113
9130.00   0.42970338   0.00479535
9132.00   0.43143144   0.00495226
9134.00   0.43048289   0.00487550
9136.00   0.42877853   0.00451841
9138.00   0.42694694   0.00454887
9140.00   0.42332712   0.00489295
9142.00   0.42232448   0.00512153
9144.00   0.42263624   0.00527262
9146.00   0.42623398   0.00537587
9148.00   0.43673944   0.00541423
9150.00   0.45379436   0.00538785
9152.00   0.46355322   0.00540686
9154.00   0.47284493   0.00542662
9156.00   0.47457525   0.00547243
9158.00   0.46599182   0.00559397
9160.00   0.45701650   0.00565581
9162.00   0.45358536   0.00557257
9164.00   0.45242110   0.00538865
9166.00   0.45021340   0.00518613
9168.00   0.44642830   0.00482344
9170.00   0.44669059   0.00464269
9172.00   0.45229661   0.00463041
9174.00   0.45586613   0.00462645
9176.00   0.45562646   0.00458668
9178.00   0.45265543   0.00454177
9180.00   0.44517362   0.00448195
9182.00   0.43003914   0.00439445
9184.00   0.42190903   0.00433978
9186.00   0.41621384   0.00429460
9188.00   0.41336659   0.00427592
9190.00   0.41407090   0.00428061
9192.00   0.41703278   0.00431543
9194.00   0.42049599   0.00440397
9196.00   0.42656103   0.00456479
9198.00   0.42762935   0.00462393
9200.00   0.42511094   0.00462924
9202.00   0.42200261   0.00461098
9204.00   0.41514775   0.00451186
9206.00   0.41084263   0.00444918
9208.00   0.41614959   0.00455736
9210.00   0.42844346   0.00477934
9212.00   0.44052064   0.00497288
9214.00   0.45939201   0.00525744
9216.00   0.47039583   0.00539361
9218.00   0.47218621   0.00536032
9220.00   0.47489297   0.00534579
9222.00   0.48577455   0.00546596
9224.00   0.50048733   0.00564860
9226.00   0.50489795   0.00576466
9228.00   0.50195491   0.00595955
9230.00   0.49841526   0.00590804
9232.00   0.48720130   0.00556216
9234.00   0.48244554   0.00525296
9236.00   0.49189192   0.00510726
9238.00   0.50716549   0.00504111
9240.00   0.51047623   0.00498626
9242.00   0.50665927   0.00480832
9244.00   0.50308734   0.00513656
9246.00   0.49491167   0.00572538
9248.00   0.48962718   0.00650415
9250.00   0.48792821   0.00778852
9252.00   0.48861584   0.00878259
9254.00   0.49229279   0.00850329
9256.00   0.50175732   0.00698359
9258.00   0.49974334   0.00610034
9260.00   0.48968962   0.00518756
9262.00   0.47776410   0.00456992
9264.00   0.46123880   0.00450352
9266.00   0.44475231   0.00467735
9268.00   0.43241215   0.00480749
9270.00   0.42165238   0.00503820
9272.00   0.42055750   0.00511120
9274.00   0.42975998   0.00507539
9276.00   0.43865207   0.00506602
9278.00   0.45113179   0.00499138
9280.00   0.46265000   0.00501366
9282.00   0.46924376   0.00524658
9284.00   0.47340447   0.00559946
9286.00   0.48386335   0.00588437
9288.00   0.50485516   0.00628349
9290.00   0.51196241   0.00641393
9292.00   0.50262541   0.00613417
9294.00   0.50148422   0.00614156
9296.00   0.51201427   0.00639206
9298.00   0.53350013   0.00702824
9300.00   0.58061594   0.00870590
9302.00   0.67099214   0.01060692
9304.00   0.71229076   0.01306642
9306.00   0.75081724   0.01684895
9308.00   0.73402947   0.01860496
9310.00   0.63203382   0.01814330
9312.00   0.50164890   0.01693501
9314.00   0.42152503   0.01687741
9316.00   0.35484210   0.01739822
9318.00   0.32601190   0.01735667
9320.00   0.34180954   0.01685002
9322.00   0.35803443   0.01667744
9324.00   0.38883340   0.01734097
9326.00   0.41335079   0.01753532
9328.00   0.40313169   0.01572778
9330.00   0.36682698   0.01159413
9332.00   0.36717251   0.01003681
9334.00   0.38963151   0.01117565
9336.00   0.41355589   0.01157841
9338.00   0.44765103   0.01207749
9340.00   0.48048764   0.01235025
9342.00   0.51007974   0.01216230
9344.00   0.53642899   0.01164738
9346.00   0.53152210   0.01093878
9348.00   0.48179767   0.00945728
9350.00   0.46584833   0.00868135
9352.00   0.47586814   0.00841023
9354.00   0.47464132   0.00843349
9356.00   0.44481847   0.00893105
9358.00   0.40589961   0.00954792
9360.00   0.39426416   0.00921362
9362.00   0.39490983   0.00688697
9364.00   0.41241252   0.00806969
9366.00   0.49106953   0.01004856
9368.00   0.49906945   0.01363404
9370.00   0.38943619   0.01928552
9372.00   0.25429961   0.02363249
9374.00   0.21642281   0.02418015
9376.00   0.24369492   0.02201403
9378.00   0.22060624   0.02139287
9380.00   0.13759962   0.02189038
9382.00   0.13618141   0.02074510
9384.00   0.24434347   0.01669710
9386.00   0.36272112   0.01130814
9388.00   0.41059154   0.00812974
9390.00   0.42413810   0.00744220
9392.00   0.43284881   0.00632452
9394.00   0.41419145   0.00677153
9396.00   0.40862948   0.00706343
9398.00   0.41369143   0.00772063
9400.00   0.41489381   0.00824792
9402.00   0.40258223   0.00842943
9404.00   0.38329303   0.00843233
9406.00   0.37816566   0.00834128
9408.00   0.38052902   0.00773119
9410.00   0.38748249   0.00790425
9412.00   0.40318987   0.00854736
9414.00   0.41854909   0.00940042
9416.00   0.43564853   0.01062441
9418.00   0.44983339   0.01180368
9420.00   0.44123074   0.01204542
9422.00   0.39863250   0.01156848
9424.00   0.39972430   0.01123511
9426.00   0.42756438   0.01037379
9428.00   0.46256384   0.01010893
9430.00   0.51565552   0.01026561
9432.00   0.56608486   0.01119981
9434.00   0.57548881   0.01329905
9436.00   0.55009538   0.01571857
9438.00   0.55157816   0.01940467
9440.00   0.59260064   0.02627784
9442.00   0.57405907   0.02767947
9444.00   0.46631983   0.02321061
9446.00   0.36354646   0.01643706
9448.00   0.34827498   0.01250614
9450.00   0.38629267   0.01019544
9452.00   0.39347032   0.01053981
9454.00   0.39910904   0.01564749
9456.00   0.40015030   0.01708036
9458.00   0.39315960   0.01687658
9460.00   0.38838702   0.01591268
9462.00   0.38897136   0.01393304
9464.00   0.39365080   0.01065625
9466.00   0.41271201   0.00953618
9468.00   0.44061571   0.01007102
9470.00   0.48360425   0.01153144
9472.00   0.57392037   0.01465996
9474.00   0.61890334   0.01663182
9476.00   0.58026230   0.01739608
9478.00   0.50279665   0.01748852
9480.00   0.46032515   0.01685984
9482.00   0.41866210   0.01505643
9484.00   0.40203172   0.01354064
9486.00   0.41770726   0.01138694
9488.00   0.42301479   0.00961039
9490.00   0.40840113   0.00847747
9492.00   0.39442503   0.00813932
9494.00   0.40601778   0.00895358
9496.00   0.43974996   0.01088737
9498.00   0.44970116   0.01170156
9500.00   0.45336422   0.01245036
9502.00   0.44226310   0.01249646
9504.00   0.40465859   0.01159290
9506.00   0.36978158   0.01039970
9508.00   0.36905205   0.00911093
9510.00   0.39139178   0.00719713
9512.00   0.36321697   0.00976846
9514.00   0.27668324   0.01546938
9516.00   0.23723368   0.01770280
9518.00   0.21869686   0.01910812
9520.00   0.23022646   0.01914431
9522.00   0.29114169   0.01666025
9524.00   0.38493213   0.01145427
9526.00   0.43005756   0.00871171
9528.00   0.44777843   0.00900726
9530.00   0.46519294   0.00836268
9532.00   0.47313702   0.00818692
9534.00   0.47540602   0.00807531
9536.00   0.46939829   0.00789605
9538.00   0.45978397   0.00779210
9540.00   0.46033111   0.00791004
9542.00   0.46408230   0.00811656
9544.00   0.47802433   0.00869459
9546.00   0.50981730   0.00962768
9548.00   0.53087205   0.01048357
9550.00   0.54324085   0.01143878
9552.00   0.54442006   0.01219548
9554.00   0.52225095   0.01229731
9556.00   0.47275528   0.01181885
9558.00   0.45718589   0.01183950
9560.00   0.46690428   0.01177453
9562.00   0.46782625   0.01235001
9564.00   0.47101390   0.01398038
9566.00   0.46138847   0.01519231
9568.00   0.41775817   0.01510110
9570.00   0.34722722   0.01417695
9572.00   0.31579721   0.01308213
9574.00   0.29741922   0.01081819
9576.00   0.30390796   0.00919146
9578.00   0.34591672   0.00805882
9580.00   0.38978058   0.00739383
9582.00   0.42315465   0.00742064
9584.00   0.45254517   0.00801891
9586.00   0.46490908   0.00826345
9588.00   0.45807365   0.00869029
9590.00   0.45527917   0.00862809
9592.00   0.44522828   0.00793897
9594.00   0.44037861   0.00748926
9596.00   0.44316596   0.00757329
9598.00   0.45139721   0.00792952
9600.00   0.46642011   0.00834082
9602.00   0.49773839   0.00894712
9604.00   0.50146914   0.00938679
9606.00   0.48199946   0.00985231
9608.00   0.46600431   0.01013941
9610.00   0.44853750   0.01025929
9612.00   0.43768871   0.01023946
9614.00   0.45360714   0.01002829
9616.00   0.49867839   0.00952541
9618.00   0.49628720   0.00949026
9620.00   0.45904472   0.00997490
9622.00   0.42436770   0.01007324
9624.00   0.37582126   0.00985887
9626.00   0.33951411   0.00945855
9628.00   0.34280509   0.00883821
9630.00   0.37420100   0.00791926
9632.00   0.38700113   0.00744290
9634.00   0.39649263   0.00731154
9636.00   0.40465775   0.00722994
9638.00   0.40799874   0.00730094
9640.00   0.41432551   0.00744633
9642.00   0.43087274   0.00769418
9644.00   0.45146406   0.00798762
9646.00   0.45344725   0.00796019
9648.00   0.43211618   0.00753289
9650.00   0.43121162   0.00741897
9652.00   0.44407314   0.00736585
9654.00   0.45347130   0.00750911
9656.00   0.45190102   0.00777614
9658.00   0.44942731   0.00826641
9660.00   0.46399727   0.00928535
9662.00   0.49624139   0.01091432
9664.00   0.51199162   0.01156760
9666.00   0.52530313   0.01182298
9668.00   0.52586120   0.01180041
9670.00   0.50420821   0.01125511
9672.00   0.48043042   0.01063594
9674.00   0.48263273   0.01068843
9676.00   0.50566441   0.01118725
9678.00   0.49901181   0.01150098
9680.00   0.48130241   0.01177325
9682.00   0.44548920   0.01218432
9684.00   0.36550936   0.01306394
9686.00   0.30446982   0.01353415
9688.00   0.32005483   0.01272379
9690.00   0.38696608   0.01078916
9692.00   0.40974656   0.01070612
9694.00   0.41642940   0.01256999
9696.00   0.42188874   0.01290001
9698.00   0.41926324   0.01215556
9700.00   0.41746482   0.01134381
9702.00   0.42076322   0.01092873
9704.00   0.42626229   0.01065024
9706.00   0.43110973   0.01039569
9708.00   0.43127829   0.00989360
9710.00   0.44415212   0.01024247
9712.00   0.46307823   0.01107354
9714.00   0.49223608   0.01228926
9716.00   0.54680049   0.01377513
9718.00   0.60204279   0.01547286
9720.00   0.59862059   0.01749682
9722.00   0.53170556   0.02047349
9724.00   0.52980155   0.02083430
9726.00   0.57344615   0.01923457
9728.00   0.60282725   0.01738401
9730.00   0.62349647   0.01463634
9732.00   0.62996978   0.01151302
9734.00   0.60248178   0.01025181
9736.00   0.54107654   0.01089521
9738.00   0.51026404   0.01074798
9740.00   0.49480614   0.01073478
9742.00   0.47696269   0.01072497
9744.00   0.45535660   0.01087744
9746.00   0.43942466   0.01086528
9748.00   0.43845513   0.01034418
9750.00   0.44857338   0.00939739
9752.00   0.44195014   0.00888501
9754.00   0.41594124   0.00862786
9756.00   0.41024756   0.00838947
9758.00   0.42637125   0.00822061
9760.00   0.43656182   0.00816095
9762.00   0.42481393   0.00829471
9764.00   0.40415785   0.00852815
9766.00   0.40587553   0.00847672
9768.00   0.42184100   0.00788198
9770.00   0.44055972   0.00812089
9772.00   0.47487646   0.00919909
9774.00   0.49854672   0.00980008
9776.00   0.50068319   0.00939020
9778.00   0.49688429   0.00888773
9780.00   0.51439250   0.01008681
9782.00   0.55723166   0.01239780
9784.00   0.55638772   0.01364839
9786.00   0.51761889   0.01472966
9788.00   0.48721439   0.01544671
9790.00   0.46738455   0.01590614
9792.00   0.44829223   0.01603843
9794.00   0.42149317   0.01564838
9796.00   0.38641003   0.01467910
9798.00   0.37677172   0.01395483
9800.00   0.38621649   0.01306777
9802.00   0.40033197   0.01243114
9804.00   0.42704853   0.01203014
9806.00   0.45289338   0.01185058
9808.00   0.46953619   0.01200889
9810.00   0.48149118   0.01245943
9812.00   0.47538278   0.01230661
9814.00   0.43219978   0.01127056
9816.00   0.42909011   0.01121639
9818.00   0.46996292   0.01237484
9820.00   0.49713129   0.01296667
9822.00   0.48426154   0.01222930
9824.00   0.45139790   0.01070535
9826.00   0.42870182   0.00990617
9828.00   0.39316827   0.00936252
9830.00   0.38694763   0.00906096
9832.00   0.40947798   0.00913229
9834.00   0.42730674   0.00932970
9836.00   0.43624872   0.00963882
9838.00   0.44029951   0.01003886
9840.00   0.43543795   0.01042411
9842.00   0.41736898   0.01083091
9844.00   0.41422924   0.01126568
9846.00   0.41836908   0.01189130
9848.00   0.42650974   0.01220489
9850.00   0.44076627   0.01223108
9852.00   0.45713440   0.01203361
9854.00   0.47132197   0.01144820
9856.00   0.48651183   0.01019109
9858.00   0.49204308   0.01064345
9860.00   0.48575974   0.01263019
9862.00   0.48528907   0.01381447
9864.00   0.49234778   0.01456262
9866.00   0.49614558   0.01521204
9868.00   0.49285004   0.01599376
9870.00   0.48473802   0.01679540
9872.00   0.45032683   0.01680618
9874.00   0.36302707   0.01612117
9876.00   0.33425003   0.01536347
9878.00   0.35328260   0.01404357
9880.00   0.37775722   0.01286212
9882.00   0.39391747   0.01213709
9884.00   0.41061985   0.01179954
9886.00   0.42587683   0.01218859
9888.00   0.43870410   0.01362069
9890.00   0.45525184   0.01427540
9892.00   0.49040800   0.01475087
9894.00   0.49728167   0.01502524
9896.00   0.45609450   0.01509018
9898.00   0.39738694   0.01497910
9900.00   0.36742449   0.01468897
9902.00   0.34261000   0.01393735
9904.00   0.34795892   0.01404035
9906.00   0.39562392   0.01463776
9908.00   0.42619359   0.01553064
9910.00   0.44425800   0.01703742
9912.00   0.44864002   0.01833251
9914.00   0.42605406   0.01868423
9916.00   0.37491900   0.01849996
9918.00   0.36033416   0.01781384
9920.00   0.37186053   0.01600349
9922.00   0.37533110   0.01462584
9924.00   0.36739215   0.01320673
9926.00   0.36959714   0.01244129
9928.00   0.39992309   0.01315008
9930.00   0.44933820   0.01482601
9932.00   0.47705957   0.01608144
9934.00   0.50552851   0.01716465
9936.00   0.50744998   0.01877186
9938.00   0.47718683   0.02084095
9940.00   0.44714803   0.02276433
9942.00   0.42825577   0.02467982
9944.00   0.41309544   0.02638611
9946.00   0.40095776   0.02673272
9948.00   0.38766992   0.02558275
9950.00   0.38936204   0.02527893
9952.00   0.42020938   0.02495399
9954.00   0.42672756   0.02510030
9956.00   0.39227864   0.02631196
9958.00   0.34244630   0.02749453
9960.00   0.30946201   0.02678105
9962.00   0.27128327   0.02429503
9964.00   0.27348715   0.02265091
9966.00   0.32237431   0.02084552
9968.00   0.35653019   0.01945181
9970.00   0.37589428   0.01870227
9972.00   0.39031973   0.01827316
9974.00   0.40575147   0.01785555
9976.00   0.42180547   0.01767116
9978.00   0.41757816   0.01709421
9980.00   0.38719460   0.01619312
9982.00   0.37073919   0.01529216
9984.00   0.36121318   0.01390006
9986.00   0.35898677   0.01300080
9988.00   0.36756334   0.01365946
9990.00   0.38510624   0.01525164
9992.00   0.39721128   0.01595845
9994.00   0.40638387   0.01656364
9996.00   0.42087328   0.01675137
9998.00   0.43939483   0.01584423
10000.00   0.45988083   0.01587248
10002.00   0.48701394   0.01758772
10004.00   0.51435030   0.02006304
10006.00   0.51565284   0.02257782
10008.00   0.50664204   0.02583993
10010.00   0.46527952   0.02776309
10012.00   0.36089745   0.02962026
10014.00   0.29883897   0.03019942
10016.00   0.29849336   0.02900539
10018.00   0.33135042   0.02684634
10020.00   0.37883589   0.02511762
10022.00   0.47307312   0.02294328
10024.00   0.48751235   0.02175427
10026.00   0.42686492   0.02188711
10028.00   0.39601737   0.02142337
10030.00   0.39474574   0.02011186
10032.00   0.40534225   0.01867139
10034.00   0.42246979   0.01783548
10036.00   0.45209035   0.01735335
10038.00   0.45971289   0.01717707
10040.00   0.44906709   0.01762963
10042.00   0.44426906   0.01779352
10044.00   0.43926194   0.01756489
10046.00   0.43843496   0.01759735
10048.00   0.44324586   0.01823217
10050.00   0.45301789   0.01924077
10052.00   0.48199677   0.02066805
10054.00   0.56334764   0.02290151
10056.00   0.57110399   0.02423684
10058.00   0.50792229   0.02540116
10060.00   0.45187569   0.02590420
10062.00   0.42526224   0.02549380
10064.00   0.41315767   0.02441983
10066.00   0.42233762   0.02321764
10068.00   0.46792415   0.02092103
10070.00   0.48368597   0.02008789
10072.00   0.47244462   0.01956980
10074.00   0.48268667   0.02081165
10076.00   0.54486364   0.02464528
10078.00   0.60587704   0.02848342
10080.00   0.57622480   0.02983235
10082.00   0.46919963   0.03025058
10084.00   0.40658063   0.02898915
10086.00   0.32498506   0.02424371
10088.00   0.29974234   0.02087287
10090.00   0.35087684   0.01960541
10092.00   0.42077163   0.01951453
10094.00   0.45792714   0.02007784
10096.00   0.48642427   0.02163881
10098.00   0.49966392   0.02244955
10100.00   0.49639770   0.02345501
10102.00   0.48748055   0.02358867
10104.00   0.46394700   0.02263947
10106.00   0.44285765   0.02158306
10108.00   0.43131533   0.02083520
10110.00   0.42581138   0.02021403
10112.00   0.44871014   0.02117042
10114.00   0.51227802   0.02327605
10116.00   0.54993916   0.02564640
10118.00   0.61107999   0.02908002
10120.00   0.61036026   0.03155233
10122.00   0.48912254   0.03292480
10124.00   0.31105512   0.03349672
10126.00   0.23384662   0.03259833
10128.00   0.19669965   0.02949715
10130.00   0.20589633   0.02734888
10132.00   0.29732993   0.02465307
10134.00   0.36339688   0.02295128
10136.00   0.38783410   0.02318432
10138.00   0.39694545   0.02413726
10140.00   0.40961865   0.02399050
10142.00   0.41640714   0.02308622
10144.00   0.42667791   0.02358725
10146.00   0.43387401   0.02524379
10148.00   0.44885501   0.02654316
10150.00   0.48806909   0.02788720
10152.00   0.51334435   0.02878628
10154.00   0.47700110   0.02848913
10156.00   0.39013314   0.02712879
10158.00   0.37170807   0.02702576
10160.00   0.39228743   0.02660195
10162.00   0.41997227   0.02844164
10164.00   0.47995740   0.03284540
10166.00   0.52503681   0.03665151
10168.00   0.52733004   0.03916992
10170.00   0.50213248   0.04104927
10172.00   0.45338273   0.04021400
10174.00   0.32514381   0.03512122
10176.00   0.29856619   0.03263545
10178.00   0.36228344   0.03135821
10180.00   0.41893589   0.03093910
10182.00   0.44201890   0.03162663
10184.00   0.45099109   0.03300030
10186.00   0.44494531   0.03362346
10188.00   0.42492071   0.03430043
10190.00   0.38821352   0.03409293
10192.00   0.30072400   0.03266749
10194.00   0.26225626   0.03172263
10196.00   0.29388773   0.03137991
10198.00   0.35836583   0.03155267
10200.00   0.42059329   0.03253216
10202.00   0.51132089   0.03432475
10204.00   0.53945947   0.03580067
10206.00   0.51312119   0.03785308
10208.00   0.49500915   0.03883704
10210.00   0.47087571   0.03875311
10212.00   0.45839319   0.03813327
10214.00   0.48984888   0.03717973
10216.00   0.55948758   0.03560347
10218.00   0.55848110   0.03519893
10220.00   0.50418448   0.03532649
10222.00   0.45669466   0.03622197
10224.00   0.39991543   0.03876451
10226.00   0.34515893   0.04043858
10228.00   0.29750130   0.03985269
10230.00   0.25462398   0.03785656
10232.00   0.23349875   0.03633938
10234.00   0.22023231   0.03481329
10236.00   0.24113321   0.03253780
10238.00   0.31869179   0.02848770
10240.00   0.37363404   0.02525046
10242.00   0.37557730   0.02452677
10244.00   0.35383400   0.02531205
10246.00   0.34939715   0.02577571
10248.00   0.33235011   0.02686383
10250.00   0.35947964   0.02746653
10252.00   0.45283878   0.02803512
10254.00   0.49977887   0.02828258
10256.00   0.47449195   0.02800781
10258.00   0.42490014   0.02759912
10260.00   0.40409106   0.02760131
10262.00   0.38877332   0.02764436
10264.00   0.38659072   0.02855905
10266.00   0.41773891   0.03062610
10268.00   0.41354549   0.03193228
10270.00   0.35544768   0.03215883
10272.00   0.30077714   0.03266003
10274.00   0.29602346   0.03417728
10276.00   0.31832302   0.03603847
10278.00   0.38251469   0.04076441
10280.00   0.56132203   0.04878524
10282.00   0.60691917   0.05333566
10284.00   0.53507221   0.05643454
10286.00   0.42753810   0.05811452
10288.00   0.29320693   0.05841287
10290.00   0.13382632   0.05736701
10292.00   0.13555713   0.05394506
10294.00   0.33410704   0.04451549
10296.00   0.39000431   0.03986477
10298.00   0.35723123   0.03939029
10300.00   0.33958218   0.03951523
10302.00   0.37269074   0.03960041
10304.00   0.42179969   0.03992836
10306.00   0.44129449   0.03905156
10308.00   0.43886545   0.03670375
10310.00   0.45329922   0.03590441
10312.00   0.49938303   0.03683077
10314.00   0.50059378   0.03651416
10316.00   0.42489210   0.03384791
10318.00   0.33402416   0.03059617
10320.00   0.31241012   0.02991485
10322.00   0.33369341   0.03121677
10324.00   0.34577075   0.03141512
10326.00   0.37774336   0.03148855
10328.00   0.39151233   0.03146191
10330.00   0.38045451   0.03104443
10332.00   0.36890990   0.03087790
10334.00   0.38255256   0.03147797
10336.00   0.41406411   0.03252506
10338.00   0.39686435   0.03460468
10340.00   0.32862261   0.03854309
10342.00   0.28821275   0.04041303
10344.00   0.25408500   0.04125708
10346.00   0.24033889   0.04103236
10348.00   0.26699805   0.03911445
10350.00   0.31948271   0.03575953
10352.00   0.32462290   0.03423631
10354.00   0.28845271   0.03344310
10356.00   0.27791604   0.03370707
10358.00   0.28724909   0.03538768
10360.00   0.28192183   0.03714735
10362.00   0.23494512   0.03873793
10364.00   0.18108511   0.04034276
10366.00   0.20418017   0.04186818
10368.00   0.29837900   0.04372418
10370.00   0.35659918   0.04442149
10372.00   0.42649660   0.04455306
10374.00   0.46465415   0.04386906
10376.00   0.45620120   0.04190777
10378.00   0.43077731   0.03936432
10380.00   0.42654687   0.03742881
10382.00   0.43174553   0.03545340
10384.00   0.42050228   0.03459860
10386.00   0.38402280   0.03497639
10388.00   0.37441146   0.03538326
10390.00   0.40303850   0.03611330
10392.00   0.43044406   0.03680010
10394.00   0.42550233   0.03714947
10396.00   0.40274787   0.03736230
10398.00   0.36617425   0.03666610
10400.00   0.28998443   0.03432186
10402.00   0.25263688   0.03333175
10404.00   0.24345535   0.03320710
10406.00   0.24857412   0.03382720
10408.00   0.26034448   0.03523470
10410.00   0.28395826   0.03726993
10412.00   0.33460787   0.03935620
10414.00   0.46595198   0.04291582
10416.00   0.47968826   0.04368257
10418.00   0.39364573   0.04224020
10420.00   0.31073380   0.04057284
10422.00   0.24756555   0.03900014
10424.00   0.19494824   0.03735136
10426.00   0.18109624   0.03639675
10428.00   0.19948922   0.03631241
10430.00   0.23214751   0.03535813
10432.00   0.32541469   0.03339860
10434.00   0.36081076   0.03222366
10436.00   0.30800530   0.03225869
10438.00   0.23037095   0.03279503
10440.00   0.19834411   0.03317823
10442.00   0.17948300   0.03382542
10444.00   0.19117211   0.03380800
10446.00   0.26298943   0.03317375
10448.00   0.28723249   0.03268425
10450.00   0.25178778   0.03217896
10452.00   0.21438123   0.03181566
10454.00   0.22262061   0.03168589
10456.00   0.25701466   0.03169628
10458.00   0.26050076   0.03276366
10460.00   0.24122918   0.03552538
10462.00   0.23494583   0.03660494
10464.00   0.24244426   0.03646165
10466.00   0.24265958   0.03601529
10468.00   0.21949184   0.03570817
10470.00   0.18486856   0.03525057
10472.00   0.18126845   0.03416922
10474.00   0.21525197   0.03199819
10476.00   0.21348070   0.03062517
10478.00   0.17944568   0.02965422
10480.00   0.16066156   0.02885453
10482.00   0.17206301   0.02803359
10484.00   0.19748022   0.02748014
10486.00   0.21763134   0.02789816
10488.00   0.24438919   0.02949161
10490.00   0.25894615   0.03010227
10492.00   0.26351383   0.03036302
10494.00   0.26842928   0.03044427
10496.00   0.27482116   0.03000967
10498.00   0.27996024   0.02971486
10500.00   0.28164807   0.03071940
10502.00   0.28056782   0.03287562
10504.00   0.27835980   0.03335812
10506.00   0.27954987   0.03263498
10508.00   0.26860598   0.03222758
10510.00   0.23460826   0.03183997
10512.00   0.20715550   0.03171451
10514.00   0.21413009   0.03230608
10516.00   0.24433886   0.03344393
10518.00   0.25338987   0.03364056
10520.00   0.25208056   0.03313094
10522.00   0.25408173   0.03282751
10524.00   0.26081049   0.03249830
10526.00   0.26117539   0.03223181
10528.00   0.24494526   0.03200335
10530.00   0.22038659   0.03186166
10532.00   0.22035414   0.03229205
10534.00   0.24248408   0.03348657
10536.00   0.25483879   0.03413101
10538.00   0.28350124   0.03479109
10540.00   0.28225929   0.03499598
10542.00   0.22056915   0.03444165
10544.00   0.14041470   0.03353418
10546.00   0.12927164   0.03314654
10548.00   0.16954020   0.03283667
10550.00   0.19047029   0.03310334
10552.00   0.22738217   0.03458217
10554.00   0.24060319   0.03491876
10556.00   0.21267721   0.03335761
10558.00   0.18099314   0.03150639
10560.00   0.19487737   0.03165131
10562.00   0.24333942   0.03314870
10564.00   0.25767022   0.03391197
10566.00   0.24808279   0.03472351
10568.00   0.25135499   0.03526363
10570.00   0.27905545   0.03561076
10572.00   0.29306191   0.03571641
10574.00   0.25289297   0.03535682
10576.00   0.17319140   0.03456135
10578.00   0.16754264   0.03485143
10580.00   0.23632260   0.03632977
10582.00   0.25341910   0.03692693
10584.00   0.23421694   0.03700848
10586.00   0.21055257   0.03687732
10588.00   0.18952447   0.03651585
10590.00   0.16890170   0.03597753
10592.00   0.17681232   0.03595376
10594.00   0.22258072   0.03634851
10596.00   0.24026437   0.03664672
10598.00   0.24305277   0.03703779
10600.00   0.24782383   0.03740953
10602.00   0.26028141   0.03779433
10604.00   0.27342075   0.03812647
10606.00   0.27666652   0.03818410
10608.00   0.26879776   0.03791601
10610.00   0.27343822   0.03794054
10612.00   0.29206198   0.03818474
10614.00   0.29901198   0.03830288
10616.00   0.29706952   0.03834577
10618.00   0.28258017   0.03823954
10620.00   0.24103068   0.03775262
10622.00   0.16657455   0.03680298
10624.00   0.14485495   0.03657798
10626.00   0.16020249   0.03699275
10628.00   0.17546573   0.03715390
10630.00   0.19884680   0.03706484
10632.00   0.22342284   0.03701389
10634.00   0.24251318   0.03721934
10636.00   0.25957704   0.03758574
10638.00   0.27053279   0.03772254
10640.00   0.27560320   0.03793705
10642.00   0.27858150   0.03766986
10644.00   0.28033432   0.03678000
10646.00   0.27644584   0.03591131
10648.00   0.26072922   0.03537958
10650.00   0.23903880   0.03498978
10652.00   0.23656367   0.03454822
10654.00   0.25423041   0.03423407
10656.00   0.25771561   0.03367950
10658.00   0.25720108   0.03290891
10660.00   0.25258118   0.03212374
10662.00   0.23968352   0.03125081
10664.00   0.22536923   0.03043299
10666.00   0.22793683   0.03012587
10668.00   0.25597727   0.03016936
10670.00   0.23833159   0.03056593
10672.00   0.16308063   0.03186903
10674.00   0.12995452   0.03238386
10676.00   0.15482917   0.03202726
10678.00   0.19618544   0.03118050
10680.00   0.21487556   0.02998135
10682.00   0.22743985   0.02806775
10684.00   0.23697565   0.02714630
10686.00   0.23695002   0.02696633
10688.00   0.24451461   0.02681833
10690.00   0.27086470   0.02704163
10692.00   0.28395507   0.02709493
10694.00   0.25021917   0.02640831
10696.00   0.18345352   0.02518499
10698.00   0.17665502   0.02463276
10700.00   0.22375906   0.02452775
10702.00   0.24095386   0.02434975
10704.00   0.25158751   0.02435325
10706.00   0.24525820   0.02419755
10708.00   0.20489392   0.02363082
10710.00   0.14713867   0.02283921
10712.00   0.13909997   0.02242399
10714.00   0.17777936   0.02226543
10716.00   0.18900475   0.02207319
10718.00   0.19658986   0.02196324
10720.00   0.19543763   0.02185924
10722.00   0.17592436   0.02182868
10724.00   0.15360124   0.02175029
10726.00   0.16373803   0.02127407
10728.00   0.20645444   0.02023878
10730.00   0.21707986   0.01990934
10732.00   0.21164466   0.02013890
10734.00   0.20197473   0.02027453
10736.00   0.17931668   0.02020946
10738.00   0.16046859   0.02023665
10740.00   0.17245224   0.02075882
10742.00   0.21179102   0.02179673
10744.00   0.21440765   0.02161874
10746.00   0.18412754   0.02036684
10748.00   0.17388880   0.01926100
10750.00   0.18385516   0.01792958
10752.00   0.19472986   0.01676622
10754.00   0.19528544   0.01635576
10756.00   0.19120225   0.01651593
10758.00   0.18191597   0.01605056
10760.00   0.14867881   0.01474875
10762.00   0.15328890   0.01453434
10764.00   0.20073605   0.01561462
10766.00   0.24049541   0.01632336
10768.00   0.24941534   0.01599913
10770.00   0.24470942   0.01516424
10772.00   0.25162715   0.01473382
10774.00   0.27340764   0.01447070
10776.00   0.26630494   0.01407154
10778.00   0.22943085   0.01359660
10780.00   0.20148486   0.01311021
10782.00   0.18774958   0.01246069
10784.00   0.18314347   0.01190172
10786.00   0.19318542   0.01217745
10788.00   0.23227704   0.01348367
10790.00   0.22214715   0.01336727
10792.00   0.16232245   0.01178708
10794.00   0.12622878   0.01099797
10796.00   0.11514802   0.01159341
10798.00   0.11754563   0.01233377
10800.00   0.13071533   0.01208561
10802.00   0.15889420   0.01112588
10804.00   0.17749280   0.01112405
10806.00   0.18999200   0.01160528
10808.00   0.21056294   0.01235246
10810.00   0.25254938   0.01394049
10812.00   0.27904564   0.01487985
10814.00   0.25473344   0.01407676
10816.00   0.19607976   0.01189243
10818.00   0.18927218   0.01118410
10820.00   0.23472735   0.01154471
10822.00   0.23390502   0.01160021
10824.00   0.18858877   0.01178176
10826.00   0.15557261   0.01182953
10828.00   0.16484924   0.01156812
10830.00   0.19124404   0.01113799
10832.00   0.17989326   0.01092630
10834.00   0.12261845   0.01085293
10836.00   0.12021828   0.01072477
10838.00   0.16687560   0.01073974
10840.00   0.19484814   0.01050620
10842.00   0.18873204   0.00951669
10844.00   0.16908489   0.00846738
10846.00   0.15510176   0.00934451
10848.00   0.13313597   0.01195065
10850.00   0.13216984   0.01215142
10852.00   0.15527090   0.01063934
10854.00   0.16648869   0.00946072
10856.00   0.16157220   0.00875978
10858.00   0.15433145   0.00823282
10860.00   0.15786968   0.00773313
