# File created by shivutils (I.Shivvers)
# wl(A)   flm    er(optional)
3430.00   0.23232308   0.04953651
3432.00   0.12249327   0.04804315
3434.00   0.13667949   0.04803088
3436.00   0.14063023   0.04936153
3438.00   0.21220191   0.04936585
3440.00   0.15124163   0.04941089
3442.00   0.16796565   0.04879491
3444.00   0.10997999   0.04743033
3446.00   0.15758890   0.04843287
3448.00   0.17392056   0.04873871
3450.00   0.21019903   0.05137257
3452.00   0.11547934   0.05090101
3454.00   0.15313819   0.05076446
3456.00   0.18641508   0.05125697
3458.00   0.17409171   0.04970680
3460.00   0.15224558   0.04815609
3462.00   0.15294716   0.04874859
3464.00   0.08933882   0.04584465
3466.00   0.22115014   0.04803720
3468.00   0.13310924   0.04576245
3470.00   0.19426644   0.04823183
3472.00   0.23359096   0.04775922
3474.00   0.16017455   0.04658869
3476.00   0.19446556   0.04717140
3478.00   0.16875939   0.04961512
3480.00   0.20402682   0.05258526
3482.00   0.17375989   0.05106972
3484.00   0.04315120   0.04952438
3486.00   0.18759868   0.05027569
3488.00   0.18150119   0.04922744
3490.00   0.26130563   0.04967171
3492.00   0.12487873   0.04675155
3494.00   0.19788133   0.04672267
3496.00   0.18931495   0.04617779
3498.00   0.15158086   0.04561889
3500.00   0.13236286   0.04494785
3502.00   0.13391061   0.04464575
3504.00   0.12900038   0.04422997
3506.00   0.15049186   0.04411411
3508.00   0.12465948   0.04388753
3510.00   0.14681239   0.04457115
3512.00   0.22053897   0.04490733
3514.00   0.21525553   0.04488982
3516.00   0.23559469   0.04465289
3518.00   0.20283613   0.04396271
3520.00   0.22402124   0.04421421
3522.00   0.19363269   0.04241611
3524.00   0.19631979   0.04224993
3526.00   0.21271165   0.04293380
3528.00   0.21241087   0.04275141
3530.00   0.24026853   0.04312364
3532.00   0.34029698   0.04504251
3534.00   0.25294706   0.04330476
3536.00   0.22163695   0.04253953
3538.00   0.25020978   0.04340297
3540.00   0.25916263   0.04558422
3542.00   0.24484627   0.04695802
3544.00   0.29573548   0.04887281
3546.00   0.24872665   0.04648915
3548.00   0.39933938   0.04704820
3550.00   0.23001309   0.04526908
3552.00   0.21491778   0.04512483
3554.00   0.39022273   0.04761334
3556.00   0.24367018   0.04508952
3558.00   0.30688944   0.04586892
3560.00   0.21452446   0.04337990
3562.00   0.27457529   0.04308464
3564.00   0.31810895   0.04297831
3566.00   0.32035121   0.04275448
3568.00   0.28151709   0.04147525
3570.00   0.29345146   0.04160573
3572.00   0.32444423   0.04201996
3574.00   0.29262251   0.04158377
3576.00   0.30368823   0.04046415
3578.00   0.30253088   0.04021183
3580.00   0.32201511   0.03983381
3582.00   0.33126932   0.04016669
3584.00   0.28989425   0.03823852
3586.00   0.36296728   0.03834365
3588.00   0.27310637   0.03771830
3590.00   0.28945148   0.03848521
3592.00   0.26785094   0.03800911
3594.00   0.36131185   0.03884224
3596.00   0.39185983   0.03902668
3598.00   0.31569642   0.03828832
3600.00   0.38640678   0.03896968
3602.00   0.30851653   0.03736953
3604.00   0.26793379   0.03610200
3606.00   0.32394966   0.03702933
3608.00   0.35424200   0.03707796
3610.00   0.31019461   0.03640759
3612.00   0.34483099   0.03788028
3614.00   0.31983614   0.03842079
3616.00   0.30860528   0.03807295
3618.00   0.33057928   0.03718811
3620.00   0.40116483   0.03832629
3622.00   0.33013913   0.03716924
3624.00   0.35742387   0.03720823
3626.00   0.31789705   0.03652285
3628.00   0.37821192   0.03804322
3630.00   0.34254098   0.03899930
3632.00   0.34872448   0.03865018
3634.00   0.31814831   0.03757012
3636.00   0.26057342   0.03713499
3638.00   0.30711627   0.03720180
3640.00   0.27547941   0.03694874
3642.00   0.35686305   0.03860140
3644.00   0.29350874   0.03800128
3646.00   0.33641094   0.03930715
3648.00   0.40041202   0.04751752
3650.00   0.23588642   0.05261761
3652.00   0.41128299   0.05131992
3654.00   0.30556104   0.04586198
3656.00   0.33808619   0.04325336
3658.00   0.35249600   0.03813921
3660.00   0.33150262   0.03800948
3662.00   0.32151029   0.04144223
3664.00   0.29235873   0.04089256
3666.00   0.34011868   0.03598363
3668.00   0.39461005   0.03486926
3670.00   0.37033176   0.03407769
3672.00   0.40380049   0.03421841
3674.00   0.42168313   0.03438203
3676.00   0.42195070   0.03368921
3678.00   0.46502516   0.03403743
3680.00   0.53918171   0.03484870
3682.00   0.49585083   0.03399517
3684.00   0.50047982   0.03417836
3686.00   0.51275289   0.03395334
3688.00   0.51841182   0.03360020
3690.00   0.50146532   0.03390580
3692.00   0.50468606   0.03446550
3694.00   0.47422656   0.03383949
3696.00   0.55123436   0.03449942
3698.00   0.53278816   0.03504457
3700.00   0.47465223   0.03447143
3702.00   0.63062531   0.03616824
3704.00   0.57541746   0.03528439
3706.00   0.62070709   0.03551060
3708.00   0.59033942   0.03512007
3710.00   0.59728748   0.03495340
3712.00   0.66372383   0.03566579
3714.00   0.62199813   0.03507980
3716.00   0.60537750   0.03453533
3718.00   0.58902049   0.03432934
3720.00   0.63069195   0.03406156
3722.00   0.66755480   0.03459773
3724.00   0.61711103   0.03626951
3726.00   0.60214496   0.03911437
3728.00   0.67787576   0.04170293
3730.00   0.63898242   0.03943308
3732.00   0.64708984   0.03575324
3734.00   0.62222648   0.03445065
3736.00   0.54824060   0.03315883
3738.00   0.60418463   0.03457916
3740.00   0.67054302   0.03575552
3742.00   0.64596182   0.03532631
3744.00   0.66945440   0.03470639
3746.00   0.69780445   0.03438157
3748.00   0.67234266   0.03355518
3750.00   0.67382652   0.03344594
3752.00   0.67773581   0.03364703
3754.00   0.65855205   0.03367032
3756.00   0.69728732   0.03387272
3758.00   0.71814150   0.03349016
3760.00   0.76831812   0.03394553
3762.00   0.75075376   0.03344623
3764.00   0.71681744   0.03308626
3766.00   0.79571402   0.03365550
3768.00   0.75834274   0.03306305
3770.00   0.75638700   0.03332344
3772.00   0.83562076   0.03416828
3774.00   0.89300823   0.03470537
3776.00   0.83922887   0.03396003
3778.00   0.81257969   0.03360919
3780.00   0.87114656   0.03409558
3782.00   0.80744535   0.03339112
3784.00   0.83774370   0.03350846
3786.00   0.80926305   0.03303240
3788.00   0.81770194   0.03280522
3790.00   0.81300390   0.03291575
3792.00   0.75105661   0.03235722
3794.00   0.73264402   0.03179064
3796.00   0.73643464   0.03122238
3798.00   0.66210282   0.03002523
3800.00   0.67351562   0.03028292
3802.00   0.65001291   0.03009629
3804.00   0.66898382   0.03035459
3806.00   0.63168097   0.02937334
3808.00   0.59909070   0.02903156
3810.00   0.57644171   0.02878390
3812.00   0.61606735   0.02933792
3814.00   0.58225149   0.02895727
3816.00   0.59308088   0.02898856
3818.00   0.55995095   0.02834316
3820.00   0.60013139   0.02861239
3822.00   0.55613607   0.02814451
3824.00   0.55023807   0.02770850
3826.00   0.58942056   0.02810581
3828.00   0.52299243   0.02797776
3830.00   0.52469724   0.02860539
3832.00   0.47892955   0.02771510
3834.00   0.56788528   0.02820001
3836.00   0.47972390   0.02706205
3838.00   0.51381743   0.02702788
3840.00   0.49698448   0.02652101
3842.00   0.45996109   0.02637304
3844.00   0.51148629   0.02693468
3846.00   0.48751709   0.02649151
3848.00   0.47567636   0.02594265
3850.00   0.45857444   0.02546504
3852.00   0.47994632   0.02566100
3854.00   0.49775183   0.02568993
3856.00   0.44042063   0.02478801
3858.00   0.48342761   0.02505190
3860.00   0.47750250   0.02496542
3862.00   0.54168558   0.02590028
3864.00   0.49140251   0.02530598
3866.00   0.48758477   0.02504637
3868.00   0.51380301   0.02513561
3870.00   0.51058602   0.02484499
3872.00   0.54437155   0.02545689
3874.00   0.56389606   0.02622040
3876.00   0.52213562   0.02557955
3878.00   0.53989506   0.02501503
3880.00   0.51447856   0.02447742
3882.00   0.56776476   0.02491384
3884.00   0.54031795   0.02465828
3886.00   0.57816678   0.02488968
3888.00   0.57033962   0.02479797
3890.00   0.60053343   0.02509777
3892.00   0.64112711   0.02560984
3894.00   0.65457600   0.02560808
3896.00   0.63799322   0.02572183
3898.00   0.63712192   0.02572967
3900.00   0.65444303   0.02590980
3902.00   0.62393469   0.02588395
3904.00   0.63445419   0.02629604
3906.00   0.64359492   0.02812588
3908.00   0.66566515   0.02939609
3910.00   0.69644487   0.02962695
3912.00   0.71555996   0.02953509
3914.00   0.67485249   0.02845732
3916.00   0.61352867   0.02662850
3918.00   0.67769980   0.02649105
3920.00   0.69406337   0.02598912
3922.00   0.70823592   0.02578696
3924.00   0.67838520   0.02555747
3926.00   0.74499828   0.02587377
3928.00   0.74655485   0.02551608
3930.00   0.72917861   0.02542873
3932.00   0.67437375   0.02526874
3934.00   0.64793521   0.02484826
3936.00   0.71134681   0.02513522
3938.00   0.72157586   0.02493782
3940.00   0.76151329   0.02583031
3942.00   0.72756702   0.02604518
3944.00   0.68627292   0.02609431
3946.00   0.72588587   0.02617520
3948.00   0.72235745   0.02556186
3950.00   0.75502437   0.02567425
3952.00   0.73106992   0.02521192
3954.00   0.76309448   0.02513128
3956.00   0.76787847   0.02526840
3958.00   0.74621618   0.02502984
3960.00   0.78966117   0.02607483
3962.00   0.77251118   0.02576753
3964.00   0.80561644   0.02549434
3966.00   0.75392669   0.02426150
3968.00   0.73306912   0.02389384
3970.00   0.76322556   0.02411408
3972.00   0.84500295   0.02506032
3974.00   0.85729098   0.02558056
3976.00   0.84086752   0.02516222
3978.00   0.86824226   0.02540411
3980.00   0.84968126   0.02514359
3982.00   0.80292219   0.02476376
3984.00   0.81606591   0.02467449
3986.00   0.84698391   0.02502712
3988.00   0.84526569   0.02499449
3990.00   0.85669863   0.02531311
3992.00   0.87008786   0.02514683
3994.00   0.79929858   0.02474568
3996.00   0.83568704   0.02556085
3998.00   0.81114745   0.02539634
4000.00   0.83788687   0.02500593
4002.00   0.81756186   0.02459408
4004.00   0.80767959   0.02420692
4006.00   0.76179242   0.02411439
4008.00   0.78638136   0.02440906
4010.00   0.80161607   0.02468205
4012.00   0.74333084   0.02425611
4014.00   0.77859873   0.02440098
4016.00   0.81150395   0.02451085
4018.00   0.74544477   0.02520682
4020.00   0.70185781   0.02607899
4022.00   0.75909609   0.02731152
4024.00   0.72975796   0.02667722
4026.00   0.73210359   0.02547737
4028.00   0.68975359   0.02421393
4030.00   0.69110906   0.02396518
4032.00   0.66436619   0.02360353
4034.00   0.66735142   0.02331854
4036.00   0.68773705   0.02320784
4038.00   0.66458660   0.02301487
4040.00   0.66105521   0.02305845
4042.00   0.61019284   0.02331033
4044.00   0.59206444   0.03101752
4046.00   0.60798621   0.03857289
4048.00   0.67330587   0.03705901
4050.00   0.63207477   0.02776229
4052.00   0.62060732   0.02376930
4054.00   0.61515117   0.02346153
4056.00   0.60141921   0.02302717
4058.00   0.62159830   0.02231810
4060.00   0.62437028   0.02205788
4062.00   0.61259621   0.02184963
4064.00   0.62102956   0.02188374
4066.00   0.62502289   0.02198909
4068.00   0.65697515   0.02224060
4070.00   0.67189628   0.02213556
4072.00   0.62080431   0.02133515
4074.00   0.67637289   0.02208408
4076.00   0.62164229   0.02349501
4078.00   0.63017792   0.02449073
4080.00   0.62119317   0.02367878
4082.00   0.66478592   0.02335010
4084.00   0.67695719   0.02291351
4086.00   0.61646640   0.02226687
4088.00   0.66476488   0.02209604
4090.00   0.62786734   0.02108124
4092.00   0.66145521   0.02099404
4094.00   0.64467466   0.02067310
4096.00   0.65259397   0.02068925
4098.00   0.63450903   0.02050974
4100.00   0.62833929   0.02053777
4102.00   0.65467823   0.02060504
4104.00   0.60044521   0.01978066
4106.00   0.64157957   0.02017272
4108.00   0.61949468   0.02011648
4110.00   0.61471170   0.02003724
4112.00   0.58961511   0.02041715
4114.00   0.61322361   0.02012853
4116.00   0.62774783   0.02008384
4118.00   0.59865814   0.01958950
4120.00   0.59249991   0.01938274
4122.00   0.62677318   0.01973695
4124.00   0.59195930   0.01960249
4126.00   0.56236643   0.01940986
4128.00   0.61127758   0.01974524
4130.00   0.61203331   0.01992830
4132.00   0.60655117   0.02027363
4134.00   0.57549250   0.02004245
4136.00   0.56447989   0.01971867
4138.00   0.60620010   0.02015044
4140.00   0.58433843   0.02026529
4142.00   0.58211583   0.01988065
4144.00   0.59222883   0.01925193
4146.00   0.58069736   0.01903506
4148.00   0.56343597   0.01908423
4150.00   0.56283599   0.01950717
4152.00   0.61105406   0.02028331
4154.00   0.56924206   0.01997123
4156.00   0.57580251   0.01961113
4158.00   0.56959736   0.01948286
4160.00   0.57691222   0.01960968
4162.00   0.56552571   0.01983169
4164.00   0.58286726   0.02071102
4166.00   0.60700995   0.02093095
4168.00   0.58267838   0.02005778
4170.00   0.58923042   0.01966402
4172.00   0.60702360   0.01948467
4174.00   0.59435350   0.01924722
4176.00   0.59358805   0.01925348
4178.00   0.62553263   0.01958207
4180.00   0.64962059   0.01976340
4182.00   0.65911871   0.01956763
4184.00   0.63395733   0.01922464
4186.00   0.62285882   0.01919054
4188.00   0.70429939   0.01966895
4190.00   0.70319134   0.01985064
4192.00   0.69610739   0.01988124
4194.00   0.72370011   0.01996568
4196.00   0.71888280   0.01971363
4198.00   0.74256742   0.01977691
4200.00   0.74264264   0.01984732
4202.00   0.77660614   0.02016890
4204.00   0.75805414   0.02012248
4206.00   0.80066741   0.02053873
4208.00   0.76802790   0.02044689
4210.00   0.76419830   0.02051724
4212.00   0.74095404   0.02031483
4214.00   0.76595271   0.02033884
4216.00   0.81213814   0.02058296
4218.00   0.77463937   0.02028741
4220.00   0.75499159   0.02006244
4222.00   0.75225550   0.01991973
4224.00   0.74243838   0.01991388
4226.00   0.77335185   0.01990698
4228.00   0.77413970   0.01996906
4230.00   0.78016144   0.02029196
4232.00   0.76415765   0.02037653
4234.00   0.71002406   0.02000200
4236.00   0.74525267   0.02032928
4238.00   0.76028639   0.02055550
4240.00   0.73497784   0.02009887
4242.00   0.74142271   0.01984880
4244.00   0.74324703   0.02082922
4246.00   0.73794025   0.02185291
4248.00   0.75727820   0.02200663
4250.00   0.73554093   0.02061513
4252.00   0.75668991   0.02013719
4254.00   0.71580762   0.01977010
4256.00   0.73081219   0.02000867
4258.00   0.73906344   0.01995015
4260.00   0.74190116   0.01970710
4262.00   0.71172369   0.01950447
4264.00   0.74439329   0.01972209
4266.00   0.73839897   0.01965123
4268.00   0.73754513   0.01964345
4270.00   0.71001351   0.01940173
4272.00   0.71494925   0.01946564
4274.00   0.72066659   0.01952024
4276.00   0.73199260   0.01981497
4278.00   0.71865362   0.01972480
4280.00   0.72813565   0.01972196
4282.00   0.69565737   0.01963555
4284.00   0.71935773   0.01967870
4286.00   0.74244511   0.01977772
4288.00   0.72546893   0.01952649
4290.00   0.69174087   0.01928523
4292.00   0.72464579   0.01961436
4294.00   0.72748727   0.01977797
4296.00   0.73151469   0.01968129
4298.00   0.72508198   0.01956985
4300.00   0.77254695   0.01972840
4302.00   0.74675429   0.01946954
4304.00   0.70915508   0.01927622
4306.00   0.74030143   0.01968660
4308.00   0.73498076   0.01969533
4310.00   0.74747378   0.01982418
4312.00   0.77338833   0.02081334
4314.00   0.76666760   0.02123549
4316.00   0.78959256   0.02116168
4318.00   0.76447821   0.02086050
4320.00   0.79183304   0.02127403
4322.00   0.80014855   0.02135734
4324.00   0.80194151   0.02106913
4326.00   0.82145298   0.02097757
4328.00   0.83537853   0.02078649
4330.00   0.80367637   0.02023437
4332.00   0.81788701   0.02033279
4334.00   0.82698095   0.02042266
4336.00   0.85351461   0.02075570
4338.00   0.89266622   0.02144317
4340.00   0.83825666   0.02128997
4342.00   0.79543406   0.02102443
4344.00   0.84005159   0.02125637
4346.00   0.80836123   0.02158865
4348.00   0.82328737   0.02187253
4350.00   0.81066972   0.02148557
4352.00   0.79073316   0.02115719
4354.00   0.74938697   0.02277477
4356.00   0.81450135   0.03413345
4358.00   0.79748249   0.04053957
4360.00   0.74060416   0.03704184
4362.00   0.75686085   0.02873082
4364.00   0.73834479   0.02301471
4366.00   0.70269859   0.02128633
4368.00   0.74097937   0.02107618
4370.00   0.71200860   0.02076077
4372.00   0.70554101   0.02092166
4374.00   0.70306343   0.02126146
4376.00   0.68212485   0.02086855
4378.00   0.67516017   0.02035223
4380.00   0.66375315   0.01997857
4382.00   0.68477273   0.01990095
4384.00   0.67614710   0.01970005
4386.00   0.66719204   0.01953296
4388.00   0.62966985   0.01926489
4390.00   0.63481051   0.01943420
4392.00   0.63011843   0.01932574
4394.00   0.65909475   0.01949444
4396.00   0.60492420   0.01905163
4398.00   0.58269286   0.01925169
4400.00   0.59605473   0.01965238
4402.00   0.55994916   0.01931944
4404.00   0.58101392   0.01919903
4406.00   0.60799551   0.01927709
4408.00   0.57550919   0.01915449
4410.00   0.58179671   0.01923713
4412.00   0.56082702   0.01924249
4414.00   0.55410075   0.01939534
4416.00   0.54513103   0.01932609
4418.00   0.52335465   0.01898521
4420.00   0.51283014   0.01874368
4422.00   0.51814586   0.01870083
4424.00   0.52852535   0.01871068
4426.00   0.49811015   0.01847935
4428.00   0.49660951   0.01847491
4430.00   0.47774139   0.01831364
4432.00   0.49270329   0.01833659
4434.00   0.47691259   0.01819848
4436.00   0.47261265   0.01814522
4438.00   0.45144817   0.01803418
4440.00   0.47117785   0.01812791
4442.00   0.48164943   0.01814601
4444.00   0.49968606   0.01824969
4446.00   0.48170438   0.01811381
4448.00   0.43609938   0.01776722
4450.00   0.50233608   0.01805865
4452.00   0.49953985   0.01805585
4454.00   0.49144688   0.01801097
4456.00   0.51468772   0.01813088
4458.00   0.49368310   0.01793752
4460.00   0.53404254   0.01825900
4462.00   0.53463137   0.01822531
4464.00   0.49590057   0.01794736
4466.00   0.51468444   0.01806013
4468.00   0.49508512   0.01784800
4470.00   0.52527618   0.01803229
4472.00   0.52103829   0.01802432
4474.00   0.51501250   0.01793306
4476.00   0.50840259   0.01798175
4478.00   0.51464510   0.01794047
4480.00   0.55494058   0.01819521
4482.00   0.55465221   0.01814666
4484.00   0.52272189   0.01798541
4486.00   0.57745177   0.01828116
4488.00   0.54852545   0.01813019
4490.00   0.54753166   0.01812256
4492.00   0.55814040   0.01828269
4494.00   0.53500402   0.01820662
4496.00   0.58401871   0.01848886
4498.00   0.58464801   0.01842827
4500.00   0.56035417   0.01827973
4502.00   0.57961303   0.01829862
4504.00   0.61228102   0.01842269
4506.00   0.61504191   0.01845385
4508.00   0.62315714   0.01830512
4510.00   0.61786222   0.01826223
4512.00   0.60415554   0.01816190
4514.00   0.60960251   0.01812701
4516.00   0.61033040   0.01806991
4518.00   0.63073301   0.01818617
4520.00   0.65308756   0.01828364
4522.00   0.65798885   0.01832942
4524.00   0.64379424   0.01808941
4526.00   0.65411037   0.01815213
4528.00   0.69147956   0.01829810
4530.00   0.67518800   0.01824684
4532.00   0.68102139   0.01829709
4534.00   0.72945368   0.01855872
4536.00   0.69075441   0.01828581
4538.00   0.75210816   0.01865183
4540.00   0.74796784   0.01863716
4542.00   0.79748166   0.01903081
4544.00   0.75973266   0.01883209
4546.00   0.82628578   0.01912040
4548.00   0.84572268   0.01907176
4550.00   0.88309157   0.01921890
4552.00   0.89268512   0.01923105
4554.00   0.88011593   0.01920109
4556.00   0.93895137   0.01952473
4558.00   0.93604803   0.01953102
4560.00   0.94045132   0.01950581
4562.00   0.97724336   0.01954772
4564.00   1.03268063   0.01980174
4566.00   1.01755214   0.01966800
4568.00   1.09139574   0.02015876
4570.00   1.14365911   0.02038427
4572.00   1.14515436   0.02046231
4574.00   1.21878493   0.02082702
4576.00   1.20673120   0.02068565
4578.00   1.28602803   0.02107582
4580.00   1.30037320   0.02110308
4582.00   1.29420090   0.02095960
4584.00   1.33443439   0.02105142
4586.00   1.36926758   0.02120297
4588.00   1.37448061   0.02133317
4590.00   1.39689243   0.02146071
4592.00   1.39913046   0.02138811
4594.00   1.42513859   0.02156302
4596.00   1.44003761   0.02161216
4598.00   1.45230639   0.02162417
4600.00   1.42424858   0.02137024
4602.00   1.42818558   0.02143442
4604.00   1.44709969   0.02142917
4606.00   1.42997646   0.02142422
4608.00   1.49230421   0.02180171
4610.00   1.50320506   0.02181706
4612.00   1.47214651   0.02151874
4614.00   1.47987282   0.02151635
4616.00   1.50534177   0.02157376
4618.00   1.48578203   0.02147627
4620.00   1.54197061   0.02178702
4622.00   1.54716408   0.02174270
4624.00   1.58670211   0.02186357
4626.00   1.54086530   0.02171560
4628.00   1.61295974   0.02205506
4630.00   1.63672972   0.02218889
4632.00   1.63607681   0.02216815
4634.00   1.62828135   0.02216651
4636.00   1.64836168   0.02209454
4638.00   1.71659732   0.02246231
4640.00   1.74986064   0.02270200
4642.00   1.74660122   0.02264014
4644.00   1.77014363   0.02271872
4646.00   1.77607906   0.02271668
4648.00   1.81271625   0.02293769
4650.00   1.81473649   0.02290397
4652.00   1.80934036   0.02294536
4654.00   1.79906082   0.02293548
4656.00   1.86684823   0.02329361
4658.00   1.83631146   0.02322864
4660.00   1.76912594   0.02310763
4662.00   1.78616595   0.02317760
4664.00   1.77058935   0.02319486
4666.00   1.73562062   0.02318255
4668.00   1.69441795   0.02303261
4670.00   1.69230628   0.02305123
4672.00   1.70632088   0.02311542
4674.00   1.64850080   0.02272575
4676.00   1.65270460   0.02265006
4678.00   1.64114833   0.02236084
4680.00   1.61315179   0.02217656
4682.00   1.58236873   0.02187922
4684.00   1.54059613   0.02157493
4686.00   1.52227938   0.02142174
4688.00   1.52637112   0.02139402
4690.00   1.44284499   0.02095263
4692.00   1.42954838   0.02081862
4694.00   1.42634702   0.02077645
4696.00   1.41400313   0.02064253
4698.00   1.38028169   0.02040186
4700.00   1.31463790   0.01999094
4702.00   1.35965943   0.02023802
4704.00   1.30697453   0.02000507
4706.00   1.30028582   0.02007191
4708.00   1.27644408   0.02003268
4710.00   1.23393202   0.01981479
4712.00   1.23901796   0.01970210
4714.00   1.21053553   0.01957193
4716.00   1.16187763   0.01924159
4718.00   1.14489341   0.01905575
4720.00   1.13574350   0.01898067
4722.00   1.11795282   0.01889566
4724.00   1.07601380   0.01860546
4726.00   1.07719648   0.01893363
4728.00   1.05227256   0.01906897
4730.00   1.07832193   0.01938254
4732.00   1.07022369   0.01937588
4734.00   1.10367358   0.01967280
4736.00   1.08206546   0.01954170
4738.00   1.10508358   0.02001026
4740.00   1.10368502   0.02024887
4742.00   1.10233998   0.02040331
4744.00   1.10369873   0.02020273
4746.00   1.09161127   0.01953001
4748.00   1.06495845   0.01890127
4750.00   1.08399546   0.01882894
4752.00   1.06718016   0.01882648
4754.00   1.01949179   0.01846186
4756.00   1.04476607   0.01835808
4758.00   1.01971400   0.01799711
4760.00   0.98619735   0.01766442
4762.00   0.95507097   0.01736222
4764.00   0.91810346   0.01707193
4766.00   0.90436882   0.01694402
4768.00   0.89068842   0.01680801
4770.00   0.89696562   0.01679700
4772.00   0.86478788   0.01663074
4774.00   0.86876351   0.01660034
4776.00   0.85274822   0.01671932
4778.00   0.84786606   0.01694921
4780.00   0.84070325   0.01690039
4782.00   0.85364139   0.01678981
4784.00   0.82808954   0.01646731
4786.00   0.80389440   0.01620274
4788.00   0.83679754   0.01639936
4790.00   0.81367952   0.01640477
4792.00   0.78313911   0.01612497
4794.00   0.81733656   0.01631044
4796.00   0.79383445   0.01617886
4798.00   0.81931645   0.01617843
4800.00   0.79517931   0.01600424
4802.00   0.82335627   0.01618737
4804.00   0.83203501   0.01626540
4806.00   0.84400982   0.01641209
4808.00   0.85248297   0.01651682
4810.00   0.83314645   0.01638775
4812.00   0.87295681   0.01663919
4814.00   0.84944940   0.01655159
4816.00   0.85334003   0.01661058
4818.00   0.87514049   0.01676904
4820.00   0.86583632   0.01673166
4822.00   0.90824664   0.01700524
4824.00   0.91363966   0.01712269
4826.00   0.93950564   0.01727189
4828.00   0.94850463   0.01740904
4830.00   0.97277266   0.01756459
4832.00   1.01041424   0.01787557
4834.00   0.98261786   0.01767351
4836.00   0.97940588   0.01774923
4838.00   0.94580412   0.01762292
4840.00   1.00215042   0.01795811
4842.00   0.97988951   0.01773817
4844.00   1.02567351   0.01793744
4846.00   1.00538254   0.01782277
4848.00   0.99809778   0.01776139
4850.00   0.95517588   0.01751030
4852.00   0.94800436   0.01743359
4854.00   0.92572820   0.01724359
4856.00   0.93249470   0.01714944
4858.00   0.91308683   0.01728478
4860.00   0.90871227   0.01758249
4862.00   0.94040883   0.01783019
4864.00   0.89864135   0.01740865
4866.00   0.90295124   0.01731843
4868.00   0.87615085   0.01697522
4870.00   0.88698107   0.01694194
4872.00   0.87097496   0.01684515
4874.00   0.89456946   0.01702044
4876.00   0.87808728   0.01695782
4878.00   0.85660559   0.01692487
4880.00   0.85808933   0.01695860
4882.00   0.89995569   0.01713705
4884.00   0.88908195   0.01705133
4886.00   0.86398435   0.01672278
4888.00   0.88157904   0.01689382
4890.00   0.89612401   0.01698008
4892.00   0.88761574   0.01690682
4894.00   0.92833024   0.01709683
4896.00   0.93370271   0.01715708
4898.00   0.95597404   0.01725644
4900.00   0.93547028   0.01708773
4902.00   1.00283086   0.01738860
4904.00   1.00863028   0.01737400
4906.00   0.99277389   0.01736986
4908.00   1.01264584   0.01757052
4910.00   1.04374552   0.01771590
4912.00   1.02497375   0.01761456
4914.00   1.05487180   0.01784224
4916.00   1.09109485   0.01797447
4918.00   1.09137988   0.01795034
4920.00   1.10787714   0.01801027
4922.00   1.11784327   0.01798080
4924.00   1.15017724   0.01811037
4926.00   1.14432764   0.01808713
4928.00   1.17429757   0.01816143
4930.00   1.16055679   0.01808294
4932.00   1.16614568   0.01808361
4934.00   1.16878283   0.01814163
4936.00   1.20047057   0.01831178
4938.00   1.20474601   0.01834722
4940.00   1.19945180   0.01833275
4942.00   1.24284589   0.01856556
4944.00   1.20546544   0.01834927
4946.00   1.22434080   0.01842871
4948.00   1.28946364   0.01869690
4950.00   1.26535606   0.01866941
4952.00   1.27832699   0.01884127
4954.00   1.25834668   0.01876738
4956.00   1.24566519   0.01872393
4958.00   1.25283885   0.01875758
4960.00   1.27159178   0.01884279
4962.00   1.24276018   0.01865944
4964.00   1.24313319   0.01873028
4966.00   1.22980332   0.01871766
4968.00   1.22590184   0.01872174
4970.00   1.25007641   0.01900057
4972.00   1.25163281   0.01925575
4974.00   1.22614968   0.01938356
4976.00   1.23942173   0.01966264
4978.00   1.23342001   0.02010813
4980.00   1.18825066   0.02038802
4982.00   1.18597734   0.02052934
4984.00   1.21591437   0.02068791
4986.00   1.19854939   0.02037328
4988.00   1.16361964   0.01992496
4990.00   1.17079175   0.01958971
4992.00   1.13118005   0.01910021
4994.00   1.12934399   0.01876834
4996.00   1.08022141   0.01824303
4998.00   1.07164776   0.01793274
5000.00   1.07280850   0.01773248
5002.00   1.07043362   0.01757985
5004.00   1.04761004   0.01748384
5006.00   1.04213214   0.01744588
5008.00   1.00856471   0.01730838
5010.00   1.01793921   0.01712007
5012.00   1.01020789   0.01700756
5014.00   1.03877282   0.01712719
5016.00   0.98986888   0.01685564
5018.00   0.97392547   0.01681545
5020.00   0.95227820   0.01675406
5022.00   0.94076413   0.01662025
5024.00   0.98115832   0.01676981
5026.00   0.95815969   0.01660465
5028.00   0.92539793   0.01648845
5030.00   0.94900882   0.01667055
5032.00   0.92502546   0.01655417
5034.00   0.90494609   0.01637636
5036.00   0.89482224   0.01626317
5038.00   0.91504055   0.01630655
5040.00   0.92103040   0.01625026
5042.00   0.93232059   0.01629471
5044.00   0.88945603   0.01616658
5046.00   0.91901815   0.01626314
5048.00   0.91643071   0.01628123
5050.00   0.91130376   0.01622554
5052.00   0.89573455   0.01617481
5054.00   0.87791944   0.01604035
5056.00   0.92576778   0.01633399
5058.00   0.88122314   0.01606688
5060.00   0.87991822   0.01611747
5062.00   0.89074236   0.01635668
5064.00   0.86972332   0.01637189
5066.00   0.85806453   0.01637036
5068.00   0.86594290   0.01667971
5070.00   0.87636864   0.01680449
5072.00   0.88157171   0.01666809
5074.00   0.87494361   0.01649123
5076.00   0.82506019   0.01616438
5078.00   0.86502600   0.01655097
5080.00   0.83675462   0.01703876
5082.00   0.84094608   0.01783056
5084.00   0.85749251   0.01845239
5086.00   0.84864050   0.01846553
5088.00   0.84025073   0.01797215
5090.00   0.84610617   0.01735804
5092.00   0.86421347   0.01686041
5094.00   0.88512570   0.01669563
5096.00   0.87539840   0.01664332
5098.00   0.84036273   0.01665169
5100.00   0.79907513   0.01652077
5102.00   0.84742928   0.01654384
5104.00   0.83259809   0.01622689
5106.00   0.81669939   0.01589057
5108.00   0.80803412   0.01576726
5110.00   0.79616487   0.01568884
5112.00   0.79517078   0.01573964
5114.00   0.81945240   0.01597117
5116.00   0.81715167   0.01599239
5118.00   0.79752779   0.01581972
5120.00   0.83769596   0.01598370
5122.00   0.84593534   0.01589598
5124.00   0.85251284   0.01591913
5126.00   0.81762028   0.01569967
5128.00   0.82604712   0.01575791
5130.00   0.87433386   0.01607278
5132.00   0.84260345   0.01585110
5134.00   0.82925540   0.01587628
5136.00   0.84294879   0.01596344
5138.00   0.82287288   0.01585305
5140.00   0.79006892   0.01564114
5142.00   0.79919899   0.01574075
5144.00   0.77483696   0.01562497
5146.00   0.80732852   0.01591649
5148.00   0.81963795   0.01612687
5150.00   0.81135297   0.01634807
5152.00   0.82050782   0.01665711
5154.00   0.83140177   0.01687455
5156.00   0.83026421   0.01672817
5158.00   0.82963240   0.01658341
5160.00   0.80578232   0.01625966
5162.00   0.84159446   0.01624617
5164.00   0.83867067   0.01613536
5166.00   0.83025777   0.01603412
5168.00   0.82186586   0.01588883
5170.00   0.85805553   0.01610266
5172.00   0.86261183   0.01607645
5174.00   0.83673590   0.01605737
5176.00   0.87082511   0.01629932
5178.00   0.86075622   0.01624010
5180.00   0.87559861   0.01634189
5182.00   0.90639096   0.01648458
5184.00   0.91489249   0.01656270
5186.00   0.91459697   0.01663059
5188.00   0.92834872   0.01675960
5190.00   0.94065684   0.01687976
5192.00   0.96371150   0.01707774
5194.00   0.97687364   0.01713827
5196.00   0.97431779   0.01726943
5198.00   0.97491348   0.01738408
5200.00   1.01488602   0.01767807
5202.00   1.06345797   0.01790201
5204.00   1.06139791   0.01784340
5206.00   1.07022917   0.01788031
5208.00   1.10516810   0.01819404
5210.00   1.11649299   0.01834123
5212.00   1.12549245   0.01841625
5214.00   1.12853241   0.01840534
5216.00   1.17004025   0.01861008
5218.00   1.19645584   0.01892645
5220.00   1.19810438   0.01891573
5222.00   1.20111001   0.01891634
5224.00   1.23127043   0.01907996
5226.00   1.26837897   0.01920003
5228.00   1.28417373   0.01939381
5230.00   1.28268194   0.01942297
5232.00   1.33287501   0.01971244
5234.00   1.33376265   0.01972404
5236.00   1.33994889   0.01989444
5238.00   1.36726189   0.02009865
5240.00   1.40791249   0.02036210
5242.00   1.40152252   0.02033916
5244.00   1.36919487   0.02022445
5246.00   1.42354059   0.02048106
5248.00   1.42563868   0.02053568
5250.00   1.45548356   0.02078407
5252.00   1.48318005   0.02099634
5254.00   1.50323558   0.02117879
5256.00   1.49041259   0.02126507
5258.00   1.55374134   0.02167506
5260.00   1.54436207   0.02169001
5262.00   1.59205437   0.02186545
5264.00   1.56521678   0.02171558
5266.00   1.56049097   0.02166599
5268.00   1.56616068   0.02166569
5270.00   1.61241591   0.02198518
5272.00   1.61749482   0.02202302
5274.00   1.60607052   0.02213698
5276.00   1.63541090   0.02233391
5278.00   1.67534781   0.02262433
5280.00   1.66804099   0.02260903
5282.00   1.67828667   0.02276839
5284.00   1.69033206   0.02296700
5286.00   1.69089377   0.02304764
5288.00   1.67620790   0.02300535
5290.00   1.68453109   0.02311389
5292.00   1.74761307   0.02349389
5294.00   1.71625566   0.02338501
5296.00   1.76447868   0.02373213
5298.00   1.76235509   0.02374029
5300.00   1.79437757   0.02400560
5302.00   1.79069650   0.02410760
5304.00   1.79654121   0.02425699
5306.00   1.81447494   0.02435244
5308.00   1.74938023   0.02413910
5310.00   1.82007253   0.02454662
5312.00   1.80271554   0.02457397
5314.00   1.85365343   0.02490973
5316.00   1.88169670   0.02506389
5318.00   1.81366217   0.04991219
5320.00   1.95151389   0.05003724
5322.00   1.96710503   0.05021998
5324.00   1.86709547   0.05017530
5326.00   1.83963728   0.04973549
5328.00   1.78605020   0.04907679
5330.00   1.77069056   0.04878657
5332.00   1.79681706   0.04887612
5334.00   1.84028888   0.04913079
5336.00   1.86285162   0.04927704
5338.00   1.87626970   0.04929063
5340.00   1.88001180   0.04910324
5342.00   1.88302660   0.04887733
5344.00   1.89236486   0.04888212
5346.00   1.87845826   0.05150045
5348.00   1.85679173   0.05249591
5350.00   1.83611178   0.05221014
5352.00   1.79148817   0.04981128
5354.00   1.71663535   0.04691923
5356.00   1.74204028   0.04655129
5358.00   1.88098371   0.04833707
5360.00   1.91879177   0.05003504
5362.00   1.82832646   0.04963350
5364.00   1.82700825   0.04591038
5366.00   1.94422185   0.04586306
5368.00   1.93049812   0.04860172
5370.00   1.79117227   0.04893408
5372.00   1.76609623   0.04591227
5374.00   1.77598929   0.04537715
5376.00   1.74665570   0.04510886
5378.00   1.73365664   0.04646167
5380.00   1.74295115   0.04650924
5382.00   1.86641657   0.04610078
5384.00   1.85382140   0.04566943
5386.00   1.73519826   0.04587227
5388.00   1.73254526   0.04469737
5390.00   1.73844194   0.04449473
5392.00   1.72964668   0.04455953
5394.00   1.68683553   0.04394656
5396.00   1.73620868   0.04407633
5398.00   1.77984786   0.04433302
5400.00   1.77313161   0.04421133
5402.00   1.71936178   0.04356328
5404.00   1.69568467   0.04321913
5406.00   1.70537102   0.04309908
5408.00   1.73060989   0.04326150
5410.00   1.74547505   0.04348167
5412.00   1.72980809   0.04343931
5414.00   1.70116305   0.04327366
5416.00   1.71620929   0.04337861
5418.00   1.74787903   0.04350896
5420.00   1.76003337   0.04338037
5422.00   1.72726452   0.04283123
5424.00   1.69990706   0.04238132
5426.00   1.71399760   0.04220577
5428.00   1.75199676   0.04221588
5430.00   1.78807545   0.04225884
5432.00   1.80249691   0.04220257
5434.00   1.78824329   0.04181705
5436.00   1.75958562   0.04143648
5438.00   1.72523475   0.04105374
5440.00   1.70171237   0.04072986
5442.00   1.72257674   0.04080964
5444.00   1.76455283   0.04095813
5446.00   1.77095246   0.04087069
5448.00   1.74957323   0.04056890
5450.00   1.73293281   0.04144813
5452.00   1.86696529   0.04217453
5454.00   1.77780223   0.04347977
5456.00   1.74467075   0.04585410
5458.00   1.70051074   0.04769755
5460.00   1.71354020   0.04946783
5462.00   1.76490998   0.04921691
5464.00   1.76068938   0.04658476
5466.00   1.86566007   0.04485066
5468.00   1.87015915   0.04208888
5470.00   1.77803981   0.03908816
5472.00   1.71561718   0.03786392
5474.00   1.73671961   0.03770575
5476.00   1.77500033   0.03880064
5478.00   1.88514423   0.03872576
5480.00   1.89806616   0.03875885
5482.00   1.77555203   0.03738987
5484.00   1.77030373   0.04030964
5486.00   1.93357038   0.03982325
5488.00   1.97538650   0.03778732
5490.00   1.96535647   0.03745143
5492.00   1.79299390   0.03695054
5494.00   1.74750400   0.03505760
5496.00   1.76023483   0.03504546
5498.00   1.76778555   0.03582291
5500.00   1.72526002   0.03435603
5502.00   1.72988534   0.03425477
5504.00   1.73450196   0.03412577
5506.00   1.74061632   0.03400747
5508.00   1.75784779   0.03404108
5510.00   1.76008248   0.03491497
5512.00   1.73456860   0.03388108
5514.00   1.73460126   0.03383562
5516.00   1.75437987   0.03389974
5518.00   1.75532758   0.03382418
5520.00   1.70655274   0.03330864
5522.00   1.71408427   0.03312656
5524.00   1.72972131   0.03296543
5526.00   1.73133612   0.03267067
5528.00   1.72426748   0.03228275
5530.00   1.71276927   0.03279060
5532.00   1.68608749   0.03152490
5534.00   1.66837144   0.03126463
5536.00   1.66941738   0.03117707
5538.00   1.67829967   0.03206757
5540.00   1.70586038   0.03203419
5542.00   1.72097182   0.03196810
5544.00   1.70607245   0.03181753
5546.00   1.67051744   0.03065016
5548.00   1.66327643   0.03134009
5550.00   1.68617558   0.03129424
5552.00   1.69409871   0.03118326
5554.00   1.67121279   0.03098265
5556.00   1.63317108   0.02980803
5558.00   1.63689637   0.03059604
5560.00   1.76645601   0.03055592
5562.00   1.65950298   0.03042442
5564.00   1.63445997   0.03022104
5566.00   1.63152862   0.03031242
5568.00   1.61542082   0.03131993
5570.00   1.60097170   0.03451534
5572.00   1.64542234   0.03935456
5574.00   1.69939840   0.04325698
5576.00   1.61680508   0.04507004
5578.00   1.58461833   0.04447715
5580.00   1.55293787   0.04206187
5582.00   1.61395705   0.03792719
5584.00   1.63877690   0.03214845
5586.00   1.56951308   0.02979488
5588.00   1.53141785   0.02825037
5590.00   1.51928198   0.02785759
5592.00   1.50950050   0.02768587
5594.00   1.48798203   0.02735779
5596.00   1.47311091   0.02715918
5598.00   1.47269857   0.02704289
5600.00   1.46560287   0.02692001
5602.00   1.45787966   0.02679095
5604.00   1.45634460   0.02668220
5606.00   1.45769525   0.02663137
5608.00   1.43502045   0.02651016
5610.00   1.42307210   0.02632120
5612.00   1.42090869   0.02617235
5614.00   1.41436458   0.02609763
5616.00   1.39294052   0.02600593
5618.00   1.38170075   0.02590524
5620.00   1.38212001   0.02582805
5622.00   1.38174796   0.02580775
5624.00   1.37031460   0.02582016
5626.00   1.37721896   0.02577760
5628.00   1.36944008   0.02565645
5630.00   1.36216140   0.02560490
5632.00   1.35533059   0.02560282
5634.00   1.33960783   0.02554225
5636.00   1.31971335   0.02532640
5638.00   1.30158651   0.02522381
5640.00   1.30021882   0.02521356
5642.00   1.38220084   0.02523068
5644.00   1.36964905   0.02514934
5646.00   1.27010107   0.02511475
5648.00   1.25596523   0.02506076
5650.00   1.24751401   0.02503181
5652.00   1.24093568   0.02502271
5654.00   1.22971976   0.02498307
5656.00   1.20440555   0.02492413
5658.00   1.20936501   0.02503117
5660.00   1.21883917   0.02517811
5662.00   1.20459282   0.02526002
5664.00   1.17510951   0.02534560
5666.00   1.17973638   0.02563929
5668.00   1.17526209   0.02595190
5670.00   1.24148357   0.02623209
5672.00   1.23829758   0.02648015
5674.00   1.24487269   0.02667556
5676.00   1.15379906   0.02687149
5678.00   1.11892283   0.02721526
5680.00   1.08390856   0.02784284
5682.00   1.07754207   0.02881085
5684.00   1.08419251   0.02997435
5686.00   1.07132268   0.03068272
5688.00   1.06661928   0.03086001
5690.00   1.14685988   0.03053075
5692.00   1.14100778   0.02974915
5694.00   1.12191033   0.02862331
5696.00   1.13976336   0.02772675
5698.00   1.07339859   0.02696849
5700.00   1.05371845   0.02626054
5702.00   1.02705634   0.02566573
5704.00   1.01270771   0.02528635
5706.00   1.01500845   0.02509222
5708.00   1.01535821   0.02495605
5710.00   1.07943547   0.02480972
5712.00   1.06931055   0.02472621
5714.00   1.08575618   0.02476385
5716.00   1.00247157   0.02459884
5718.00   1.06310630   0.02435588
5720.00   1.06323230   0.02423827
5722.00   0.99241138   0.02423997
5724.00   0.98694640   0.02416597
5726.00   0.98739493   0.02403615
5728.00   0.99142224   0.02391145
5730.00   1.06319964   0.02381169
5732.00   0.98292899   0.02369412
5734.00   0.98487830   0.02371801
5736.00   1.05870020   0.02373880
5738.00   1.05727768   0.02373420
5740.00   1.05077791   0.02374724
5742.00   1.04130304   0.02373642
5744.00   1.03043664   0.02366161
5746.00   1.02723742   0.02365138
5748.00   1.03826296   0.02377635
5750.00   0.98848742   0.02403519
5752.00   1.06696391   0.02411216
5754.00   1.06373262   0.02417876
5756.00   1.07465339   0.02435205
5758.00   1.09031439   0.02461072
5760.00   0.99064744   0.02481653
5762.00   1.00079036   0.02538600
5764.00   1.07089806   0.02612711
5766.00   1.05621088   0.02677232
5768.00   1.05139148   0.02723148
5770.00   1.00720870   0.02775756
5772.00   1.11930144   0.02804417
5774.00   1.11829853   0.02724807
5776.00   1.10288465   0.02601695
5778.00   1.01809657   0.02539315
5780.00   1.03133059   0.02526437
5782.00   1.10498393   0.02547335
5784.00   1.11221015   0.02608410
5786.00   1.04168785   0.02692780
5788.00   1.07132137   0.02772254
5790.00   1.08648968   0.02804632
5792.00   1.08292317   0.02806191
5794.00   1.09008121   0.02771825
5796.00   1.18571019   0.02712316
5798.00   1.11347151   0.02646843
5800.00   1.11199236   0.02618159
5802.00   1.12420392   0.02608910
5804.00   1.14910793   0.02611260
5806.00   1.24703431   0.02614056
5808.00   1.16706705   0.02608940
5810.00   1.15261793   0.02606610
5812.00   1.17467809   0.02620190
5814.00   1.20568562   0.02635760
5816.00   1.21329975   0.02639999
5818.00   1.19066381   0.02633896
5820.00   1.20845807   0.02638888
5822.00   1.22433162   0.02657754
5824.00   1.23038721   0.02689882
5826.00   1.23729944   0.02729411
5828.00   1.27566838   0.02761654
5830.00   1.29642487   0.02780645
5832.00   1.30071807   0.02779817
5834.00   1.30774379   0.02768316
5836.00   1.33202481   0.02762992
5838.00   1.43658066   0.02764312
5840.00   1.46747124   0.02779424
5842.00   1.47993028   0.02786380
5844.00   1.37763417   0.02799984
5846.00   1.35202801   0.02842862
5848.00   1.36681461   0.02851228
5850.00   1.38377857   0.02819432
5852.00   1.40306473   0.02802376
5854.00   1.51186240   0.02816301
5856.00   1.52012634   0.02824895
5858.00   1.42236805   0.02826490
5860.00   1.42941833   0.02838127
5862.00   1.44668508   0.02859026
5864.00   1.46381068   0.02879226
5866.00   1.46932721   0.02885577
5868.00   1.47743344   0.02896887
5870.00   1.61437643   0.02904529
5872.00   1.51473451   0.02900391
5874.00   1.49985051   0.02882683
5876.00   1.50624418   0.02864434
5878.00   1.51876473   0.02838416
5880.00   1.51652193   0.02863150
5882.00   1.50932348   0.03044294
5884.00   1.49945068   0.03411424
5886.00   1.44185984   0.03868429
5888.00   1.39102101   0.04228583
5890.00   1.41675711   0.04531224
5892.00   1.29038405   0.04721028
5894.00   1.27874911   0.04721727
5896.00   1.36040759   0.04463870
5898.00   1.41542971   0.04129171
5900.00   1.45733488   0.03748748
5902.00   1.50203049   0.03358077
5904.00   1.55419302   0.03009902
5906.00   1.56579280   0.02848905
5908.00   1.56519580   0.02808092
5910.00   1.56333518   0.02809320
5912.00   1.56273282   0.02808584
5914.00   1.55718732   0.02806131
5916.00   1.56686568   0.02807423
5918.00   1.55773950   0.02802632
5920.00   1.53637433   0.02791706
5922.00   1.52504385   0.02780696
5924.00   1.55140281   0.02781077
5926.00   1.56030357   0.02780875
5928.00   1.55541611   0.02782036
5930.00   1.54428458   0.02782659
5932.00   1.53552687   0.02778678
5934.00   1.53376794   0.02765243
5936.00   1.53082407   0.02741288
5938.00   1.51562142   0.02710043
5940.00   1.50091195   0.02679433
5942.00   1.49631703   0.02654926
5944.00   1.46256220   0.02624295
5946.00   1.43097901   0.02608272
5948.00   1.43514132   0.02608351
5950.00   1.45759821   0.02610990
5952.00   1.45655870   0.02601187
5954.00   1.42984629   0.02591211
5956.00   1.42986405   0.02581177
5958.00   1.43617547   0.02569641
5960.00   1.43034244   0.02562884
5962.00   1.40588450   0.02465788
5964.00   1.38889742   0.02447043
5966.00   1.37164593   0.02432711
5968.00   1.35060108   0.02417967
5970.00   1.32620740   0.02401188
5972.00   1.30382299   0.02385787
5974.00   1.32662046   0.02473758
5976.00   1.35678244   0.02475760
5978.00   1.35753322   0.02470726
5980.00   1.32723236   0.02450614
5982.00   1.31864250   0.02435783
5984.00   1.30643606   0.02426291
5986.00   1.29292059   0.02414131
5988.00   1.28386331   0.02400591
5990.00   1.28333187   0.02392074
5992.00   1.29020178   0.02395304
5994.00   1.29199874   0.02390530
5996.00   1.28325045   0.02377577
5998.00   1.26813173   0.02364183
6000.00   1.25705886   0.02357247
6002.00   1.25972557   0.02349413
6004.00   1.34808481   0.02341709
6006.00   1.34902430   0.02337581
6008.00   1.25778151   0.02334731
6010.00   1.26190376   0.02328472
6012.00   1.35118771   0.02319806
6014.00   1.36448145   0.02324999
6016.00   1.28216362   0.02324043
6018.00   1.27403545   0.02316443
6020.00   1.26791453   0.02316506
6022.00   1.36011076   0.02317897
6024.00   1.35371292   0.02313501
6026.00   1.26336551   0.02312027
6028.00   1.26073098   0.02316623
6030.00   1.26484442   0.02318931
6032.00   1.26471937   0.02313629
6034.00   1.26194310   0.02308436
6036.00   1.24920225   0.02300757
6038.00   1.22680330   0.02289506
6040.00   1.22324157   0.02282871
6042.00   1.22261727   0.02279106
6044.00   1.21764231   0.02276976
6046.00   1.21224451   0.02275546
6048.00   1.21408749   0.02275997
6050.00   1.23052692   0.02284472
6052.00   1.23268878   0.02280132
6054.00   1.21948886   0.02267966
6056.00   1.20364428   0.02257206
6058.00   1.20032954   0.02255240
6060.00   1.19716966   0.02254085
6062.00   1.18426013   0.02253384
6064.00   1.16322565   0.02244068
6066.00   1.14466870   0.02229267
6068.00   1.14139462   0.02218343
6070.00   1.22545707   0.02218291
6072.00   1.23750889   0.02226520
6074.00   1.24879277   0.02234464
6076.00   1.25340056   0.02236516
6078.00   1.16281772   0.02230394
6080.00   1.13994503   0.02221592
6082.00   1.22451890   0.02220476
6084.00   1.23442733   0.02229262
6086.00   1.24145794   0.02235080
6088.00   1.14279962   0.02221261
6090.00   1.14375520   0.02177896
6092.00   1.16065836   0.02192377
6094.00   1.17445111   0.02209947
6096.00   1.17333102   0.02221958
6098.00   1.17554903   0.02234549
6100.00   1.27240741   0.02254076
6102.00   1.18981862   0.02361453
6104.00   1.18690968   0.02379288
6106.00   1.19580400   0.02427115
6108.00   1.22363973   0.02475604
6110.00   1.22514749   0.02519692
6112.00   1.21570563   0.02549660
6114.00   1.21156001   0.02561878
6116.00   1.22418118   0.02556135
6118.00   1.24900389   0.02532693
6120.00   1.26132441   0.02490185
6122.00   1.25852716   0.02452866
6124.00   1.25643682   0.02430040
6126.00   1.27874899   0.02418184
6128.00   1.36083603   0.02401176
6130.00   1.26281857   0.02309519
6132.00   1.24835491   0.02295232
6134.00   1.24418378   0.02289749
6136.00   1.23386538   0.02279787
6138.00   1.19843841   0.02255988
6140.00   1.18379211   0.02247890
6142.00   1.18198752   0.02249844
6144.00   1.17798591   0.02249341
6146.00   1.17091811   0.02239097
6148.00   1.15995646   0.02239883
6150.00   1.16323686   0.02249949
6152.00   1.18011153   0.02268438
6154.00   1.26489329   0.02290120
6156.00   1.17451489   0.02301169
6158.00   1.15690351   0.02302441
6160.00   1.14919448   0.02296477
6162.00   1.14518809   0.02281372
6164.00   1.13501573   0.02253821
6166.00   1.11842072   0.02210962
6168.00   1.10972977   0.02165903
6170.00   1.10595942   0.02134668
6172.00   1.10479987   0.02118984
6174.00   1.10344315   0.02192029
6176.00   1.10606265   0.02164136
6178.00   1.11104035   0.02154248
6180.00   1.11046815   0.02150641
6182.00   1.10625517   0.02148427
6184.00   1.11239493   0.02149425
6186.00   1.11912704   0.02153771
6188.00   1.11546612   0.02148221
6190.00   1.18511868   0.02138073
6192.00   1.18176734   0.02131877
6194.00   1.10713971   0.02134936
6196.00   1.10202634   0.02133478
6198.00   1.08987021   0.02125746
6200.00   1.07718110   0.02119052
6202.00   1.07230902   0.02117747
6204.00   1.07887924   0.02121417
6206.00   1.15882981   0.02124926
6208.00   1.16041994   0.02126882
6210.00   1.07351565   0.02125254
6212.00   1.06183457   0.02119799
6214.00   1.15662420   0.02115350
6216.00   1.15904248   0.02107119
6218.00   1.15465701   0.02095346
6220.00   1.06214261   0.02081051
6222.00   1.04438829   0.02066818
6224.00   1.03625703   0.02059008
6226.00   1.03851998   0.02055707
6228.00   1.04202592   0.02058370
6230.00   1.04309654   0.02068141
6232.00   1.04268479   0.02084832
6234.00   1.04389310   0.02105813
6236.00   1.03898311   0.02120132
6238.00   1.02934873   0.02126697
6240.00   1.02140021   0.02116173
6242.00   1.09397256   0.02091745
6244.00   1.01121497   0.02013787
6246.00   1.00425947   0.01992858
6248.00   1.00694561   0.01987223
6250.00   1.01362491   0.01991101
6252.00   1.01539278   0.01993237
6254.00   0.99489224   0.02048474
6256.00   0.99179274   0.02047191
6258.00   1.00874841   0.02061632
6260.00   1.09001648   0.02067401
6262.00   1.07804358   0.02056949
6264.00   1.01828647   0.02052482
6266.00   1.02896619   0.02039259
6268.00   1.02314639   0.02018168
6270.00   1.08279490   0.01998010
6272.00   1.07847679   0.01992454
6274.00   1.06979787   0.01984438
6276.00   1.06784523   0.01988465
6278.00   1.06557178   0.01999810
6280.00   1.05157506   0.02003162
6282.00   1.03596652   0.01992019
6284.00   1.03110683   0.01981827
6286.00   1.03735816   0.01982155
6288.00   1.04662442   0.01989127
6290.00   1.04942477   0.01992583
6292.00   1.00728524   0.02029154
6294.00   1.10330284   0.02119222
6296.00   1.09807456   0.02229590
6298.00   1.08746755   0.02322245
6300.00   1.10170698   0.02369488
6302.00   1.11043322   0.02378917
6304.00   1.10965872   0.02337862
6306.00   1.02084696   0.02248616
6308.00   1.00988293   0.02134898
6310.00   1.01787448   0.02052746
6312.00   1.02518201   0.02013237
6314.00   1.03474283   0.01989374
6316.00   1.12154758   0.01975803
6318.00   1.13049209   0.01972547
6320.00   1.13799942   0.01970173
6322.00   1.04770255   0.01972924
6324.00   1.04376292   0.01983391
6326.00   1.05732489   0.01995588
6328.00   1.07803154   0.02001656
6330.00   1.17264700   0.02006408
6332.00   1.16930735   0.02000814
6334.00   1.08697796   0.01989684
6336.00   1.09306455   0.01978015
6338.00   1.10104573   0.01969272
6340.00   1.10915303   0.01965800
6342.00   1.19556463   0.01968529
6344.00   1.19230926   0.01971093
6346.00   1.09662664   0.01971178
6348.00   1.10939193   0.01973875
6350.00   1.12482786   0.01981206
6352.00   1.13153708   0.01990021
6354.00   1.13510108   0.01997506
6356.00   1.13977504   0.02008832
6358.00   1.14178491   0.02034979
6360.00   1.15439498   0.02075929
6362.00   1.24486649   0.02097745
6364.00   1.24349117   0.02099696
6366.00   1.23970211   0.02087397
6368.00   1.14617848   0.02054959
6370.00   1.15351248   0.02019066
6372.00   1.26191092   0.02000386
6374.00   1.27730453   0.01994810
6376.00   1.18259645   0.01989453
6378.00   1.17740726   0.01992269
6380.00   1.17802835   0.01996004
6382.00   1.17371988   0.01998365
6384.00   1.17564940   0.01999745
6386.00   1.19961214   0.02001586
6388.00   1.20996547   0.01996349
6390.00   1.20761633   0.01989520
6392.00   1.20265388   0.01982794
6394.00   1.20262671   0.01978285
6396.00   1.29403389   0.01978944
6398.00   1.20344567   0.01985871
6400.00   1.19080615   0.01989664
6402.00   1.19487536   0.01992721
6404.00   1.21540332   0.01995507
6406.00   1.29641473   0.01991374
6408.00   1.27966678   0.01976532
6410.00   1.27641964   0.01968459
6412.00   1.20039093   0.01967999
6414.00   1.28455269   0.01969932
6416.00   1.28129864   0.01966604
6418.00   1.28683722   0.01965854
6420.00   1.20668864   0.01961115
6422.00   1.19359720   0.01952949
6424.00   1.18406010   0.01946065
6426.00   1.27674901   0.01945618
6428.00   1.19394362   0.01945030
6430.00   1.19470692   0.01944445
6432.00   1.19813502   0.01946540
6434.00   1.20722950   0.01952323
6436.00   1.29630697   0.01954934
6438.00   1.28766334   0.01946805
6440.00   1.28123367   0.01940036
6442.00   1.19705474   0.01941341
6444.00   1.19765437   0.01949026
6446.00   1.18127084   0.01943437
6448.00   1.17649436   0.01939406
6450.00   1.18462741   0.01939896
6452.00   1.27449179   0.01943975
6454.00   1.27598858   0.01947146
6456.00   1.19579840   0.01951540
6458.00   1.19808316   0.01954434
6460.00   1.19976091   0.01959054
6462.00   1.20148778   0.01966444
6464.00   1.20519125   0.01976629
6466.00   1.20613813   0.01981610
6468.00   1.20423317   0.01985085
6470.00   1.20573902   0.01983272
6472.00   1.21354246   0.01975036
6474.00   1.29573202   0.01963839
6476.00   1.29040945   0.01950753
6478.00   1.29221213   0.01943811
6480.00   1.29714906   0.01942014
6482.00   1.21655941   0.01941888
6484.00   1.21787465   0.01941915
6486.00   1.22013927   0.01931285
6488.00   1.29569912   0.01962708
6490.00   1.29188752   0.01883869
6492.00   1.22353959   0.01897018
6494.00   1.23103130   0.01918883
6496.00   1.23428941   0.01935079
6498.00   1.23297882   0.01947237
6500.00   1.23099077   0.02021999
6502.00   1.23426747   0.02012603
6504.00   1.31263828   0.02004857
6506.00   1.31160510   0.01993919
6508.00   1.23876119   0.01987774
6510.00   1.25532627   0.01985917
6512.00   1.25625408   0.01976638
6514.00   1.23552251   0.01954277
6516.00   1.23152757   0.01950912
6518.00   1.23847878   0.01957134
6520.00   1.23968816   0.01959258
6522.00   1.22128189   0.01951857
6524.00   1.22916007   0.01956959
6526.00   1.24358964   0.01971666
6528.00   1.25413847   0.01987938
6530.00   1.25539327   0.01997425
6532.00   1.32904208   0.01995395
6534.00   1.23220432   0.01992914
6536.00   1.23542356   0.01993625
6538.00   1.24843013   0.01994372
6540.00   1.25641179   0.01990182
6542.00   1.24609756   0.01986609
6544.00   1.25226998   0.01993269
6546.00   1.25297499   0.02002406
6548.00   1.24627376   0.02009063
6550.00   1.24415898   0.02013295
6552.00   1.23599362   0.02012774
6554.00   1.23674357   0.02010606
6556.00   1.23893332   0.02022306
6558.00   1.23741508   0.02047312
6560.00   1.32292426   0.02070502
6562.00   1.22809863   0.02075288
6564.00   1.24637830   0.02085626
6566.00   1.25634885   0.02080428
6568.00   1.24269462   0.02048475
6570.00   1.22996402   0.02001647
6572.00   1.22955990   0.01987293
6574.00   1.22063088   0.01984570
6576.00   1.21684027   0.01990589
6578.00   1.22774744   0.02005990
6580.00   1.23501658   0.02029448
6582.00   1.24332333   0.02037764
6584.00   1.23616767   0.02029765
6586.00   1.21986747   0.02012071
6588.00   1.21164060   0.01993701
6590.00   1.23184574   0.01979174
6592.00   1.31377757   0.01965078
6594.00   1.30451393   0.01956430
6596.00   1.21005189   0.01952780
6598.00   1.20453191   0.01950520
6600.00   1.20102847   0.01948532
6602.00   1.20311809   0.01955056
6604.00   1.20507610   0.01957536
6606.00   1.20428884   0.01950216
6608.00   1.27347279   0.01934996
6610.00   1.25695527   0.01919628
6612.00   1.26038253   0.01916141
6614.00   1.26191795   0.01913795
6616.00   1.25043476   0.01906303
6618.00   1.23296511   0.01895701
6620.00   1.23741853   0.01897446
6622.00   1.15311098   0.01904284
6624.00   1.15023613   0.01906303
6626.00   1.14080524   0.01900842
6628.00   1.13590789   0.01897635
6630.00   1.14721775   0.01900584
6632.00   1.14523780   0.01899405
6634.00   1.13799095   0.01893001
6636.00   1.21144211   0.01886166
6638.00   1.12663293   0.01882144
6640.00   1.11033440   0.01877289
6642.00   1.11174250   0.01873977
6644.00   1.20854938   0.01875468
6646.00   1.21591043   0.01878919
6648.00   1.20545733   0.01872719
6650.00   1.11622274   0.01867476
6652.00   1.11494589   0.01868002
6654.00   1.12004185   0.01868640
6656.00   1.19402778   0.01861559
6658.00   1.17740214   0.01855424
6660.00   1.17462015   0.01855605
6662.00   1.17460620   0.01855175
6664.00   1.17624867   0.01855041
6666.00   1.18304110   0.01859066
6668.00   1.18670714   0.01859170
6670.00   1.17766893   0.01852121
6672.00   1.17212641   0.01847568
6674.00   1.09340978   0.01847286
6676.00   1.16567063   0.01843919
6678.00   1.16078818   0.01839022
6680.00   1.16300642   0.01837316
6682.00   1.15842950   0.01832014
6684.00   1.14403832   0.01822015
6686.00   1.14134169   0.01817835
6688.00   1.14287567   0.01818243
6690.00   1.14132702   0.01816879
6692.00   1.13947928   0.01813758
6694.00   1.13921702   0.01810158
6696.00   1.13334358   0.01805088
6698.00   1.13342869   0.01805621
6700.00   1.05889654   0.01808559
6702.00   1.12475204   0.01810445
6704.00   1.10943067   0.01809984
6706.00   1.09993196   0.01809021
6708.00   1.01917005   0.01810172
6710.00   1.01719570   0.01815353
6712.00   1.02296376   0.01824245
6714.00   1.03053856   0.01830909
6716.00   1.01879525   0.01819920
6718.00   1.00413382   0.01803747
6720.00   1.06831229   0.01786704
6722.00   1.06733763   0.01769870
6724.00   1.06312716   0.01752405
6726.00   1.06250453   0.01752144
6728.00   1.06440401   0.01758815
6730.00   1.06609404   0.01763095
6732.00   1.06140590   0.01758510
6734.00   1.04280198   0.01743086
6736.00   1.02746201   0.01723099
6738.00   1.02994382   0.01714613
6740.00   1.03739965   0.01712644
6742.00   1.03482294   0.01707594
6744.00   1.02068079   0.01694363
6746.00   1.01934969   0.01688892
6748.00   1.01794004   0.01684557
6750.00   1.01096439   0.01677393
6752.00   0.99968004   0.01666975
6754.00   0.93203831   0.01664864
6756.00   1.00288022   0.01664682
6758.00   0.99959308   0.01661565
6760.00   0.99158412   0.01654820
6762.00   0.98680925   0.01648284
6764.00   0.98467398   0.01644568
6766.00   0.97924596   0.01640994
6768.00   0.97257662   0.01635065
6770.00   0.96653390   0.01626878
6772.00   0.95965338   0.01618318
6774.00   0.96269059   0.01622248
6776.00   0.96883315   0.01624577
6778.00   0.96393776   0.01619603
6780.00   0.95121193   0.01611530
6782.00   0.95092076   0.01612016
6784.00   0.95082951   0.01609210
6786.00   0.94628197   0.01602781
6788.00   0.94282454   0.01597449
6790.00   0.93943948   0.01593222
6792.00   0.92839265   0.01585682
6794.00   0.92344910   0.01581087
6796.00   0.92533636   0.01580250
6798.00   0.92318374   0.01577116
6800.00   0.91319770   0.01570002
6802.00   0.91107416   0.01566753
6804.00   0.91142637   0.01566598
6806.00   0.90627527   0.01563107
6808.00   0.89890951   0.01557690
6810.00   0.89675140   0.01554484
6812.00   0.89299315   0.01549450
6814.00   0.88846892   0.01546475
6816.00   0.88214016   0.01542686
6818.00   0.87943846   0.01540648
6820.00   0.88335544   0.01544243
6822.00   0.87844282   0.01554058
6824.00   0.86371881   0.01568803
6826.00   0.84824318   0.01588324
6828.00   0.84147769   0.01613542
6830.00   0.84536266   0.01641255
6832.00   0.84417534   0.01648406
6834.00   0.83973742   0.01630766
6836.00   0.84430361   0.01610822
6838.00   0.85426474   0.01594760
6840.00   0.84772891   0.01562699
6842.00   0.83890253   0.01529996
6844.00   0.83017278   0.01510796
6846.00   0.82403439   0.01501271
6848.00   0.82049578   0.01494002
6850.00   0.82018334   0.01490807
6852.00   0.81801337   0.01486775
6854.00   0.81447572   0.01484049
6856.00   0.81175083   0.01492034
6858.00   0.81102657   0.01518308
6860.00   0.80172628   0.01555689
6862.00   0.78816706   0.01588355
6864.00   0.77737015   0.01635806
6866.00   0.77497029   0.01701287
6868.00   0.78401047   0.01770714
6870.00   0.81684393   0.01812059
6872.00   0.82065827   0.01799803
6874.00   0.81387919   0.01754535
6876.00   0.80699396   0.01695564
6878.00   0.80296803   0.01639555
6880.00   0.79482549   0.01593743
6882.00   0.79236668   0.01568515
6884.00   0.79136848   0.01563611
6886.00   0.78830212   0.01572491
6888.00   0.78486365   0.01585030
6890.00   0.78106904   0.01594228
6892.00   0.78072351   0.01598985
6894.00   0.78510374   0.01598057
6896.00   0.79350781   0.01593103
6898.00   0.79555231   0.01582938
6900.00   0.78532219   0.01568278
6902.00   0.77476174   0.01552591
6904.00   0.77721477   0.01546227
6906.00   0.78982240   0.01549563
6908.00   0.78445435   0.01543579
6910.00   0.78274775   0.01544003
6912.00   0.78329897   0.01545258
6914.00   0.78349423   0.01542507
6916.00   0.77994770   0.01535522
6918.00   0.78039455   0.01539705
6920.00   0.77103382   0.01543251
6922.00   0.76774192   0.01549195
6924.00   0.76961464   0.01553119
6926.00   0.76840544   0.01547478
6928.00   0.76793081   0.01528861
6930.00   0.77033442   0.01497963
6932.00   0.76179475   0.01471869
6934.00   0.74793273   0.01464973
6936.00   0.74515051   0.01479691
6938.00   0.75883436   0.01498667
6940.00   0.75408560   0.01503917
6942.00   0.74857980   0.01512825
6944.00   0.75414103   0.01532050
6946.00   0.76473570   0.01549085
6948.00   0.74986988   0.01540056
6950.00   0.73989081   0.01535793
6952.00   0.74483746   0.01533436
6954.00   0.75713873   0.01520011
6956.00   0.75087672   0.01481487
6958.00   0.74199480   0.01456600
6960.00   0.74655885   0.01455288
6962.00   0.75414705   0.01463736
6964.00   0.75226164   0.01465052
6966.00   0.74939060   0.01461150
6968.00   0.73631644   0.01454035
6970.00   0.73252082   0.01458251
6972.00   0.73804528   0.01475552
6974.00   0.74279815   0.01496077
6976.00   0.73605186   0.01493304
6978.00   0.73238856   0.01488001
6980.00   0.73170084   0.01486844
6982.00   0.73367661   0.01486588
6984.00   0.73587990   0.01477233
6986.00   0.72741407   0.01456435
6988.00   0.72740364   0.01450630
6990.00   0.72907013   0.01451155
6992.00   0.72566050   0.01449226
6994.00   0.71554756   0.01442464
6996.00   0.70584202   0.01435683
6998.00   0.71019202   0.01438355
7000.00   0.72134471   0.01444904
7002.00   0.72677177   0.01448812
7004.00   0.71585149   0.01447124
7006.00   0.71562082   0.01459282
7008.00   0.72198802   0.01470243
7010.00   0.71229631   0.01466251
7012.00   0.67459995   0.01455310
7014.00   0.74040145   0.01489532
7016.00   0.73927820   0.01501749
7018.00   0.73985416   0.01478776
7020.00   0.66483647   0.01441477
7022.00   0.68859893   0.01422850
7024.00   0.69899607   0.01428095
7026.00   0.70782852   0.01438526
7028.00   0.71513176   0.01448850
7030.00   0.71748972   0.01452678
7032.00   0.71193522   0.01446411
7034.00   0.70382118   0.01433534
7036.00   0.70411783   0.01432680
7038.00   0.70919317   0.01436561
7040.00   0.71189547   0.01439354
7042.00   0.70532227   0.01439247
7044.00   0.70661968   0.01451666
7046.00   0.70656580   0.01461641
7048.00   0.70856476   0.01468109
7050.00   0.70841306   0.01468800
7052.00   0.69945699   0.01462305
7054.00   0.70595837   0.01456134
7056.00   0.71490091   0.01453501
7058.00   0.71503752   0.01449327
7060.00   0.70449156   0.01442744
7062.00   0.70116663   0.01445770
7064.00   0.70101213   0.01450393
7066.00   0.70451993   0.01455575
7068.00   0.70694715   0.01458152
7070.00   0.70390606   0.01455490
7072.00   0.69755262   0.01447790
7074.00   0.69480634   0.01442868
7076.00   0.68860692   0.01436419
7078.00   0.68670201   0.01436083
7080.00   0.69521374   0.01446367
7082.00   0.69868058   0.01450556
7084.00   0.69435143   0.01453177
7086.00   0.69145948   0.01454917
7088.00   0.68885309   0.01451714
7090.00   0.68314439   0.01441665
7092.00   0.68528014   0.01438789
7094.00   0.68909603   0.01436130
7096.00   0.69036269   0.01430514
7098.00   0.68776226   0.01422162
7100.00   0.68279463   0.01414269
7102.00   0.67581081   0.01408810
7104.00   0.68282479   0.01413446
7106.00   0.68957996   0.01418954
7108.00   0.68750668   0.01420684
7110.00   0.68193722   0.01422879
7112.00   0.69129395   0.01426869
7114.00   0.69004321   0.01421163
7116.00   0.68043154   0.01412161
7118.00   0.67374563   0.01410254
7120.00   0.68827754   0.01426255
7122.00   0.69391280   0.01435386
7124.00   0.68726784   0.01433429
7126.00   0.68407488   0.01432336
7128.00   0.69503236   0.01441872
7130.00   0.69930834   0.01450072
7132.00   0.69315195   0.01444409
7134.00   0.69046038   0.01434277
7136.00   0.69131297   0.01428441
7138.00   0.69036609   0.01433326
7140.00   0.69165927   0.01448227
7142.00   0.69953960   0.01457836
7144.00   0.70246738   0.01459803
7146.00   0.69761753   0.01455608
7148.00   0.68851548   0.01447109
7150.00   0.68856925   0.01440480
7152.00   0.69700122   0.01441215
7154.00   0.70457917   0.01441265
7156.00   0.70712346   0.01439353
7158.00   0.70824987   0.01444015
7160.00   0.70934671   0.01452366
7162.00   0.70190662   0.01453436
7164.00   0.69513249   0.01456282
7166.00   0.69607347   0.01467813
7168.00   0.70327449   0.01484534
7170.00   0.70342618   0.01498599
7172.00   0.70118141   0.01511426
7174.00   0.70051146   0.01522971
7176.00   0.70561081   0.01534237
7178.00   0.72000217   0.01547571
7180.00   0.71729451   0.01544282
7182.00   0.71222013   0.01544931
7184.00   0.71407628   0.01555748
7186.00   0.72476679   0.01571267
7188.00   0.72295159   0.01567994
7190.00   0.71736413   0.01557975
7192.00   0.70956945   0.01542792
7194.00   0.70601875   0.01530169
7196.00   0.71026188   0.01528014
7198.00   0.71088153   0.01529977
7200.00   0.70258832   0.01527412
7202.00   0.70317382   0.01529513
7204.00   0.70923251   0.01530890
7206.00   0.70269918   0.01516059
7208.00   0.69200534   0.01487063
7210.00   0.69970888   0.01472930
7212.00   0.70773393   0.01463887
7214.00   0.70621425   0.01452205
7216.00   0.70419341   0.01441965
7218.00   0.70887440   0.01447512
7220.00   0.70368141   0.01447737
7222.00   0.69150496   0.01441872
7224.00   0.68179154   0.01436332
7226.00   0.68239909   0.01438875
7228.00   0.68116730   0.01446188
7230.00   0.68175000   0.01464571
7232.00   0.69136304   0.01508811
7234.00   0.70612073   0.01583051
7236.00   0.69673795   0.01668013
7238.00   0.67746001   0.01741400
7240.00   0.67559749   0.01822725
7242.00   0.68930435   0.01888344
7244.00   0.70064241   0.01900485
7246.00   0.70050615   0.01832618
7248.00   0.68697125   0.01751591
7250.00   0.68126863   0.01677208
7252.00   0.69164258   0.01619544
7254.00   0.70926350   0.01578166
7256.00   0.69294810   0.01542696
7258.00   0.68202561   0.01509345
7260.00   0.68662935   0.01492841
7262.00   0.69925356   0.01492956
7264.00   0.70054275   0.01493690
7266.00   0.69412518   0.01485215
7268.00   0.70100260   0.01503022
7270.00   0.70379180   0.01567739
7272.00   0.69375163   0.01669103
7274.00   0.68234825   0.01767620
7276.00   0.69875306   0.01814255
7278.00   0.70625609   0.01830442
7280.00   0.71027374   0.01807919
7282.00   0.71817684   0.01740421
7284.00   0.72063279   0.01637929
7286.00   0.69807166   0.01589632
7288.00   0.69438529   0.01577012
7290.00   0.70109135   0.01567603
7292.00   0.70251626   0.01540560
7294.00   0.72043610   0.01521855
7296.00   0.70630836   0.01523506
7298.00   0.69183809   0.01558150
7300.00   0.72329807   0.01507835
7302.00   0.66955268   0.01608199
7304.00   0.67244953   0.01582996
7306.00   0.70442533   0.01537454
7308.00   0.68293220   0.01517326
7310.00   0.70002526   0.01544903
7312.00   0.70909756   0.01617842
7314.00   0.71159381   0.01680937
7316.00   0.71429372   0.01695317
7318.00   0.71678776   0.01681317
7320.00   0.71834993   0.01645747
7322.00   0.71796578   0.01573413
7324.00   0.73297167   0.01524330
7326.00   0.72614986   0.01517735
7328.00   0.71236807   0.01523612
7330.00   0.70679551   0.01518860
7332.00   0.70399636   0.01514693
7334.00   0.70522881   0.01529070
7336.00   0.70574427   0.01577936
7338.00   0.70819646   0.01635167
7340.00   0.71574974   0.01670966
7342.00   0.72012949   0.01673921
7344.00   0.71042043   0.01655640
7346.00   0.71362489   0.01595474
7348.00   0.72378135   0.01512924
7350.00   0.72751570   0.01453422
7352.00   0.72991323   0.01460592
7354.00   0.72640091   0.01486129
7356.00   0.71667671   0.01502092
7358.00   0.71078759   0.01505122
7360.00   0.72017688   0.01509427
7362.00   0.72233754   0.01523507
7364.00   0.71525407   0.01549862
7366.00   0.70977265   0.01577899
7368.00   0.71196055   0.01598885
7370.00   0.72020119   0.01607609
7372.00   0.71797919   0.01596225
7374.00   0.71411973   0.01548322
7376.00   0.71773058   0.01486976
7378.00   0.72901040   0.01441899
7380.00   0.73273927   0.01429664
7382.00   0.72726035   0.01418271
7384.00   0.72062284   0.01416027
7386.00   0.71978408   0.01429506
7388.00   0.72348547   0.01453508
7390.00   0.72185040   0.01469196
7392.00   0.71313006   0.01469838
7394.00   0.71383047   0.01475736
7396.00   0.71657133   0.01493499
7398.00   0.71045369   0.01516021
7400.00   0.70106840   0.01517850
7402.00   0.69763607   0.01514256
7404.00   0.69862348   0.01509441
7406.00   0.69913775   0.01487760
7408.00   0.69641203   0.01435099
7410.00   0.69380766   0.01389000
7412.00   0.68952590   0.01371324
7414.00   0.69507951   0.01373477
7416.00   0.70306063   0.01379817
7418.00   0.69863015   0.01377692
7420.00   0.69840342   0.01373054
7422.00   0.69819385   0.01372155
7424.00   0.69026542   0.01374775
7426.00   0.67779285   0.01379963
7428.00   0.67657906   0.01388529
7430.00   0.68068838   0.01392863
7432.00   0.68188328   0.01405668
7434.00   0.68142468   0.01422499
7436.00   0.68337637   0.01434769
7438.00   0.68973732   0.01434633
7440.00   0.68939525   0.01427225
7442.00   0.68083835   0.01411065
7444.00   0.67372537   0.01386552
7446.00   0.67438382   0.01359262
7448.00   0.66283065   0.01337976
7450.00   0.66941518   0.01337554
7452.00   0.67281061   0.01340949
7454.00   0.66942352   0.01340206
7456.00   0.66421086   0.01336342
7458.00   0.66501600   0.01342257
7460.00   0.66921502   0.01354145
7462.00   0.67270547   0.01367208
7464.00   0.67188811   0.01377228
7466.00   0.66786891   0.01384468
7468.00   0.66174144   0.01396841
7470.00   0.65828592   0.01409300
7472.00   0.65968645   0.01418236
7474.00   0.66246551   0.01424495
7476.00   0.65919924   0.01431251
7478.00   0.65099198   0.01433670
7480.00   0.65024889   0.01435861
7482.00   0.65183473   0.01433096
7484.00   0.65390950   0.01422822
7486.00   0.65869814   0.01406439
7488.00   0.66224813   0.01387578
7490.00   0.65824866   0.01365460
7492.00   0.65339440   0.01348848
7494.00   0.65479463   0.01344396
7496.00   0.66624767   0.01352636
7498.00   0.66950703   0.01351873
7500.00   0.66368717   0.01341233
7502.00   0.65929675   0.01331871
7504.00   0.66503644   0.01333417
7506.00   0.66450387   0.01332256
7508.00   0.66103876   0.01329261
7510.00   0.66201824   0.01331917
7512.00   0.66355008   0.01337552
7514.00   0.65998465   0.01342150
7516.00   0.66385919   0.01353649
7518.00   0.66265863   0.01398680
7520.00   0.65896660   0.01453425
7522.00   0.65854841   0.01494141
7524.00   0.66378635   0.01506770
7526.00   0.66158175   0.01517623
7528.00   0.66330051   0.01501817
7530.00   0.66784114   0.01457860
7532.00   0.66775769   0.01404109
7534.00   0.65618515   0.01374996
7536.00   0.65969938   0.01365457
7538.00   0.66817015   0.01357930
7540.00   0.66867024   0.01349397
7542.00   0.66141993   0.01342373
7544.00   0.65861630   0.01338006
7546.00   0.65913343   0.01334900
7548.00   0.66069776   0.01332069
7550.00   0.66049719   0.01332245
7552.00   0.65568936   0.01336551
7554.00   0.65286827   0.01347685
7556.00   0.65664446   0.01361477
7558.00   0.66002196   0.01364601
7560.00   0.66057020   0.01368471
7562.00   0.65937001   0.01385764
7564.00   0.66087484   0.01381614
7566.00   0.65940189   0.01399997
7568.00   0.66264409   0.01456342
7570.00   0.67027903   0.01503727
7572.00   0.67554146   0.01482396
7574.00   0.65104264   0.01459401
7576.00   0.64220256   0.01432237
7578.00   0.64391780   0.01393742
7580.00   0.64893025   0.01358880
7582.00   0.65410584   0.01358966
7584.00   0.66128367   0.01374486
7586.00   0.66063297   0.01377631
7588.00   0.65410799   0.01384720
7590.00   0.64521116   0.01415293
7592.00   0.63404864   0.01480074
7594.00   0.64226013   0.01632528
7596.00   0.64859867   0.01894762
7598.00   0.63728958   0.02201884
7600.00   0.60855812   0.02501684
7602.00   0.58358139   0.02773783
7604.00   0.58904082   0.02909289
7606.00   0.60583311   0.02894644
7608.00   0.61042207   0.02727168
7610.00   0.59748298   0.02441034
7612.00   0.61823654   0.02181797
7614.00   0.63123918   0.01974831
7616.00   0.63758504   0.01821561
7618.00   0.63704091   0.01724931
7620.00   0.63029861   0.01688449
7622.00   0.62353998   0.01717901
7624.00   0.61220032   0.01807294
7626.00   0.60245115   0.01909062
7628.00   0.59715945   0.01982121
7630.00   0.59790760   0.02001636
7632.00   0.60332638   0.01966608
7634.00   0.60538989   0.01906168
7636.00   0.60927534   0.01842721
7638.00   0.61070210   0.01784979
7640.00   0.60599488   0.01734238
7642.00   0.60833412   0.01708336
7644.00   0.60928339   0.01680175
7646.00   0.60672033   0.01645091
7648.00   0.60298580   0.01608658
7650.00   0.60527802   0.01582773
7652.00   0.61136413   0.01563195
7654.00   0.61497688   0.01549501
7656.00   0.61805898   0.01542166
7658.00   0.62037563   0.01536427
7660.00   0.61525041   0.01518492
7662.00   0.59175426   0.01479236
7664.00   0.58107728   0.01448489
7666.00   0.58114702   0.01426212
7668.00   0.58291161   0.01402478
7670.00   0.59422070   0.01376761
7672.00   0.60072845   0.01360533
7674.00   0.60212851   0.01351322
7676.00   0.60197663   0.01347192
7678.00   0.60381222   0.01345962
7680.00   0.60255271   0.01339149
7682.00   0.60378426   0.01341564
7684.00   0.60163325   0.01345201
7686.00   0.59579450   0.01344817
7688.00   0.59182811   0.01340907
7690.00   0.59854579   0.01350611
7692.00   0.59879726   0.01362384
7694.00   0.59250408   0.01370270
7696.00   0.58566689   0.01373012
7698.00   0.58477414   0.01372574
7700.00   0.58034474   0.01368718
7702.00   0.57947332   0.01356604
7704.00   0.58518726   0.01364542
7706.00   0.59575319   0.01408332
7708.00   0.60560662   0.01488886
7710.00   0.60160679   0.01565316
7712.00   0.58627862   0.01689542
7714.00   0.57429391   0.01776380
7716.00   0.57898945   0.01778195
7718.00   0.60475862   0.01725887
7720.00   0.59027284   0.01649920
7722.00   0.58194637   0.01561488
7724.00   0.58364421   0.01479379
7726.00   0.58328652   0.01420952
7728.00   0.58137947   0.01400893
7730.00   0.58637434   0.01388558
7732.00   0.58487016   0.01365471
7734.00   0.57885969   0.01339917
7736.00   0.57969612   0.01334971
7738.00   0.59109759   0.01347184
7740.00   0.58323187   0.01334054
7742.00   0.58016092   0.01338584
7744.00   0.58515996   0.01400859
7746.00   0.58001065   0.01526439
7748.00   0.58154440   0.01626974
7750.00   0.58649564   0.01670997
7752.00   0.58497882   0.01685227
7754.00   0.57667482   0.01675103
7756.00   0.57557768   0.01612133
7758.00   0.56197095   0.01507877
7760.00   0.56460047   0.01451186
7762.00   0.57640475   0.01437599
7764.00   0.58552521   0.01429369
7766.00   0.58768636   0.01391366
7768.00   0.59087157   0.01368917
7770.00   0.58264691   0.01358571
7772.00   0.57621896   0.01363121
7774.00   0.58453161   0.01385055
7776.00   0.60015661   0.01430689
7778.00   0.59871548   0.01441818
7780.00   0.58840674   0.01424918
7782.00   0.57749701   0.01401514
7784.00   0.57468539   0.01395521
7786.00   0.58738708   0.01396153
7788.00   0.58887464   0.01438671
7790.00   0.58017689   0.01514493
7792.00   0.57662493   0.01586728
7794.00   0.59237361   0.01615420
7796.00   0.59337682   0.01615923
7798.00   0.59268206   0.01567587
7800.00   0.59685892   0.01484821
7802.00   0.60428202   0.01413145
7804.00   0.60422778   0.01416498
7806.00   0.60008532   0.01448684
7808.00   0.59452945   0.01466878
7810.00   0.58872467   0.01464575
7812.00   0.58626217   0.01451180
7814.00   0.59324670   0.01446154
7816.00   0.59936005   0.01509343
7818.00   0.59238714   0.01596568
7820.00   0.59155273   0.01665313
7822.00   0.60351676   0.01689654
7824.00   0.59672475   0.01673363
7826.00   0.58567494   0.01597772
7828.00   0.59482676   0.01488620
7830.00   0.60609072   0.01391433
7832.00   0.59882301   0.01350414
7834.00   0.60685354   0.01365041
7836.00   0.61076099   0.01402789
7838.00   0.60916644   0.01436794
7840.00   0.60786402   0.01457139
7842.00   0.61388868   0.01468043
7844.00   0.62113261   0.01478597
7846.00   0.62574464   0.01503556
7848.00   0.61661077   0.01566599
7850.00   0.60222977   0.01652397
7852.00   0.60355657   0.01721951
7854.00   0.61293238   0.01763178
7856.00   0.60501474   0.01776647
7858.00   0.60870749   0.01736668
7860.00   0.62560195   0.01650521
7862.00   0.62274241   0.01574620
7864.00   0.62311053   0.01568813
7866.00   0.62850791   0.01579223
7868.00   0.63034636   0.01585598
7870.00   0.62030071   0.01581082
7872.00   0.60455471   0.01569191
7874.00   0.61504489   0.01578104
7876.00   0.62514502   0.01571432
7878.00   0.62063289   0.01548562
7880.00   0.60568810   0.01528069
7882.00   0.60905409   0.01538097
7884.00   0.62586969   0.01569853
7886.00   0.63290077   0.01601854
7888.00   0.63074225   0.01621231
7890.00   0.63089269   0.01624598
7892.00   0.63259226   0.01621952
7894.00   0.63153738   0.01582517
7896.00   0.62722307   0.01511352
7898.00   0.62119383   0.01438465
7900.00   0.61559445   0.01403715
7902.00   0.62420756   0.01403262
7904.00   0.61975640   0.01394395
7906.00   0.62743521   0.01442065
7908.00   0.64133865   0.01564254
7910.00   0.62847966   0.01716481
7912.00   0.62453586   0.01795962
7914.00   0.62483603   0.01845789
7916.00   0.61848724   0.01869316
7918.00   0.61241865   0.01851141
7920.00   0.63657576   0.01760344
7922.00   0.63375437   0.01662003
7924.00   0.62548643   0.01607018
7926.00   0.62174791   0.01584770
7928.00   0.62471807   0.01568529
7930.00   0.61977440   0.01545338
7932.00   0.62734175   0.01541988
7934.00   0.63732016   0.01536727
7936.00   0.64581805   0.01512139
7938.00   0.64972585   0.01464516
7940.00   0.65162545   0.01426753
7942.00   0.63993788   0.01419048
7944.00   0.63141465   0.01439962
7946.00   0.63445050   0.01474461
7948.00   0.64700359   0.01502640
7950.00   0.64902782   0.01510272
7952.00   0.63890880   0.01493853
7954.00   0.63036269   0.01454598
7956.00   0.63090330   0.01425609
7958.00   0.64013809   0.01460233
7960.00   0.64291912   0.01573972
7962.00   0.64288712   0.01669145
7964.00   0.64614773   0.01724264
7966.00   0.65000075   0.01735091
7968.00   0.64246362   0.01704208
7970.00   0.63215059   0.01606262
7972.00   0.63802356   0.01525604
7974.00   0.64955354   0.01504579
7976.00   0.65450078   0.01533961
7978.00   0.64731646   0.01548468
7980.00   0.64354777   0.01548062
7982.00   0.64095587   0.01531976
7984.00   0.64204460   0.01506281
7986.00   0.64567590   0.01494684
7988.00   0.64735770   0.01555446
7990.00   0.63406092   0.01650590
7992.00   0.63480717   0.01718986
7994.00   0.64249128   0.01745879
7996.00   0.64164907   0.01733089
7998.00   0.64436364   0.01660970
8000.00   0.64806241   0.01541471
8002.00   0.63402432   0.01436137
8004.00   0.61671978   0.01384233
8006.00   0.62358248   0.01387099
8008.00   0.63340926   0.01418520
8010.00   0.63376653   0.01454245
8012.00   0.63463646   0.01480494
8014.00   0.64006567   0.01495992
8016.00   0.64532351   0.01508269
8018.00   0.64583135   0.01513469
8020.00   0.63640684   0.01538170
8022.00   0.62567925   0.01583967
8024.00   0.61944824   0.01629483
8026.00   0.61888468   0.01639197
8028.00   0.62472266   0.01641609
8030.00   0.62208420   0.01603683
8032.00   0.61319453   0.01522265
8034.00   0.60914207   0.01427545
8036.00   0.62672633   0.01401230
8038.00   0.63423222   0.01385314
8040.00   0.62935507   0.01371741
8042.00   0.62321734   0.01366471
8044.00   0.62512732   0.01375674
8046.00   0.62869275   0.01387395
8048.00   0.63116431   0.01409602
8050.00   0.63168234   0.01425273
8052.00   0.63008028   0.01428486
8054.00   0.62434894   0.01422462
8056.00   0.61884493   0.01428772
8058.00   0.61364716   0.01450443
8060.00   0.61153275   0.01471509
8062.00   0.61204463   0.01481821
8064.00   0.60898405   0.01476675
8066.00   0.60450333   0.01454021
8068.00   0.60291719   0.01407937
8070.00   0.60079795   0.01362577
8072.00   0.59593910   0.01336508
8074.00   0.59149545   0.01332369
8076.00   0.59670061   0.01335141
8078.00   0.60741764   0.01350215
8080.00   0.61464322   0.01360609
8082.00   0.61137122   0.01354439
8084.00   0.59939045   0.01337310
8086.00   0.59733993   0.01336693
8088.00   0.60307026   0.01347965
8090.00   0.60579014   0.01356826
8092.00   0.59923720   0.01354085
8094.00   0.59109575   0.01346545
8096.00   0.58970803   0.01354094
8098.00   0.59290916   0.01368278
8100.00   0.59209567   0.01378786
8102.00   0.58225113   0.01379890
8104.00   0.57531643   0.01378217
8106.00   0.58349085   0.01376097
8108.00   0.58658385   0.01365503
8110.00   0.57979131   0.01347560
8112.00   0.57072979   0.01330302
8114.00   0.57865965   0.01329784
8116.00   0.58900523   0.01336288
8118.00   0.59075975   0.01335731
8120.00   0.58709532   0.01329304
8122.00   0.58960104   0.01329646
8124.00   0.59850973   0.01342363
8126.00   0.60081762   0.01352997
8128.00   0.59650719   0.01356741
8130.00   0.58648491   0.01352704
8132.00   0.57327336   0.01346327
8134.00   0.56738198   0.01351836
8136.00   0.56814128   0.01362097
8138.00   0.56990594   0.01369803
8140.00   0.57032984   0.01375061
8142.00   0.57014090   0.01384382
8144.00   0.57437807   0.01395178
8146.00   0.58090603   0.01405177
8148.00   0.58386987   0.01413149
8150.00   0.57909667   0.01413518
8152.00   0.57469207   0.01393889
8154.00   0.57458276   0.01384324
8156.00   0.57878536   0.01394023
8158.00   0.58348531   0.01411496
8160.00   0.58533311   0.01421024
8162.00   0.58950144   0.01428956
8164.00   0.58957142   0.01438235
8166.00   0.58507109   0.01437784
8168.00   0.57943082   0.01428729
8170.00   0.57992643   0.01424130
8172.00   0.59314603   0.01442941
8174.00   0.59936780   0.01472158
8176.00   0.59434682   0.01512252
8178.00   0.58451325   0.01568318
8180.00   0.58334261   0.01643239
8182.00   0.58666253   0.01699227
8184.00   0.58246881   0.01726842
8186.00   0.57727200   0.01737873
8188.00   0.57714635   0.01746284
8190.00   0.58222479   0.01761363
8192.00   0.58029872   0.01781347
8194.00   0.58220142   0.01801296
8196.00   0.57781982   0.01800433
8198.00   0.56414312   0.01761711
8200.00   0.55151612   0.01676353
8202.00   0.55961007   0.01590327
8204.00   0.56444198   0.01526795
8206.00   0.56201720   0.01484158
8208.00   0.55481863   0.01448128
8210.00   0.54977888   0.01419775
8212.00   0.54385930   0.01393764
8214.00   0.53509039   0.01370441
8216.00   0.52886719   0.01353392
8218.00   0.52984339   0.01346538
8220.00   0.52583402   0.01347711
8222.00   0.52035660   0.01360421
8224.00   0.51643282   0.01378578
8226.00   0.50964832   0.01393723
8228.00   0.49521413   0.01398614
8230.00   0.48274460   0.01382480
8232.00   0.47949657   0.01356792
8234.00   0.48510680   0.01328594
8236.00   0.49216187   0.01303810
8238.00   0.48754740   0.01284818
8240.00   0.47384802   0.01263499
8242.00   0.45890412   0.01244384
8244.00   0.45510352   0.01238710
8246.00   0.46291974   0.01246057
8248.00   0.46616229   0.01247558
8250.00   0.46171811   0.01240428
8252.00   0.45168066   0.01228633
8254.00   0.43734169   0.01215390
8256.00   0.42459998   0.01205608
8258.00   0.43029332   0.01210307
8260.00   0.42953095   0.01202163
8262.00   0.41824552   0.01183325
8264.00   0.40827647   0.01168092
8266.00   0.41098705   0.01169511
8268.00   0.40941393   0.01175010
8270.00   0.40457168   0.01183276
8272.00   0.40587091   0.01215653
8274.00   0.40986624   0.01282038
8276.00   0.40810156   0.01375003
8278.00   0.40104628   0.01458351
8280.00   0.40198898   0.01522178
8282.00   0.40948936   0.01589717
8284.00   0.42016765   0.01654424
8286.00   0.42793691   0.01684698
8288.00   0.43746868   0.01662890
8290.00   0.43447420   0.01640735
8292.00   0.42427054   0.01632863
8294.00   0.41696557   0.01637782
8296.00   0.42421401   0.01643060
8298.00   0.42283091   0.01647931
8300.00   0.41393426   0.01635937
8302.00   0.40813079   0.01586237
8304.00   0.41197988   0.01496390
8306.00   0.41657636   0.01400608
8308.00   0.41424128   0.01348806
8310.00   0.41322580   0.01325566
8312.00   0.41664425   0.01319734
8314.00   0.42272750   0.01317361
8316.00   0.42946902   0.01301457
8318.00   0.42846325   0.01274160
8320.00   0.42177477   0.01245557
8322.00   0.41755614   0.01223320
8324.00   0.42565981   0.01212031
8326.00   0.43129086   0.01201355
8328.00   0.43734393   0.01196484
8330.00   0.43875250   0.01196364
8332.00   0.43550134   0.01202092
8334.00   0.43477854   0.01220504
8336.00   0.48663393   0.01305302
8338.00   0.41662592   0.01487096
8340.00   0.47795904   0.01712385
8342.00   0.44242954   0.01883325
8344.00   0.44475171   0.01915755
8346.00   0.44370672   0.01945952
8348.00   0.44685647   0.01932842
8350.00   0.44503334   0.01834138
8352.00   0.43372142   0.01665342
8354.00   0.42211786   0.01552073
8356.00   0.42071179   0.01491319
8358.00   0.42315245   0.01427236
8360.00   0.42488733   0.01365405
8362.00   0.42460358   0.01329353
8364.00   0.42387938   0.01320623
8366.00   0.43096352   0.01317914
8368.00   0.42937323   0.01296307
8370.00   0.41961336   0.01254675
8372.00   0.40971720   0.01209935
8374.00   0.41696891   0.01199067
8376.00   0.41730392   0.01238697
8378.00   0.40937412   0.01296384
8380.00   0.39549837   0.01338974
8382.00   0.38264453   0.01347431
8384.00   0.38554892   0.01346583
8386.00   0.39178482   0.01327378
8388.00   0.39044619   0.01269919
8390.00   0.38747671   0.01217100
8392.00   0.39961812   0.01264637
8394.00   0.40022960   0.01429680
8396.00   0.39798561   0.01578316
8398.00   0.40516886   0.01678023
8400.00   0.42080450   0.01720365
8402.00   0.42397535   0.01705157
8404.00   0.43143812   0.01597358
8406.00   0.44049489   0.01441987
8408.00   0.44404030   0.01331216
8410.00   0.43961081   0.01327886
8412.00   0.43862215   0.01380255
8414.00   0.44451347   0.01409578
8416.00   0.45246017   0.01427506
8418.00   0.46066388   0.01423319
8420.00   0.46716616   0.01393787
8422.00   0.46637121   0.01358328
8424.00   0.46380797   0.01448248
8426.00   0.46611437   0.01610423
8428.00   0.47553292   0.01752421
8430.00   0.48800686   0.01811622
8432.00   0.49155700   0.01821691
8434.00   0.49534526   0.01752297
8436.00   0.49890146   0.01604851
8438.00   0.49768901   0.01428902
8440.00   0.49072930   0.01317321
8442.00   0.50215447   0.01280544
8444.00   0.50910360   0.01275100
8446.00   0.51066071   0.01307968
8448.00   0.51079947   0.01367193
8450.00   0.51424760   0.01420321
8452.00   0.51643491   0.01443422
8454.00   0.52352959   0.01448785
8456.00   0.53183150   0.01439023
8458.00   0.53357148   0.01438632
8460.00   0.52303010   0.01498497
8462.00   0.52373558   0.01599611
8464.00   0.54073715   0.01673335
8466.00   0.55341595   0.01705434
8468.00   0.54892784   0.01691133
8470.00   0.54296523   0.01611153
8472.00   0.55828160   0.01495469
8474.00   0.56969613   0.01402597
8476.00   0.57136363   0.01350209
8478.00   0.56866539   0.01325186
8480.00   0.56448299   0.01305547
8482.00   0.57126975   0.01299632
8484.00   0.57895589   0.01301283
8486.00   0.58275086   0.01316370
8488.00   0.58123595   0.01351334
8490.00   0.58815378   0.01400263
8492.00   0.59205937   0.01429303
8494.00   0.60080439   0.01445237
8496.00   0.60790253   0.01455089
8498.00   0.60446382   0.01468994
8500.00   0.60500097   0.01510791
8502.00   0.61639243   0.01555266
8504.00   0.62570029   0.01582866
8506.00   0.62720388   0.01585972
8508.00   0.62633133   0.01567858
8510.00   0.63322306   0.01507712
8512.00   0.63140541   0.01434543
8514.00   0.63186264   0.01382690
8516.00   0.64202386   0.01368189
8518.00   0.65342528   0.01371067
8520.00   0.65661055   0.01366535
8522.00   0.65941054   0.01365941
8524.00   0.66475439   0.01369222
8526.00   0.67333317   0.01373917
8528.00   0.68451649   0.01378663
8530.00   0.68698102   0.01381129
8532.00   0.68622762   0.01390505
8534.00   0.68786931   0.01407855
8536.00   0.69391227   0.01427476
8538.00   0.69932431   0.01437237
8540.00   0.70576739   0.01448070
8542.00   0.71047258   0.01463889
8544.00   0.71202832   0.01483164
8546.00   0.71200424   0.01500770
8548.00   0.71503323   0.01511656
8550.00   0.71781611   0.01514394
8552.00   0.72120124   0.01504302
8554.00   0.72584206   0.01480658
8556.00   0.73006439   0.01448119
8558.00   0.73084754   0.01426850
8560.00   0.73790079   0.01422265
8562.00   0.74641246   0.01423615
8564.00   0.75099826   0.01422957
8566.00   0.74944943   0.01420938
8568.00   0.75309777   0.01425326
8570.00   0.75637388   0.01429116
8572.00   0.76109171   0.01434462
8574.00   0.76741153   0.01442172
8576.00   0.77259666   0.01448285
8578.00   0.77319247   0.01447618
8580.00   0.77472591   0.01446563
8582.00   0.77791882   0.01450007
8584.00   0.78153127   0.01459404
8586.00   0.78554749   0.01470849
8588.00   0.78798765   0.01476590
8590.00   0.78845090   0.01482503
8592.00   0.78985757   0.01490385
8594.00   0.79663438   0.01499550
8596.00   0.80069464   0.01502935
8598.00   0.79928023   0.01500389
8600.00   0.80392003   0.01499106
8602.00   0.81383187   0.01497861
8604.00   0.81924409   0.01490999
8606.00   0.82876039   0.01496820
8608.00   0.83430654   0.01511329
8610.00   0.83779925   0.01535824
8612.00   0.83988714   0.01569338
8614.00   0.83972424   0.01608460
8616.00   0.83979845   0.01653675
8618.00   0.84030753   0.01709204
8620.00   0.84438080   0.01765767
8622.00   0.84865266   0.01816487
8624.00   0.84448504   0.01863877
8626.00   0.84438318   0.01901075
8628.00   0.84491616   0.01928040
8630.00   0.85431808   0.01943825
8632.00   0.87266922   0.01943580
8634.00   0.87562579   0.01914744
8636.00   0.87130243   0.01872824
8638.00   0.87443328   0.01821251
8640.00   0.88110119   0.01766758
8642.00   0.88413215   0.01721908
8644.00   0.89202398   0.01706914
8646.00   0.89837211   0.01717578
8648.00   0.89832097   0.01751227
8650.00   0.89680117   0.01800440
8652.00   0.90319985   0.01854638
8654.00   0.90794295   0.01896836
8656.00   0.90855294   0.01921567
8658.00   0.90649176   0.01935018
8660.00   0.90658385   0.01941263
8662.00   0.91582608   0.01941636
8664.00   0.92873448   0.01936102
8666.00   0.92769241   0.01920008
8668.00   0.92343879   0.01897898
8670.00   0.92747802   0.01875649
8672.00   0.94072109   0.01853951
8674.00   0.95004696   0.01826869
8676.00   0.94911033   0.01794333
8678.00   0.94587392   0.01762278
8680.00   0.94727105   0.01735509
8682.00   0.95470017   0.01715639
8684.00   0.95238644   0.01690229
8686.00   0.95022941   0.01663269
8688.00   0.94941360   0.01639833
8690.00   0.94995040   0.01623794
8692.00   0.95237190   0.01611682
8694.00   0.96276164   0.01605195
8696.00   0.96496278   0.01598428
8698.00   0.96006984   0.01590958
8700.00   0.95724672   0.01585693
8702.00   0.96612245   0.01589402
8704.00   0.96963769   0.01589111
8706.00   0.97064489   0.01584272
8708.00   0.97188616   0.01577795
8710.00   0.97598523   0.01574058
8712.00   0.97803813   0.01567527
8714.00   0.97787637   0.01559989
8716.00   0.97403759   0.01552825
8718.00   0.97127169   0.01548726
8720.00   0.97601962   0.01549261
8722.00   0.98179227   0.01551919
8724.00   0.98164445   0.01551186
8726.00   0.98131210   0.01549886
8728.00   0.98384744   0.01550811
8730.00   0.98430473   0.01553686
8732.00   0.98004103   0.01550683
8734.00   0.97650641   0.01546731
8736.00   0.97387546   0.01544970
8738.00   0.97503906   0.01548319
8740.00   0.99248648   0.01559708
8742.00   1.00198996   0.01566845
8744.00   1.00032461   0.01566354
8746.00   0.99503309   0.01562642
8748.00   0.99509650   0.01561896
8750.00   0.99880815   0.01562994
8752.00   0.99825382   0.01582724
8754.00   1.00844944   0.01653576
8756.00   1.02474844   0.01760014
8758.00   1.02814794   0.01862764
8760.00   1.02116811   0.01945787
8762.00   1.01254606   0.02040770
8764.00   1.00501311   0.02106388
8766.00   0.99889690   0.02117275
8768.00   0.99365979   0.02075152
8770.00   0.91524887   0.02051658
8772.00   0.99641967   0.02056618
8774.00   1.00730836   0.02065128
8776.00   1.01293409   0.02061947
8778.00   1.02014208   0.02053710
8780.00   1.01681387   0.02022614
8782.00   1.01598728   0.01943507
8784.00   1.01372766   0.01844629
8786.00   1.00929391   0.01767719
8788.00   1.00814164   0.01742295
8790.00   1.00678217   0.01733870
8792.00   1.00483704   0.01726326
8794.00   1.00223267   0.01703607
8796.00   1.00279200   0.01664568
8798.00   1.02707326   0.01643291
8800.00   1.03526247   0.01631156
8802.00   1.02789593   0.01611470
8804.00   1.01354802   0.01594483
8806.00   1.00684273   0.01598858
8808.00   1.01498377   0.01644303
8810.00   1.03121579   0.01663341
8812.00   1.02875817   0.01661361
8814.00   1.00623703   0.01641563
8816.00   0.98814774   0.01521602
8818.00   1.02437067   0.01624818
8820.00   1.01647091   0.01782218
8822.00   0.99656916   0.01977983
8824.00   0.98863381   0.02197153
8826.00   0.99528074   0.02268070
8828.00   0.97953051   0.02338100
8830.00   0.99135572   0.02353233
8832.00   0.99412590   0.02354085
8834.00   0.97706693   0.02188842
8836.00   0.97342962   0.02067825
8838.00   0.92897975   0.01969207
8840.00   0.94622666   0.01905404
8842.00   1.02440798   0.01817290
8844.00   1.02348530   0.01727875
8846.00   1.00499284   0.01688573
8848.00   0.99476820   0.01681223
8850.00   1.00118554   0.01695072
8852.00   1.02175808   0.01704231
8854.00   1.03942406   0.01741613
8856.00   0.96043479   0.01697018
8858.00   1.02321768   0.01667240
8860.00   1.02454352   0.01672060
8862.00   1.02105534   0.01708716
8864.00   1.00271285   0.01758931
8866.00   1.00527942   0.01787469
8868.00   1.00085127   0.01790316
8870.00   0.99453545   0.01776632
8872.00   0.99146962   0.01738642
8874.00   0.99052876   0.01663199
8876.00   0.97525090   0.01597297
8878.00   0.97490650   0.01626714
8880.00   0.96928602   0.01757120
8882.00   0.95955735   0.01922462
8884.00   0.97594339   0.02035462
8886.00   0.98108608   0.02090663
8888.00   0.97466683   0.02096975
8890.00   0.97862881   0.02050320
8892.00   0.99781990   0.01955123
8894.00   1.00471246   0.01830515
8896.00   1.00233638   0.01707586
8898.00   0.99363261   0.01821253
8900.00   0.99097490   0.01832886
8902.00   1.00134242   0.01833018
8904.00   0.99884742   0.01834755
8906.00   0.98765582   0.01810153
8908.00   0.96559018   0.01746795
8910.00   0.95576119   0.01686127
8912.00   0.96661299   0.01696327
8914.00   0.94357020   0.01838265
8916.00   0.95091194   0.02005807
8918.00   0.96499616   0.02120102
8920.00   0.95773077   0.02163062
8922.00   0.92395836   0.02147413
8924.00   0.93867940   0.02053288
8926.00   0.94620520   0.01902640
8928.00   0.94217700   0.01761079
8930.00   0.93159342   0.01668031
8932.00   0.92371160   0.01614639
8934.00   0.94095773   0.01596897
8936.00   0.94410247   0.01609222
8938.00   0.93524241   0.01647677
8940.00   0.92597008   0.01700106
8942.00   0.92756367   0.01746023
8944.00   0.92879361   0.01770283
8946.00   0.93264276   0.01769748
8948.00   0.93806285   0.01744598
8950.00   0.93732309   0.01726405
8952.00   0.91749603   0.01795811
8954.00   0.91705328   0.01932553
8956.00   0.92810208   0.02055860
8958.00   0.93219775   0.02141463
8960.00   0.92116910   0.02176450
8962.00   0.91644168   0.02121557
8964.00   0.91153210   0.01975408
8966.00   0.91157144   0.01827897
8968.00   0.91721529   0.01732762
8970.00   0.92257929   0.01693530
8972.00   0.90788651   0.01652115
8974.00   0.89604563   0.01621011
8976.00   0.89875597   0.01606540
8978.00   0.91464680   0.01611447
8980.00   0.93223745   0.01637629
8982.00   0.93336469   0.01697552
8984.00   0.92810583   0.01786855
8986.00   0.91270715   0.01859466
8988.00   0.88869435   0.01886117
8990.00   0.85669690   0.01856229
8992.00   0.85549897   0.01816083
8994.00   0.88257617   0.01810599
8996.00   0.91113216   0.01858263
8998.00   0.92135555   0.01939586
9000.00   0.92327380   0.02009725
9002.00   0.91629547   0.02049698
9004.00   0.90898991   0.02044729
9006.00   0.91043502   0.01977936
9008.00   0.92071801   0.01860281
9010.00   0.92078322   0.01764331
9012.00   0.92302847   0.01710683
9014.00   0.90504676   0.01660217
9016.00   0.88354653   0.01618395
9018.00   0.88100576   0.01603434
9020.00   0.89256793   0.01611298
9022.00   0.88058805   0.01593321
9024.00   0.86117142   0.01566282
9026.00   0.84938955   0.01543461
9028.00   0.85361433   0.01533161
9030.00   0.85947090   0.01524765
9032.00   0.84878188   0.01523757
9034.00   0.84733242   0.01536704
9036.00   0.85803145   0.01556275
9038.00   0.86242419   0.01566895
9040.00   0.85226637   0.01566976
9042.00   0.84804773   0.01565384
9044.00   0.84278303   0.01576621
9046.00   0.83714771   0.01605661
9048.00   0.83848625   0.01640328
9050.00   0.83426827   0.01649839
9052.00   0.82684690   0.01637695
9054.00   0.82597274   0.01608348
9056.00   0.83332175   0.01571638
9058.00   0.83187455   0.01542261
9060.00   0.82107908   0.01516849
9062.00   0.81206280   0.01501401
9064.00   0.80956393   0.01503484
9066.00   0.81254798   0.01522394
9068.00   0.81638861   0.01542932
9070.00   0.81055379   0.01536998
9072.00   0.80488396   0.01525119
9074.00   0.80640316   0.01522742
9076.00   0.81592494   0.01533147
9078.00   0.82149059   0.01527802
9080.00   0.80982822   0.01514661
9082.00   0.80037624   0.01508345
9084.00   0.80223972   0.01512389
9086.00   0.81082916   0.01519849
9088.00   0.79659009   0.01518463
9090.00   0.78628367   0.01515699
9092.00   0.78828335   0.01521572
9094.00   0.79487920   0.01536529
9096.00   0.78859234   0.01552413
9098.00   0.78301400   0.01568357
9100.00   0.78626823   0.01591553
9102.00   0.78817487   0.01606257
9104.00   0.78185266   0.01597792
9106.00   0.76891321   0.01558008
9108.00   0.77100778   0.01518601
9110.00   0.78559428   0.01495068
9112.00   0.79544282   0.01481449
9114.00   0.78925854   0.01468199
9116.00   0.77557677   0.01455731
9118.00   0.75752974   0.01439756
9120.00   0.74872017   0.01425360
9122.00   0.75360298   0.01423644
9124.00   0.76744890   0.01440182
9126.00   0.77032256   0.01457899
9128.00   0.76026154   0.01461316
9130.00   0.74650931   0.01467821
9132.00   0.73842603   0.01481192
9134.00   0.74146914   0.01493085
9136.00   0.74575669   0.01477940
9138.00   0.73796892   0.01456970
9140.00   0.73979086   0.01441457
9142.00   0.75478584   0.01432927
9144.00   0.76814991   0.01426158
9146.00   0.75747389   0.01433625
9148.00   0.75752395   0.01473083
9150.00   0.75275332   0.01513056
9152.00   0.73224401   0.01528956
9154.00   0.69854993   0.01515368
9156.00   0.69491333   0.01517413
9158.00   0.70806056   0.01520343
9160.00   0.71970838   0.01508113
9162.00   0.72315353   0.01480315
9164.00   0.73019141   0.01462212
9166.00   0.74075240   0.01460841
9168.00   0.73824263   0.01456619
9170.00   0.72354317   0.01447897
9172.00   0.70490843   0.01438274
9174.00   0.68820506   0.01425033
9176.00   0.69322968   0.01426676
9178.00   0.71472698   0.01435372
9180.00   0.72488385   0.01431662
9182.00   0.70540518   0.01404200
9184.00   0.68857735   0.01375635
9186.00   0.70415825   0.01379580
9188.00   0.71956140   0.01384601
9190.00   0.71567518   0.01377889
9192.00   0.69156814   0.01363127
9194.00   0.68069333   0.01350313
9196.00   0.68015546   0.01344688
9198.00   0.68424183   0.01346695
9200.00   0.69181985   0.01353829
9202.00   0.70435244   0.01361885
9204.00   0.70633322   0.01360842
9206.00   0.69930571   0.01356594
9208.00   0.69090015   0.01358344
9210.00   0.68733621   0.01372612
9212.00   0.68915576   0.01399231
9214.00   0.69324619   0.01424901
9216.00   0.70428640   0.01454944
9218.00   0.71832657   0.01486761
9220.00   0.72821885   0.01510134
9222.00   0.72773743   0.01508700
9224.00   0.72472411   0.01495679
9226.00   0.72371095   0.01481760
9228.00   0.72247601   0.01474941
9230.00   0.71252602   0.01469956
9232.00   0.67808270   0.01442429
9234.00   0.65642923   0.01413869
9236.00   0.66001457   0.01396323
9238.00   0.67275125   0.01384580
9240.00   0.67484576   0.01372158
9242.00   0.67055744   0.01380261
9244.00   0.65811723   0.01375593
9246.00   0.64893603   0.01368007
9248.00   0.64637899   0.01362938
9250.00   0.64417982   0.01360525
9252.00   0.63469094   0.01353238
9254.00   0.63507354   0.01352175
9256.00   0.63545310   0.01348584
9258.00   0.63149506   0.01339205
9260.00   0.62813014   0.01329317
9262.00   0.62477231   0.01320236
9264.00   0.61776644   0.01310296
9266.00   0.61326331   0.01303943
9268.00   0.61631900   0.01307186
9270.00   0.62659049   0.01323968
9272.00   0.62791091   0.01341625
9274.00   0.61773509   0.01350173
9276.00   0.61023760   0.01359405
9278.00   0.61373997   0.01378168
9280.00   0.61297047   0.01398304
9282.00   0.60424918   0.01415480
9284.00   0.60157162   0.01427240
9286.00   0.59992498   0.01432569
9288.00   0.59271866   0.01438115
9290.00   0.59318459   0.01466039
9292.00   0.59735298   0.01498252
9294.00   0.60071528   0.01524077
9296.00   0.60392767   0.01550779
9298.00   0.60750550   0.01601538
9300.00   0.60188174   0.01720745
9302.00   0.61048651   0.01950584
9304.00   0.62641650   0.02208479
9306.00   0.62396669   0.02467670
9308.00   0.58422661   0.02741745
9310.00   0.59940308   0.03044001
9312.00   0.61433059   0.03245768
9314.00   0.61269945   0.03327222
9316.00   0.60075134   0.03335369
9318.00   0.60879761   0.03368453
9320.00   0.59744304   0.03379442
9322.00   0.59445447   0.03313952
9324.00   0.59583706   0.03213927
9326.00   0.59595937   0.03108334
9328.00   0.60895830   0.02959518
9330.00   0.62035275   0.02766547
9332.00   0.61395866   0.02643462
9334.00   0.59320450   0.02611031
9336.00   0.57788676   0.02650734
9338.00   0.60549653   0.02780837
9340.00   0.59863478   0.02806910
9342.00   0.56148839   0.02639151
9344.00   0.52352428   0.02350422
9346.00   0.51837224   0.02123635
9348.00   0.58535784   0.02107868
9350.00   0.64872307   0.02163648
9352.00   0.65920210   0.02193772
9354.00   0.61301279   0.02149310
9356.00   0.55040592   0.02034301
9358.00   0.53336906   0.01937717
9360.00   0.56503433   0.01925638
9362.00   0.61158007   0.01990754
9364.00   0.64136159   0.02090343
9366.00   0.63427168   0.02193544
9368.00   0.57718176   0.02495778
9370.00   0.54314965   0.03139517
9372.00   0.54993838   0.03850953
9374.00   0.57658052   0.04395890
9376.00   0.58345252   0.04607895
9378.00   0.58002353   0.04529062
9380.00   0.56349009   0.04170070
9382.00   0.54999298   0.03572571
9384.00   0.55456799   0.02855965
9386.00   0.55802721   0.02364181
9388.00   0.55573654   0.02071512
9390.00   0.55959672   0.01889657
9392.00   0.57420486   0.01784383
9394.00   0.59510922   0.01762914
9396.00   0.60187751   0.01807996
9398.00   0.57564878   0.01849554
9400.00   0.55816936   0.01889572
9402.00   0.56190717   0.01926073
9404.00   0.57457340   0.01948841
9406.00   0.57375413   0.01924772
9408.00   0.56711262   0.01871731
9410.00   0.55690843   0.01812720
9412.00   0.54918641   0.01795534
9414.00   0.55027205   0.01867256
9416.00   0.55795383   0.02014001
9418.00   0.55857676   0.02109286
9420.00   0.57104528   0.02217181
9422.00   0.59393620   0.02347841
9424.00   0.59383368   0.02430760
9426.00   0.55636746   0.02268600
9428.00   0.51396185   0.02058780
9430.00   0.51172262   0.01943247
9432.00   0.55724978   0.02050530
9434.00   0.59899855   0.02411768
9436.00   0.59667009   0.02848039
9438.00   0.55836421   0.03180688
9440.00   0.50245637   0.03350555
9442.00   0.46294466   0.03322737
9444.00   0.51129198   0.03035701
9446.00   0.53166109   0.02628604
9448.00   0.54686815   0.02304969
9450.00   0.55786091   0.02186558
9452.00   0.56149894   0.02266742
9454.00   0.55833048   0.02495117
9456.00   0.54844290   0.02702865
9458.00   0.52817833   0.02788984
9460.00   0.50700611   0.02754102
9462.00   0.49844775   0.02643308
9464.00   0.52707624   0.02429777
9466.00   0.53393716   0.02193945
9468.00   0.54093319   0.02063604
9470.00   0.55002588   0.02142809
9472.00   0.54481250   0.02419760
9474.00   0.55521554   0.02733251
9476.00   0.53939670   0.02956402
9478.00   0.50640136   0.03028838
9480.00   0.47722134   0.02920932
9482.00   0.47357199   0.02623059
9484.00   0.48138571   0.02281939
9486.00   0.51599622   0.02051462
9488.00   0.54768604   0.01959765
9490.00   0.55221087   0.01947495
9492.00   0.53411818   0.01936716
9494.00   0.52866554   0.01994422
9496.00   0.49195576   0.02157724
9498.00   0.44443360   0.02328246
9500.00   0.42238489   0.02404276
9502.00   0.45236364   0.02354023
9504.00   0.48260251   0.02282028
9506.00   0.50349593   0.02156201
9508.00   0.51512194   0.01989084
9510.00   0.52218944   0.01837378
9512.00   0.52061892   0.01804938
9514.00   0.50318557   0.01876765
9516.00   0.48930177   0.01994531
9518.00   0.48386225   0.02102597
9520.00   0.47896352   0.02164211
9522.00   0.45801130   0.02159704
9524.00   0.45615420   0.02092289
9526.00   0.46773624   0.01984030
9528.00   0.48569861   0.01883646
9530.00   0.50201964   0.01849751
9532.00   0.52727050   0.01874784
9534.00   0.53875178   0.01887851
9536.00   0.54038256   0.01887400
9538.00   0.53628176   0.01880085
9540.00   0.52800363   0.01867730
9542.00   0.50787067   0.01814536
9544.00   0.48508403   0.01778500
9546.00   0.47179389   0.01816188
9548.00   0.47817907   0.01939020
9550.00   0.50837880   0.02094183
9552.00   0.48619628   0.02174382
9554.00   0.45412186   0.02178155
9556.00   0.44366536   0.02139450
9558.00   0.46522713   0.02114927
9560.00   0.48515233   0.02152628
9562.00   0.46079001   0.02276954
9564.00   0.44322690   0.02422418
9566.00   0.45094743   0.02522120
9568.00   0.46756139   0.02521479
9570.00   0.45824754   0.02387637
9572.00   0.44558978   0.02188561
9574.00   0.44337484   0.01996209
9576.00   0.45293733   0.01856239
9578.00   0.46486196   0.01765904
9580.00   0.44941044   0.01699244
9582.00   0.44261160   0.01671649
9584.00   0.45166984   0.01683666
9586.00   0.46499920   0.01710846
9588.00   0.46141043   0.01712418
9590.00   0.44421864   0.01679575
9592.00   0.42953312   0.01653055
9594.00   0.42470351   0.01622221
9596.00   0.42954382   0.01578860
9598.00   0.43510771   0.01541758
9600.00   0.44931450   0.01568924
9602.00   0.46418643   0.01639163
9604.00   0.46702871   0.01704648
9606.00   0.45385373   0.01731641
9608.00   0.44672647   0.01734466
9610.00   0.44049820   0.01707775
9612.00   0.45263252   0.01690833
9614.00   0.46888435   0.01713621
9616.00   0.46680394   0.01777063
9618.00   0.45428276   0.01830626
9620.00   0.45095459   0.01877218
9622.00   0.44319543   0.01887826
9624.00   0.42935815   0.01838841
9626.00   0.42033109   0.01730135
9628.00   0.42911455   0.01650278
9630.00   0.44548976   0.01614390
9632.00   0.45525718   0.01606219
9634.00   0.45221201   0.01599585
9636.00   0.44272900   0.01573451
9638.00   0.43295705   0.01554396
9640.00   0.43399629   0.01554870
9642.00   0.43684435   0.01546232
9644.00   0.43308803   0.01515698
9646.00   0.41921806   0.01483014
9648.00   0.42109802   0.01479133
9650.00   0.43065369   0.01487395
9652.00   0.44132498   0.01501364
9654.00   0.44850489   0.01520732
9656.00   0.45243430   0.01552918
9658.00   0.44441548   0.01574978
9660.00   0.43451902   0.01592463
9662.00   0.42837596   0.01626534
9664.00   0.42670420   0.01687868
9666.00   0.42408618   0.01745864
9668.00   0.42075536   0.01753199
9670.00   0.41651759   0.01727680
9672.00   0.41764748   0.01701607
9674.00   0.42948663   0.01708603
9676.00   0.43984398   0.01760815
9678.00   0.43137741   0.01801111
9680.00   0.42529020   0.01823447
9682.00   0.42504290   0.01830922
9684.00   0.42273256   0.01831704
9686.00   0.42302838   0.01800391
9688.00   0.43341103   0.01740881
9690.00   0.43368459   0.01691055
9692.00   0.42386213   0.01696927
9694.00   0.42585912   0.01785485
9696.00   0.42941999   0.01861999
9698.00   0.41889754   0.01895574
9700.00   0.41506970   0.01905428
9702.00   0.42542288   0.01894833
9704.00   0.42429087   0.01825765
9706.00   0.42395344   0.01754703
9708.00   0.42902890   0.01718491
9710.00   0.42982471   0.01718174
9712.00   0.41826475   0.01750532
9714.00   0.40524450   0.01843650
9716.00   0.41142011   0.01957305
9718.00   0.41229144   0.02026637
9720.00   0.40842637   0.02058854
9722.00   0.40990624   0.02071867
9724.00   0.42268395   0.02010342
9726.00   0.43240976   0.01887343
9728.00   0.43075177   0.01779722
9730.00   0.42388257   0.01742306
9732.00   0.42407146   0.01779010
9734.00   0.42200437   0.01824727
9736.00   0.42043459   0.01846699
9738.00   0.42434451   0.01863169
9740.00   0.42753124   0.01869398
9742.00   0.41922256   0.01843926
9744.00   0.42034575   0.01792297
9746.00   0.42936635   0.01747065
9748.00   0.43037948   0.01706167
9750.00   0.42471603   0.01670922
9752.00   0.42891002   0.01648794
9754.00   0.42575034   0.01607752
9756.00   0.42210102   0.01572572
9758.00   0.41928291   0.01550185
9760.00   0.41630375   0.01535885
9762.00   0.41474864   0.01508731
9764.00   0.41843119   0.01485589
9766.00   0.41617775   0.01459970
9768.00   0.41073012   0.01439231
9770.00   0.40780354   0.01429391
9772.00   0.40487990   0.01421623
9774.00   0.40721723   0.01433021
9776.00   0.40587464   0.01449412
9778.00   0.39917243   0.01461193
9780.00   0.39369676   0.01475814
9782.00   0.40418443   0.01529979
9784.00   0.40637544   0.01699160
9786.00   0.40988806   0.01937838
9788.00   0.42413011   0.02166828
9790.00   0.44836083   0.02318174
9792.00   0.42031440   0.02381956
9794.00   0.39184037   0.02378115
9796.00   0.38247427   0.02316098
9798.00   0.39059755   0.02214008
9800.00   0.39482066   0.02103210
9802.00   0.39771321   0.02025578
9804.00   0.39362657   0.01956662
9806.00   0.39270031   0.01897973
9808.00   0.39993462   0.01859493
9810.00   0.41430745   0.01859226
9812.00   0.41891554   0.01855900
9814.00   0.41448680   0.01835872
9816.00   0.40643051   0.01798382
9818.00   0.40288138   0.01751073
9820.00   0.40627232   0.01699773
9822.00   0.39994153   0.01665224
9824.00   0.39344168   0.01638697
9826.00   0.39433980   0.01618647
9828.00   0.40333200   0.01606010
9830.00   0.40110040   0.01595484
9832.00   0.38868442   0.01562898
9834.00   0.38669112   0.01541958
9836.00   0.39554024   0.01537860
9838.00   0.40110883   0.01535850
9840.00   0.39078522   0.01533570
9842.00   0.38446668   0.01603263
9844.00   0.37919721   0.01702641
9846.00   0.37626728   0.01788611
9848.00   0.38160744   0.01836915
9850.00   0.37609735   0.01849238
9852.00   0.36900750   0.01811396
9854.00   0.37564433   0.01747154
9856.00   0.39506373   0.01682476
9858.00   0.40048108   0.01629988
9860.00   0.39124921   0.01591157
9862.00   0.37992382   0.01586740
9864.00   0.37960014   0.01684364
9866.00   0.38873509   0.01902523
9868.00   0.38576511   0.02189875
9870.00   0.38160530   0.02423838
9872.00   0.36825106   0.02564303
9874.00   0.36166772   0.02596246
9876.00   0.37038767   0.02512808
9878.00   0.37799859   0.02295569
9880.00   0.37439308   0.02085944
9882.00   0.37150955   0.01940119
9884.00   0.37413061   0.01867901
9886.00   0.38333988   0.01847760
9888.00   0.39490065   0.01896843
9890.00   0.37504062   0.01972280
9892.00   0.36847162   0.02054354
9894.00   0.38384619   0.02126712
9896.00   0.39814100   0.02169725
9898.00   0.37417328   0.02110318
9900.00   0.36948800   0.02016914
9902.00   0.37515983   0.01916278
9904.00   0.37870944   0.01841474
9906.00   0.37009820   0.01833943
9908.00   0.36887136   0.02015696
9910.00   0.38376531   0.02303285
9912.00   0.37829971   0.02538081
9914.00   0.34515825   0.02659870
9916.00   0.33565065   0.02711554
9918.00   0.34793225   0.02664628
9920.00   0.36605397   0.02501454
9922.00   0.37365946   0.02285226
9924.00   0.36223152   0.02097828
9926.00   0.35054699   0.01981086
9928.00   0.36954975   0.01933191
9930.00   0.38045159   0.01911916
9932.00   0.37612581   0.01911666
9934.00   0.36495927   0.01961670
9936.00   0.34999481   0.02115979
9938.00   0.37034345   0.02387912
9940.00   0.37927178   0.02724522
9942.00   0.36656356   0.03052686
9944.00   0.34534636   0.03300357
9946.00   0.35233393   0.03394887
9948.00   0.34164062   0.03393589
9950.00   0.34284297   0.03364310
9952.00   0.36425903   0.03339757
9954.00   0.38289365   0.03322284
9956.00   0.35802197   0.03365633
9958.00   0.33786908   0.03427361
9960.00   0.33577296   0.03433414
9962.00   0.34278092   0.03346543
9964.00   0.34504798   0.03189245
9966.00   0.33888832   0.03010336
9968.00   0.34749046   0.02849637
9970.00   0.35060969   0.02718997
9972.00   0.33657584   0.02618988
9974.00   0.31887969   0.02545250
9976.00   0.32001922   0.02471563
9978.00   0.32705688   0.02380339
9980.00   0.33263680   0.02282439
9982.00   0.33381209   0.02193605
9984.00   0.34523034   0.02125198
9986.00   0.35066712   0.02066164
9988.00   0.34966576   0.02015234
9990.00   0.34882736   0.01978879
9992.00   0.35300669   0.01972566
9994.00   0.34988594   0.02010930
9996.00   0.34688029   0.02068545
9998.00   0.34850645   0.02128170
10000.00   0.34633616   0.02170466
10002.00   0.33212915   0.02197167
10004.00   0.34433284   0.02291965
10006.00   0.36211538   0.02620011
10008.00   0.36142954   0.03065146
10010.00   0.34864131   0.03475446
10012.00   0.35553154   0.03734891
10014.00   0.34323201   0.03858543
10016.00   0.33551502   0.03810719
10018.00   0.34204975   0.03631079
10020.00   0.35419640   0.03404782
10022.00   0.34401730   0.03262231
10024.00   0.33175889   0.03190755
10026.00   0.32785490   0.03138602
10028.00   0.32824087   0.03056408
10030.00   0.33014950   0.02919042
10032.00   0.33224604   0.02735910
10034.00   0.34250227   0.02599964
10036.00   0.34615287   0.02528637
10038.00   0.34258163   0.02509890
10040.00   0.33627102   0.02512220
10042.00   0.32536200   0.02508228
10044.00   0.33066764   0.02500304
10046.00   0.33897248   0.02472331
10048.00   0.34185934   0.02414400
10050.00   0.33468294   0.02332202
10052.00   0.32629469   0.02284941
10054.00   0.33765492   0.02366219
10056.00   0.34238967   0.02501222
10058.00   0.33139005   0.02625495
10060.00   0.32004127   0.02714622
10062.00   0.32665452   0.02803181
10064.00   0.32783878   0.02840356
10066.00   0.32717636   0.02827721
10068.00   0.32368782   0.02779521
10070.00   0.30891931   0.02720223
10072.00   0.30824175   0.02687676
10074.00   0.32599244   0.02752104
10076.00   0.33195338   0.02945666
10078.00   0.32030222   0.03226594
10080.00   0.32999370   0.03496372
10082.00   0.32356080   0.03664984
10084.00   0.32345554   0.03734022
10086.00   0.33606628   0.03662212
10088.00   0.35546979   0.03445823
10090.00   0.35295895   0.03188964
10092.00   0.33181050   0.02973152
10094.00   0.31068438   0.02837544
10096.00   0.29294142   0.02814040
10098.00   0.28432485   0.02907169
10100.00   0.31936237   0.03084361
10102.00   0.32359204   0.03184358
10104.00   0.31420156   0.03240002
10106.00   0.30510238   0.03235556
10108.00   0.29798195   0.03133627
10110.00   0.26693177   0.02955522
10112.00   0.28081891   0.02850980
10114.00   0.31246266   0.02826191
10116.00   0.31974438   0.02950759
10118.00   0.28352848   0.03320407
10120.00   0.32086697   0.03802406
10122.00   0.31396869   0.04128587
10124.00   0.28857431   0.04326858
10126.00   0.28285348   0.04404736
10128.00   0.30989480   0.04307600
10130.00   0.32415721   0.04001061
10132.00   0.31468281   0.03689872
10134.00   0.30595782   0.03468082
10136.00   0.30656984   0.03351830
10138.00   0.27564692   0.03258941
10140.00   0.27480838   0.03252891
10142.00   0.30044159   0.03292444
10144.00   0.31507015   0.03355339
10146.00   0.29684010   0.03449452
10148.00   0.29454061   0.03629966
10150.00   0.27578625   0.03776388
10152.00   0.29386070   0.03927178
10154.00   0.32522607   0.04036329
10156.00   0.32276011   0.04039758
10158.00   0.30417237   0.03953291
10160.00   0.27127305   0.03870312
10162.00   0.28763801   0.03875538
10164.00   0.33906278   0.04062107
10166.00   0.34858227   0.04454239
10168.00   0.30900183   0.04873693
10170.00   0.29688087   0.05167338
10172.00   0.28856251   0.05350888
10174.00   0.28189090   0.05407143
10176.00   0.30110052   0.05282001
10178.00   0.29739600   0.04975700
10180.00   0.31178179   0.04740648
10182.00   0.31864941   0.04671807
10184.00   0.29099810   0.04751974
10186.00   0.21891578   0.04858428
10188.00   0.26326671   0.05019192
10190.00   0.30243304   0.05143240
10192.00   0.29724619   0.05134659
10194.00   0.26337087   0.04976323
10196.00   0.26847818   0.04806392
10198.00   0.27741507   0.04736663
10200.00   0.27932307   0.04727793
10202.00   0.27404514   0.04838708
10204.00   0.26573810   0.05123490
10206.00   0.27442613   0.05555561
10208.00   0.29835925   0.05900559
10210.00   0.30090761   0.06102083
10212.00   0.30026639   0.06141983
10214.00   0.32923397   0.06017242
10216.00   0.33252910   0.05696584
10218.00   0.30389616   0.05421472
10220.00   0.28395876   0.05329679
10222.00   0.27992192   0.05433362
10224.00   0.27483168   0.05630720
10226.00   0.30322328   0.05846422
10228.00   0.34068751   0.05973409
10230.00   0.35686588   0.05942034
10232.00   0.34531948   0.05758762
10234.00   0.33021361   0.05509262
10236.00   0.31796005   0.05243104
10238.00   0.29946828   0.04983376
10240.00   0.27964139   0.04762641
10242.00   0.27283999   0.04611519
10244.00   0.30440521   0.04564019
10246.00   0.31223568   0.04524178
10248.00   0.30387306   0.04492994
10250.00   0.30876699   0.04491127
10252.00   0.34114465   0.04529079
10254.00   0.35212123   0.04563956
10256.00   0.31238294   0.04531538
10258.00   0.29366699   0.04516577
10260.00   0.29844549   0.04554864
10262.00   0.29765055   0.04649423
10264.00   0.29990223   0.04815176
10266.00   0.31740475   0.05041690
10268.00   0.32286504   0.05225909
10270.00   0.31051102   0.05360268
10272.00   0.29921862   0.05498696
10274.00   0.26063743   0.05542646
10276.00   0.27521166   0.05646870
10278.00   0.30845729   0.06249520
10280.00   0.32665917   0.07425281
10282.00   0.30488405   0.08856421
10284.00   0.28221011   0.09937646
10286.00   0.19589317   0.10555524
10288.00   0.11149164   0.10941111
10290.00   0.10064801   0.11013786
10292.00   0.20570934   0.10814596
10294.00   0.28044209   0.10556532
10296.00   0.31267825   0.10228169
10298.00   0.32604107   0.09716516
10300.00   0.33597040   0.09213409
10302.00   0.30584556   0.08845980
10304.00   0.26486123   0.08386543
10306.00   0.30084148   0.08495316
10308.00   0.35882095   0.08328626
10310.00   0.35830775   0.08165183
10312.00   0.32768330   0.07943092
10314.00   0.28048870   0.07690192
10316.00   0.26232371   0.07425664
10318.00   0.24979396   0.07161774
10320.00   0.21440317   0.06949023
10322.00   0.25072238   0.06952361
10324.00   0.30591539   0.07000306
10326.00   0.32667682   0.06984831
10328.00   0.29375741   0.06898386
10330.00   0.23661871   0.06810431
10332.00   0.29360658   0.06876168
10334.00   0.30984250   0.06930139
10336.00   0.29897133   0.07021496
10338.00   0.28358141   0.07182600
10340.00   0.28001890   0.07428511
10342.00   0.15315115   0.07824856
10344.00   0.30009907   0.08405608
10346.00   0.35341343   0.08527355
10348.00   0.34740400   0.08980912
10350.00   0.30250153   0.08851289
10352.00   0.34015533   0.08810389
10354.00   0.31321180   0.08597407
10356.00   0.27960238   0.08343627
10358.00   0.30195588   0.08066124
10360.00   0.32098833   0.08282048
10362.00   0.29264906   0.08116920
10364.00   0.29890457   0.08400428
10366.00   0.31923935   0.09166465
10368.00   0.37598580   0.10369058
10370.00   0.25501457   0.11074279
10372.00   0.26391026   0.11669776
10374.00   0.28533331   0.11952206
10376.00   0.28976092   0.11779622
10378.00   0.29131460   0.11237837
10380.00   0.29618350   0.10420367
10382.00   0.26569685   0.09685735
10384.00   0.22883718   0.09361240
10386.00   0.23847573   0.09130480
10388.00   0.32957599   0.09215073
10390.00   0.33371481   0.09349853
10392.00   0.24431355   0.09473453
10394.00   0.17590927   0.09534776
10396.00   0.20073040   0.09889994
10398.00   0.32648915   0.10287444
10400.00   0.29823837   0.10039984
10402.00   0.23690982   0.09535429
10404.00   0.22561650   0.08928387
10406.00   0.35715899   0.08834513
10408.00   0.32889733   0.08977453
10410.00   0.32962617   0.09494085
10412.00   0.36076090   0.10367524
10414.00   0.48193204   0.11281272
10416.00   0.41044974   0.11931836
10418.00   0.30738282   0.12565777
10420.00   0.33793065   0.12759437
10422.00   0.29856753   0.12253531
10424.00   0.14052792   0.11405291
10426.00   0.23356737   0.10509077
10428.00   0.29656813   0.10048448
10430.00   0.33862612   0.09875897
10432.00   0.37566110   0.09597837
10434.00   0.36646605   0.09316430
10436.00   0.28043321   0.09008480
10438.00   0.31534007   0.08719246
10440.00   0.31990704   0.08657604
10442.00   0.33775327   0.08683670
10444.00   0.37398401   0.08973125
10446.00   0.33892059   0.08965284
10448.00   0.39208370   0.09037125
10450.00   0.30484810   0.09227358
