# File created by shivutils (I.Shivvers)
# wl(A)   flm    er(optional)
3460.00   26.16492081   0.35607392
3462.00   26.30620003   0.35752457
3464.00   26.22485733   0.35837156
3466.00   26.04539490   0.35772374
3468.00   26.00014687   0.36214462
3470.00   26.05678177   0.36088356
3472.00   27.12852859   0.36694771
3474.00   26.30505753   0.36080807
3476.00   26.27384377   0.36078125
3478.00   26.60615540   0.36607549
3480.00   26.18363190   0.36489227
3482.00   26.27599716   0.36658385
3484.00   26.50275612   0.36779571
3486.00   26.22723579   0.36665025
3488.00   25.43728828   0.36088279
3490.00   25.71493340   0.36268881
3492.00   26.33365631   0.36594334
3494.00   25.35120201   0.35993081
3496.00   26.21178246   0.36429805
3498.00   25.47948837   0.36000687
3500.00   25.07529831   0.35833055
3502.00   25.66520691   0.36215037
3504.00   25.52614784   0.36169294
3506.00   25.58042908   0.36099970
3508.00   25.25015259   0.35708812
3510.00   25.40774536   0.35746902
3512.00   25.49846458   0.35628480
3514.00   24.99276352   0.35351214
3516.00   24.84747887   0.35159779
3518.00   25.13797760   0.35336879
3520.00   24.83066940   0.34944487
3522.00   25.44316292   0.35093975
3524.00   25.83459473   0.35222346
3526.00   25.34041786   0.34829265
3528.00   25.93640900   0.35202697
3530.00   25.75075531   0.35061467
3532.00   25.34756660   0.34793636
3534.00   25.19485474   0.34626105
3536.00   25.40413666   0.34693873
3538.00   25.78867149   0.34757161
3540.00   25.37668991   0.34572116
3542.00   24.96275520   0.34472737
3544.00   25.80273438   0.34695679
3546.00   25.38827133   0.34353846
3548.00   25.55002785   0.34274408
3550.00   24.62006760   0.33750194
3552.00   24.85966110   0.33644977
3554.00   24.99332428   0.33535466
3556.00   24.21835899   0.33020088
3558.00   24.76415825   0.33221602
3560.00   25.03182030   0.33229700
3562.00   25.12946701   0.33097467
3564.00   24.04089737   0.32355639
3566.00   24.22798538   0.32126355
3568.00   24.83618736   0.32439613
3570.00   24.27102280   0.31894797
3572.00   24.06183624   0.31654155
3574.00   24.27333260   0.31713593
3576.00   23.85368347   0.31385192
3578.00   23.99847412   0.31239080
3580.00   24.27530479   0.31137559
3582.00   24.35215569   0.31000340
3584.00   23.75726891   0.30462915
3586.00   23.72355270   0.30288357
3588.00   23.45140266   0.30060291
3590.00   23.13718224   0.30002752
3592.00   23.40043831   0.30018845
3594.00   24.01188660   0.30207309
3596.00   23.65583420   0.29903015
3598.00   22.85157585   0.29412055
3600.00   23.49324799   0.29647529
3602.00   23.15012550   0.29273838
3604.00   23.55459785   0.29193479
3606.00   23.22310066   0.28927514
3608.00   23.61953354   0.28887782
3610.00   23.74884796   0.28886053
3612.00   23.49395561   0.28794450
3614.00   23.27048111   0.28668925
3616.00   23.35163116   0.28590426
3618.00   23.39782715   0.28301525
3620.00   23.49762726   0.28120935
3622.00   24.17904091   0.28612977
3624.00   23.73866081   0.28231910
3626.00   24.52818871   0.28498328
3628.00   24.82583809   0.28564692
3630.00   24.98168564   0.28542295
3632.00   25.41913033   0.28519815
3634.00   25.86188126   0.28568283
3636.00   25.28361511   0.28238583
3638.00   25.42768478   0.28224447
3640.00   25.28099442   0.28112742
3642.00   26.12948227   0.28495127
3644.00   26.23626518   0.28534999
3646.00   26.32977486   0.28384012
3648.00   26.19606972   0.29495710
3650.00   26.38528252   0.29928365
3652.00   26.60690117   0.29857028
3654.00   27.11418152   0.29398507
3656.00   26.91702843   0.28916863
3658.00   27.61804962   0.28682598
3660.00   27.85954094   0.28544503
3662.00   28.78837585   0.29212946
3664.00   28.57638550   0.29144564
3666.00   28.56676292   0.28557026
3668.00   28.91293907   0.28271660
3670.00   28.82001114   0.28110644
3672.00   29.18516731   0.28180963
3674.00   29.46590996   0.28191915
3676.00   29.13009453   0.27870408
3678.00   29.25021553   0.27795282
3680.00   28.69163704   0.27324110
3682.00   28.44330215   0.27199003
3684.00   28.46168518   0.27092734
3686.00   27.83729935   0.26840517
3688.00   27.63158798   0.26898053
3690.00   27.43293381   0.26270929
3692.00   26.85132790   0.26004875
3694.00   25.65365982   0.25386006
3696.00   24.80772018   0.24904051
3698.00   23.92025185   0.24438278
3700.00   22.82071495   0.23879728
3702.00   21.86435509   0.23322415
3704.00   20.80551338   0.22591126
3706.00   20.13410950   0.22103037
3708.00   19.24093056   0.21598497
3710.00   18.79897499   0.21346691
3712.00   18.49574661   0.21269496
3714.00   17.50198555   0.20660914
3716.00   17.31411934   0.20534778
3718.00   16.74401474   0.20036180
3720.00   16.44041443   0.19711830
3722.00   15.79937458   0.19276737
3724.00   15.90529442   0.19331512
3726.00   15.96604538   0.19421130
3728.00   15.85613251   0.19292897
3730.00   15.54056835   0.19038288
3732.00   15.34410381   0.18817636
3734.00   15.16332626   0.18588366
3736.00   14.99936104   0.18379578
3738.00   14.84815407   0.18309930
3740.00   15.14973259   0.18536910
3742.00   15.11879635   0.18535317
3744.00   15.39731216   0.18529737
3746.00   15.53474903   0.18405618
3748.00   15.55222321   0.18333867
3750.00   15.41648006   0.18295482
3752.00   15.50046539   0.18431000
3754.00   15.72871685   0.18611255
3756.00   15.46045876   0.18417600
3758.00   15.85551262   0.18459105
3760.00   16.04602814   0.18466526
3762.00   16.26747704   0.18631825
3764.00   16.14160728   0.18522242
3766.00   16.42237091   0.18571806
3768.00   16.05911255   0.18326050
3770.00   15.53125858   0.18160914
3772.00   15.33475018   0.18043235
3774.00   15.13937569   0.17951645
3776.00   14.63440037   0.17638919
3778.00   14.48226166   0.17542626
3780.00   14.28521538   0.17409863
3782.00   14.08130741   0.17258568
3784.00   13.92919540   0.17141704
3786.00   13.73536968   0.16936544
3788.00   13.18308926   0.16543284
3790.00   13.20079994   0.16520850
3792.00   13.30104923   0.16535522
3794.00   12.99381828   0.16317710
3796.00   13.27515697   0.16358387
3798.00   13.34172821   0.16309281
3800.00   13.43065643   0.16344108
3802.00   13.41987419   0.16453077
3804.00   13.38172913   0.16435334
3806.00   13.21092796   0.16254501
3808.00   13.48568439   0.16343454
3810.00   13.35833263   0.16295506
3812.00   13.23064327   0.16184224
3814.00   13.20431232   0.16019188
3816.00   13.49119854   0.16083927
3818.00   13.18624401   0.15932958
3820.00   13.56685734   0.15998922
3822.00   13.62408638   0.16108559
3824.00   13.92101860   0.16438450
3826.00   14.22685337   0.16179565
3828.00   14.38763905   0.16265804
3830.00   14.73075008   0.16449383
3832.00   15.15039062   0.16594270
3834.00   15.64154625   0.16762300
3836.00   16.01725960   0.16938742
3838.00   16.40006256   0.17082310
3840.00   16.84340858   0.17266062
3842.00   17.10058594   0.17417493
3844.00   17.69467735   0.17683707
3846.00   18.08861351   0.17836823
3848.00   18.89983940   0.18135926
3850.00   18.90027046   0.18085110
3852.00   19.92703438   0.18505383
3854.00   20.38181496   0.18685454
3856.00   21.15232849   0.18912581
3858.00   22.20846176   0.19243483
3860.00   22.25053406   0.19209854
3862.00   23.13996696   0.19608109
3864.00   23.84865761   0.19906040
3866.00   24.45878792   0.20064464
3868.00   25.12265587   0.20275186
3870.00   25.73744011   0.20404154
3872.00   26.72578049   0.20708869
3874.00   26.98110008   0.20858905
3876.00   27.72158623   0.21106479
3878.00   28.40208054   0.21236734
3880.00   29.00313950   0.21360631
3882.00   29.57411766   0.21502377
3884.00   30.00003242   0.21606806
3886.00   30.54370499   0.21753608
3888.00   31.61101913   0.22018097
3890.00   32.05052185   0.22167636
3892.00   32.21632004   0.22251138
3894.00   32.66896057   0.22374760
3896.00   33.30699158   0.22553188
3898.00   33.53977966   0.22609173
3900.00   33.79570007   0.22640383
3902.00   34.79353333   0.22892272
3904.00   34.99802017   0.22925211
3906.00   35.10851288   0.23043633
3908.00   35.94427872   0.23412208
3910.00   36.11390686   0.23473942
3912.00   35.97767639   0.23406386
3914.00   36.33395386   0.23416889
3916.00   36.21180344   0.23191537
3918.00   36.58336639   0.23174272
3920.00   36.77885056   0.23116115
3922.00   37.10714722   0.23110153
3924.00   36.96959686   0.23038207
3926.00   36.85712433   0.22973575
3928.00   37.44172668   0.22992802
3930.00   37.10186768   0.22810510
3932.00   35.85481644   0.22439277
3934.00   35.88048553   0.22384958
3936.00   37.28202057   0.22728041
3938.00   37.84453964   0.22875643
3940.00   37.75187302   0.22869278
3942.00   38.02261734   0.22979616
3944.00   38.49699020   0.23126017
3946.00   38.57956314   0.23127475
3948.00   38.67604065   0.23110470
3950.00   38.71568680   0.23068282
3952.00   38.95972443   0.23085552
3954.00   38.76390457   0.23003912
3956.00   38.58489227   0.22910604
3958.00   38.19173813   0.22742276
3960.00   38.51421356   0.22836672
3962.00   37.36150742   0.22452599
3964.00   36.81808853   0.22132771
3966.00   35.43383408   0.21607164
3968.00   33.65751266   0.20989099
3970.00   32.95661926   0.20769539
3972.00   32.83929062   0.20768653
3974.00   31.73470116   0.20451693
3976.00   30.00757408   0.20143519
3978.00   30.04434776   0.19926946
3980.00   28.87235641   0.19582106
3982.00   28.24346924   0.19380885
3984.00   27.76227570   0.19160643
3986.00   27.38513947   0.19038983
3988.00   26.66601753   0.18798672
3990.00   26.00329590   0.18576200
3992.00   25.76415634   0.18445572
3994.00   26.04562950   0.18546949
3996.00   25.69446945   0.18451455
3998.00   25.62755775   0.18369271
4000.00   25.36454010   0.18234882
4002.00   25.35675812   0.18180589
4004.00   25.04676247   0.18014289
4006.00   25.39853477   0.18073495
4008.00   25.07596588   0.17986998
4010.00   25.21825218   0.18054184
4012.00   25.08421135   0.17964743
4014.00   25.55717850   0.18073985
4016.00   25.14410400   0.17912145
4018.00   25.28738594   0.18051504
4020.00   25.50537109   0.18256012
4022.00   25.77340126   0.18404315
4024.00   25.73832512   0.18326639
4026.00   26.22757721   0.18345864
4028.00   25.67439461   0.18018512
4030.00   26.31646729   0.18130274
4032.00   26.16117287   0.17987466
4034.00   26.39042473   0.18019769
4036.00   26.55073357   0.18073907
4038.00   26.77764320   0.18132485
4040.00   27.01340485   0.18163466
4042.00   27.30912209   0.18216014
4044.00   27.78211594   0.19050771
4046.00   28.64049721   0.20262448
4048.00   28.63075066   0.20152517
4050.00   28.64755630   0.19039230
4052.00   29.04537392   0.18680538
4054.00   29.38816452   0.18746674
4056.00   29.45067596   0.18676856
4058.00   29.99782181   0.18719313
4060.00   30.41974449   0.18761009
4062.00   30.69401360   0.18762809
4064.00   30.99375916   0.18802676
4066.00   30.97500038   0.18787158
4068.00   31.47196579   0.18901052
4070.00   31.47455215   0.18877172
4072.00   32.19375610   0.18983915
4074.00   32.28039932   0.19027770
4076.00   32.46078491   0.19217880
4078.00   32.60309982   0.19323301
4080.00   32.59057617   0.19244246
4082.00   32.90306473   0.19229613
4084.00   33.20935440   0.19251557
4086.00   32.90208054   0.19105400
4088.00   32.73540878   0.19019893
4090.00   32.28080750   0.18797344
4092.00   32.31158066   0.18722925
4094.00   32.25621796   0.18670987
4096.00   31.91834641   0.18542190
4098.00   31.75023079   0.18451767
4100.00   31.57855797   0.18333013
4102.00   31.71038437   0.18301161
4104.00   31.67303276   0.18271208
4106.00   31.64599800   0.18291789
4108.00   31.69895554   0.18306506
4110.00   31.41391182   0.18195969
4112.00   31.23731613   0.18118200
4114.00   31.86326599   0.18273130
4116.00   31.83509445   0.18226801
4118.00   31.54874420   0.18086748
4120.00   31.58312798   0.18051095
4122.00   31.67080498   0.18048039
4124.00   31.65957069   0.18038492
4126.00   31.90882492   0.18051760
4128.00   31.61601639   0.17950471
4130.00   31.55564499   0.17913999
4132.00   31.24385071   0.17849849
4134.00   30.94384766   0.17748632
4136.00   31.07646942   0.17718273
4138.00   31.19147682   0.17746174
4140.00   30.68801689   0.17634887
4142.00   30.40978622   0.17473543
4144.00   30.74510193   0.17451172
4146.00   30.32165527   0.17333078
4148.00   30.19266129   0.17263860
4150.00   30.55936432   0.17364755
4152.00   30.71847153   0.17433687
4154.00   30.47713470   0.17308933
4156.00   30.19796181   0.17149335
4158.00   30.04046440   0.17082250
4160.00   30.52523422   0.17190659
4162.00   30.57217026   0.17226179
4164.00   30.19260216   0.17172927
4166.00   30.22681808   0.17142154
4168.00   29.97565460   0.16960947
4170.00   29.96672821   0.16860251
4172.00   29.29207420   0.16696770
4174.00   29.50016785   0.16637641
4176.00   29.43151474   0.16596596
4178.00   29.47756577   0.16601162
4180.00   29.60684967   0.16598447
4182.00   29.44131851   0.16512519
4184.00   29.01519394   0.16383529
4186.00   29.20955086   0.16379400
4188.00   29.13553238   0.16324511
4190.00   29.20114326   0.16336280
4192.00   28.57997513   0.16175278
4194.00   28.83009720   0.16201280
4196.00   28.36324310   0.16012070
4198.00   28.11948586   0.15904571
4200.00   28.04315758   0.15845712
4202.00   28.01354599   0.15830418
4204.00   27.83249664   0.15782209
4206.00   27.93341827   0.15822238
4208.00   28.01631165   0.15825836
4210.00   27.68105698   0.15737948
4212.00   27.42456436   0.15638143
4214.00   27.29937172   0.15560032
4216.00   26.85852623   0.15398927
4218.00   26.93916893   0.15412527
4220.00   26.81188583   0.15376297
4222.00   26.53809166   0.15265439
4224.00   26.31221008   0.15137897
4226.00   26.15399361   0.15032713
4228.00   26.08431435   0.15006027
4230.00   26.10506630   0.15064830
4232.00   26.06812859   0.15055151
4234.00   25.87136841   0.14974584
4236.00   25.23215294   0.14791833
4238.00   25.09851837   0.14750130
4240.00   24.92127037   0.14661992
4242.00   24.98102188   0.14629617
4244.00   24.66354561   0.14631644
4246.00   24.97171974   0.14839433
4248.00   24.64482689   0.14680208
4250.00   24.62155151   0.14467260
4252.00   24.71351051   0.15033956
4254.00   24.55729866   0.14419574
4256.00   24.22777367   0.14306591
4258.00   23.88661766   0.14187005
4260.00   24.23210716   0.14243200
4262.00   24.13657570   0.14206250
4264.00   24.17009354   0.14221355
4266.00   23.63102150   0.14049160
4268.00   23.74217606   0.14049090
4270.00   23.97015190   0.14059097
4272.00   23.81063271   0.13999960
4274.00   23.42446327   0.13887559
4276.00   23.46398735   0.13926676
4278.00   23.33462334   0.13890405
4280.00   23.38176346   0.13881534
4282.00   23.25843430   0.13828111
4284.00   23.10104561   0.13776721
4286.00   22.97118187   0.13703035
4288.00   22.68988037   0.13577205
4290.00   22.46618271   0.13487373
4292.00   22.46555138   0.13493347
4294.00   21.79206467   0.13319197
4296.00   21.33595085   0.13160695
4298.00   20.84552765   0.12972553
4300.00   20.58924103   0.12843136
4302.00   19.87593079   0.12621249
4304.00   19.38036537   0.12478949
4306.00   18.68131828   0.12277512
4308.00   18.22616768   0.12115099
4310.00   17.79665756   0.11976224
4312.00   17.49631310   0.12014205
4314.00   17.00706100   0.11959047
4316.00   16.63252258   0.11827435
4318.00   16.10306358   0.11646611
4320.00   15.95986080   0.11617344
4322.00   15.49101257   0.11428498
4324.00   15.24241638   0.11265230
4326.00   15.02001667   0.11163674
4328.00   14.94833565   0.11119986
4330.00   14.99148369   0.11135568
4332.00   14.88574505   0.11063630
4334.00   14.83608723   0.11050913
4336.00   14.57930470   0.10950511
4338.00   14.72727585   0.10979825
4340.00   14.90012932   0.10996059
4342.00   14.96606731   0.11035492
4344.00   15.32297039   0.11205611
4346.00   15.27793503   0.11273398
4348.00   15.45039558   0.11356064
4350.00   15.81384468   0.11398217
4352.00   15.80150127   0.11321891
4354.00   16.49218178   0.11734751
4356.00   16.77633858   0.13360384
4358.00   16.56809425   0.14404069
4360.00   17.05450630   0.13953838
4362.00   17.16846466   0.12600619
4364.00   17.80785751   0.12141919
4366.00   18.08453178   0.12058453
4368.00   18.46815300   0.12093029
4370.00   18.88005829   0.12189503
4372.00   19.29685020   0.12309100
4374.00   19.36665916   0.12368676
4376.00   19.74507904   0.12414716
4378.00   20.04458809   0.12433092
4380.00   20.13328362   0.12408503
4382.00   20.40223694   0.12422770
4384.00   20.79072189   0.12479399
4386.00   20.74372673   0.12473375
4388.00   21.33309555   0.12634456
4390.00   21.38888931   0.12635636
4392.00   21.62550926   0.12725200
4394.00   22.07397270   0.12822554
4396.00   22.23436165   0.12846692
4398.00   22.54852867   0.12957655
4400.00   22.43099785   0.12939748
4402.00   22.53156662   0.12931162
4404.00   22.76023674   0.12929541
4406.00   22.81160545   0.12921633
4408.00   23.18399620   0.13021460
4410.00   22.90240669   0.12961319
4412.00   23.04760551   0.13015068
4414.00   23.07731628   0.13024111
4416.00   22.81825638   0.12949596
4418.00   22.78231812   0.12917906
4420.00   22.66031647   0.12879486
4422.00   22.66471100   0.12838592
4424.00   22.74439621   0.12851648
4426.00   22.83764267   0.12863748
4428.00   22.86316109   0.12861875
4430.00   22.81800079   0.12809360
4432.00   22.55445480   0.13417643
4434.00   22.52115059   0.12743708
4436.00   22.77697754   0.12783293
4438.00   22.83554649   0.12811585
4440.00   22.74200630   0.12774576
4442.00   22.71930122   0.12756066
4444.00   22.81951904   0.12772971
4446.00   23.02642822   0.12814161
4448.00   23.11023521   0.12845463
4450.00   23.30701828   0.12875280
4452.00   23.53285789   0.12915082
4454.00   23.58417130   0.12885123
4456.00   23.68416214   0.12915364
4458.00   24.02532387   0.12989941
4460.00   24.31323624   0.13039738
4462.00   24.64142609   0.13120316
4464.00   24.95439339   0.13205323
4466.00   25.00491524   0.13204101
4468.00   25.24232674   0.13255946
4470.00   25.47205353   0.13302152
4472.00   25.74439812   0.13367027
4474.00   26.04879761   0.13446802
4476.00   26.30484009   0.13790521
4478.00   26.47104454   0.13594480
4480.00   26.65279198   0.13540873
4482.00   26.59796524   0.13519312
4484.00   26.75978470   0.13570514
4486.00   27.05183601   0.13637398
4488.00   27.53891182   0.13734138
4490.00   27.40091133   0.13705420
4492.00   27.66599846   0.13761716
4494.00   27.66531754   0.13754076
4496.00   28.15225792   0.13856275
4498.00   27.87178230   0.13789114
4500.00   27.79261208   0.13773096
4502.00   27.77872276   0.13763991
4504.00   27.86962318   0.13774817
4506.00   27.92192268   0.13781263
4508.00   27.40814018   0.13671596
4510.00   27.77569580   0.13728398
4512.00   27.69733047   0.13692755
4514.00   27.98921013   0.13738921
4516.00   27.58677101   0.13642478
4518.00   27.68295670   0.13648291
4520.00   27.98411179   0.13720725
4522.00   27.60744476   0.13630955
4524.00   27.70125389   0.13625036
4526.00   27.78998184   0.13626051
4528.00   27.87095261   0.13629635
4530.00   27.94314003   0.13640022
4532.00   28.10448074   0.13675912
4534.00   27.86596107   0.13617650
4536.00   28.32675171   0.13711397
4538.00   28.48664093   0.13742460
4540.00   27.96590805   0.13639480
4542.00   28.02635956   0.13667969
4544.00   28.27523994   0.13703306
4546.00   28.27189636   0.13689803
4548.00   28.23966026   0.13656922
4550.00   28.43359375   0.13669305
4552.00   28.38688850   0.13662231
4554.00   28.19173622   0.13611476
4556.00   28.39349174   0.13668311
4558.00   28.00173950   0.13582458
4560.00   27.73214722   0.13514931
4562.00   27.48269844   0.13452682
4564.00   27.38710213   0.13387249
4566.00   27.15650749   0.13346237
4568.00   27.26262856   0.13361539
4570.00   26.80149841   0.13256732
4572.00   26.70053864   0.13239592
4574.00   26.73836517   0.13252878
4576.00   26.99921989   0.13298610
4578.00   26.54825020   0.13170969
4580.00   26.44895363   0.13119975
4582.00   26.53913307   0.13119653
4584.00   26.64835930   0.13144284
4586.00   26.32838821   0.13069469
4588.00   26.45415878   0.13104616
4590.00   26.29146004   0.13069767
4592.00   26.36925507   0.13078710
4594.00   26.41997719   0.13088864
4596.00   26.04890060   0.12996994
4598.00   26.20862007   0.13029993
4600.00   26.23279572   0.13007435
4602.00   26.20098495   0.13003004
4604.00   26.15572166   0.12988031
4606.00   26.40436935   0.13052922
4608.00   26.23029900   0.13012937
4610.00   26.16696358   0.12989591
4612.00   26.50308037   0.13047311
4614.00   26.40658569   0.13011451
4616.00   26.31620979   0.12977645
4618.00   26.25759697   0.12964696
4620.00   26.30464554   0.12965634
4622.00   26.44187927   0.12988362
4624.00   26.52851486   0.13000888
4626.00   26.50379372   0.12993056
4628.00   26.25420570   0.12940201
4630.00   26.34354782   0.12946546
4632.00   26.27189255   0.12918216
4634.00   26.31446266   0.12916242
4636.00   26.30364799   0.12903966
4638.00   25.98352242   0.12818341
4640.00   26.16127205   0.12856276
4642.00   25.96257782   0.12805672
4644.00   26.01820564   0.12799850
4646.00   25.72700500   0.12726200
4648.00   25.83812523   0.12743320
4650.00   25.31424332   0.12644450
4652.00   25.02630043   0.12561758
4654.00   24.74774742   0.12490191
4656.00   24.12053871   0.12351320
4658.00   24.01171303   0.12335122
4660.00   23.57765770   0.12233520
4662.00   23.31695366   0.12182727
4664.00   23.21366692   0.12156221
4666.00   22.81710243   0.12064219
4668.00   22.38957596   0.11978485
4670.00   22.23492813   0.11949997
4672.00   22.21365166   0.11930466
4674.00   21.89211082   0.11843153
4676.00   21.97907448   0.11840691
4678.00   21.93331909   0.11801602
4680.00   22.00876617   0.11802582
4682.00   21.74351311   0.11737111
4684.00   21.55168152   0.11664925
4686.00   21.58488655   0.11653937
4688.00   21.53828812   0.11645100
4690.00   21.55791473   0.11639773
4692.00   21.70553589   0.11664349
4694.00   21.62968636   0.11649107
4696.00   21.62344170   0.11631107
4698.00   21.46135139   0.11577381
4700.00   21.54501915   0.11579953
4702.00   21.54995155   0.11576810
4704.00   21.80429649   0.11650902
4706.00   21.83310699   0.11662599
4708.00   21.69729614   0.11635252
4710.00   21.94815636   0.11694068
4712.00   22.11188507   0.11728226
4714.00   22.03978920   0.11697175
4716.00   22.01717186   0.11682983
4718.00   22.18919945   0.11724588
4720.00   22.20657730   0.11732532
4722.00   22.53764915   0.11800047
4724.00   22.53713608   0.11782014
4726.00   22.49841690   0.11796863
4728.00   22.28779984   0.11793494
4730.00   22.52586746   0.11859070
4732.00   22.53384972   0.11855010
4734.00   22.33712578   0.11821539
4736.00   22.44132805   0.11857110
4738.00   22.34019089   0.11854050
4740.00   22.37637711   0.11895847
4742.00   22.15806198   0.11878300
4744.00   22.15924644   0.11830427
4746.00   21.89648628   0.11680740
4748.00   21.75588036   0.11587535
4750.00   21.60227394   0.11530887
4752.00   21.19919968   0.11438292
4754.00   21.03857803   0.11381588
4756.00   20.85923195   0.11290803
4758.00   20.74654198   0.11238588
4760.00   20.59422493   0.11174888
4762.00   20.38936996   0.11115887
4764.00   19.92462730   0.10983215
4766.00   19.73936653   0.10924532
4768.00   19.41266060   0.10842237
4770.00   19.27580452   0.10795663
4772.00   19.29740715   0.10800409
4774.00   19.13822556   0.10765045
4776.00   19.08104706   0.10773262
4778.00   19.18742943   0.10821585
4780.00   18.96054268   0.10752878
4782.00   18.96943283   0.10722557
4784.00   19.12093544   0.10738038
4786.00   18.85309219   0.10655671
4788.00   19.00812531   0.10686836
4790.00   19.17074776   0.10724971
4792.00   19.11013222   0.10717557
4794.00   19.21266365   0.10732902
4796.00   19.35165405   0.10746263
4798.00   19.86570549   0.10867526
4800.00   19.55600739   0.10784438
4802.00   19.89291573   0.10863238
4804.00   20.17393494   0.10921356
4806.00   20.02275848   0.10883571
4808.00   20.21175766   0.10928327
4810.00   20.31968689   0.10945249
4812.00   20.20639992   0.10921519
4814.00   20.50976562   0.10986757
4816.00   20.68269157   0.11021503
4818.00   20.68004036   0.11011026
4820.00   20.69357872   0.11027852
4822.00   20.60054779   0.10993927
4824.00   20.61849976   0.10985368
4826.00   20.35688400   0.10928224
4828.00   20.24399948   0.10898356
4830.00   20.24717903   0.10887254
4832.00   20.06782913   0.10843868
4834.00   19.82142639   0.10778122
4836.00   19.59763527   0.10738715
4838.00   19.22933197   0.11538748
4840.00   18.89159966   0.10654043
4842.00   18.58724403   0.10434137
4844.00   18.03614426   0.10282063
4846.00   17.58219719   0.10166600
4848.00   17.03977013   0.10015745
4850.00   16.68537140   0.09917711
4852.00   16.14125633   0.09759100
4854.00   15.72140121   0.09620555
4856.00   15.39493465   0.09497218
4858.00   14.92912292   0.09341734
4860.00   14.54312229   0.09212344
4862.00   14.17622185   0.09122410
4864.00   13.87718296   0.09029417
4866.00   13.37714481   0.08899291
4868.00   13.14976120   0.08862345
4870.00   12.86494350   0.08740040
4872.00   12.82100868   0.08720673
4874.00   12.53561687   0.08635359
4876.00   12.37495232   0.08590201
4878.00   12.31085587   0.08560415
4880.00   12.11688232   0.08509707
4882.00   11.85344410   0.08422173
4884.00   11.80392075   0.08382738
4886.00   11.85699368   0.08381486
4888.00   11.90332890   0.08380304
4890.00   11.82309628   0.08354541
4892.00   11.90617752   0.08389582
4894.00   11.96568775   0.08408517
4896.00   12.07294369   0.08441873
4898.00   12.01494122   0.08418752
4900.00   12.31160164   0.08492990
4902.00   12.55486202   0.08559772
4904.00   12.77010727   0.08611435
4906.00   13.10791874   0.08710678
4908.00   13.17627144   0.08727340
4910.00   13.53741264   0.08825039
4912.00   13.62503815   0.08846299
4914.00   13.87372017   0.08924388
4916.00   14.02830410   0.08957780
4918.00   14.21944427   0.08981781
4920.00   14.57154846   0.09070707
4922.00   14.68064690   0.09096588
4924.00   14.77644062   0.09118361
4926.00   14.90302467   0.09146205
4928.00   15.07740307   0.09182823
4930.00   15.08076477   0.09173311
4932.00   15.29053783   0.09227632
4934.00   15.30782604   0.09231868
4936.00   15.38059711   0.09237278
4938.00   15.43157578   0.09245504
4940.00   15.44869995   0.09257146
4942.00   15.70062828   0.09315070
4944.00   15.71986675   0.09312943
4946.00   15.58864403   0.09267603
4948.00   15.83456230   0.09337179
4950.00   15.95881081   0.09373280
4952.00   15.90414524   0.09369592
4954.00   16.11935425   0.09418297
4956.00   16.38232422   0.09463125
4958.00   16.65479469   0.09523309
4960.00   16.73989105   0.09550899
4962.00   16.78944588   0.09569895
4964.00   16.95463371   0.09609241
4966.00   16.98574829   0.09622911
4968.00   17.03016663   0.09640731
4970.00   16.96772385   0.09639580
4972.00   16.98781967   0.09687603
4974.00   16.93380165   0.09697101
4976.00   17.05253601   0.09782444
4978.00   16.94282913   0.09800393
4980.00   16.82532310   0.09826506
4982.00   16.86139870   0.09847795
4984.00   17.03281784   0.09900028
4986.00   16.95549965   0.09840565
4988.00   16.98964500   0.09802967
4990.00   17.03251839   0.09779920
4992.00   16.93392944   0.09691346
4994.00   16.99567604   0.09663574
4996.00   17.04936409   0.09642227
4998.00   17.08007050   0.09615520
5000.00   17.16686630   0.09615029
5002.00   17.02987480   0.09575585
5004.00   16.93807220   0.09535392
5006.00   16.95541954   0.09523726
5008.00   17.00118637   0.09541553
5010.00   17.21072006   0.09577699
5012.00   17.10285759   0.09554522
5014.00   17.23762131   0.09598938
5016.00   17.18793869   0.09573944
5018.00   17.53657913   0.09670576
5020.00   17.30224037   0.09625629
5022.00   17.39432335   0.09635696
5024.00   17.55436325   0.09681225
5026.00   17.67801857   0.09690879
5028.00   17.43787766   0.09654376
5030.00   17.44254875   0.09664870
5032.00   17.57789040   0.09699988
5034.00   17.41890907   0.09647270
5036.00   17.22838402   0.09584792
5038.00   17.32090950   0.09592851
5040.00   17.53229904   0.09631061
5042.00   17.13875198   0.09548566
5044.00   17.13781548   0.09564011
5046.00   17.15013313   0.09566159
5048.00   17.09031677   0.09554417
5050.00   17.22668648   0.09582872
5052.00   17.10604286   0.09561693
5054.00   16.95024109   0.09516908
5056.00   16.90412712   0.09518775
5058.00   17.01508713   0.09546728
5060.00   17.33404350   0.09643454
5062.00   17.53970718   0.09725451
5064.00   17.51149750   0.09725852
5066.00   17.51429176   0.09740159
5068.00   17.77001190   0.09834289
5070.00   17.85103035   0.09863276
5072.00   18.00358200   0.09882618
5074.00   17.88706970   0.09849983
5076.00   17.94811058   0.09850557
5078.00   18.07578468   0.09906324
5080.00   18.14076996   0.10023791
5082.00   18.20673370   0.10143295
5084.00   18.28697968   0.10235120
5086.00   18.31836128   0.10241295
5088.00   18.26874733   0.10160375
5090.00   18.63227081   0.10163718
5092.00   18.42535019   0.10045905
5094.00   18.54949379   0.10059240
5096.00   18.59437180   0.10073903
5098.00   18.94404411   0.10200978
5100.00   19.05211830   0.10237096
5102.00   19.13897514   0.10224681
5104.00   19.14556694   0.10199822
5106.00   19.33696365   0.10228994
5108.00   19.21468353   0.10191485
5110.00   19.25725555   0.10211688
5112.00   19.33153534   0.10247290
5114.00   19.59175301   0.10327722
5116.00   19.72764397   0.10374054
5118.00   19.73769569   0.10369958
5120.00   19.72959900   0.10366371
5122.00   19.80678177   0.10365935
5124.00   20.03873825   0.10428316
5126.00   19.70876694   0.10353604
5128.00   19.69668198   0.10360273
5130.00   19.90842438   0.10407662
5132.00   19.85688972   0.10413662
5134.00   19.91643333   0.10439967
5136.00   19.77086639   0.10409159
5138.00   19.82083321   0.10421905
5140.00   19.73708344   0.10406097
5142.00   19.52109146   0.10373377
5144.00   19.40011597   0.10361025
5146.00   19.35582352   0.10376609
5148.00   19.08429527   0.10340658
5150.00   19.07082939   0.10372733
5152.00   18.69643021   0.10314263
5154.00   18.71366501   0.10338087
5156.00   18.51259995   0.10272651
5158.00   18.12984276   0.10170217
5160.00   18.38727951   0.10218896
5162.00   18.27074051   0.10171440
5164.00   18.06609726   0.10102593
5166.00   18.11840439   0.10102843
5168.00   17.85314560   0.10029948
5170.00   18.04341507   0.10093648
5172.00   17.75220871   0.10023841
5174.00   17.57457733   0.10007344
5176.00   17.54307365   0.10024799
5178.00   17.36688042   0.09994201
5180.00   17.36637878   0.09994688
5182.00   17.26363373   0.09962991
5184.00   17.17530251   0.09938689
5186.00   17.41197586   0.10030492
5188.00   17.26447296   0.10015886
5190.00   17.33148193   0.10057272
5192.00   17.37637711   0.10070164
5194.00   17.36096573   0.10092337
5196.00   17.51639366   0.10159873
5198.00   17.50572586   0.10175572
5200.00   17.58876228   0.10215589
5202.00   17.60517311   0.10235407
5204.00   17.78659630   0.10281874
5206.00   17.86745644   0.10319121
5208.00   17.63180542   0.10292926
5210.00   17.88562584   0.10393256
5212.00   18.14928627   0.10477090
5214.00   18.13366699   0.10477367
5216.00   18.15428734   0.10507592
5218.00   18.48934555   0.10613760
5220.00   18.34212685   0.10605858
5222.00   18.36037827   0.10619389
5224.00   18.50293159   0.10662077
5226.00   18.54376602   0.10677259
5228.00   18.51707268   0.10707057
5230.00   18.45708847   0.10710969
5232.00   18.46748734   0.10721610
5234.00   18.47238159   0.10744046
5236.00   18.41627693   0.10760926
5238.00   18.43238640   0.10802764
5240.00   18.27595901   0.10772975
5242.00   18.14930534   0.10765507
5244.00   17.84041595   0.10697051
5246.00   17.47856522   0.10605758
5248.00   17.35278320   0.10585059
5250.00   17.29224396   0.10577156
5252.00   17.22289658   0.10591540
5254.00   16.69851303   0.10473130
5256.00   16.49930000   0.10456011
5258.00   16.33066750   0.10435140
5260.00   16.12422752   0.10377368
5262.00   15.75895119   0.10268130
5264.00   15.41513443   0.10168599
5266.00   15.43498516   0.10185378
5268.00   15.22998428   0.10126835
5270.00   14.97625065   0.10077862
5272.00   14.81044674   0.10046663
5274.00   14.37027836   0.09939235
5276.00   14.29251289   0.09945086
5278.00   14.45107841   0.10021816
5280.00   13.96614552   0.09888259
5282.00   13.90315533   0.09882186
5284.00   13.90708065   0.09921682
5286.00   13.79824543   0.09916762
5288.00   13.56083393   0.09860068
5290.00   13.52544498   0.09867221
5292.00   13.34885025   0.09811135
5294.00   13.08576775   0.09746090
5296.00   13.33987999   0.09845287
5298.00   13.12962818   0.09787455
5300.00   12.86953926   0.09736297
5302.00   12.94600296   0.09786411
5304.00   13.04686356   0.09831502
5306.00   12.94102192   0.09820072
5308.00   13.10338783   0.09888486
5310.00   13.01411819   0.09912460
5312.00   13.16589832   0.09964271
5314.00   13.14632988   0.09982329
5316.00   13.14290905   0.09998956
5318.00   13.08437824   0.09987155
5320.00   13.07649517   0.10005111
5322.00   13.19263649   0.10054801
5324.00   13.28494644   0.10114790
5326.00   13.21640396   0.10120699
5328.00   13.37895203   0.10182460
5330.00   12.92403889   0.10069533
5332.00   12.79276752   0.10055224
5334.00   12.90103149   0.10112584
5336.00   12.85595608   0.10126746
5338.00   12.87461567   0.10159881
5340.00   12.69503498   0.10141239
5342.00   12.83055210   0.10210996
5344.00   12.88134289   0.10253389
5346.00   12.70518684   0.10234654
5348.00   12.84849930   0.10331547
5350.00   12.94795227   0.10392396
5352.00   12.99285507   0.10444237
5354.00   13.00545788   0.10496173
5356.00   13.08437252   0.10547205
5358.00   13.32004452   0.10619850
5360.00   13.56410599   0.10721547
5362.00   13.55813122   0.10705937
5364.00   13.71190357   0.10773417
5366.00   13.46103191   0.10710908
5368.00   13.46982098   0.10727829
5370.00   13.77741528   0.10879681
5372.00   13.62215328   0.10873307
5374.00   13.89724255   0.11028639
5376.00   13.70322323   0.10994568
5378.00   13.78825665   0.11048938
5380.00   13.53907585   0.10986955
5382.00   13.62701893   0.11023843
5384.00   13.93981361   0.11167603
5386.00   13.70524979   0.11104669
5388.00   13.59439373   0.11123365
5390.00   13.58356285   0.11181440
5392.00   13.35977554   0.11137192
5394.00   13.39991188   0.11167358
5396.00   13.43883991   0.11188877
5398.00   13.53911209   0.11270002
5400.00   13.51112270   0.11286907
5402.00   13.51235390   0.11307099
5404.00   13.72504330   0.11423023
5406.00   13.65487385   0.11433753
5408.00   13.43324566   0.11403372
5410.00   13.38761044   0.11444491
5412.00   13.62428570   0.11573780
5414.00   13.31622601   0.11541063
5416.00   13.23717117   0.11574208
5418.00   13.20134354   0.11574183
5420.00   13.47069359   0.11717238
5422.00   13.26315498   0.11667356
5424.00   13.22109127   0.11668852
5426.00   13.05507755   0.11631488
5428.00   12.83219528   0.11563265
5430.00   12.79401112   0.11569488
5432.00   12.88174915   0.11654434
5434.00   12.66034985   0.11596690
5436.00   12.73412132   0.11661425
5438.00   12.60815811   0.11672816
5440.00   12.39490795   0.11617247
5442.00   12.46724224   0.11679946
5444.00   12.42356300   0.11703753
5446.00   12.18818378   0.11643144
5448.00   12.04627705   0.04783547
5450.00   11.88195038   0.04462145
5452.00   11.77124119   0.04289836
5454.00   11.69572544   0.04154423
5456.00   11.58596325   0.04139245
5458.00   11.43781853   0.04242099
5460.00   11.33929729   0.04386083
5462.00   11.28887558   0.04692027
5464.00   11.24505138   0.04872226
5466.00   11.19032001   0.04753516
5468.00   11.13453007   0.04452920
5470.00   11.07287312   0.04347359
5472.00   10.98454189   0.04324229
5474.00   10.94538498   0.04335166
5476.00   10.95604897   0.04466287
5478.00   10.95575523   0.04517476
5480.00   10.92057133   0.04417318
5482.00   10.87921429   0.04247641
5484.00   10.87783718   0.04141925
5486.00   10.90479946   0.04030738
5488.00   10.93306446   0.03999600
5490.00   10.98573399   0.04111009
5492.00   11.01947784   0.04110510
5494.00   11.01383495   0.03919711
5496.00   11.01311684   0.03701151
5498.00   11.07170391   0.03681094
5500.00   11.17058277   0.03800620
5502.00   11.27858067   0.03834375
5504.00   11.41685200   0.03857530
5506.00   11.55103874   0.03864555
5508.00   11.67753315   0.03837688
5510.00   11.81635571   0.03820495
5512.00   11.99399948   0.03851746
5514.00   12.20045471   0.03913030
5516.00   12.32204819   0.03947477
5518.00   12.34719563   0.04000790
5520.00   12.44075775   0.03988427
5522.00   12.59152794   0.03679369
5524.00   12.72852135   0.03720570
5526.00   12.81343746   0.04534833
5528.00   12.87808990   0.05501869
5530.00   12.99346828   0.05727319
5532.00   13.13069820   0.05515493
5534.00   13.29987526   0.05323337
5536.00   13.51708508   0.04830782
5538.00   13.72878075   0.04482170
5540.00   13.93379307   0.04401606
5542.00   14.12948990   0.04498720
5544.00   14.30008221   0.04744913
5546.00   14.48426342   0.05249792
5548.00   14.52088737   0.05380467
5550.00   14.33863163   0.05333101
5552.00   14.30119610   0.05174680
5554.00   14.45424271   0.04766833
5556.00   14.64227676   0.04335909
5558.00   14.73362541   0.04254662
5560.00   14.78530121   0.04426083
5562.00   14.81782818   0.04458896
5564.00   14.81403065   0.04520227
5566.00   14.80679703   0.04490458
5568.00   14.77457333   0.04311050
5570.00   14.75566769   0.04166153
5572.00   14.78848553   0.04207541
5574.00   14.85088921   0.04352018
5576.00   14.83704472   0.04369124
5578.00   14.75404453   0.04315670
5580.00   14.70129871   0.04274547
5582.00   14.64126968   0.04189309
5584.00   14.60488701   0.04151524
5586.00   14.60253048   0.04224438
5588.00   14.62579632   0.04336037
5590.00   14.67108727   0.04321563
5592.00   14.76640034   0.04149791
5594.00   14.80732727   0.04185361
5596.00   14.79988289   0.04462611
5598.00   14.81746769   0.04553507
5600.00   14.88435173   0.04342737
5602.00   14.95512295   0.04046686
5604.00   14.96380520   0.03997587
5606.00   14.91076851   0.04119220
5608.00   14.95490742   0.04112899
5610.00   15.09526730   0.04039222
5612.00   15.18074322   0.04002146
5614.00   15.21107197   0.03983279
5616.00   15.22486496   0.03999750
5618.00   15.24893570   0.04087858
5620.00   15.27283096   0.04235564
5622.00   15.26250172   0.04301906
5624.00   15.20949650   0.04375229
5626.00   15.17774200   0.04332166
5628.00   15.17862415   0.04051363
5630.00   15.14997768   0.03884058
5632.00   15.03995800   0.04085554
5634.00   14.88754082   0.04464342
5636.00   14.83827972   0.04653719
5638.00   14.86388588   0.04907538
5640.00   14.88381863   0.04853170
5642.00   14.94226360   0.04396887
5644.00   14.98134232   0.04037967
5646.00   14.97712612   0.03981504
5648.00   14.95935154   0.04059450
5650.00   14.97790718   0.04082714
5652.00   15.02566910   0.04151424
5654.00   15.04885864   0.04145886
5656.00   15.06407261   0.04075800
5658.00   15.07114887   0.04019736
5660.00   15.06662941   0.03962173
5662.00   15.05755520   0.03929873
5664.00   15.05685329   0.03985805
5666.00   15.06632042   0.04129405
5668.00   15.03182411   0.04146729
5670.00   14.93592262   0.04069203
5672.00   14.88724899   0.04018111
5674.00   14.87235928   0.03965338
5676.00   14.88533115   0.03936068
5678.00   14.94570255   0.03937520
5680.00   15.04746342   0.03962860
5682.00   15.03533745   0.04149514
5684.00   14.89222527   0.04646526
5686.00   14.84817028   0.04744724
5688.00   14.87510014   0.04493221
5690.00   14.90452671   0.04239015
5692.00   14.91617870   0.04126198
5694.00   14.92167091   0.04073875
5696.00   14.90618992   0.04085491
5698.00   14.85801125   0.04258464
5700.00   14.83873653   0.04237397
5702.00   14.84476471   0.04036156
5704.00   14.83460712   0.03904557
5706.00   14.80208969   0.03927188
5708.00   14.75476170   0.03991126
5710.00   14.69328117   0.03948160
5712.00   14.61029434   0.03820323
5714.00   14.54156590   0.03787306
5716.00   14.48305511   0.03839267
5718.00   14.41335297   0.03841940
5720.00   14.32124233   0.03775043
5722.00   14.23443413   0.03703276
5724.00   14.19031239   0.03688604
5726.00   14.18386555   0.03708049
5728.00   14.09684849   0.03721810
5730.00   13.96348572   0.03728000
5732.00   13.79895115   0.03773684
5734.00   13.57047749   0.03910964
5736.00   13.35143089   0.03986581
5738.00   13.20319462   0.03882856
5740.00   13.09020805   0.03660690
5742.00   12.88200474   0.03592154
5744.00   12.57230854   0.03656466
5746.00   12.33407497   0.03624778
5748.00   12.12810516   0.03533620
5750.00   11.93734646   0.03441894
5752.00   11.76638412   0.03360908
5754.00   11.60589314   0.03286767
5756.00   11.41481018   0.03247489
5758.00   11.18845844   0.03244061
5760.00   11.00672436   0.03236815
5762.00   10.84910297   0.03247732
5764.00   10.70495701   0.03248432
5766.00   10.57472229   0.03216800
5768.00   10.45754242   0.03194835
5770.00   10.34953785   0.03244175
5772.00   10.25148392   0.03338013
5774.00   10.16840363   0.03467942
5776.00   10.10214710   0.03722078
5778.00   10.04217434   0.03819808
5780.00   9.98724842   0.03721200
5782.00   9.94290352   0.03610282
5784.00   9.91166973   0.03665362
5786.00   9.89142227   0.03815697
5788.00   9.89710617   0.03803471
5790.00   9.93358040   0.03685266
5792.00   9.96901035   0.03554936
5794.00   10.00714111   0.03331984
5796.00   10.05543232   0.03151696
5798.00   10.11547565   0.03123127
5800.00   10.18684196   0.03183075
5802.00   10.27740097   0.03168802
5804.00   10.39395237   0.03089206
5806.00   10.50398731   0.03110546
5808.00   10.62753868   0.03242154
5810.00   10.73534775   0.03320526
5812.00   10.81042194   0.03274838
5814.00   10.87605858   0.03203249
5816.00   10.97547150   0.03291715
5818.00   11.08310318   0.03508053
5820.00   11.23777771   0.03636963
5822.00   11.47929478   0.03803373
5824.00   11.65551281   0.03844718
5826.00   11.75418472   0.03672235
5828.00   11.81318665   0.03477397
5830.00   11.84806156   0.03551529
5832.00   11.83139610   0.03826381
5834.00   11.91871452   0.03833565
5836.00   12.08593464   0.03615868
5838.00   12.25103855   0.03516588
5840.00   12.45461369   0.03540627
5842.00   12.62994480   0.03570912
5844.00   12.71225548   0.03529573
5846.00   12.73186779   0.03452725
5848.00   12.80461788   0.03439695
5850.00   12.91313076   0.03474892
5852.00   12.98391247   0.03499557
5854.00   13.00563335   0.03536670
5856.00   13.05365849   0.03562574
5858.00   13.17051697   0.03561009
5860.00   13.31903839   0.03547288
5862.00   13.41423321   0.03562292
5864.00   13.46366978   0.03616429
5866.00   13.55326080   0.03616703
5868.00   13.68668270   0.03569311
5870.00   13.78133965   0.03534808
5872.00   13.80410957   0.03506349
5874.00   13.80781555   0.03501651
5876.00   13.87359428   0.03572496
5878.00   13.98419571   0.03693939
5880.00   14.06091309   0.03864747
5882.00   14.17044163   0.04146981
5884.00   14.18667316   0.04326478
5886.00   14.05533123   0.04330588
5888.00   13.91585350   0.04383472
5890.00   13.90216732   0.04733676
5892.00   13.95455742   0.05274769
5894.00   14.06307602   0.05470827
5896.00   14.30449867   0.05514431
5898.00   14.44600964   0.05452321
5900.00   14.49199867   0.05262684
5902.00   14.53587627   0.04956925
5904.00   14.63092136   0.04448297
5906.00   14.74712563   0.03710498
5908.00   14.83739471   0.03398811
5910.00   14.94744110   0.03560755
5912.00   14.98024273   0.03575792
5914.00   14.92071724   0.03625898
5916.00   14.87855053   0.03668346
5918.00   14.87749481   0.03672336
5920.00   14.90337753   0.03674147
5922.00   14.98545551   0.03750188
5924.00   15.17160892   0.03817917
5926.00   15.22628498   0.04072916
5928.00   15.20921707   0.04663995
5930.00   15.15422153   0.04893814
5932.00   15.01711655   0.04657337
5934.00   14.88276005   0.04227766
5936.00   14.90467834   0.03961224
5938.00   15.06152916   0.03693427
5940.00   15.09263802   0.03572256
5942.00   15.04062462   0.03629074
5944.00   15.02946568   0.03672878
5946.00   15.06412125   0.03736543
5948.00   15.10004520   0.03795840
5950.00   15.10844517   0.03820334
5952.00   15.10358143   0.03825837
5954.00   15.07670689   0.03804830
5956.00   14.99001312   0.03675856
5958.00   14.97488880   0.03707647
5960.00   15.04040051   0.03945761
5962.00   15.09258842   0.04112486
5964.00   15.08724308   0.04090457
5966.00   15.05221939   0.03963191
5968.00   15.01137257   0.03835763
5970.00   14.92495823   0.03570004
5972.00   14.89833355   0.03483798
5974.00   14.91937160   0.03567977
5976.00   14.93700886   0.03618071
5978.00   14.94268703   0.03567283
5980.00   14.94344139   0.03498898
5982.00   14.93539715   0.03539565
5984.00   14.92528343   0.03672733
5986.00   14.88964367   0.03740852
5988.00   14.80024338   0.03841241
5990.00   14.76155090   0.03834464
5992.00   14.79443836   0.03645537
5994.00   14.84635448   0.03426429
5996.00   14.86868286   0.03400344
5998.00   14.88775253   0.03508590
6000.00   14.86346436   0.03517069
6002.00   14.77504063   0.03501021
6004.00   14.72784996   0.03463851
6006.00   14.72850132   0.03385302
6008.00   14.72316933   0.03308816
6010.00   14.67032909   0.03223252
6012.00   14.58987999   0.03127651
6014.00   14.55316639   0.03378409
6016.00   14.55455589   0.04078595
6018.00   14.53194332   0.04293425
6020.00   14.50738716   0.04215156
6022.00   14.46242619   0.04069400
6024.00   14.38560772   0.03899569
6026.00   14.28716850   0.03684368
6028.00   14.18932247   0.03579130
6030.00   14.05568504   0.03592394
6032.00   13.98904419   0.03513554
6034.00   14.00427151   0.03367363
6036.00   13.97264481   0.03251774
6038.00   13.85838223   0.03159805
6040.00   13.71699429   0.03119883
6042.00   13.61839581   0.03228561
6044.00   13.54118919   0.03495788
6046.00   13.45002842   0.03605710
6048.00   13.37069988   0.03607796
6050.00   13.25904274   0.03676279
6052.00   13.11727238   0.03892669
6054.00   12.94869232   0.04034510
6056.00   12.75124931   0.03862667
6058.00   12.52456379   0.03400228
6060.00   12.28269100   0.03263372
6062.00   11.97206783   0.03405938
6064.00   11.74789429   0.03404750
6066.00   11.62341976   0.03295513
6068.00   11.49532509   0.03180105
6070.00   11.31397724   0.03119356
6072.00   11.10584259   0.03081100
6074.00   10.84585953   0.02997107
6076.00   10.51890469   0.02859909
6078.00   10.20480442   0.02764041
6080.00   9.87466621   0.02682195
6082.00   9.54862690   0.02626730
6084.00   9.23128700   0.02599889
6086.00   8.91975784   0.02604002
6088.00   8.61872292   0.02657590
6090.00   8.33358669   0.02830691
6092.00   8.03537083   0.02799170
6094.00   7.71632671   0.02547196
6096.00   7.42426109   0.02380949
6098.00   7.16145897   0.02385502
6100.00   6.92286730   0.02434010
6102.00   6.71375370   0.02389464
6104.00   6.54168129   0.02284800
6106.00   6.34590435   0.02256696
6108.00   6.12227106   0.02305160
6110.00   5.94297791   0.02302258
6112.00   5.81740332   0.02238548
6114.00   5.70418358   0.02168380
6116.00   5.57293940   0.02135935
6118.00   5.43803024   0.02123142
6120.00   5.30360460   0.02101840
6122.00   5.14917660   0.02092684
6124.00   5.03636074   0.02059842
6126.00   4.96377563   0.01969739
6128.00   4.90113878   0.01923400
6130.00   4.83101606   0.01967210
6132.00   4.76598740   0.02072392
6134.00   4.73560190   0.02243340
6136.00   4.75014734   0.02617248
6138.00   4.73867178   0.02660620
6140.00   4.72618198   0.02439664
6142.00   4.70107508   0.02233176
6144.00   4.64720678   0.02104261
6146.00   4.58964205   0.02017680
6148.00   4.58351994   0.02021885
6150.00   4.61401987   0.02149834
6152.00   4.65037203   0.02171792
6154.00   4.71337700   0.02120793
6156.00   4.76971388   0.02113595
6158.00   4.81088495   0.02187823
6160.00   4.85779953   0.02252072
6162.00   4.93672752   0.02202440
6164.00   5.04472685   0.02053123
6166.00   5.11455154   0.02016371
6168.00   5.14197874   0.02068743
6170.00   5.20851278   0.02079554
6172.00   5.31627607   0.02052897
6174.00   5.43000317   0.02028114
6176.00   5.52792311   0.02024508
6178.00   5.62103796   0.02032174
6180.00   5.71914911   0.02073445
6182.00   5.80992651   0.02170651
6184.00   5.92274570   0.02217754
6186.00   6.06855154   0.02231042
6188.00   6.19985104   0.02241327
6190.00   6.29551220   0.02254549
6192.00   6.37279797   0.02268844
6194.00   6.45691061   0.02303370
6196.00   6.51347971   0.02390180
6198.00   6.63461351   0.02382194
6200.00   6.81024981   0.02272199
6202.00   6.99084663   0.02201325
6204.00   7.17873001   0.02195922
6206.00   7.36669970   0.02225806
6208.00   7.52696753   0.02279491
6210.00   7.66801929   0.02380094
6212.00   7.80439854   0.02416991
6214.00   7.91870022   0.02419515
6216.00   8.04956722   0.02410401
6218.00   8.19682217   0.02373296
6220.00   8.35342503   0.02338640
6222.00   8.51809978   0.02344215
6224.00   8.69369030   0.02376450
6226.00   8.85508823   0.02395781
6228.00   9.01020145   0.02415066
6230.00   9.16037369   0.02435126
6232.00   9.30773830   0.02459198
6234.00   9.44640732   0.02478842
6236.00   9.57370186   0.02472358
6238.00   9.69099522   0.02455412
6240.00   9.79496479   0.02544426
6242.00   9.85918427   0.02790985
6244.00   9.97576809   0.02855020
6246.00   10.12057400   0.02795198
6248.00   10.29151249   0.02724039
6250.00   10.52068615   0.02650460
6252.00   10.76034737   0.02580991
6254.00   10.86340904   0.02613498
6256.00   10.83386326   0.02768642
6258.00   10.88366890   0.02800865
6260.00   10.94246292   0.02763651
6262.00   11.02720833   0.02725735
6264.00   11.16086006   0.02579134
6266.00   11.29831696   0.02530792
6268.00   11.36535072   0.02977331
6270.00   11.36650658   0.03785386
6272.00   11.47055531   0.03887963
6274.00   11.68941975   0.03465611
6276.00   11.82070637   0.03185919
6278.00   11.84102535   0.02984904
6280.00   11.86165619   0.02872803
6282.00   11.97059441   0.02956473
6284.00   12.12970066   0.03198790
6286.00   12.25386715   0.03189257
6288.00   12.37418461   0.02958371
6290.00   12.48328876   0.02853997
6292.00   12.57586193   0.02799836
6294.00   12.66956711   0.02816190
6296.00   12.78103447   0.02947888
6298.00   12.89615345   0.03141085
6300.00   12.96199226   0.03212829
6302.00   12.97855759   0.03239729
6304.00   13.01083851   0.03208790
6306.00   13.01523399   0.03074393
6308.00   13.05934525   0.02964632
6310.00   13.17839813   0.02885147
6312.00   13.32227516   0.02851852
6314.00   13.40312672   0.02969812
6316.00   13.46011734   0.03288494
6318.00   13.47172165   0.03323486
6320.00   13.40757370   0.03138383
6322.00   13.37713337   0.03007155
6324.00   13.38215733   0.02934344
6326.00   13.40708542   0.02895976
6328.00   13.45217609   0.02889084
6330.00   13.52528572   0.02898239
6332.00   13.56186962   0.03061301
6334.00   13.56117535   0.03513998
6336.00   13.59135246   0.03618208
6338.00   13.69061565   0.03305108
6340.00   13.74200058   0.03011341
6342.00   13.63970757   0.03173642
6344.00   13.43598366   0.03558859
6346.00   13.37118244   0.03517590
6348.00   13.39358044   0.03036260
6350.00   13.39991188   0.02866285
6352.00   13.42607880   0.02941298
6354.00   13.44460201   0.03024901
6356.00   13.44772625   0.03059263
6358.00   13.43941689   0.03078116
6360.00   13.40784359   0.03021904
6362.00   13.32740593   0.02853564
6364.00   13.30938435   0.02776078
6366.00   13.33747768   0.02712541
6368.00   13.36331844   0.02719710
6370.00   13.39918041   0.02756882
6372.00   13.42012787   0.02896686
6374.00   13.35418415   0.03318686
6376.00   13.17629910   0.04067499
6378.00   13.17659760   0.04065774
6380.00   13.32690430   0.03289117
6382.00   13.43666935   0.02810392
6384.00   13.52215576   0.02837590
6386.00   13.58593082   0.02993326
6388.00   13.61063290   0.03019083
6390.00   13.60134983   0.03039410
6392.00   13.59140015   0.02998921
6394.00   13.54055595   0.02823292
6396.00   13.54162407   0.02798622
6398.00   13.59832668   0.02930681
6400.00   13.65758419   0.03070328
6402.00   13.69229984   0.03178206
6404.00   13.71775246   0.03272993
6406.00   13.74073410   0.03204786
6408.00   13.76502514   0.02878796
6410.00   13.76995659   0.02750581
6412.00   13.75227642   0.02747103
6414.00   13.73601913   0.02770114
6416.00   13.72782326   0.02802716
6418.00   13.72190666   0.02852354
6420.00   13.71670055   0.02888872
6422.00   13.73085117   0.02928112
6424.00   13.69006348   0.02952787
6426.00   13.59265518   0.02915980
6428.00   13.50915527   0.02970134
6430.00   13.43354988   0.03221861
6432.00   13.37562275   0.03430784
6434.00   13.36980820   0.03290436
6436.00   13.41963863   0.02791299
6438.00   13.40852070   0.02645952
6440.00   13.35772324   0.02752622
6442.00   13.31676769   0.02819056
6444.00   13.29119968   0.02905500
6446.00   13.25372505   0.02960531
6448.00   13.17799473   0.02899950
6450.00   13.07365322   0.02747220
6452.00   13.00726128   0.02787103
6454.00   12.97952843   0.03037866
6456.00   12.91504002   0.03110366
6458.00   12.80605793   0.03074330
6460.00   12.71498871   0.02991398
6462.00   12.67887592   0.02849388
6464.00   12.66968536   0.02659816
6466.00   12.62012386   0.02616193
6468.00   12.55644894   0.02702184
6470.00   12.47228718   0.02757513
6472.00   12.33851624   0.02856638
6474.00   12.24113846   0.02919870
6476.00   12.20304489   0.02946393
6478.00   12.19606781   0.02933439
6480.00   12.19143677   0.02829061
6482.00   12.21200943   0.02556135
6484.00   12.20405197   0.02516530
6486.00   12.17777538   0.02654258
6488.00   12.15226269   0.02786096
6490.00   12.12697601   0.02970414
6492.00   12.10080433   0.03102800
6494.00   12.07371044   0.03033159
6496.00   12.04395199   0.02782312
6498.00   12.02615547   0.02674366
6500.00   12.02407455   0.02622644
6502.00   12.01099205   0.02590791
6504.00   11.99324703   0.02600529
6506.00   11.96603203   0.02617276
6508.00   11.92529678   0.02604616
6510.00   11.87314034   0.02580765
6512.00   11.80890179   0.02642365
6514.00   11.71167183   0.02810764
6516.00   11.65105915   0.02888516
6518.00   11.60699463   0.02944406
6520.00   11.58670998   0.02939006
6522.00   11.60733986   0.02816775
6524.00   11.64815426   0.02630154
6526.00   11.63749599   0.02594765
6528.00   11.58613777   0.02685933
6530.00   11.55355453   0.02717816
6532.00   11.51593113   0.02760339
6534.00   11.49019623   0.02773908
6536.00   11.48800278   0.02731376
6538.00   11.48876476   0.02680402
6540.00   11.45730591   0.02709514
6542.00   11.39717960   0.02818350
6544.00   11.36687088   0.02806345
6546.00   11.34925270   0.02675449
6548.00   11.34034538   0.02606546
6550.00   11.35321712   0.02628077
6552.00   11.35993195   0.02648691
6554.00   11.32808495   0.02572346
6556.00   11.26816940   0.02415233
6558.00   11.23379040   0.02446760
6560.00   11.22457886   0.02677267
6562.00   11.18480396   0.02771907
6564.00   11.10393906   0.02785058
6566.00   11.03492355   0.02765631
6568.00   11.01204777   0.02715602
6570.00   11.01409149   0.02635769
6572.00   10.98917198   0.02629608
6574.00   10.94405556   0.02734655
6576.00   10.91766357   0.02704502
6578.00   10.89510727   0.02525082
6580.00   10.88771439   0.02403519
6582.00   10.91140461   0.02422279
6584.00   10.94403648   0.02510858
6586.00   10.92793465   0.02595979
6588.00   10.87110710   0.02740240
6590.00   10.83207893   0.02786726
6592.00   10.79188442   0.02758376
6594.00   10.75372505   0.02739043
6596.00   10.70642853   0.02715085
6598.00   10.67192459   0.02710784
6600.00   10.68780136   0.02794115
6602.00   10.75151157   0.02973047
6604.00   10.77506351   0.02966333
6606.00   10.80020142   0.02791661
6608.00   10.78536415   0.02668767
6610.00   10.70965481   0.02571894
6612.00   10.63381958   0.02504393
6614.00   10.61384678   0.02488121
6616.00   10.62647915   0.02516407
6618.00   10.57845879   0.02550149
6620.00   10.46483707   0.02638084
6622.00   10.40445805   0.02661622
6624.00   10.37453651   0.02644653
6626.00   10.36537552   0.02596856
6628.00   10.38511181   0.02497894
6630.00   10.42362881   0.02364490
6632.00   10.42087078   0.02325434
6634.00   10.39078712   0.02380508
6636.00   10.36051083   0.02384147
6638.00   10.30988693   0.02375901
6640.00   10.27262783   0.02365771
6642.00   10.25467491   0.02337639
6644.00   10.24978161   0.02319725
6646.00   10.26004601   0.02377045
6648.00   10.30505943   0.02472269
6650.00   10.28846169   0.02637398
6652.00   10.21161652   0.02982048
6654.00   10.15923214   0.03104537
6656.00   10.13088226   0.02970411
6658.00   10.11685944   0.02740203
6660.00   10.12078476   0.02568269
6662.00   10.14802551   0.02366343
6664.00   10.13902283   0.02295128
6666.00   10.10209656   0.02351863
6668.00   10.07226849   0.02416339
6670.00   10.04491901   0.02549549
6672.00   10.01726532   0.02643750
6674.00   9.98575783   0.02622614
6676.00   9.95221806   0.02527587
6678.00   9.93965530   0.02463057
6680.00   9.94696999   0.02367105
6682.00   9.95143700   0.02322073
6684.00   9.97553635   0.02310218
6686.00   9.97495365   0.02330397
6688.00   9.92035389   0.02403746
6690.00   9.84178925   0.02497778
6692.00   9.81368732   0.02509095
6694.00   9.81507778   0.02460218
6696.00   9.82031441   0.02417516
6698.00   9.85717392   0.02328729
6700.00   9.86853695   0.02282022
6702.00   9.83932209   0.02311018
6704.00   9.79514885   0.02361302
6706.00   9.76362705   0.02358367
6708.00   9.72278595   0.02314091
6710.00   9.73155022   0.02331828
6712.00   9.80652046   0.02411000
6714.00   9.84109974   0.02451289
6716.00   9.83198929   0.02459967
6718.00   9.80965328   0.02446487
6720.00   9.79301929   0.02403900
6722.00   9.77223206   0.02327433
6724.00   9.76084614   0.02295656
6726.00   9.77404118   0.02296756
6728.00   9.74890900   0.02288842
6730.00   9.68222427   0.02267091
6732.00   9.61281013   0.02264036
6734.00   9.55440426   0.02302828
6736.00   9.50060081   0.02366844
6738.00   9.48224545   0.02408579
6740.00   9.51077843   0.02466864
6742.00   9.51111317   0.02469758
6744.00   9.50900459   0.02417047
6746.00   9.49107552   0.02363343
6748.00   9.44978428   0.02320223
6750.00   9.39437008   0.02280029
6752.00   9.34319878   0.02248255
6754.00   9.29101181   0.02192387
6756.00   9.23028088   0.02241866
6758.00   9.14596081   0.02414797
6760.00   9.08854771   0.02523702
6762.00   9.06876659   0.02558968
6764.00   9.06309509   0.02566631
6766.00   9.04695892   0.02583372
6768.00   9.03060913   0.02605041
6770.00   9.01527119   0.02555499
6772.00   9.01271725   0.02397434
6774.00   8.98540878   0.02306478
6776.00   8.92886543   0.02292230
6778.00   8.86512661   0.02293451
6780.00   8.80387115   0.02268319
6782.00   8.73848152   0.02235932
6784.00   8.71600437   0.02223627
6786.00   8.74332047   0.02232380
6788.00   8.74603939   0.02229770
6790.00   8.74652576   0.02209938
6792.00   8.73052406   0.02206735
6794.00   8.68080711   0.02248690
6796.00   8.61335468   0.02309011
6798.00   8.58734417   0.02304731
6800.00   8.59649658   0.02230325
6802.00   8.58775997   0.02209815
6804.00   8.57626247   0.02200445
6806.00   8.56365299   0.02220929
6808.00   8.54975224   0.02299931
6810.00   8.53504181   0.02385842
6812.00   8.52017403   0.02382308
6814.00   8.49940872   0.02307471
6816.00   8.49894428   0.02260869
6818.00   8.53115749   0.02169585
6820.00   8.53504276   0.02157446
6822.00   8.49912739   0.02274020
6824.00   8.45574951   0.02392962
6826.00   8.43307781   0.02395996
6828.00   8.41616631   0.02328403
6830.00   8.42662907   0.02282136
6832.00   8.48458672   0.02205310
6834.00   8.50455666   0.02163433
6836.00   8.48727894   0.02134641
6838.00   8.46556664   0.02149572
6840.00   8.45486259   0.02257529
6842.00   8.44711399   0.02421526
6844.00   8.45839882   0.02434422
6846.00   8.50880909   0.02315038
6848.00   8.51350594   0.02249382
6850.00   8.47433758   0.02181258
6852.00   8.44345284   0.02136538
6854.00   8.43723392   0.02121480
6856.00   8.44365501   0.02136240
6858.00   8.45880508   0.02198712
6860.00   8.47882462   0.02256509
6862.00   8.52399349   0.02462458
6864.00   8.65444946   0.02899185
6866.00   8.68121338   0.03101924
6868.00   8.53858471   0.03025465
6870.00   8.34274578   0.02821727
6872.00   8.24422359   0.02654302
6874.00   8.17078209   0.02412432
6876.00   8.18133736   0.02293828
6878.00   8.32641411   0.02290254
6880.00   8.39626980   0.02283635
6882.00   8.38141823   0.02287318
6884.00   8.35028076   0.02299078
6886.00   8.35516167   0.02303631
6888.00   8.37568378   0.02305248
6890.00   8.35951424   0.02341142
6892.00   8.31468678   0.02448572
6894.00   8.27143574   0.02463817
6896.00   8.22130966   0.02356209
6898.00   8.17036057   0.02283826
6900.00   8.11854076   0.02363197
6902.00   8.06700516   0.02513253
6904.00   8.03945160   0.02541495
6906.00   8.02050400   0.02460518
6908.00   8.03345490   0.02469999
6910.00   8.11001492   0.02555875
6912.00   8.14610386   0.02601918
6914.00   8.10002804   0.02574372
6916.00   8.01958275   0.02510036
6918.00   7.98110294   0.02452867
6920.00   7.95656204   0.02367724
6922.00   7.94020987   0.02327851
6924.00   7.93883944   0.02308605
6926.00   7.93777227   0.02321892
6928.00   7.94168806   0.02405271
6930.00   7.94200706   0.02479151
6932.00   7.92226934   0.02433072
6934.00   7.88467884   0.02283930
6936.00   7.86226654   0.02213783
6938.00   7.84088802   0.02129824
6940.00   7.83137274   0.02147591
6942.00   7.83384800   0.02309766
6944.00   7.84456015   0.02463587
6946.00   7.86293268   0.02523829
6948.00   7.88978434   0.02541597
6950.00   7.91028166   0.02496969
6952.00   7.93075275   0.02313887
6954.00   7.94707203   0.02245625
6956.00   7.97010517   0.02271256
6958.00   7.97425890   0.02312163
6960.00   7.93725109   0.02349923
6962.00   7.87932158   0.02390995
6964.00   7.86750793   0.02386105
6966.00   7.89070368   0.02345445
6968.00   7.90212536   0.02295756
6970.00   7.93053484   0.02199273
6972.00   7.93438578   0.02133534
6974.00   7.88910866   0.02108544
6976.00   7.83282995   0.02121927
6978.00   7.83611584   0.02201619
6980.00   7.89464951   0.02374910
6982.00   7.89360809   0.02421418
6984.00   7.84396458   0.02399829
6986.00   7.81951809   0.02355671
6988.00   7.83077192   0.02265146
6990.00   7.84500790   0.02165632
6992.00   7.83395529   0.02114161
6994.00   7.81041336   0.02091525
6996.00   7.77245760   0.02070958
6998.00   7.68513823   0.02063835
7000.00   7.66045046   0.02063705
7002.00   7.70537567   0.02076613
7004.00   7.75676441   0.02090554
7006.00   7.78286695   0.02085846
7008.00   7.80027723   0.02073491
7010.00   7.78447676   0.02143141
7012.00   7.71331358   0.02349886
7014.00   7.68833971   0.02385744
7016.00   7.70394373   0.02271206
7018.00   7.70592117   0.02173054
7020.00   7.66628599   0.02163239
7022.00   7.61302185   0.02185829
7024.00   7.60430384   0.02170839
7026.00   7.62035608   0.02122588
7028.00   7.65336084   0.02124054
7030.00   7.74397230   0.02139682
7032.00   7.78271532   0.02199164
7034.00   7.73196077   0.02354233
7036.00   7.65949583   0.02493809
7038.00   7.65553904   0.02452050
7040.00   7.68926430   0.02235423
7042.00   7.72487831   0.02179279
7044.00   7.79554605   0.02214911
7046.00   7.83497143   0.02247777
7048.00   7.84534311   0.02300870
7050.00   7.83730459   0.02343875
7052.00   7.80973673   0.02342596
7054.00   7.75886774   0.02312468
7056.00   7.74382687   0.02268356
7058.00   7.75304413   0.02157391
7060.00   7.76017189   0.02127057
7062.00   7.77250147   0.02193175
7064.00   7.78510714   0.02246257
7066.00   7.79915380   0.02226579
7068.00   7.81263924   0.02172925
7070.00   7.79969358   0.02168526
7072.00   7.75203276   0.02188219
7074.00   7.72854471   0.02217617
7076.00   7.71720314   0.02262380
7078.00   7.70551491   0.02315706
7080.00   7.68738747   0.02401903
7082.00   7.67045307   0.02479454
7084.00   7.66937113   0.02440263
7086.00   7.68277264   0.02272507
7088.00   7.69224310   0.02188540
7090.00   7.71623325   0.02109995
7092.00   7.71732521   0.02085854
7094.00   7.68129110   0.02153200
7096.00   7.63895416   0.02234814
7098.00   7.62671661   0.02235560
7100.00   7.63019896   0.02181403
7102.00   7.64103746   0.02184474
7104.00   7.67742205   0.02238096
7106.00   7.69139290   0.02250496
7108.00   7.68661547   0.02211691
7110.00   7.67026615   0.02175510
7112.00   7.63600969   0.02181160
7114.00   7.58443260   0.02209936
7116.00   7.59476519   0.02245883
7118.00   7.68008661   0.02325076
7120.00   7.70954657   0.02344787
7122.00   7.71011400   0.02255264
7124.00   7.69030380   0.02248950
7126.00   7.63869715   0.02465198
7128.00   7.56959152   0.02747576
7130.00   7.55549955   0.02772478
7132.00   7.58509016   0.02600468
7134.00   7.60473108   0.02474040
7136.00   7.63811779   0.02260917
7138.00   7.66354179   0.02106335
7140.00   7.67368412   0.02073291
7142.00   7.67920780   0.02100264
7144.00   7.69686604   0.02102553
7146.00   7.72985792   0.02120488
7148.00   7.72974062   0.02121356
7150.00   7.69921255   0.02091864
7152.00   7.67530012   0.02102142
7154.00   7.66436958   0.02166815
7156.00   7.64730930   0.02240561
7158.00   7.60267448   0.02290529
7160.00   7.53433466   0.02338910
7162.00   7.49567080   0.02325932
7164.00   7.47087765   0.02213595
7166.00   7.45444632   0.02180124
7168.00   7.44622803   0.02233471
7170.00   7.44890738   0.02283918
7172.00   7.46609402   0.02267697
7174.00   7.49570131   0.02220319
7176.00   7.52201223   0.02279244
7178.00   7.56276941   0.02477750
7180.00   7.57738495   0.02526254
7182.00   7.56865835   0.02459461
7184.00   7.55708408   0.02399144
7186.00   7.55533552   0.02393455
7188.00   7.54967690   0.02401925
7190.00   7.50647068   0.02372875
7192.00   7.41582251   0.02312998
7194.00   7.36518431   0.02267757
7196.00   7.31941414   0.02212312
7198.00   7.30351591   0.02178661
7200.00   7.33091259   0.02182104
7202.00   7.37671995   0.02196505
7204.00   7.40725660   0.02184752
7206.00   7.44188547   0.02157832
7208.00   7.44899797   0.02139620
7210.00   7.42770052   0.02121989
7212.00   7.41124296   0.02106750
7214.00   7.38886356   0.02072627
7216.00   7.37660122   0.02066937
7218.00   7.39805174   0.02151947
7220.00   7.44676781   0.02303669
7222.00   7.45545244   0.02333974
7224.00   7.43559599   0.02277706
7226.00   7.42274475   0.02238652
7228.00   7.40880966   0.02176836
7230.00   7.39582300   0.02138205
7232.00   7.38932037   0.02154336
7234.00   7.38475561   0.02205316
7236.00   7.35795403   0.02257260
7238.00   7.29263639   0.02339661
7240.00   7.27272081   0.02389517
7242.00   7.28904963   0.02442444
7244.00   7.30142927   0.02453745
7246.00   7.30656767   0.02395994
7248.00   7.30362034   0.02303302
7250.00   7.26842213   0.02252142
7252.00   7.18396521   0.02213071
7254.00   7.16469097   0.02192061
7256.00   7.20551300   0.02158633
7258.00   7.21843195   0.02198883
7260.00   7.19870281   0.02371869
7262.00   7.16188860   0.02532093
7264.00   7.11055851   0.02523143
7266.00   7.03433514   0.02392945
7268.00   6.99971819   0.02311098
7270.00   6.99462843   0.02184278
7272.00   6.98987484   0.02128147
7274.00   6.98609591   0.02167766
7276.00   6.99161577   0.02216285
7278.00   7.01592255   0.02214387
7280.00   7.05543518   0.02191165
7282.00   7.06966972   0.02180850
7284.00   7.08065224   0.02174063
7286.00   7.06174612   0.02163247
7288.00   6.99629021   0.02147230
7290.00   6.94365215   0.02133485
7292.00   6.92662573   0.02123667
7294.00   6.93020344   0.02117439
7296.00   6.95088577   0.02121300
7298.00   7.00872660   0.02139419
7300.00   7.03695726   0.02148297
7302.00   7.06207800   0.02158094
7304.00   7.06549549   0.02160046
7306.00   7.03827524   0.02135655
7308.00   6.99442720   0.02116318
7310.00   6.95559168   0.02172010
7312.00   6.90947104   0.02310185
7314.00   6.87421131   0.02334084
7316.00   6.83910942   0.02259148
7318.00   6.81921577   0.02230557
7320.00   6.81490278   0.02263715
7322.00   6.82299042   0.02304965
7324.00   6.84574604   0.02314310
7326.00   6.88724470   0.02310750
7328.00   6.89840412   0.02288520
7330.00   6.88918638   0.02221796
7332.00   6.87918615   0.02195568
7334.00   6.86775827   0.02221086
7336.00   6.84804344   0.02236876
7338.00   6.81944323   0.02182879
7340.00   6.78197718   0.02091036
7342.00   6.71520758   0.02161711
7344.00   6.58550930   0.02433006
7346.00   6.52817583   0.02507862
7348.00   6.52289391   0.02484122
7350.00   6.52963209   0.02407727
7352.00   6.53976345   0.02230428
7354.00   6.55811882   0.02003961
7356.00   6.57527018   0.02031560
7358.00   6.60766077   0.02324714
7360.00   6.60479784   0.02385842
7362.00   6.57008171   0.02339239
7364.00   6.53759146   0.02287785
7366.00   6.50423765   0.02227539
7368.00   6.47622824   0.02165962
7370.00   6.47555590   0.02143385
7372.00   6.50718832   0.02149874
7374.00   6.48824167   0.02153907
7376.00   6.42481756   0.02174824
7378.00   6.37863636   0.02184017
7380.00   6.34093666   0.02192966
7382.00   6.31593132   0.02183324
7384.00   6.31565571   0.02122656
7386.00   6.33696079   0.02013235
7388.00   6.34109879   0.01994807
7390.00   6.34594822   0.02062955
7392.00   6.33589315   0.02087635
7394.00   6.29225016   0.02093780
7396.00   6.27026939   0.02088501
7398.00   6.31490612   0.02046409
7400.00   6.39290476   0.01990564
7402.00   6.38636875   0.02085807
7404.00   6.30118084   0.02315644
7406.00   6.25997877   0.02482102
7408.00   6.21170187   0.02731208
7410.00   6.20003462   0.02821345
7412.00   6.26199961   0.02658612
7414.00   6.34490204   0.02354266
7416.00   6.33237600   0.02164824
7418.00   6.23966455   0.01972893
7420.00   6.19811583   0.01899158
7422.00   6.16767836   0.01980408
7424.00   6.14734364   0.02040798
7426.00   6.14076471   0.02091560
7428.00   6.14059591   0.02126639
7430.00   6.13611984   0.02104940
7432.00   6.13005686   0.02024358
7434.00   6.13633060   0.02023700
7436.00   6.16787004   0.02089525
7438.00   6.17051268   0.02124163
7440.00   6.14608288   0.02154398
7442.00   6.10897398   0.02153436
7444.00   6.06776476   0.02079747
7446.00   6.01830578   0.01943806
7448.00   5.95428467   0.01895289
7450.00   5.87218666   0.01916518
7452.00   5.79057884   0.01912790
7454.00   5.69284773   0.01904866
7456.00   5.61078739   0.01897103
7458.00   5.56920624   0.01889311
7460.00   5.54477739   0.01882135
7462.00   5.46852160   0.01879588
7464.00   5.34668446   0.01843721
7466.00   5.24779510   0.01905046
7468.00   5.15148640   0.02072729
7470.00   5.05759907   0.02187460
7472.00   4.97127962   0.02253996
7474.00   4.88343287   0.02271414
7476.00   4.77405024   0.02175556
7478.00   4.64189148   0.01915624
7480.00   4.53364754   0.01793752
7482.00   4.44390345   0.01761752
7484.00   4.34513426   0.01725221
7486.00   4.22654581   0.01689421
7488.00   4.11593723   0.01659918
7490.00   4.04195023   0.01626080
7492.00   3.99387312   0.01585556
7494.00   3.94974518   0.01609699
7496.00   3.92292261   0.01704596
7498.00   3.89408088   0.01768124
7500.00   3.86115217   0.01849291
7502.00   3.83766079   0.01877291
7504.00   3.83732295   0.01775643
7506.00   3.85189724   0.01573766
7508.00   3.83591700   0.01541614
7510.00   3.79896855   0.01643360
7512.00   3.76219511   0.01710704
7514.00   3.70315623   0.01820502
7516.00   3.66701293   0.01880430
7518.00   3.67278218   0.01856152
7520.00   3.70194364   0.01785425
7522.00   3.72566366   0.01733588
7524.00   3.76179361   0.01660029
7526.00   3.78281450   0.01624903
7528.00   3.78591633   0.01612820
7530.00   3.80315685   0.01621591
7532.00   3.84271598   0.01653444
7534.00   3.88903689   0.01702337
7536.00   3.92550945   0.01765289
7538.00   3.96285725   0.01859262
7540.00   3.97818947   0.01877645
7542.00   3.95585966   0.01810149
7544.00   3.96590614   0.01798051
7546.00   4.01347923   0.01856303
7548.00   4.06876516   0.01914089
7550.00   4.10475254   0.01921241
7552.00   4.13069391   0.01900810
7554.00   4.20436382   0.01886086
7556.00   4.33863115   0.01861087
7558.00   4.42948914   0.01840503
7560.00   4.50091839   0.01817646
7562.00   4.54756737   0.01801753
7564.00   4.55537987   0.01801509
7566.00   4.53642607   0.01810457
7568.00   4.55015993   0.01804882
7570.00   4.58857679   0.01786014
7572.00   4.60659218   0.01778184
7574.00   4.62388325   0.01775902
7576.00   4.62213850   0.01775172
7578.00   4.58710480   0.01770366
7580.00   4.53918219   0.01770017
7582.00   4.52167273   0.01794565
7584.00   4.52667332   0.01844742
7586.00   4.51444530   0.01877891
7588.00   4.47048378   0.01814273
7590.00   4.47339725   0.01927988
7592.00   4.53058100   0.02155996
7594.00   4.62032509   0.02513127
7596.00   4.73227024   0.03076923
7598.00   4.88240814   0.03788516
7600.00   4.98433018   0.04082727
7602.00   5.10002613   0.04208796
7604.00   5.12380695   0.04217687
7606.00   5.02932882   0.04060659
7608.00   4.91606379   0.03829093
7610.00   4.84976196   0.03587541
7612.00   4.79730320   0.03289729
7614.00   4.75529289   0.02984660
7616.00   4.72039986   0.02510492
7618.00   4.70734787   0.02295196
7620.00   4.71029043   0.02360476
7622.00   4.73530197   0.02532030
7624.00   4.80082560   0.02812985
7626.00   4.88551855   0.03125192
7628.00   4.90421677   0.03144803
7630.00   4.85476255   0.02892206
7632.00   4.85841465   0.02768916
7634.00   4.86918545   0.02638339
7636.00   4.91466188   0.02553072
7638.00   5.01357269   0.02552090
7640.00   5.13465691   0.02579937
7642.00   5.22804785   0.02539597
7644.00   5.32524109   0.02453294
7646.00   5.36773920   0.02397198
7648.00   5.34728861   0.02336551
7650.00   5.34363794   0.02306211
7652.00   5.34738684   0.02325288
7654.00   5.36490011   0.02348832
7656.00   5.42214298   0.02323904
7658.00   5.52013636   0.02262103
7660.00   5.52717543   0.02282835
7662.00   5.43399954   0.02433796
7664.00   5.40785742   0.02433548
7666.00   5.42197323   0.02257057
7668.00   5.46719217   0.02076671
7670.00   5.55271053   0.02018464
7672.00   5.67199659   0.02025631
7674.00   5.75728035   0.02031946
7676.00   5.84524727   0.02035467
7678.00   5.89310122   0.02118780
7680.00   5.89066553   0.02322405
7682.00   5.89575624   0.02450288
7684.00   5.93123150   0.02458150
7686.00   5.97473240   0.02398494
7688.00   5.99076509   0.02309274
7690.00   5.96609688   0.02099146
7692.00   6.00723600   0.02043435
7694.00   6.09648228   0.02118829
7696.00   6.19172668   0.02175338
7698.00   6.31153250   0.02214433
7700.00   6.42039251   0.02237678
7702.00   6.45100307   0.02212263
7704.00   6.42131424   0.02132534
7706.00   6.39303017   0.02108933
7708.00   6.33797884   0.02105376
7710.00   6.28214121   0.02127886
7712.00   6.21014166   0.02205969
7714.00   6.14989471   0.02267103
7716.00   6.12884235   0.02244831
7718.00   6.13498211   0.02164564
7720.00   6.14945984   0.02131015
7722.00   6.19964170   0.02083387
7724.00   6.21781158   0.02106747
7726.00   6.20382643   0.02215011
7728.00   6.19459152   0.02317640
7730.00   6.19326925   0.02377690
7732.00   6.20303154   0.02422094
7734.00   6.29781485   0.02473705
7736.00   6.52912807   0.02541681
7738.00   6.63279009   0.02567627
7740.00   6.65676832   0.02579087
7742.00   6.68061781   0.02550193
7744.00   6.73005581   0.02449207
7746.00   6.77394009   0.02315703
7748.00   6.76897955   0.02254444
7750.00   6.71873379   0.02232200
7752.00   6.68311644   0.02235878
7754.00   6.63162947   0.02306202
7756.00   6.59965754   0.02334333
7758.00   6.59219217   0.02307118
7760.00   6.59572268   0.02263746
7762.00   6.59931660   0.02241602
7764.00   6.60975933   0.02227313
7766.00   6.61138630   0.02201118
7768.00   6.59866095   0.02157933
7770.00   6.60469675   0.02132600
7772.00   6.62820625   0.02116864
7774.00   6.66025591   0.02119064
7776.00   6.69150019   0.02150510
7778.00   6.72605658   0.02204919
7780.00   6.80086422   0.02247748
7782.00   6.92492294   0.02289742
7784.00   7.02702093   0.02334598
7786.00   7.12244797   0.02326010
7788.00   7.21616507   0.02409002
7790.00   7.33082199   0.02696924
7792.00   7.43878746   0.03025818
7794.00   7.42712498   0.03056701
7796.00   7.26868868   0.02845919
7798.00   7.21452808   0.02702428
7800.00   7.19052601   0.02472177
7802.00   7.19407320   0.02306328
7804.00   7.25612116   0.02271404
7806.00   7.32100534   0.02294970
7808.00   7.27444124   0.02274498
7810.00   7.12854624   0.02247598
7812.00   7.05955601   0.02232680
7814.00   7.02354336   0.02217804
7816.00   6.98630667   0.02222097
7818.00   6.94233084   0.02247462
7820.00   6.90985727   0.02285524
7822.00   6.89921522   0.02322781
7824.00   6.90029097   0.02357879
7826.00   6.97088814   0.02465370
7828.00   7.15740204   0.02678891
7830.00   7.25189018   0.02785410
7832.00   7.26402378   0.02817473
7834.00   7.26472616   0.02816835
7836.00   7.29244947   0.02802128
7838.00   7.32534409   0.02762461
7840.00   7.33243465   0.02682257
7842.00   7.33534575   0.02522207
7844.00   7.29837799   0.02413415
7846.00   7.21062756   0.02267146
7848.00   7.12716246   0.02236508
7850.00   7.06331921   0.02442965
7852.00   7.00665045   0.02711330
7854.00   6.95238686   0.02730382
7856.00   6.89835596   0.02556646
7858.00   6.86062050   0.02481099
7860.00   6.81570387   0.02404294
7862.00   6.81730652   0.02362181
7864.00   6.88870287   0.02380573
7866.00   6.98414087   0.02412560
7868.00   7.04530716   0.02388002
7870.00   7.09891796   0.02316295
7872.00   7.13059711   0.02315963
7874.00   7.12826920   0.02356794
7876.00   7.14301014   0.02415305
7878.00   7.18958092   0.02496269
7880.00   7.22023821   0.02589947
7882.00   7.19563866   0.02703922
7884.00   7.13327408   0.02839627
7886.00   7.05857754   0.02853115
7888.00   6.92807579   0.02765430
7890.00   6.85437393   0.02672516
7892.00   6.81121635   0.02509667
7894.00   6.80365133   0.02374811
7896.00   6.85094786   0.02340985
7898.00   6.93504238   0.02366508
7900.00   6.96566582   0.02358421
7902.00   6.98829508   0.02354269
7904.00   6.95922422   0.02340400
7906.00   6.86177921   0.02288582
7908.00   6.77736378   0.02287285
7910.00   6.72027636   0.02369658
7912.00   6.67762852   0.02487121
7914.00   6.65493679   0.02580867
7916.00   6.66744328   0.02708701
7918.00   6.63604641   0.02714566
7920.00   6.57022858   0.02584335
7922.00   6.51411533   0.02503224
7924.00   6.46807384   0.02485741
7926.00   6.42692471   0.02493566
7928.00   6.39042091   0.02515448
7930.00   6.35899544   0.02574451
7932.00   6.33008432   0.02522539
7934.00   6.29739428   0.02331505
7936.00   6.28317547   0.02217827
7938.00   6.29768610   0.02163308
7940.00   6.30831909   0.02152951
7942.00   6.29056883   0.02197458
7944.00   6.25661039   0.02290012
7946.00   6.23276329   0.02329905
7948.00   6.18292856   0.02330301
7950.00   6.19579744   0.02367111
7952.00   6.26600122   0.02422004
7954.00   6.35091639   0.02491096
7956.00   6.45417547   0.02585975
7958.00   6.56281757   0.02688236
7960.00   6.58580446   0.02734574
7962.00   6.50428295   0.02741060
7964.00   6.51150274   0.02745533
7966.00   6.58328724   0.02771555
7968.00   6.62439060   0.02720842
7970.00   6.62044621   0.02496844
7972.00   6.59161139   0.02233372
7974.00   6.54892588   0.02258633
7976.00   6.48795271   0.02511523
7978.00   6.40853357   0.02636448
7980.00   6.28961086   0.02833635
7982.00   6.19473648   0.02846729
7984.00   6.11632538   0.02584095
7986.00   6.05874252   0.02260369
7988.00   6.03939342   0.02169251
7990.00   6.05751371   0.02222819
7992.00   6.03342009   0.02241387
7994.00   5.99324799   0.02301682
7996.00   5.93794250   0.02346386
7998.00   5.83311129   0.02419912
8000.00   5.76311684   0.02439982
8002.00   5.78808546   0.02323441
8004.00   5.87195921   0.02108978
8006.00   5.91927958   0.02074272
8008.00   5.96920967   0.02173364
8010.00   6.00351143   0.02257090
8012.00   6.01394320   0.02386063
8014.00   6.03602457   0.02493980
8016.00   6.08287334   0.02575493
8018.00   6.14139509   0.02634220
8020.00   6.19431114   0.02639936
8022.00   6.25764561   0.02592911
8024.00   6.29293203   0.02542422
8026.00   6.32112169   0.02433150
8028.00   6.31545877   0.02375981
8030.00   6.25304461   0.02421652
8032.00   6.17904711   0.02475336
8034.00   6.16250944   0.02409099
8036.00   6.19191599   0.02234584
8038.00   6.15663385   0.02177405
8040.00   6.07766104   0.02194310
8042.00   5.99920082   0.02213755
8044.00   5.91577625   0.02272039
8046.00   5.82731581   0.02305225
8048.00   5.73248339   0.02240251
8050.00   5.63004589   0.02097413
8052.00   5.55677414   0.02058482
8054.00   5.51789045   0.02085428
8056.00   5.45626450   0.02115231
8058.00   5.37404823   0.02158769
8060.00   5.29753685   0.02220610
8062.00   5.22772551   0.02334693
8064.00   5.16825485   0.02459709
8066.00   5.17452431   0.02411181
8068.00   5.27738094   0.02108124
8070.00   5.30412006   0.02018607
8072.00   5.29436016   0.02082630
8074.00   5.27945805   0.02123480
8076.00   5.24967384   0.02086291
8078.00   5.22511196   0.02042552
8080.00   5.26929760   0.02103160
8082.00   5.38886261   0.02278166
8084.00   5.43857718   0.02294388
8086.00   5.45670271   0.02169964
8088.00   5.46297550   0.02107733
8090.00   5.44213533   0.02140163
8092.00   5.42372608   0.02187317
8094.00   5.45645523   0.02178822
8096.00   5.53596640   0.02138720
8098.00   5.52500057   0.02122177
8100.00   5.46077299   0.02125078
8102.00   5.36681175   0.02104716
8104.00   5.20632219   0.02053315
8106.00   5.05810499   0.02003230
8108.00   4.98231506   0.01976039
8110.00   4.94851780   0.01961651
8112.00   4.90332079   0.01960929
8114.00   4.86993980   0.01993272
8116.00   4.83275175   0.01994070
8118.00   4.79310989   0.01948991
8120.00   4.75757360   0.01937282
8122.00   4.73461580   0.02014014
8124.00   4.71457195   0.02119345
8126.00   4.66401815   0.02116486
8128.00   4.56240654   0.02005454
8130.00   4.53194141   0.01977199
8132.00   4.56939840   0.01987883
8134.00   4.58007145   0.02004069
8136.00   4.54314852   0.02030031
8138.00   4.49140501   0.02055776
8140.00   4.46046066   0.02053560
8142.00   4.44104290   0.02028070
8144.00   4.40544701   0.02014823
8146.00   4.36058664   0.01991482
8148.00   4.31191587   0.01991791
8150.00   4.24890661   0.02031588
8152.00   4.19353533   0.02068539
8154.00   4.17482758   0.02060797
8156.00   4.18592596   0.02022766
8158.00   4.15231180   0.02011237
8160.00   4.09213209   0.02020337
8162.00   4.02644873   0.02009373
8164.00   3.93553591   0.01974183
8166.00   3.85824203   0.01943222
8168.00   3.82545757   0.01935684
8170.00   3.81779838   0.01940470
8172.00   3.77104187   0.01930484
8174.00   3.69169784   0.01898808
8176.00   3.63393974   0.01900177
8178.00   3.59212923   0.01930961
8180.00   3.54157829   0.01960184
8182.00   3.46403003   0.01965315
8184.00   3.38259602   0.01975528
8186.00   3.35201645   0.02061119
8188.00   3.36632085   0.02238605
8190.00   3.36410570   0.02298250
8192.00   3.39399767   0.02320110
8194.00   3.36926818   0.02276448
8196.00   3.25439429   0.02118345
8198.00   3.12146568   0.01918212
8200.00   3.06391072   0.01820158
8202.00   3.05166769   0.01789943
8204.00   3.02464175   0.01740961
8206.00   3.00852871   0.01683472
8208.00   2.98354173   0.01675450
8210.00   2.93983889   0.01745871
8212.00   2.90582299   0.01809724
8214.00   2.90866876   0.01796697
8216.00   2.93756056   0.01736080
8218.00   2.94257498   0.01743675
8220.00   2.93688941   0.01806619
8222.00   2.93265939   0.01837812
8224.00   2.92466998   0.01863236
8226.00   2.91939402   0.01867813
8228.00   2.92039943   0.01829601
8230.00   2.92520213   0.01766879
8232.00   2.93001771   0.01765231
8234.00   2.95138836   0.01840751
8236.00   2.93743563   0.01833660
8238.00   2.89232802   0.01771638
8240.00   2.84701324   0.01705955
8242.00   2.80082750   0.01637369
8244.00   2.75857449   0.01570730
8246.00   2.74569893   0.01542277
8248.00   2.76972866   0.01538870
8250.00   2.74895406   0.01566560
8252.00   2.69494939   0.01660540
8254.00   2.64842772   0.01703911
8256.00   2.60000896   0.01694206
8258.00   2.56452394   0.01657425
8260.00   2.56989884   0.01601678
8262.00   2.61194420   0.01506583
8264.00   2.62349772   0.01484822
8266.00   2.62669253   0.01513683
8268.00   2.62088895   0.01556979
8270.00   2.58572173   0.01610124
8272.00   2.57015657   0.01692140
8274.00   2.61489367   0.01832267
8276.00   2.69923663   0.02003762
8278.00   2.75551581   0.02053288
8280.00   2.81517863   0.02010430
8282.00   2.85188341   0.01982819
8284.00   2.85731888   0.01921837
8286.00   2.87066078   0.01882839
8288.00   2.91189623   0.01899586
8290.00   2.96267462   0.01941537
8292.00   2.98554754   0.01945744
8294.00   2.97838211   0.01918119
8296.00   3.00127697   0.01925043
8298.00   3.04251552   0.01978764
8300.00   3.08412671   0.01987031
8302.00   3.13207531   0.01917104
8304.00   3.17458367   0.01820958
8306.00   3.18487716   0.01779606
8308.00   3.16977167   0.01761013
8310.00   3.15143991   0.01775894
8312.00   3.11179161   0.01838514
8314.00   3.08436251   0.01891964
8316.00   3.06442690   0.01948526
8318.00   3.05539608   0.01993763
8320.00   3.06480813   0.02004483
8322.00   3.09040594   0.01986969
8324.00   3.11755109   0.02006848
8326.00   3.17510509   0.02090315
8328.00   3.18659282   0.02081985
8330.00   3.13888240   0.01969395
8332.00   3.10131502   0.01849068
8334.00   3.11587024   0.01751950
8336.00   3.15716219   0.01670174
8338.00   3.17616463   0.01782551
8340.00   3.19270372   0.02089788
8342.00   3.19859290   0.02280590
8344.00   3.17887306   0.02539010
8346.00   3.18017578   0.02624260
8348.00   3.23074818   0.02412858
8350.00   3.29575896   0.02025403
8352.00   3.30019307   0.01866655
8354.00   3.25418019   0.01868645
8356.00   3.23495960   0.01819487
8358.00   3.21839404   0.01784414
8360.00   3.20612240   0.01768216
8362.00   3.20156622   0.01784973
8364.00   3.19791746   0.01807515
8366.00   3.18205619   0.01794284
8368.00   3.15072346   0.01752216
8370.00   3.16188717   0.01748987
8372.00   3.21826935   0.01752870
8374.00   3.25416923   0.01795077
8376.00   3.27334428   0.01917011
8378.00   3.28697157   0.02003136
8380.00   3.30040598   0.01955632
8382.00   3.31113386   0.01810248
8384.00   3.31691742   0.01774614
8386.00   3.31507277   0.01778216
8388.00   3.31677008   0.01833650
8390.00   3.29914165   0.01991750
8392.00   3.31443167   0.02095874
8394.00   3.39770246   0.02071523
8396.00   3.52097082   0.01981999
8398.00   3.60890102   0.01978140
8400.00   3.71299481   0.02033541
8402.00   3.75009155   0.02052323
8404.00   3.70805621   0.02061114
8406.00   3.68901038   0.02065697
8408.00   3.72009516   0.02073772
8410.00   3.76697087   0.02073015
8412.00   3.79127073   0.02033565
8414.00   3.80660796   0.01937655
8416.00   3.82021928   0.01914538
8418.00   3.81590819   0.01942150
8420.00   3.83506370   0.01972145
8422.00   3.88719869   0.02011966
8424.00   3.94719648   0.02051173
8426.00   3.99133539   0.02071781
8428.00   4.03096247   0.02080481
8430.00   4.05859947   0.02092989
8432.00   4.06628561   0.02101612
8434.00   4.08666658   0.02114482
8436.00   4.11152124   0.02147310
8438.00   4.14766502   0.02158893
8440.00   4.19998741   0.02090176
8442.00   4.26593542   0.01965862
8444.00   4.35045719   0.02053114
8446.00   4.49501276   0.02414678
8448.00   4.55720949   0.02477374
8450.00   4.53781652   0.02310550
8452.00   4.52932119   0.02146075
8454.00   4.56413555   0.02067209
8456.00   4.61723232   0.02030351
8458.00   4.66972399   0.02063936
8460.00   4.73589277   0.02177842
8462.00   4.78842020   0.02281502
8464.00   4.84235620   0.02464098
8466.00   4.87824059   0.02538901
8468.00   4.89021015   0.02458686
8470.00   4.88831997   0.02314268
8472.00   4.88265133   0.02235867
8474.00   4.85932827   0.02167275
8476.00   4.87208652   0.02140714
8478.00   4.91583681   0.02144104
8480.00   4.95461226   0.02188871
8482.00   4.99515820   0.02314209
8484.00   5.03036118   0.02420174
8486.00   5.04944134   0.02418178
8488.00   5.05651522   0.02345320
8490.00   5.06258821   0.02289405
8492.00   5.04775667   0.02189560
8494.00   5.06385326   0.02141758
8496.00   5.11196899   0.02124628
8498.00   5.16404152   0.02151710
8500.00   5.20800018   0.02258125
8502.00   5.25031805   0.02406990
8504.00   5.28336525   0.02426883
8506.00   5.29973221   0.02340023
8508.00   5.33333921   0.02288404
8510.00   5.38579607   0.02188307
8512.00   5.42718649   0.02158497
8514.00   5.45099926   0.02263034
8516.00   5.46226883   0.02417750
8518.00   5.45820189   0.02492282
8520.00   5.42958784   0.02561820
8522.00   5.41961622   0.02540844
8524.00   5.42240143   0.02392323
8526.00   5.41664934   0.02290501
8528.00   5.39524317   0.02259448
8530.00   5.37323809   0.02258919
8532.00   5.36574173   0.02263617
8534.00   5.36054564   0.02289671
8536.00   5.39656782   0.02300416
8538.00   5.49320269   0.02297066
8540.00   5.55200243   0.02312489
8542.00   5.58327436   0.02349835
8544.00   5.59373140   0.02390331
8546.00   5.57354975   0.02418975
8548.00   5.52414036   0.02442396
8550.00   5.53071928   0.02486151
8552.00   5.58696222   0.02590513
8554.00   5.61918068   0.02593434
8556.00   5.64902687   0.02475635
8558.00   5.66364384   0.02377413
8560.00   5.65087652   0.02362395
8562.00   5.62129688   0.02395513
8564.00   5.60891581   0.02476726
8566.00   5.61111259   0.02700162
8568.00   5.59398603   0.02716813
8570.00   5.55530548   0.02574508
8572.00   5.52926826   0.02432747
8574.00   5.52364683   0.02297626
8576.00   5.52884388   0.02181428
8578.00   5.53717518   0.02194835
8580.00   5.55658484   0.02347467
8582.00   5.56366539   0.02388038
8584.00   5.56059551   0.02391268
8586.00   5.56252813   0.02375269
8588.00   5.56922102   0.02320658
8590.00   5.57917023   0.02263649
8592.00   5.59129286   0.02251177
8594.00   5.60442972   0.02263158
8596.00   5.63297272   0.02302251
8598.00   5.68265963   0.02370832
8600.00   5.72064352   0.02452256
8602.00   5.75468636   0.02587014
8604.00   5.77936649   0.02677771
8606.00   5.78976679   0.02656178
8608.00   5.78847122   0.02560079
8610.00   5.77827501   0.02508071
8612.00   5.75576019   0.02440019
8614.00   5.72900200   0.02419436
8616.00   5.69669628   0.02461733
8618.00   5.65687180   0.02485964
8620.00   5.60216856   0.02459982
8622.00   5.54215908   0.02411573
8624.00   5.51013422   0.02382136
8626.00   5.50298595   0.02352921
8628.00   5.48515034   0.02337328
8630.00   5.46282959   0.02330529
8632.00   5.44887686   0.02335659
8634.00   5.44572067   0.02349923
8636.00   5.44926262   0.02378253
8638.00   5.45816660   0.02433764
8640.00   5.48211002   0.02524025
8642.00   5.47000456   0.02565710
8644.00   5.40944242   0.02571308
8646.00   5.38704967   0.02588102
8648.00   5.40246677   0.02622716
8650.00   5.43697739   0.02649304
8652.00   5.48708153   0.02647185
8654.00   5.56003761   0.02625381
8656.00   5.58213758   0.02593851
8658.00   5.57429695   0.02528519
8660.00   5.54838800   0.02493221
8662.00   5.48961210   0.02497443
8664.00   5.42901325   0.02488277
8666.00   5.38024998   0.02427972
8668.00   5.33622074   0.02338753
8670.00   5.31081200   0.02298894
8672.00   5.30284262   0.02281674
8674.00   5.29968357   0.02289802
8676.00   5.31317902   0.02320579
8678.00   5.32069445   0.02377990
8680.00   5.31295538   0.02496277
8682.00   5.30064297   0.02615610
8684.00   5.30038929   0.02592425
8686.00   5.29964113   0.02412601
8688.00   5.32451725   0.02365530
8690.00   5.39173603   0.02403170
8692.00   5.42922449   0.02418722
8694.00   5.42366838   0.02405122
8696.00   5.40536737   0.02382588
8698.00   5.40540409   0.02361189
8700.00   5.41300440   0.02335154
8702.00   5.41123438   0.02313828
8704.00   5.40692854   0.02281796
8706.00   5.39582109   0.02277639
8708.00   5.37833881   0.02286854
8710.00   5.35485172   0.02330821
8712.00   5.32181549   0.02455572
8714.00   5.27984476   0.02636777
8716.00   5.26022530   0.02630029
8718.00   5.25856495   0.02387691
8720.00   5.25443506   0.02334947
8722.00   5.26718378   0.02458262
8724.00   5.25895548   0.02556439
8726.00   5.19841003   0.02561451
8728.00   5.11351728   0.02522323
8730.00   5.09344292   0.02460855
8732.00   5.11318922   0.02314915
8734.00   5.14635897   0.02261163
8736.00   5.21784449   0.02267113
8738.00   5.28001738   0.02289019
8740.00   5.33567524   0.02330054
8742.00   5.37519598   0.02378909
8744.00   5.35843515   0.02399860
8746.00   5.28241348   0.02410000
8748.00   5.23868561   0.02398502
8750.00   5.20204258   0.02342524
8752.00   5.16266966   0.02318746
8754.00   5.11552954   0.02331882
8756.00   5.07268143   0.02362710
8758.00   5.04773426   0.02398045
8760.00   5.03620005   0.02442563
8762.00   5.02388906   0.02501179
8764.00   5.03552580   0.02585388
8766.00   5.00795221   0.02649706
8768.00   4.92590523   0.02723582
8770.00   4.85234308   0.02757353
8772.00   4.82483196   0.02685571
8774.00   4.82350540   0.02539063
8776.00   4.84140110   0.02588147
8778.00   4.90868378   0.02844591
8780.00   4.93360996   0.02934283
8782.00   4.92934465   0.02971539
8784.00   4.92331171   0.02931148
8786.00   4.92087030   0.02749299
8788.00   4.91979599   0.02480525
8790.00   4.93209839   0.02389283
8792.00   4.96046209   0.02433244
8794.00   4.97727394   0.02457547
8796.00   4.99465990   0.02556134
8798.00   5.00175953   0.02590414
8800.00   5.00168896   0.02528686
8802.00   4.98833895   0.02428020
8804.00   4.94567966   0.02358270
8806.00   4.86943817   0.02283578
8808.00   4.82141590   0.02247933
8810.00   4.78855610   0.02241202
8812.00   4.75104094   0.02257680
8814.00   4.70295620   0.02306625
8816.00   4.66212273   0.02366289
8818.00   4.64393663   0.02416400
8820.00   4.64161253   0.02465564
8822.00   4.64940596   0.02526751
8824.00   4.71550846   0.02589595
8826.00   4.69171667   0.02670579
8828.00   4.56102419   0.02812653
8830.00   4.44097996   0.02894100
8832.00   4.38589716   0.02830067
8834.00   4.36484814   0.02677570
8836.00   4.38121653   0.02656968
8838.00   4.47889757   0.02751198
8840.00   4.50627327   0.02761562
8842.00   4.49903679   0.02711606
8844.00   4.47639036   0.02690827
8846.00   4.43512011   0.02746948
8848.00   4.38314152   0.02818441
8850.00   4.34900618   0.02789757
8852.00   4.31005001   0.02651550
8854.00   4.31624889   0.02627807
8856.00   4.39024591   0.02681490
8858.00   4.42110920   0.02725234
8860.00   4.41092014   0.02775159
8862.00   4.36209965   0.02804930
8864.00   4.25448895   0.02753219
8866.00   4.08464527   0.02613827
8868.00   3.93707848   0.02589836
8870.00   3.76826715   0.02705523
8872.00   3.62853503   0.02689585
8874.00   3.51206613   0.02512301
8876.00   3.41594410   0.02311776
8878.00   3.34447122   0.02199316
8880.00   3.29660964   0.02129702
8882.00   3.23862576   0.02133109
8884.00   3.18851233   0.02280515
8886.00   3.12520695   0.02306907
8888.00   3.04430437   0.02251321
8890.00   2.96978617   0.02176301
8892.00   2.90958309   0.02091965
8894.00   2.85924435   0.01995744
8896.00   2.82495475   0.01957744
8898.00   2.81954122   0.01979228
8900.00   2.78978252   0.01977185
8902.00   2.73961639   0.01982287
8904.00   2.70227599   0.01977827
8906.00   2.68682623   0.01952650
8908.00   2.68067813   0.01923981
8910.00   2.66818571   0.01918580
8912.00   2.65230131   0.01901258
8914.00   2.64910698   0.01992138
8916.00   2.66825414   0.02216075
8918.00   2.66598797   0.02346507
8920.00   2.63293266   0.02410828
8922.00   2.59559417   0.02417646
8924.00   2.57479930   0.02328733
8926.00   2.55646420   0.02121587
8928.00   2.58508468   0.02062909
8930.00   2.68846679   0.02150262
8932.00   2.73283696   0.02141032
8934.00   2.71730280   0.02021592
8936.00   2.70036530   0.01919184
8938.00   2.71395111   0.01925835
8940.00   2.74103117   0.01995650
8942.00   2.77502990   0.02060549
8944.00   2.81948471   0.02058763
8946.00   2.87028694   0.02263051
8948.00   2.94672585   0.02661975
8950.00   3.00026464   0.02970467
8952.00   3.01610374   0.03206115
8954.00   3.00530291   0.03358119
8956.00   2.96877146   0.03194819
8958.00   2.87957501   0.02500191
8960.00   2.84084797   0.02219927
8962.00   2.83254004   0.02283282
8964.00   2.82286882   0.02295327
8966.00   2.80488777   0.02201911
8968.00   2.79112864   0.02093422
8970.00   2.79705667   0.02041772
8972.00   2.82275057   0.02025864
8974.00   2.83084655   0.02018712
8976.00   2.82445383   0.02011709
8978.00   2.83019209   0.02058008
8980.00   2.85059404   0.02191517
8982.00   2.87354136   0.02309392
8984.00   2.89193559   0.02326349
8986.00   2.91039944   0.02279121
8988.00   2.91038728   0.02291048
8990.00   2.86607456   0.02346814
8992.00   2.88025999   0.02361543
8994.00   2.94928241   0.02326078
8996.00   3.02948499   0.02308118
8998.00   3.10893869   0.02353781
9000.00   3.19206142   0.02429615
9002.00   3.23438931   0.02449088
9004.00   3.22601819   0.02436036
9006.00   3.25381804   0.02418180
9008.00   3.29150867   0.02358388
9010.00   3.34347343   0.02335238
9012.00   3.42273521   0.02390821
9014.00   3.50942898   0.02469814
9016.00   3.55406070   0.02474408
9018.00   3.57140470   0.02416912
9020.00   3.58045387   0.02412003
9022.00   3.55338764   0.02447894
9024.00   3.55458093   0.02456402
9026.00   3.59175324   0.02422501
9028.00   3.64497161   0.02380884
9030.00   3.69990301   0.02359162
9032.00   3.76732922   0.02325012
9034.00   3.81410408   0.02426314
9036.00   3.84801269   0.02727405
9038.00   3.87813067   0.02833810
9040.00   3.90205026   0.02757483
9042.00   3.92235804   0.02641474
9044.00   3.94160962   0.02574287
9046.00   3.95858359   0.02511775
9048.00   3.97141647   0.02498407
9050.00   4.01033545   0.02537211
9052.00   3.97879052   0.02571746
9054.00   3.86238217   0.02620276
9056.00   3.75695777   0.02668107
9058.00   3.70099235   0.02730988
9060.00   3.66802096   0.02786776
9062.00   3.64045548   0.02721816
9064.00   3.63945460   0.02483566
9066.00   3.61271858   0.02375389
9068.00   3.57633591   0.02325662
9070.00   3.52883363   0.02306414
9072.00   3.45540404   0.02333053
9074.00   3.38182878   0.02376397
9076.00   3.36354446   0.02367968
9078.00   3.39690590   0.02324449
9080.00   3.38996339   0.02298302
9082.00   3.34974694   0.02225488
9084.00   3.34107733   0.02248581
9086.00   3.37973332   0.02397346
9088.00   3.42172456   0.02567715
9090.00   3.42297459   0.02694427
9092.00   3.39927530   0.02825214
9094.00   3.38903904   0.02819109
9096.00   3.35949564   0.02602349
9098.00   3.37416959   0.02552212
9100.00   3.44330287   0.02697104
9102.00   3.51468372   0.02814463
9104.00   3.56068826   0.02789165
9106.00   3.59595585   0.02686458
9108.00   3.61109757   0.02592111
9110.00   3.60057187   0.02389436
9112.00   3.59366512   0.02352812
9114.00   3.58398318   0.02506639
9116.00   3.56820393   0.02605015
9118.00   3.54324031   0.02573297
9120.00   3.51287913   0.02482797
9122.00   3.48714876   0.02417758
9124.00   3.45521641   0.02314555
9126.00   3.44469881   0.02295533
9128.00   3.44885612   0.02352646
9130.00   3.46306038   0.02407259
9132.00   3.49585128   0.02468607
9134.00   3.53096890   0.02518677
9136.00   3.53898358   0.02510838
9138.00   3.52548909   0.02453385
9140.00   3.52926254   0.02411850
9142.00   3.52924824   0.02303145
9144.00   3.55205655   0.02315716
9146.00   3.60121679   0.02480396
9148.00   3.66212177   0.02662836
9150.00   3.72370076   0.02789127
9152.00   3.79115248   0.02905448
9154.00   3.86497545   0.02922107
9156.00   3.95952916   0.02818009
9158.00   4.02813673   0.02765230
9160.00   4.07959652   0.02738219
9162.00   4.11612844   0.02714626
9164.00   4.13798714   0.02677467
9166.00   4.14500904   0.02639798
9168.00   4.13692188   0.02660117
9170.00   4.10257244   0.02758844
9172.00   4.07989311   0.02792708
9174.00   4.05993938   0.02813608
9176.00   4.03745842   0.02795242
9178.00   4.01249504   0.02709678
9180.00   3.98422527   0.02591731
9182.00   3.94609332   0.02532013
9184.00   3.88377023   0.02504843
9186.00   3.87128639   0.02481773
9188.00   3.91004825   0.02474388
9190.00   3.92915511   0.02476127
9192.00   3.91829586   0.02484646
9194.00   3.90376282   0.02505067
9196.00   3.90806961   0.02545968
9198.00   3.91904879   0.02608732
9200.00   3.95476317   0.02648406
9202.00   4.02759552   0.02681856
9204.00   4.08092356   0.02703797
9206.00   4.12136316   0.02717693
9208.00   4.15287161   0.02718090
9210.00   4.17377281   0.02684158
9212.00   4.18451834   0.02621805
9214.00   4.20075607   0.02671055
9216.00   4.19714642   0.02802918
9218.00   4.23895550   0.02938840
9220.00   4.32049465   0.03172323
9222.00   4.41647100   0.03294788
9224.00   4.52921724   0.03183288
9226.00   4.65105772   0.02948252
9228.00   4.72378540   0.02946447
9230.00   4.77499533   0.03116894
9232.00   4.78245831   0.03216535
9234.00   4.71900940   0.03375106
9236.00   4.67960548   0.03430368
9238.00   4.69053745   0.03285836
9240.00   4.71317291   0.03096166
9242.00   4.69889736   0.03189102
9244.00   4.66061783   0.03544707
9246.00   4.63147163   0.03547235
9248.00   4.62000561   0.03287658
9250.00   4.56958961   0.03068208
9252.00   4.46243668   0.02853762
9254.00   4.34619665   0.02680573
9256.00   4.26517725   0.02654508
9258.00   4.19864225   0.02756879
9260.00   4.15414476   0.02797743
9262.00   4.13019896   0.02875080
9264.00   4.12362146   0.02877001
9266.00   4.14513779   0.02776298
9268.00   4.16995525   0.02685332
9270.00   4.18308926   0.02681396
9272.00   4.19267941   0.02724263
9274.00   4.20241070   0.02756722
9276.00   4.21124029   0.02791007
9278.00   4.21833706   0.02851302
9280.00   4.22007561   0.02965789
9282.00   4.22674417   0.03036485
9284.00   4.23397350   0.03014330
9286.00   4.24993896   0.02956016
9288.00   4.30960798   0.02983066
9290.00   4.42577744   0.03029704
9292.00   4.49567413   0.03168237
9294.00   4.53868246   0.03431239
9296.00   4.58857965   0.03623169
9298.00   4.65430212   0.03719450
9300.00   4.71887016   0.03794408
9302.00   4.76710081   0.03924325
9304.00   4.81915474   0.04093106
9306.00   4.79212236   0.04188107
9308.00   4.66514540   0.04204334
9310.00   4.58251333   0.04279030
9312.00   4.55685139   0.04409837
9314.00   4.52226448   0.04558120
9316.00   4.41677475   0.04734895
9318.00   4.26095343   0.04950250
9320.00   4.19738150   0.04901753
9322.00   4.19885778   0.04524693
9324.00   4.19848204   0.04330054
9326.00   4.24999380   0.04208306
9328.00   4.25309896   0.04200911
9330.00   4.11873388   0.04407665
9332.00   3.91530991   0.04721426
9334.00   3.89503384   0.04725473
9336.00   4.01446104   0.04391740
9338.00   4.11443949   0.04331994
9340.00   4.26069880   0.04435557
9342.00   4.39880943   0.04535488
9344.00   4.54026413   0.04623382
9346.00   4.65872145   0.04692090
9348.00   4.65933466   0.04648309
9350.00   4.53564453   0.04463919
9352.00   4.48009491   0.04414527
9354.00   4.42401361   0.04507806
9356.00   4.39503527   0.04479212
9358.00   4.40933895   0.04257878
9360.00   4.43157625   0.03989477
9362.00   4.41758204   0.03840664
9364.00   4.38122368   0.03718292
9366.00   4.36177731   0.03859067
9368.00   4.34667253   0.04266553
9370.00   4.33539629   0.04604989
9372.00   4.35299540   0.04996673
9374.00   4.34059668   0.05279307
9376.00   4.23678303   0.05358902
9378.00   4.06912327   0.05303016
9380.00   4.00014734   0.05065859
9382.00   4.00927258   0.04285819
9384.00   3.98101544   0.04054569
9386.00   3.90605378   0.04477946
9388.00   3.88057256   0.04732788
9390.00   3.96480584   0.04488978
9392.00   4.10402441   0.04005708
9394.00   4.15809631   0.03899616
9396.00   4.15246439   0.04117363
9398.00   4.18175268   0.04114211
9400.00   4.24051476   0.04016042
9402.00   4.26455784   0.03924906
9404.00   4.23353195   0.03858076
9406.00   4.17881250   0.03794994
9408.00   4.13791037   0.03726092
9410.00   4.07650614   0.03653305
9412.00   4.09287262   0.03585486
9414.00   4.21873379   0.03278907
9416.00   4.26657057   0.03456986
9418.00   4.21425819   0.04164367
9420.00   4.14230490   0.04914201
9422.00   4.11426067   0.05555648
9424.00   4.09899807   0.06260064
9426.00   4.12067747   0.06218556
9428.00   4.14734650   0.05264331
9430.00   4.25492287   0.04724172
9432.00   4.47977209   0.04427785
9434.00   4.69892454   0.04414025
9436.00   4.87511587   0.04838086
9438.00   5.02378511   0.05515482
9440.00   4.93280840   0.05756755
9442.00   4.51319504   0.05915515
9444.00   4.30910206   0.05763001
9446.00   4.18674612   0.05119853
9448.00   4.11736202   0.04496296
9450.00   4.11008787   0.04101706
9452.00   4.14766026   0.03857079
9454.00   4.16122532   0.03841110
9456.00   4.16648626   0.04124900
9458.00   4.20482540   0.04342162
9460.00   4.30850935   0.04721452
9462.00   4.34838581   0.04894994
9464.00   4.28239298   0.04803425
9466.00   4.19203329   0.04599919
9468.00   4.17647648   0.04445317
9470.00   4.19078827   0.04218157
9472.00   4.25683022   0.04236848
9474.00   4.42866325   0.04530044
9476.00   4.51960468   0.04690294
9478.00   4.54986334   0.04773753
9480.00   4.52355480   0.04786425
9482.00   4.41998911   0.04694985
9484.00   4.24240828   0.04503563
9486.00   4.10410881   0.04315189
9488.00   3.91905427   0.04003684
9490.00   3.84141111   0.03840208
9492.00   3.85596991   0.03673321
9494.00   3.91815710   0.03782398
9496.00   4.02758598   0.04413804
9498.00   4.17747736   0.05207252
9500.00   4.26479244   0.05405163
9502.00   4.35060930   0.05298321
9504.00   4.35381985   0.05066593
9506.00   4.27063751   0.04413778
9508.00   4.17644548   0.03857507
9510.00   4.06070089   0.03603658
9512.00   3.95086598   0.03565238
9514.00   3.94959164   0.03717569
9516.00   4.04926062   0.04141478
9518.00   4.10424376   0.04399544
9520.00   4.17930651   0.04758877
9522.00   4.21601534   0.04852556
9524.00   4.19722843   0.04563099
9526.00   4.16349697   0.04162402
9528.00   4.15481615   0.04036262
9530.00   4.14853096   0.04066386
9532.00   4.18523884   0.04045625
9534.00   4.25686836   0.03999197
9536.00   4.34747982   0.04059561
9538.00   4.49093723   0.04280493
9540.00   4.61286640   0.04467925
9542.00   4.65265179   0.04471760
9544.00   4.63988876   0.04368777
9546.00   4.64294100   0.04495570
9548.00   4.67986155   0.04813743
9550.00   4.61430025   0.05025189
9552.00   4.44107437   0.05292449
9554.00   4.25971889   0.05393019
9556.00   4.08584785   0.05197646
9558.00   3.91979313   0.04809193
9560.00   3.85657001   0.04533182
9562.00   3.90100884   0.04172236
9564.00   3.90763998   0.04039374
9566.00   3.92689085   0.04180698
9568.00   3.93915081   0.04256548
9570.00   3.95044804   0.04201423
9572.00   3.94864368   0.04115559
9574.00   3.89799404   0.04106906
9576.00   3.78237057   0.04163489
9578.00   3.76004148   0.04125312
9580.00   3.81454420   0.03934654
9582.00   3.84610558   0.03909263
9584.00   3.87844491   0.04119728
9586.00   3.87831759   0.04345863
9588.00   3.77896357   0.04431215
9590.00   3.58620954   0.04464411
9592.00   3.56152487   0.04350669
9594.00   3.67017126   0.03949933
9596.00   3.74769545   0.03754061
9598.00   3.84682560   0.03766391
9600.00   3.91279626   0.03811334
9602.00   3.90170932   0.03804930
9604.00   3.83919716   0.03792930
9606.00   3.78721905   0.03769273
9608.00   3.70574284   0.03709039
9610.00   3.65544081   0.03701444
9612.00   3.61290526   0.03737502
9614.00   3.59737492   0.03777480
9616.00   3.62871480   0.03794958
9618.00   3.68154120   0.03821864
9620.00   3.69129562   0.03940561
9622.00   3.69147635   0.04236199
9624.00   3.64586616   0.04210967
9626.00   3.52325416   0.03873815
9628.00   3.44552803   0.03612124
9630.00   3.42413354   0.03472155
9632.00   3.43542171   0.03406345
9634.00   3.47079802   0.03423078
9636.00   3.54328990   0.03532835
9638.00   3.59437108   0.03648354
9640.00   3.65151310   0.03822366
9642.00   3.68782234   0.03963925
9644.00   3.70882559   0.04126712
9646.00   3.70936108   0.04219779
9648.00   3.67458296   0.04139761
9650.00   3.60706115   0.03916363
9652.00   3.58969378   0.03818878
9654.00   3.62272167   0.03751459
9656.00   3.61496353   0.03744597
9658.00   3.57273459   0.03820889
9660.00   3.52990437   0.03905867
9662.00   3.49163127   0.03983883
9664.00   3.45840979   0.04057987
9666.00   3.47981095   0.04042676
9668.00   3.57155490   0.03886236
9670.00   3.61985826   0.03865730
9672.00   3.66128182   0.03955782
9674.00   3.68691969   0.04005066
9676.00   3.69308996   0.03969951
9678.00   3.68466830   0.03904743
9680.00   3.66975117   0.03883259
9682.00   3.64720583   0.03900088
9684.00   3.60778546   0.03850596
9686.00   3.54298091   0.03730471
9688.00   3.48632073   0.03640923
9690.00   3.43429494   0.03579280
9692.00   3.39080620   0.03546416
9694.00   3.37078500   0.03559553
9696.00   3.37733293   0.03615087
9698.00   3.33478451   0.03680862
9700.00   3.23433995   0.03827353
9702.00   3.18031359   0.03861945
9704.00   3.16060209   0.03731881
9706.00   3.16537094   0.03635963
9708.00   3.19320107   0.03743263
9710.00   3.24491906   0.03963012
9712.00   3.31293011   0.04053059
9714.00   3.44224834   0.04045649
9716.00   3.49370694   0.04126086
9718.00   3.51550698   0.04341323
9720.00   3.47019744   0.04438815
9722.00   3.30320859   0.04296292
9724.00   3.07549047   0.04015162
9726.00   2.99486256   0.03845575
9728.00   3.00600696   0.03615920
9730.00   3.02949166   0.03635483
9732.00   3.13624406   0.03975553
9734.00   3.19290400   0.04156365
9736.00   3.16595054   0.04105036
9738.00   3.10774207   0.03964413
9740.00   3.07723975   0.03880670
9742.00   3.04458833   0.03781478
9744.00   3.04133344   0.03736600
9746.00   3.08327055   0.03736677
9748.00   3.09300017   0.03749502
9750.00   3.06552529   0.03793411
9752.00   3.02653766   0.03833799
9754.00   2.99378490   0.03835291
9756.00   2.95813441   0.03815548
9758.00   2.93089747   0.03760776
9760.00   2.90448833   0.03620448
9762.00   2.89109039   0.03562586
9764.00   2.88388038   0.03549969
9766.00   2.89403534   0.03604021
9768.00   2.92718792   0.03742544
9770.00   2.98039842   0.03944836
9772.00   3.05891323   0.04168628
9774.00   3.23162913   0.04596308
9776.00   3.26246214   0.04642561
9778.00   3.15905499   0.04323604
9780.00   3.07280469   0.04035163
9782.00   3.04520535   0.03890621
9784.00   3.04155564   0.03835126
9786.00   3.04816318   0.03951495
9788.00   3.08856225   0.04298216
9790.00   3.08818054   0.04450937
9792.00   3.04494286   0.04532583
9794.00   3.03049588   0.04590321
9796.00   3.06553149   0.04640118
9798.00   3.10831475   0.04652242
9800.00   3.10703015   0.04582303
9802.00   3.07540917   0.04425493
9804.00   3.06418419   0.04306949
9806.00   3.06222415   0.04165259
9808.00   3.05387473   0.04065172
9810.00   3.03166175   0.04005501
9812.00   3.01712632   0.03978608
9814.00   3.03200436   0.03991857
9816.00   3.06819081   0.04046474
9818.00   3.07928061   0.04048177
9820.00   3.10162067   0.04040365
9822.00   3.06848145   0.03986051
9824.00   2.95943022   0.03834824
9826.00   2.86364889   0.03727508
9828.00   2.82070041   0.03755738
9830.00   2.80583429   0.03856134
9832.00   2.80751586   0.03896472
9834.00   2.83755398   0.03932716
9836.00   2.87003422   0.03939509
9838.00   2.91956282   0.03864190
9840.00   2.96687746   0.03873538
9842.00   3.00999451   0.04041447
9844.00   3.04979086   0.04253432
9846.00   3.08047962   0.04347157
9848.00   3.10308290   0.04399897
9850.00   3.12334251   0.04378992
9852.00   3.14437604   0.04233703
9854.00   3.15171981   0.04138787
9856.00   3.13827705   0.04080066
9858.00   3.12033606   0.04075785
9860.00   3.11914396   0.04176198
9862.00   3.13095617   0.04363042
9864.00   3.11089921   0.04550696
9866.00   3.04790664   0.04799347
9868.00   3.02230597   0.04991576
9870.00   3.03404379   0.05166753
9872.00   3.05285811   0.05289205
9874.00   3.06382370   0.05342328
9876.00   3.07476258   0.05339254
9878.00   3.06971574   0.05212254
9880.00   3.03044772   0.04867668
9882.00   3.03505230   0.04648679
9884.00   3.09999609   0.04432815
9886.00   3.13147426   0.04342899
9888.00   3.08267498   0.04476960
9890.00   2.99513483   0.04732271
9892.00   2.94909358   0.04879631
9894.00   2.90773845   0.05088335
9896.00   2.89715195   0.05059942
9898.00   2.91855264   0.04707688
9900.00   2.94632697   0.04513059
9902.00   2.98520803   0.04622775
9904.00   3.02519464   0.04830748
9906.00   3.03915858   0.04914875
9908.00   3.03018045   0.04946334
9910.00   3.04057956   0.05043795
9912.00   3.07927442   0.05212900
9914.00   3.07919145   0.05316221
9916.00   3.02238655   0.05394546
9918.00   2.96155047   0.05394530
9920.00   2.94673562   0.05216651
9922.00   2.95866394   0.04857687
9924.00   2.95485067   0.04686189
9926.00   2.95838046   0.04633193
9928.00   2.94071245   0.04566901
9930.00   2.88849044   0.04463554
9932.00   2.84820986   0.04446725
9934.00   2.84373331   0.04583722
9936.00   2.86189723   0.04825976
9938.00   2.90475011   0.05131122
9940.00   3.01111317   0.05642031
9942.00   3.04883075   0.05867997
9944.00   3.04356098   0.05901575
9946.00   3.02330565   0.05923486
9948.00   2.98031759   0.05992586
9950.00   2.93087482   0.06050139
9952.00   2.93959594   0.06019026
9954.00   3.00406122   0.05864809
9956.00   3.03281546   0.05846043
9958.00   3.06937146   0.05966369
9960.00   3.06837511   0.05988859
9962.00   3.00571132   0.05866475
9964.00   2.92990112   0.05695089
9966.00   2.90491891   0.05551299
9968.00   2.90660095   0.05322868
9970.00   2.91694593   0.05521532
9972.00   2.91455531   0.06163506
9974.00   2.98295474   0.06575278
9976.00   3.21292615   0.07011241
9978.00   3.37162066   0.07159047
9980.00   3.22523999   0.06574818
9982.00   2.86497211   0.05213223
9984.00   2.75683784   0.04820410
9986.00   2.79173923   0.05418868
9988.00   2.81123185   0.05482415
9990.00   2.86637712   0.05168410
9992.00   2.91600490   0.04950068
9994.00   2.93588638   0.05117775
9996.00   2.94293332   0.05452683
9998.00   2.96402526   0.05531934
10000.00   3.01634455   0.05380039
10002.00   3.00785923   0.05465924
10004.00   2.95055127   0.05569368
10006.00   2.88658714   0.05896991
10008.00   2.80377674   0.06653801
10010.00   2.72758937   0.07386602
10012.00   2.73762488   0.07410066
10014.00   2.84024858   0.06820894
10016.00   2.86002684   0.06590598
10018.00   2.82717991   0.06414530
10020.00   2.81319571   0.06332465
10022.00   2.84172893   0.06419919
10024.00   2.85513496   0.06521186
10026.00   2.77715397   0.06450373
10028.00   2.61509466   0.06269616
10030.00   2.58627462   0.06117889
10032.00   2.66172218   0.05878900
10034.00   2.70997643   0.05768295
10036.00   2.73526120   0.05836176
10038.00   2.77832174   0.05894322
10040.00   2.88509059   0.05807266
10042.00   3.03285480   0.05640779
10044.00   3.03434920   0.05575931
10046.00   2.89319801   0.05580468
10048.00   2.81109524   0.05561705
10050.00   2.69871092   0.05452341
10052.00   2.65930271   0.05490611
10054.00   2.78364110   0.05857557
10056.00   2.97464180   0.06322110
10058.00   2.95131803   0.06376655
10060.00   2.72102761   0.05977533
10062.00   2.64708042   0.06051545
10064.00   2.60412431   0.06453536
10066.00   2.63841748   0.06770373
10068.00   2.81045175   0.06988293
10070.00   3.01155162   0.07145453
10072.00   3.05006528   0.07194290
10074.00   2.96838665   0.07106440
10076.00   2.95963621   0.07161719
10078.00   2.99169421   0.07414247
10080.00   2.97764087   0.07427850
10082.00   2.89123988   0.07119514
10084.00   2.80829453   0.06745254
10086.00   2.80855060   0.06550446
10088.00   2.86741996   0.06432439
10090.00   2.83904934   0.06412278
10092.00   2.76150393   0.06646189
10094.00   2.66821337   0.06618715
10096.00   2.49344516   0.06267907
10098.00   2.38422847   0.05972551
10100.00   2.44897342   0.05999291
10102.00   2.61927676   0.06198176
10104.00   2.69371700   0.06279910
10106.00   2.77310562   0.06400314
10108.00   2.75900030   0.06384499
10110.00   2.58749509   0.06122285
10112.00   2.50502133   0.06036827
10114.00   2.61190057   0.06306750
10116.00   2.79829288   0.06720069
10118.00   2.89082956   0.06986374
10120.00   2.99173951   0.07140053
10122.00   2.95197177   0.07525454
10124.00   2.70970416   0.08358184
10126.00   2.57662249   0.08624028
10128.00   2.58858490   0.08095766
10130.00   2.66383433   0.07285552
10132.00   2.74882793   0.06952016
10134.00   2.88725662   0.06863730
10136.00   2.94075584   0.06737531
10138.00   2.95846462   0.06687646
10140.00   2.92583156   0.06657919
10142.00   2.81118846   0.06638940
10144.00   2.69189930   0.06670626
10146.00   2.62906766   0.06805804
10148.00   2.59320784   0.07023171
10150.00   2.57740140   0.07097087
10152.00   2.58322334   0.07058024
10154.00   2.61318970   0.07067341
10156.00   2.70446563   0.07093360
10158.00   2.76031685   0.07124829
10160.00   2.71456075   0.07124187
10162.00   2.62046170   0.07131413
10164.00   2.62691164   0.07342613
10166.00   2.74472880   0.07807857
10168.00   2.75038099   0.08054402
10170.00   2.62627697   0.08101043
10172.00   2.60509920   0.08314990
10174.00   2.79988289   0.08875103
10176.00   3.04596639   0.09460858
10178.00   3.05263877   0.09609286
10180.00   2.85655046   0.09479479
10182.00   2.82576847   0.09305799
10184.00   2.89904618   0.08710715
10186.00   2.91919827   0.08563319
10188.00   2.89019585   0.09210858
10190.00   2.82323933   0.09804656
10192.00   2.67808771   0.09498748
10194.00   2.42101288   0.08444803
10196.00   2.49076080   0.08218247
10198.00   2.96483994   0.08461968
10200.00   3.15002894   0.08804885
10202.00   3.07294083   0.09499922
10204.00   2.94370794   0.10013389
10206.00   2.86500359   0.09950977
10208.00   2.78329825   0.09536208
10210.00   2.74932981   0.09652413
10212.00   2.75418878   0.10397726
10214.00   2.76917124   0.10402893
10216.00   2.81208086   0.09573847
10218.00   2.85491896   0.09030226
10220.00   2.89835072   0.09472687
10222.00   2.93573427   0.10247836
10224.00   2.91606951   0.10208527
10226.00   2.78857970   0.09465373
10228.00   2.81653857   0.09230352
10230.00   3.00598264   0.09265908
10232.00   3.11445522   0.09258657
10234.00   3.08296251   0.09180541
10236.00   3.01067448   0.09069201
10238.00   3.01743627   0.08900758
10240.00   3.07974195   0.08641391
10242.00   3.05753207   0.08509578
10244.00   2.95487332   0.08442327
10246.00   2.89332342   0.08434841
10248.00   2.85933304   0.08499676
10250.00   2.85654759   0.08609558
10252.00   2.92341065   0.08650235
10254.00   3.06317806   0.08600366
10256.00   3.01275373   0.09364022
10258.00   2.66899490   0.11351581
10260.00   2.64134216   0.11797894
10262.00   3.00532985   0.10882484
10264.00   3.27524662   0.09781612
10266.00   3.15378189   0.09136540
10268.00   2.82550597   0.08664417
10270.00   2.68917608   0.08817942
10272.00   2.56309867   0.09875771
10274.00   2.58148861   0.10276200
10276.00   2.78642011   0.10254174
10278.00   2.96262217   0.10449945
10280.00   3.05446935   0.11082290
10282.00   3.11137676   0.11848636
10284.00   3.15891051   0.12394234
10286.00   3.20687175   0.13040824
10288.00   3.17293715   0.13089924
10290.00   3.04093599   0.12532713
10292.00   2.93115425   0.12030701
10294.00   2.84674120   0.11603723
10296.00   2.77624536   0.11200670
10298.00   2.71822810   0.10872589
10300.00   2.65925956   0.10597067
10302.00   2.69352078   0.10435541
10304.00   2.84066892   0.10453974
10306.00   2.94664574   0.10410124
10308.00   3.01880717   0.10281938
10310.00   3.08788514   0.10193907
10312.00   3.19440222   0.10259175
10314.00   3.32739544   0.10430703
10316.00   3.26536608   0.10470873
10318.00   2.91247559   0.10327812
10320.00   2.82487988   0.10435895
10322.00   2.94685817   0.10891069
10324.00   3.09872437   0.11170075
10326.00   3.24355006   0.11017635
10328.00   3.38989449   0.10630133
10330.00   3.37473583   0.10429066
10332.00   3.13026261   0.10204173
10334.00   3.09782505   0.10165198
10336.00   3.13163924   0.09632286
10338.00   3.27356029   0.10337058
10340.00   3.64242315   0.13194115
10342.00   4.04005432   0.15795770
10344.00   4.03571272   0.15603186
10346.00   3.69931436   0.12814240
10348.00   3.51107192   0.11905035
10350.00   3.25678134   0.12077335
10352.00   3.12943959   0.12090912
10354.00   3.17635298   0.12006029
10356.00   3.27224731   0.11863361
10358.00   3.28622103   0.11493865
10360.00   3.26215267   0.10857768
10362.00   3.32387638   0.10783110
10364.00   3.43242407   0.10827717
10366.00   3.58276749   0.11556391
10368.00   3.90109587   0.13433018
10370.00   4.08552694   0.14699411
10372.00   3.86685205   0.14456512
10374.00   3.38748455   0.13257784
10376.00   3.24193001   0.12582484
10378.00   3.34645319   0.11784943
10380.00   3.29462457   0.11311788
10382.00   3.11150217   0.11052432
10384.00   3.00361347   0.11107990
10386.00   3.03888130   0.11620262
10388.00   3.16549826   0.12367025
10390.00   3.35926771   0.12813324
10392.00   3.74214649   0.13354987
10394.00   3.88439822   0.13315557
10396.00   3.84704185   0.12517931
10398.00   3.82506680   0.12019937
10400.00   3.86469603   0.12161843
10402.00   3.88641596   0.12426008
10404.00   3.78578949   0.12163351
10406.00   3.55201101   0.11443714
10408.00   3.48480248   0.11251297
10410.00   3.49234676   0.11268194
10412.00   3.56559396   0.11565977
10414.00   3.78861666   0.12372516
10416.00   3.97682023   0.13076797
10418.00   3.91630840   0.13119769
10420.00   3.67450500   0.12712435
10422.00   3.67124343   0.12879805
10424.00   3.90472460   0.13737723
10426.00   3.93217349   0.13779351
10428.00   3.72329164   0.12949009
10430.00   3.57373762   0.12093701
10432.00   3.65831304   0.11728185
10434.00   3.86710286   0.11600822
10436.00   3.97318053   0.11537913
10438.00   4.09795618   0.11562932
10440.00   4.10506821   0.11815975
10442.00   3.94800901   0.12491440
10444.00   3.85709620   0.12899023
10446.00   3.90732384   0.12832865
10448.00   4.01985979   0.12549873
10450.00   4.10229111   0.12415208
10452.00   4.22598028   0.12275740
10454.00   4.23902416   0.12187798
10456.00   4.09769773   0.12076563
10458.00   4.06508350   0.12113438
10460.00   4.21901226   0.12381344
10462.00   4.39070845   0.12695245
10464.00   4.37367058   0.12841353
10466.00   4.21922541   0.12907551
10468.00   4.17831898   0.12950085
10470.00   4.17145538   0.12931569
10472.00   4.19454098   0.12913668
10474.00   4.26482296   0.12865795
10476.00   4.34355164   0.12839201
10478.00   4.42152500   0.12906960
10480.00   4.50977850   0.13041708
10482.00   4.43000269   0.12980452
10484.00   4.10652161   0.12673587
10486.00   3.98330903   0.12566774
10488.00   4.00188684   0.12503779
10490.00   4.05155420   0.12633415
10492.00   4.11846924   0.13114104
10494.00   4.19858360   0.13762879
10496.00   4.15353346   0.14041512
10498.00   3.92320371   0.14200431
10500.00   3.89447427   0.14114338
10502.00   4.04825926   0.13654245
10504.00   4.11740541   0.13262253
10506.00   3.99822593   0.12952876
10508.00   3.84201670   0.12767507
10510.00   3.90058947   0.12960340
10512.00   4.20299053   0.13454241
10514.00   4.12537861   0.14065385
10516.00   3.66907692   0.15382183
10518.00   3.40843272   0.15722415
10520.00   3.33536887   0.14655083
10522.00   3.38617373   0.13333283
10524.00   3.58954406   0.13269579
10526.00   3.98083925   0.13966139
10528.00   4.12566805   0.14374839
10530.00   4.14606571   0.15189540
10532.00   4.10661173   0.15286806
10534.00   3.93471479   0.14512716
10536.00   3.77918053   0.13683759
10538.00   3.76300240   0.13392971
10540.00   3.81996250   0.13364555
10542.00   3.73466587   0.13302270
10544.00   3.44620419   0.13326611
10546.00   3.40433049   0.13385768
10548.00   3.61052608   0.13475828
10550.00   3.75520802   0.13639620
10552.00   3.71936870   0.13976681
10554.00   3.60612059   0.14347827
10556.00   3.54717875   0.14329270
10558.00   3.46873546   0.13861632
10560.00   3.46466994   0.13788073
10562.00   3.54689407   0.13979499
10564.00   3.60046387   0.14086910
10566.00   3.61947346   0.14055742
10568.00   3.61203170   0.13983060
10570.00   3.56212401   0.13945462
10572.00   3.46716928   0.13888530
10574.00   3.37925386   0.13942812
10576.00   3.25376940   0.13995311
10578.00   3.17608380   0.14259513
10580.00   3.13749075   0.14962676
10582.00   3.13749051   0.15501869
10584.00   3.18524122   0.15263434
10586.00   3.27874184   0.14417173
10588.00   3.38673759   0.14451858
10590.00   3.53209782   0.14992490
10592.00   3.67507982   0.15634158
10594.00   3.90782380   0.16915968
10596.00   4.01968670   0.17597640
10598.00   3.83744335   0.16855788
10600.00   3.48244238   0.15187332
10602.00   3.38860965   0.14756444
10604.00   3.48743367   0.15301535
10606.00   3.48884130   0.15349290
10608.00   3.46002650   0.15259710
10610.00   3.44060183   0.15187278
10612.00   3.45541620   0.15186639
10614.00   3.47158241   0.15196316
10616.00   3.41544724   0.15119314
10618.00   3.26841831   0.14933881
10620.00   3.23209834   0.14889380
10622.00   3.26078773   0.14962329
10624.00   3.30744076   0.15000506
10626.00   3.39750099   0.15006559
10628.00   3.48267508   0.14984679
10630.00   3.47740602   0.14903927
10632.00   3.39185524   0.14750572
10634.00   3.41087937   0.14706615
10636.00   3.52941775   0.14774679
10638.00   3.57854509   0.14767176
10640.00   3.55915642   0.14675756
10642.00   3.52438974   0.14580379
10644.00   3.49421310   0.14526673
10646.00   3.45559335   0.14490835
10648.00   3.50441194   0.14522184
10650.00   3.69679379   0.14716886
10652.00   3.74316025   0.14705209
10654.00   3.63404274   0.14428076
10656.00   3.56686950   0.14255068
10658.00   3.63668060   0.14376962
10660.00   3.77168083   0.14648679
10662.00   3.85268712   0.14833355
10664.00   3.92468429   0.15164120
10666.00   3.98276329   0.15125254
10668.00   4.05998993   0.14706519
10670.00   4.06793594   0.14353590
10672.00   3.93529701   0.14133552
10674.00   3.77736783   0.13990131
10676.00   3.81603742   0.13974021
10678.00   4.02861834   0.14154822
10680.00   4.09332228   0.14099024
10682.00   4.09493446   0.13844654
10684.00   4.07984018   0.13675092
10686.00   4.03959322   0.13626203
10688.00   3.98526359   0.13586314
10690.00   3.92776513   0.13472246
10692.00   3.85381484   0.13333759
10694.00   3.84161401   0.13038868
10696.00   3.92864084   0.12493830
10698.00   3.91572499   0.12088961
10700.00   3.76492834   0.11790258
10702.00   3.65202403   0.11542115
10704.00   3.70456767   0.11319736
10706.00   3.85276008   0.11140090
10708.00   3.89464402   0.11027662
10710.00   3.91773820   0.11085673
10712.00   3.86580491   0.10953745
10714.00   3.69053817   0.10689574
10716.00   3.55922365   0.10370245
10718.00   3.54150462   0.09974659
10720.00   3.57327700   0.09533507
10722.00   3.55598474   0.09251074
10724.00   3.51284218   0.09112511
10726.00   3.49740243   0.08928999
10728.00   3.50000501   0.08691878
10730.00   3.50200272   0.08593192
10732.00   3.48668146   0.08737722
10734.00   3.48520541   0.08935770
10736.00   3.55133128   0.08929676
10738.00   3.68411350   0.08817896
10740.00   3.76087403   0.08651781
10742.00   3.85166574   0.08315326
10744.00   3.86178827   0.08090211
10746.00   3.74294448   0.07990566
10748.00   3.62616086   0.07937492
10750.00   3.62156367   0.07859965
10752.00   3.67668891   0.07778574
10754.00   3.80158305   0.07880606
10756.00   4.11539459   0.08186299
10758.00   4.22511292   0.08407121
10760.00   4.14471865   0.08677822
10762.00   4.04096937   0.08814035
10764.00   3.96385670   0.08674534
10766.00   3.89243031   0.08354736
10768.00   3.96954036   0.08201453
10770.00   4.29473782   0.07763322
10772.00   4.36098099   0.08154245
10774.00   4.24720621   0.09574457
10776.00   4.13128567   0.10314287
10778.00   4.04301977   0.10077505
10780.00   3.96209764   0.09330319
10782.00   3.92168760   0.08598938
10784.00   3.92916441   0.07323341
10786.00   3.89691210   0.06692868
10788.00   3.85098290   0.06762189
10790.00   3.79385781   0.06681132
10792.00   3.71823049   0.06370218
10794.00   3.63868570   0.06021067
10796.00   3.57262993   0.05757011
10798.00   3.50753474   0.05479679
10800.00   3.47957158   0.05575855
10802.00   3.44336629   0.06190991
10804.00   3.50336099   0.06431258
10806.00   3.70793843   0.06367029
10808.00   3.90885615   0.06206709
10810.00   4.00647020   0.06039523
10812.00   4.05142641   0.05809303
10814.00   4.01029587   0.05721895
10816.00   3.78155065   0.05441405
10818.00   3.73378968   0.05849133
10820.00   3.86813474   0.07130482
10822.00   3.95849919   0.07899536
10824.00   3.89047551   0.07801800
10826.00   3.75515532   0.07230696
10828.00   3.73021507   0.06748962
10830.00   3.82217932   0.05870385
